timestamps,TP9,AF7,AF8,TP10
1741606162.904,252.441,412.598,-59.57,-1000.0
1741606162.908,-56.152,-221.191,-23.926,-807.129
1741606162.91,382.324,263.672,19.043,510.254
1741606162.914,-349.609,-322.266,-51.758,999.512
1741606162.918,225.098,38.574,-65.43,944.336
1741606162.922,-447.754,-423.828,-62.012,-508.301
1741606162.926,378.906,162.598,-8.301,-807.129
1741606162.93,811.523,999.512,53.711,862.305
1741606162.934,-847.656,-866.699,-46.875,954.59
1741606162.937,60.547,-641.602,-78.125,975.098
1741606162.941,-71.289,370.605,-36.621,786.621
1741606162.945,-634.277,-751.465,-33.203,-809.082
1741606162.949,827.637,536.133,21.973,125.0
1741606162.953,-318.359,79.102,-16.602,999.512
1741606162.91,382.324,263.672,19.043,510.254
1741606162.914,-349.609,-322.266,-51.758,999.512
1741606162.918,225.098,38.574,-65.43,944.336
1741606162.922,-447.754,-423.828,-62.012,-508.301
1741606162.926,378.906,162.598,-8.301,-807.129
1741606162.93,811.523,999.512,53.711,862.305
1741606162.934,-847.656,-866.699,-46.875,954.59
1741606162.937,60.547,-641.602,-78.125,975.098
1741606162.941,-71.289,370.605,-36.621,786.621
1741606162.945,-634.277,-751.465,-33.203,-809.082
1741606162.949,827.637,536.133,21.973,125.0
1741606162.953,-318.359,79.102,-16.602,999.512
1741606162.956,-1000.0,-1000.0,-77.148,-693.848
1741606162.96,707.52,627.93,-53.711,-700.684
1741606162.964,469.238,772.949,-39.062,894.043
1741606162.968,-109.863,-316.406,-13.672,999.512
1741606162.972,85.449,201.172,-14.16,834.473
1741606162.976,116.699,231.445,-31.738,999.512
1741606162.98,-433.105,-105.469,-49.316,755.859
1741606162.983,-667.969,-787.109,-62.012,-541.504
1741606162.987,666.504,585.449,-5.371,463.867
1741606162.991,-349.609,-196.777,-33.203,999.512
1741606162.995,176.27,-148.438,-78.125,999.512
1741606162.999,-468.262,-381.348,-85.449,446.289
1741606163.0,-467.285,-915.039,-52.246,-747.559
1741606163.004,803.711,793.945,15.625,534.668
1741606163.008,-561.523,-563.477,-4.883,999.512
1741606163.012,14.16,-582.52,-59.57,879.395
1741606163.016,-21.484,370.605,-67.871,983.398
1741606163.02,152.832,314.941,-9.277,979.004
1741606163.024,139.16,469.727,20.996,921.387
1741606163.027,-155.762,-224.609,-27.344,981.445
1741606163.031,-202.148,97.168,-62.5,999.512
1741606163.035,-1000.0,-937.988,-92.773,-540.527
1741606163.039,616.699,381.836,-52.246,-556.641
1741606163.043,412.109,847.656,-10.742,941.406
1741606163.046,-312.5,-528.809,-45.898,984.375
1741606163.05,117.676,406.738,-80.566,967.285
1741606163.054,-943.848,-602.539,-87.891,-323.242
1741606163.058,-150.879,-929.199,-97.656,-1000.0
1741606163.062,999.512,924.316,-33.691,326.66
1741606163.066,75.195,885.254,-6.836,999.512
1741606163.07,-1000.0,-927.246,-76.172,-245.605
1741606163.073,-83.984,-685.059,-109.863,-1000.0
1741606163.077,90.82,298.34,-100.586,-1000.0
1741606163.081,21.973,-294.922,-36.621,-873.047
1741606163.085,668.457,595.215,-2.441,615.234
1741606163.089,-682.617,-606.934,-82.031,-180.664
1741606163.046,-312.5,-528.809,-45.898,984.375
1741606163.05,117.676,406.738,-80.566,967.285
1741606163.054,-943.848,-602.539,-87.891,-323.242
1741606163.058,-150.879,-929.199,-97.656,-1000.0
1741606163.062,999.512,924.316,-33.691,326.66
1741606163.066,75.195,885.254,-6.836,999.512
1741606163.07,-1000.0,-927.246,-76.172,-245.605
1741606163.073,-83.984,-685.059,-109.863,-1000.0
1741606163.077,90.82,298.34,-100.586,-1000.0
1741606163.081,21.973,-294.922,-36.621,-873.047
1741606163.085,668.457,595.215,-2.441,615.234
1741606163.089,-682.617,-606.934,-82.031,-180.664
1741606163.09,-26.855,-381.348,-103.516,-1000.0
1741606163.094,-205.078,195.801,-82.52,-1000.0
1741606163.098,240.723,-14.16,-29.785,-856.445
1741606163.102,833.984,828.613,10.254,643.555
1741606163.106,-639.648,-599.609,-37.598,-177.734
1741606163.11,206.055,352.051,-42.969,-1000.0
1741606163.114,-406.738,-2.441,-64.941,-969.238
1741606163.117,207.52,-294.434,-34.668,-999.512
1741606163.121,988.281,939.941,6.348,339.355
1741606163.125,-579.59,-628.906,-86.426,-218.75
1741606163.129,-60.547,-401.855,-81.543,-1000.0
1741606163.133,-183.594,-289.551,-51.27,-926.27
1741606163.135,244.141,375.977,-37.598,-1000.0
1741606163.139,-147.461,12.695,-12.695,-1000.0
1741606163.143,-38.086,-203.613,-46.875,-1000.0
1741606163.147,-240.234,-77.148,-80.078,-1000.0
1741606163.151,-82.031,-347.656,-69.336,-1000.0
1741606163.155,357.91,999.512,3.418,-1000.0
1741606163.159,-125.977,865.723,9.277,-1000.0
1741606163.162,-496.094,-721.68,-78.613,-1000.0
1741606163.166,202.148,-104.98,-92.773,-1000.0
1741606163.17,-291.504,-162.109,-82.031,-1000.0
1741606163.174,237.793,127.441,-40.039,-983.887
1741606163.178,-45.898,433.105,14.16,-1000.0
1741606163.135,244.141,375.977,-37.598,-1000.0
1741606163.139,-147.461,12.695,-12.695,-1000.0
1741606163.143,-38.086,-203.613,-46.875,-1000.0
1741606163.147,-240.234,-77.148,-80.078,-1000.0
1741606163.151,-82.031,-347.656,-69.336,-1000.0
1741606163.155,357.91,999.512,3.418,-1000.0
1741606163.159,-125.977,865.723,9.277,-1000.0
1741606163.162,-496.094,-721.68,-78.613,-1000.0
1741606163.166,202.148,-104.98,-92.773,-1000.0
1741606163.17,-291.504,-162.109,-82.031,-1000.0
1741606163.174,237.793,127.441,-40.039,-983.887
1741606163.178,-45.898,433.105,14.16,-1000.0
1741606163.195,-81.055,-540.527,-12.695,-974.609
1741606163.199,621.094,508.301,-61.523,-685.059
1741606163.203,-374.512,-406.25,-80.566,-848.633
1741606163.207,375.488,216.797,-40.527,-1000.0
1741606163.211,-175.781,71.777,-0.977,-1000.0
1741606163.215,333.008,492.188,-7.324,333.008
1741606163.219,-370.605,42.48,-82.52,578.613
1741606163.222,-632.812,-717.285,-112.793,-902.344
1741606163.226,-24.414,209.961,-51.758,-1000.0
1741606163.23,553.223,655.762,18.555,-480.469
1741606163.234,75.195,262.695,-36.621,615.723
1741606163.238,-660.645,-734.375,-117.188,-614.258
1741606163.195,-81.055,-540.527,-12.695,-974.609
1741606163.199,621.094,508.301,-61.523,-685.059
1741606163.203,-374.512,-406.25,-80.566,-848.633
1741606163.207,375.488,216.797,-40.527,-1000.0
1741606163.211,-175.781,71.777,-0.977,-1000.0
1741606163.215,333.008,492.188,-7.324,333.008
1741606163.219,-370.605,42.48,-82.52,578.613
1741606163.222,-632.812,-717.285,-112.793,-902.344
1741606163.226,-24.414,209.961,-51.758,-1000.0
1741606163.23,553.223,655.762,18.555,-480.469
1741606163.234,75.195,262.695,-36.621,615.723
1741606163.238,-660.645,-734.375,-117.188,-614.258
1741606163.24,207.031,297.852,-88.867,-1000.0
1741606163.244,-210.938,-201.172,-49.805,-908.203
1741606163.248,197.754,229.98,-3.418,-955.566
1741606163.252,-385.742,-352.051,-13.672,-1000.0
1741606163.256,629.883,442.383,-41.504,-160.645
1741606163.26,161.621,896.973,-45.41,838.867
1741606163.264,-942.871,-1000.0,-53.223,-735.84
1741606163.267,378.418,-848.633,-11.719,-1000.0
1741606163.271,795.898,746.094,22.949,664.062
1741606163.275,-667.48,-576.66,-51.27,150.391
1741606163.279,-81.055,-479.98,-63.965,-1000.0
1741606163.283,-131.836,477.051,-22.461,-1000.0
1741606163.24,207.031,297.852,-88.867,-1000.0
1741606163.244,-210.938,-201.172,-49.805,-908.203
1741606163.248,197.754,229.98,-3.418,-955.566
1741606163.252,-385.742,-352.051,-13.672,-1000.0
1741606163.256,629.883,442.383,-41.504,-160.645
1741606163.26,161.621,896.973,-45.41,838.867
1741606163.264,-942.871,-1000.0,-53.223,-735.84
1741606163.267,378.418,-848.633,-11.719,-1000.0
1741606163.271,795.898,746.094,22.949,664.062
1741606163.275,-667.48,-576.66,-51.27,150.391
1741606163.279,-81.055,-479.98,-63.965,-1000.0
1741606163.283,-131.836,477.051,-22.461,-1000.0
1741606163.286,-132.812,-438.477,-3.906,-915.527
1741606163.29,853.027,634.766,14.16,667.48
1741606163.294,-791.992,-598.633,-29.297,332.031
1741606163.298,-358.887,-730.957,-50.293,-999.023
1741606163.302,7.324,447.266,-31.738,-1000.0
1741606163.306,177.246,261.23,20.996,-708.008
1741606163.31,487.305,604.98,19.043,804.688
1741606163.313,-698.242,-482.422,-67.871,-12.695
1741606163.317,115.723,99.609,-69.824,-1000.0
1741606163.321,-333.984,-395.508,-69.336,-1000.0
1741606163.325,536.621,291.016,-25.391,-723.145
1741606163.329,806.641,999.512,12.207,808.594
1741606163.332,-972.656,-925.781,-75.684,84.473
1741606163.336,-62.012,-487.305,-93.75,-1000.0
1741606163.34,-40.039,703.613,-50.293,-979.492
1741606163.344,-458.984,-496.582,-57.129,-987.793
1741606163.348,855.957,602.051,-21.484,550.781
1741606163.352,-605.469,-86.914,-43.945,859.375
1741606163.356,-665.039,-913.574,-75.684,-737.305
1741606163.359,298.828,418.457,-66.895,-1000.0
1741606163.363,-260.742,-371.582,-53.711,-945.312
1741606163.367,697.754,497.559,0.0,530.273
1741606163.371,-545.41,-351.562,-40.527,791.016
1741606163.375,-649.902,-933.594,-101.562,-777.344
1741606163.332,-972.656,-925.781,-75.684,84.473
1741606163.336,-62.012,-487.305,-93.75,-1000.0
1741606163.34,-40.039,703.613,-50.293,-979.492
1741606163.344,-458.984,-496.582,-57.129,-987.793
1741606163.348,855.957,602.051,-21.484,550.781
1741606163.352,-605.469,-86.914,-43.945,859.375
1741606163.356,-665.039,-913.574,-75.684,-737.305
1741606163.359,298.828,418.457,-66.895,-1000.0
1741606163.363,-260.742,-371.582,-53.711,-945.312
1741606163.367,697.754,497.559,0.0,530.273
1741606163.371,-545.41,-351.562,-40.527,791.016
1741606163.375,-649.902,-933.594,-101.562,-777.344
1741606163.375,114.746,466.309,-63.477,-1000.0
1741606163.379,-324.707,-317.383,-8.301,-846.191
1741606163.383,552.734,405.762,58.594,527.832
1741606163.387,-359.863,-402.832,-3.418,999.512
1741606163.391,197.266,101.074,-61.523,999.512
1741606163.395,-338.379,313.477,-34.18,481.934
1741606163.399,-341.309,-653.809,-33.691,-937.012
1741606163.402,453.613,891.602,-5.371,-961.914
1741606163.406,-849.121,-501.953,-28.32,-1000.0
1741606163.41,291.504,-457.52,-65.43,-786.621
1741606163.414,592.773,769.531,-68.359,528.32
1741606163.418,-695.801,-636.23,-57.617,-547.852
1741606163.375,114.746,466.309,-63.477,-1000.0
1741606163.379,-324.707,-317.383,-8.301,-846.191
1741606163.383,552.734,405.762,58.594,527.832
1741606163.387,-359.863,-402.832,-3.418,999.512
1741606163.391,197.266,101.074,-61.523,999.512
1741606163.395,-338.379,313.477,-34.18,481.934
1741606163.399,-341.309,-653.809,-33.691,-937.012
1741606163.402,453.613,891.602,-5.371,-961.914
1741606163.406,-849.121,-501.953,-28.32,-1000.0
1741606163.41,291.504,-457.52,-65.43,-786.621
1741606163.414,592.773,769.531,-68.359,528.32
1741606163.418,-695.801,-636.23,-57.617,-547.852
1741606163.421,565.43,559.57,15.137,-90.82
1741606163.425,-63.965,217.773,7.324,999.512
1741606163.429,-208.496,-452.637,-50.293,999.512
1741606163.433,-294.434,-229.004,-79.102,280.273
1741606163.437,-348.633,-691.895,-69.824,-1000.0
1741606163.441,865.234,875.0,15.137,-821.777
1741606163.445,464.355,982.422,32.715,703.125
1741606163.448,-755.859,-845.215,-62.012,-179.199
1741606163.452,42.969,-449.707,-58.594,-1000.0
1741606163.456,-62.012,189.453,-32.715,-1000.0
1741606163.46,331.055,181.152,-5.859,-507.324
1741606163.464,347.656,641.113,20.508,816.406
1741606163.421,565.43,559.57,15.137,-90.82
1741606163.425,-63.965,217.773,7.324,999.512
1741606163.429,-208.496,-452.637,-50.293,999.512
1741606163.433,-294.434,-229.004,-79.102,280.273
1741606163.437,-348.633,-691.895,-69.824,-1000.0
1741606163.441,865.234,875.0,15.137,-821.777
1741606163.445,464.355,982.422,32.715,703.125
1741606163.448,-755.859,-845.215,-62.012,-179.199
1741606163.452,42.969,-449.707,-58.594,-1000.0
1741606163.456,-62.012,189.453,-32.715,-1000.0
1741606163.46,331.055,181.152,-5.859,-507.324
1741606163.464,347.656,641.113,20.508,816.406
1741606163.465,-404.785,-412.109,-14.648,999.512
1741606163.469,161.621,262.695,-39.062,852.539
1741606163.473,-632.812,-468.75,-34.668,-683.594
1741606163.477,583.496,490.234,29.297,-270.508
1741606163.481,254.883,629.395,40.039,999.512
1741606163.485,-11.23,-66.406,7.324,999.512
1741606163.489,-72.754,421.875,-16.602,806.152
1741606163.492,-549.316,-562.988,-37.109,-695.801
1741606163.496,737.305,600.098,28.809,52.246
1741606163.5,-228.516,-302.246,51.758,999.512
1741606163.504,57.617,-557.617,2.93,998.535
1741606163.508,-203.125,-13.184,-30.273,705.078
1741606163.511,-588.867,-904.785,-12.207,-891.602
1741606163.515,999.512,812.988,36.621,-302.246
1741606163.519,181.641,570.801,35.645,973.145
1741606163.523,-83.008,-513.184,-23.926,999.512
1741606163.527,32.227,205.566,-55.664,856.934
1741606163.531,-577.637,-459.961,-39.551,-709.473
1741606163.535,608.887,413.086,-1.465,-449.707
1741606163.538,-8.301,-179.688,14.648,971.68
1741606163.542,181.641,80.566,5.859,999.512
1741606163.546,-444.336,-428.711,-42.969,33.203
1741606163.55,-220.215,-645.508,-43.945,-1000.0
1741606163.554,171.875,344.727,-13.184,-1000.0
1741606163.511,-588.867,-904.785,-12.207,-891.602
1741606163.515,999.512,812.988,36.621,-302.246
1741606163.519,181.641,570.801,35.645,973.145
1741606163.523,-83.008,-513.184,-23.926,999.512
1741606163.527,32.227,205.566,-55.664,856.934
1741606163.531,-577.637,-459.961,-39.551,-709.473
1741606163.535,608.887,413.086,-1.465,-449.707
1741606163.538,-8.301,-179.688,14.648,971.68
1741606163.542,181.641,80.566,5.859,999.512
1741606163.546,-444.336,-428.711,-42.969,33.203
1741606163.55,-220.215,-645.508,-43.945,-1000.0
1741606163.554,171.875,344.727,-13.184,-1000.0
1741606163.57,344.238,518.066,47.363,-35.156
1741606163.574,7.324,216.797,14.16,952.637
1741606163.578,-47.363,-418.457,-41.992,999.512
1741606163.582,-304.688,-152.344,-51.27,610.84
1741606163.586,-443.359,-708.984,-15.137,-665.527
1741606163.59,849.609,813.965,91.309,500.977
1741606163.594,-510.254,-164.551,9.277,999.512
1741606163.597,-4.395,-613.281,-62.5,996.582
1741606163.601,-81.543,335.449,-40.527,752.441
1741606163.605,-645.02,-753.418,-45.41,-731.445
1741606163.609,772.949,604.98,24.414,245.605
1741606163.613,-172.363,124.023,21.484,999.512
1741606163.57,344.238,518.066,47.363,-35.156
1741606163.574,7.324,216.797,14.16,952.637
1741606163.578,-47.363,-418.457,-41.992,999.512
1741606163.582,-304.688,-152.344,-51.27,610.84
1741606163.586,-443.359,-708.984,-15.137,-665.527
1741606163.59,849.609,813.965,91.309,500.977
1741606163.594,-510.254,-164.551,9.277,999.512
1741606163.597,-4.395,-613.281,-62.5,996.582
1741606163.601,-81.543,335.449,-40.527,752.441
1741606163.605,-645.02,-753.418,-45.41,-731.445
1741606163.609,772.949,604.98,24.414,245.605
1741606163.613,-172.363,124.023,21.484,999.512
1741606163.617,52.246,-197.266,-31.738,999.512
1741606163.621,-382.324,-165.039,-47.852,383.789
1741606163.625,-34.668,-245.117,9.766,-888.672
1741606163.629,920.41,857.422,64.941,405.273
1741606163.633,-356.445,-360.352,16.113,999.512
1741606163.637,271.973,363.281,-7.324,961.914
1741606163.641,-521.973,-350.586,-32.715,-94.727
1741606163.644,-319.336,-1000.0,-50.293,-1000.0
1741606163.648,999.512,823.73,16.113,-21.484
1741606163.652,27.344,589.355,23.926,999.512
1741606163.656,-1000.0,-1000.0,-53.223,-320.801
1741606163.66,190.43,-140.625,-69.824,-1000.0
1741606163.617,52.246,-197.266,-31.738,999.512
1741606163.621,-382.324,-165.039,-47.852,383.789
1741606163.625,-34.668,-245.117,9.766,-888.672
1741606163.629,920.41,857.422,64.941,405.273
1741606163.633,-356.445,-360.352,16.113,999.512
1741606163.637,271.973,363.281,-7.324,961.914
1741606163.641,-521.973,-350.586,-32.715,-94.727
1741606163.644,-319.336,-1000.0,-50.293,-1000.0
1741606163.648,999.512,823.73,16.113,-21.484
1741606163.652,27.344,589.355,23.926,999.512
1741606163.656,-1000.0,-1000.0,-53.223,-320.801
1741606163.66,190.43,-140.625,-69.824,-1000.0
1741606163.66,-96.68,501.953,-35.645,-1000.0
1741606163.664,92.285,-170.898,-3.906,-805.176
1741606163.668,668.945,750.0,-14.16,822.266
1741606163.672,-974.609,-754.883,-75.684,454.102
1741606163.676,-244.141,-512.695,-77.148,-930.176
1741606163.68,-83.984,582.031,-57.129,-1000.0
1741606163.684,-118.164,-287.109,-27.832,-850.098
1741606163.687,749.512,655.273,-33.691,694.824
1741606163.691,-796.875,-599.609,-130.371,179.199
1741606163.695,-237.793,-795.898,-149.414,-1000.0
1741606163.699,73.242,314.453,-135.742,-1000.0
1741606163.703,-80.078,-284.18,-101.074,-925.781
1741606163.66,-96.68,501.953,-35.645,-1000.0
1741606163.664,92.285,-170.898,-3.906,-805.176
1741606163.668,668.945,750.0,-14.16,822.266
1741606163.672,-974.609,-754.883,-75.684,454.102
1741606163.676,-244.141,-512.695,-77.148,-930.176
1741606163.68,-83.984,582.031,-57.129,-1000.0
1741606163.684,-118.164,-287.109,-27.832,-850.098
1741606163.687,749.512,655.273,-33.691,694.824
1741606163.691,-796.875,-599.609,-130.371,179.199
1741606163.695,-237.793,-795.898,-149.414,-1000.0
1741606163.699,73.242,314.453,-135.742,-1000.0
1741606163.703,-80.078,-284.18,-101.074,-925.781
1741606163.705,802.246,646.484,-21.484,586.426
1741606163.709,-593.75,-507.812,-64.453,38.086
1741606163.713,-320.801,-592.773,-118.652,-1000.0
1741606163.717,-254.883,-213.379,-125.0,-942.871
1741606163.721,162.109,-33.691,-94.727,-990.723
1741606163.725,243.164,999.512,-41.504,-1000.0
1741606163.729,-791.992,-173.34,-84.961,-1000.0
1741606163.732,-177.246,-478.516,-127.93,-1000.0
1741606163.736,-450.195,-243.652,-125.977,-1000.0
1741606163.74,-24.902,-347.656,-106.445,-1000.0
1741606163.744,-36.133,244.141,-71.289,-1000.0
1741606163.748,-344.238,-372.559,-99.609,-1000.0
1741606163.75,-159.18,165.527,-98.145,-1000.0
1741606163.754,-370.117,-289.551,-95.215,-1000.0
1741606163.758,26.367,102.539,-95.215,-1000.0
1741606163.762,-127.441,-80.566,-52.734,-1000.0
1741606163.766,-165.039,-16.113,-68.359,-1000.0
1741606163.77,-230.957,35.645,-94.727,-1000.0
1741606163.774,-523.438,-141.113,-111.328,-1000.0
1741606163.777,-258.789,-223.633,-112.305,-1000.0
1741606163.781,-168.945,158.203,-74.219,-1000.0
1741606163.785,-346.68,-424.805,-104.98,-1000.0
1741606163.789,-223.145,-51.27,-121.094,-1000.0
1741606163.793,-417.48,-425.293,-113.281,-1000.0
1741606163.795,-61.035,208.008,-80.078,-1000.0
1741606163.799,-266.113,-124.023,-47.852,-1000.0
1741606163.803,-196.289,-4.883,-53.223,-1000.0
1741606163.807,-364.746,-296.875,-92.285,-1000.0
1741606163.811,-115.723,4.395,-111.816,-1000.0
1741606163.815,62.012,296.875,-29.297,-1000.0
1741606163.819,-136.719,221.68,21.973,-1000.0
1741606163.822,-215.82,-454.59,-43.945,-1000.0
1741606163.826,23.926,121.094,-85.938,-1000.0
1741606163.83,-293.457,-126.465,-72.266,-1000.0
1741606163.834,-177.246,-3.418,-54.688,-1000.0
1741606163.838,118.652,-55.664,-30.273,-1000.0
1741606163.795,-61.035,208.008,-80.078,-1000.0
1741606163.799,-266.113,-124.023,-47.852,-1000.0
1741606163.803,-196.289,-4.883,-53.223,-1000.0
1741606163.807,-364.746,-296.875,-92.285,-1000.0
1741606163.811,-115.723,4.395,-111.816,-1000.0
1741606163.815,62.012,296.875,-29.297,-1000.0
1741606163.819,-136.719,221.68,21.973,-1000.0
1741606163.822,-215.82,-454.59,-43.945,-1000.0
1741606163.826,23.926,121.094,-85.938,-1000.0
1741606163.83,-293.457,-126.465,-72.266,-1000.0
1741606163.834,-177.246,-3.418,-54.688,-1000.0
1741606163.838,118.652,-55.664,-30.273,-1000.0
1741606163.842,117.676,636.719,5.859,-1000.0
1741606163.846,-708.496,-302.734,-49.805,-1000.0
1741606163.85,285.645,-72.266,-77.637,-940.43
1741606163.854,-319.336,-257.812,-55.176,-1000.0
1741606163.858,473.633,363.281,-9.277,-942.871
1741606163.862,999.512,999.512,42.969,719.238
1741606163.866,-899.902,-655.273,-20.02,812.988
1741606163.869,-483.398,-722.168,-60.059,-754.883
1741606163.873,693.848,658.203,6.836,360.352
1741606163.877,-220.215,-271.973,14.648,999.512
1741606163.881,158.691,145.02,4.395,887.207
1741606163.885,-269.531,-290.527,-14.648,902.832
1741606163.842,117.676,636.719,5.859,-1000.0
1741606163.846,-708.496,-302.734,-49.805,-1000.0
1741606163.85,285.645,-72.266,-77.637,-940.43
1741606163.854,-319.336,-257.812,-55.176,-1000.0
1741606163.858,473.633,363.281,-9.277,-942.871
1741606163.862,999.512,999.512,42.969,719.238
1741606163.866,-899.902,-655.273,-20.02,812.988
1741606163.869,-483.398,-722.168,-60.059,-754.883
1741606163.873,693.848,658.203,6.836,360.352
1741606163.877,-220.215,-271.973,14.648,999.512
1741606163.881,158.691,145.02,4.395,887.207
1741606163.885,-269.531,-290.527,-14.648,902.832
1741606163.9,274.902,220.703,-22.949,999.512
1741606163.904,-632.324,-500.488,-46.875,426.758
1741606163.908,-231.445,-511.23,12.695,-511.719
1741606163.912,541.016,791.992,57.617,734.375
1741606163.916,-373.535,-475.098,-22.949,999.512
1741606163.92,288.086,441.895,-27.344,890.137
1741606163.924,-478.516,-231.445,-8.301,983.887
1741606163.927,286.133,-102.539,-8.301,966.797
1741606163.931,107.422,212.891,11.719,967.285
1741606163.935,35.156,-143.555,-9.766,967.285
1741606163.939,-62.5,-26.367,-17.578,966.797
1741606163.943,83.984,70.801,-10.254,966.797
1741606163.9,274.902,220.703,-22.949,999.512
1741606163.904,-632.324,-500.488,-46.875,426.758
1741606163.908,-231.445,-511.23,12.695,-511.719
1741606163.912,541.016,791.992,57.617,734.375
1741606163.916,-373.535,-475.098,-22.949,999.512
1741606163.92,288.086,441.895,-27.344,890.137
1741606163.924,-478.516,-231.445,-8.301,983.887
1741606163.927,286.133,-102.539,-8.301,966.797
1741606163.931,107.422,212.891,11.719,967.285
1741606163.935,35.156,-143.555,-9.766,967.285
1741606163.939,-62.5,-26.367,-17.578,966.797
1741606163.943,83.984,70.801,-10.254,966.797
1741606163.945,-20.508,43.945,-14.16,967.285
1741606163.949,216.309,245.117,17.09,967.285
1741606163.953,-250.0,-311.035,-21.484,966.797
1741606163.957,32.227,-473.145,-65.918,967.285
1741606163.961,54.199,387.207,-31.738,966.797
1741606163.965,303.223,588.867,28.32,966.797
1741606163.969,-7.812,266.113,31.25,966.797
1741606163.972,-105.957,-455.078,-5.859,966.797
1741606163.976,106.445,195.312,-7.812,966.797
1741606163.98,-110.352,-379.395,-48.34,966.797
1741606163.984,218.75,211.914,-46.387,966.797
1741606163.988,20.02,-65.43,-13.184,966.797
1741606163.945,-20.508,43.945,-14.16,967.285
1741606163.949,216.309,245.117,17.09,967.285
1741606163.953,-250.0,-311.035,-21.484,966.797
1741606163.957,32.227,-473.145,-65.918,967.285
1741606163.961,54.199,387.207,-31.738,966.797
1741606163.965,303.223,588.867,28.32,966.797
1741606163.969,-7.812,266.113,31.25,966.797
1741606163.972,-105.957,-455.078,-5.859,966.797
1741606163.976,106.445,195.312,-7.812,966.797
1741606163.98,-110.352,-379.395,-48.34,966.797
1741606163.984,218.75,211.914,-46.387,966.797
1741606163.988,20.02,-65.43,-13.184,966.797
1741606164.02,183.105,212.402,-5.371,967.285
1741606164.024,-81.055,-140.137,-36.621,967.285
1741606164.028,15.137,100.586,-49.805,966.797
1741606164.032,38.086,-90.82,-24.414,966.797
1741606164.036,398.438,333.496,32.227,966.797
1741606164.04,-293.945,-121.582,37.109,966.797
1741606164.044,4.883,113.77,-25.879,966.797
1741606164.047,-41.016,-111.816,-67.871,967.285
1741606164.051,60.547,170.41,-41.016,966.797
1741606164.055,68.848,-188.477,-7.812,966.797
1741606164.059,346.191,302.734,2.93,966.797
1741606164.063,-332.52,-495.117,-21.973,967.285
1741606164.02,183.105,212.402,-5.371,967.285
1741606164.024,-81.055,-140.137,-36.621,967.285
1741606164.028,15.137,100.586,-49.805,966.797
1741606164.032,38.086,-90.82,-24.414,966.797
1741606164.036,398.438,333.496,32.227,966.797
1741606164.04,-293.945,-121.582,37.109,966.797
1741606164.044,4.883,113.77,-25.879,966.797
1741606164.047,-41.016,-111.816,-67.871,967.285
1741606164.051,60.547,170.41,-41.016,966.797
1741606164.055,68.848,-188.477,-7.812,966.797
1741606164.059,346.191,302.734,2.93,966.797
1741606164.063,-332.52,-495.117,-21.973,967.285
1741606164.067,520.02,284.668,31.738,967.285
1741606164.071,-276.855,762.695,-10.742,966.797
1741606164.075,-346.191,-424.316,-68.359,966.797
1741606164.079,-33.691,-143.066,-75.684,966.797
1741606164.083,196.289,-206.543,-76.172,966.797
1741606164.087,425.293,812.988,-25.879,983.887
1741606164.091,-844.727,-626.953,-49.316,890.625
1741606164.094,270.996,-664.062,-84.961,999.512
1741606164.098,-46.387,307.129,-88.867,778.32
1741606164.102,-561.035,-544.922,-44.922,-516.113
1741606164.106,523.438,289.062,21.973,439.941
1741606164.11,-249.512,-248.047,-16.113,999.512
1741606164.067,520.02,284.668,31.738,967.285
1741606164.071,-276.855,762.695,-10.742,966.797
1741606164.075,-346.191,-424.316,-68.359,966.797
1741606164.079,-33.691,-143.066,-75.684,966.797
1741606164.083,196.289,-206.543,-76.172,966.797
1741606164.087,425.293,812.988,-25.879,983.887
1741606164.091,-844.727,-626.953,-49.316,890.625
1741606164.094,270.996,-664.062,-84.961,999.512
1741606164.098,-46.387,307.129,-88.867,778.32
1741606164.102,-561.035,-544.922,-44.922,-516.113
1741606164.106,523.438,289.062,21.973,439.941
1741606164.11,-249.512,-248.047,-16.113,999.512
1741606164.111,255.859,335.938,-32.715,999.512
1741606164.115,-625.488,-538.574,-60.059,0.977
1741606164.119,87.402,-447.266,-58.594,-821.289
1741606164.123,767.578,813.477,-5.859,665.527
1741606164.127,-400.391,-360.352,-5.859,999.512
1741606164.131,70.312,418.457,-34.668,933.105
1741606164.135,-775.391,-597.168,-79.102,-483.398
1741606164.138,294.434,-444.824,-48.828,-959.473
1741606164.142,798.34,835.449,27.344,660.645
1741606164.146,-475.098,-485.84,-27.344,999.512
1741606164.15,333.008,148.438,-84.473,969.727
1741606164.154,-456.543,-385.742,-82.031,-410.645
1741606164.156,450.684,330.078,-7.324,-963.379
1741606164.16,834.961,978.516,16.113,648.438
1741606164.164,-441.406,-587.402,-46.875,999.512
1741606164.168,357.91,289.551,-79.102,905.273
1741606164.172,-440.43,-435.547,-71.289,-371.582
1741606164.176,307.617,216.309,-17.578,-1000.0
1741606164.18,64.941,682.617,15.625,-1000.0
1741606164.183,-134.277,-483.398,-18.555,-846.68
1741606164.187,619.141,521.484,-67.871,513.672
1741606164.191,-586.426,-513.672,-101.562,-354.004
1741606164.195,155.762,-193.848,-80.566,-1000.0
1741606164.199,-97.168,-75.195,-31.25,-970.703
1741606164.156,450.684,330.078,-7.324,-963.379
1741606164.16,834.961,978.516,16.113,648.438
1741606164.164,-441.406,-587.402,-46.875,999.512
1741606164.168,357.91,289.551,-79.102,905.273
1741606164.172,-440.43,-435.547,-71.289,-371.582
1741606164.176,307.617,216.309,-17.578,-1000.0
1741606164.18,64.941,682.617,15.625,-1000.0
1741606164.183,-134.277,-483.398,-18.555,-846.68
1741606164.187,619.141,521.484,-67.871,513.672
1741606164.191,-586.426,-513.672,-101.562,-354.004
1741606164.195,155.762,-193.848,-80.566,-1000.0
1741606164.199,-97.168,-75.195,-31.25,-970.703
1741606164.2,361.328,414.551,-11.23,439.941
1741606164.204,-481.934,-296.387,-63.477,816.895
1741606164.208,-704.102,-928.711,-78.613,-756.836
1741606164.212,211.426,428.711,-53.223,-1000.0
1741606164.216,-116.211,-354.004,-26.855,-887.207
1741606164.22,658.691,496.582,6.836,629.395
1741606164.224,-730.957,-373.535,-51.758,841.309
1741606164.227,-665.527,-956.055,-105.957,-721.191
1741606164.231,179.688,271.484,-65.918,-1000.0
1741606164.235,-8.789,-62.5,5.859,-812.988
1741606164.239,330.078,380.371,-20.996,655.762
1741606164.243,-555.176,-372.559,-61.035,53.223
1741606164.2,361.328,414.551,-11.23,439.941
1741606164.204,-481.934,-296.387,-63.477,816.895
1741606164.208,-704.102,-928.711,-78.613,-756.836
1741606164.212,211.426,428.711,-53.223,-1000.0
1741606164.216,-116.211,-354.004,-26.855,-887.207
1741606164.22,658.691,496.582,6.836,629.395
1741606164.224,-730.957,-373.535,-51.758,841.309
1741606164.227,-665.527,-956.055,-105.957,-721.191
1741606164.231,179.688,271.484,-65.918,-1000.0
1741606164.235,-8.789,-62.5,5.859,-812.988
1741606164.239,330.078,380.371,-20.996,655.762
1741606164.243,-555.176,-372.559,-61.035,53.223
1741606164.245,23.926,22.461,-17.09,-1000.0
1741606164.249,-201.66,-286.133,-50.293,-1000.0
1741606164.253,485.84,484.863,-20.02,-165.039
1741606164.257,-45.898,-46.875,-4.883,929.199
1741606164.261,54.688,-300.293,-41.504,999.512
1741606164.265,32.715,994.629,-19.531,844.727
1741606164.269,-1000.0,-776.855,-62.988,-611.816
1741606164.272,307.617,-852.051,-54.199,-1000.0
1741606164.276,999.512,938.965,20.02,476.562
1741606164.28,-668.945,-391.113,-11.719,582.52
1741606164.284,-435.059,-943.848,-54.688,-947.266
1741606164.288,291.992,579.102,-43.457,-998.535
1741606164.305,-627.93,-416.992,-21.973,-1000.0
1741606164.309,626.465,453.125,-2.93,154.297
1741606164.313,-327.637,48.34,-45.898,831.055
1741606164.317,-587.891,-846.191,-67.871,-704.102
1741606164.321,135.742,389.16,-40.039,-1000.0
1741606164.325,-236.328,-193.848,7.812,-862.305
1741606164.329,625.0,538.574,44.434,649.414
1741606164.332,-664.551,-624.023,-29.297,357.91
1741606164.336,-291.504,-605.469,-67.871,-995.117
1741606164.34,-94.727,406.25,-57.129,-1000.0
1741606164.344,-44.922,-338.867,-21.484,-908.203
1741606164.348,999.512,875.0,41.016,647.461
1741606164.305,-627.93,-416.992,-21.973,-1000.0
1741606164.309,626.465,453.125,-2.93,154.297
1741606164.313,-327.637,48.34,-45.898,831.055
1741606164.317,-587.891,-846.191,-67.871,-704.102
1741606164.321,135.742,389.16,-40.039,-1000.0
1741606164.325,-236.328,-193.848,7.812,-862.305
1741606164.329,625.0,538.574,44.434,649.414
1741606164.332,-664.551,-624.023,-29.297,357.91
1741606164.336,-291.504,-605.469,-67.871,-995.117
1741606164.34,-94.727,406.25,-57.129,-1000.0
1741606164.344,-44.922,-338.867,-21.484,-908.203
1741606164.348,999.512,875.0,41.016,647.461
1741606164.352,-684.57,-282.227,-5.371,842.773
1741606164.356,-684.57,-971.191,-69.824,-752.93
1741606164.36,428.711,497.07,-30.762,-1000.0
1741606164.364,-439.453,-439.941,-33.203,-994.629
1741606164.368,586.914,450.684,20.508,354.492
1741606164.372,48.828,917.969,16.602,999.512
1741606164.376,-1000.0,-1000.0,-82.031,-612.305
1741606164.379,146.973,-783.203,-80.078,-1000.0
1741606164.383,354.98,421.387,-32.715,-1000.0
1741606164.387,-318.359,-298.34,-6.348,-910.645
1741606164.391,454.102,302.734,-3.906,602.539
1741606164.395,-477.051,-480.957,-45.41,-144.531
1741606164.352,-684.57,-282.227,-5.371,842.773
1741606164.356,-684.57,-971.191,-69.824,-752.93
1741606164.36,428.711,497.07,-30.762,-1000.0
1741606164.364,-439.453,-439.941,-33.203,-994.629
1741606164.368,586.914,450.684,20.508,354.492
1741606164.372,48.828,917.969,16.602,999.512
1741606164.376,-1000.0,-1000.0,-82.031,-612.305
1741606164.379,146.973,-783.203,-80.078,-1000.0
1741606164.383,354.98,421.387,-32.715,-1000.0
1741606164.387,-318.359,-298.34,-6.348,-910.645
1741606164.391,454.102,302.734,-3.906,602.539
1741606164.395,-477.051,-480.957,-45.41,-144.531
1741606164.395,-12.695,-54.688,-70.312,-1000.0
1741606164.399,-240.234,7.324,-47.852,-1000.0
1741606164.403,396.484,167.969,15.625,-489.258
1741606164.407,235.352,709.473,-14.648,864.746
1741606164.411,-886.23,-736.328,-54.688,-390.625
1741606164.415,351.074,418.457,-35.156,-1000.0
1741606164.419,-429.199,-422.363,-54.688,-966.309
1741606164.422,166.016,-822.754,-26.367,-975.586
1741606164.426,905.273,795.898,-1.465,614.746
1741606164.43,-708.008,-548.828,-64.453,260.742
1741606164.434,-340.82,-932.617,-85.449,-1000.0
1741606164.438,345.703,998.535,-51.27,-932.617
1741606164.395,-12.695,-54.688,-70.312,-1000.0
1741606164.399,-240.234,7.324,-47.852,-1000.0
1741606164.403,396.484,167.969,15.625,-489.258
1741606164.407,235.352,709.473,-14.648,864.746
1741606164.411,-886.23,-736.328,-54.688,-390.625
1741606164.415,351.074,418.457,-35.156,-1000.0
1741606164.419,-429.199,-422.363,-54.688,-966.309
1741606164.422,166.016,-822.754,-26.367,-975.586
1741606164.426,905.273,795.898,-1.465,614.746
1741606164.43,-708.008,-548.828,-64.453,260.742
1741606164.434,-340.82,-932.617,-85.449,-1000.0
1741606164.438,345.703,998.535,-51.27,-932.617
1741606164.44,-219.727,739.746,2.93,-995.605
1741606164.444,-206.055,-601.562,-7.812,-1000.0
1741606164.448,645.996,511.719,-61.035,381.836
1741606164.452,-499.023,-390.625,-96.68,94.727
1741606164.456,-267.578,-858.398,-72.266,-1000.0
1741606164.46,499.023,996.094,-6.836,-958.984
1741606164.464,-271.484,586.914,-2.441,-986.816
1741606164.467,-426.758,-866.211,-41.992,-1000.0
1741606164.471,-192.871,-1000.0,-82.031,-1000.0
1741606164.475,398.438,230.957,-63.965,-915.527
1741606164.479,-316.406,-54.199,-16.602,-1000.0
1741606164.483,338.379,-180.176,3.906,-515.625
1741606164.44,-219.727,739.746,2.93,-995.605
1741606164.444,-206.055,-601.562,-7.812,-1000.0
1741606164.448,645.996,511.719,-61.035,381.836
1741606164.452,-499.023,-390.625,-96.68,94.727
1741606164.456,-267.578,-858.398,-72.266,-1000.0
1741606164.46,499.023,996.094,-6.836,-958.984
1741606164.464,-271.484,586.914,-2.441,-986.816
1741606164.467,-426.758,-866.211,-41.992,-1000.0
1741606164.471,-192.871,-1000.0,-82.031,-1000.0
1741606164.475,398.438,230.957,-63.965,-915.527
1741606164.479,-316.406,-54.199,-16.602,-1000.0
1741606164.483,338.379,-180.176,3.906,-515.625
1741606164.486,291.504,714.355,14.648,810.059
1741606164.49,-894.531,-714.355,-8.789,-450.195
1741606164.494,360.352,302.734,0.488,-1000.0
1741606164.498,-295.898,-87.891,37.598,-1000.0
1741606164.502,424.316,112.793,61.035,-232.91
1741606164.506,381.348,999.512,63.477,905.273
1741606164.51,-1000.0,-968.262,13.672,-560.059
1741606164.513,174.805,-488.77,-17.09,-1000.0
1741606164.517,47.852,497.07,16.113,-1000.0
1741606164.521,40.527,-36.133,64.941,-726.562
1741606164.525,274.414,355.469,36.133,613.281
1741606164.529,-589.844,-391.113,-20.508,-429.199
1741606164.531,103.516,178.711,-14.648,-1000.0
1741606164.535,-187.988,-291.992,-8.789,-941.895
1741606164.539,616.699,407.715,47.852,471.68
1741606164.543,-542.969,-371.094,15.625,892.578
1741606164.547,-816.895,-1000.0,-26.855,-768.066
1741606164.551,255.859,662.109,-11.23,-1000.0
1741606164.555,-687.012,-571.777,-38.574,-1000.0
1741606164.558,540.039,-147.949,-26.367,-609.863
1741606164.562,460.449,931.152,-11.23,926.27
1741606164.566,-1000.0,-854.492,-69.824,-138.184
1741606164.57,162.598,-256.836,-56.641,-1000.0
1741606164.574,999.512,999.512,-16.113,336.426
1741606164.531,103.516,178.711,-14.648,-1000.0
1741606164.535,-187.988,-291.992,-8.789,-941.895
1741606164.539,616.699,407.715,47.852,471.68
1741606164.543,-542.969,-371.094,15.625,892.578
1741606164.547,-816.895,-1000.0,-26.855,-768.066
1741606164.551,255.859,662.109,-11.23,-1000.0
1741606164.555,-687.012,-571.777,-38.574,-1000.0
1741606164.558,540.039,-147.949,-26.367,-609.863
1741606164.562,460.449,931.152,-11.23,926.27
1741606164.566,-1000.0,-854.492,-69.824,-138.184
1741606164.57,162.598,-256.836,-56.641,-1000.0
1741606164.574,999.512,999.512,-16.113,336.426
1741606164.577,-52.734,734.375,19.043,999.512
1741606164.581,-624.023,-545.41,-20.508,925.781
1741606164.585,388.672,131.836,-55.664,954.59
1741606164.589,-439.941,-419.434,-84.473,-371.582
1741606164.593,111.816,-80.566,-46.387,-1000.0
1741606164.597,999.512,999.512,56.152,-185.059
1741606164.601,-179.199,244.629,28.32,903.809
1741606164.604,-247.07,-690.918,-59.57,999.512
1741606164.608,298.34,383.301,-62.5,890.137
1741606164.612,-725.098,-476.562,-70.801,-649.902
1741606164.616,466.797,205.566,-32.715,-375.977
1741606164.62,570.801,999.512,15.625,999.512
1741606164.637,-947.754,-386.719,-55.664,875.977
1741606164.641,-803.711,-999.512,-120.605,-741.699
1741606164.645,495.117,501.953,-64.941,-436.035
1741606164.649,-55.664,-166.504,-45.898,999.512
1741606164.653,154.297,146.973,-58.105,929.199
1741606164.657,-137.207,264.648,-47.852,913.574
1741606164.661,107.91,216.797,-28.32,999.512
1741606164.664,-489.258,-590.332,-66.406,-402.344
1741606164.668,319.336,-162.109,-34.668,-812.988
1741606164.672,638.672,822.754,28.32,782.227
1741606164.676,-350.586,-458.496,-14.16,999.512
1741606164.68,340.82,318.848,-35.156,926.27
1741606164.637,-947.754,-386.719,-55.664,875.977
1741606164.641,-803.711,-999.512,-120.605,-741.699
1741606164.645,495.117,501.953,-64.941,-436.035
1741606164.649,-55.664,-166.504,-45.898,999.512
1741606164.653,154.297,146.973,-58.105,929.199
1741606164.657,-137.207,264.648,-47.852,913.574
1741606164.661,107.91,216.797,-28.32,999.512
1741606164.664,-489.258,-590.332,-66.406,-402.344
1741606164.668,319.336,-162.109,-34.668,-812.988
1741606164.672,638.672,822.754,28.32,782.227
1741606164.676,-350.586,-458.496,-14.16,999.512
1741606164.68,340.82,318.848,-35.156,926.27
1741606164.681,-589.844,-449.707,-20.996,-518.555
1741606164.685,491.699,416.504,41.992,-259.277
1741606164.689,256.348,750.977,49.316,999.512
1741606164.693,-309.57,-519.043,-12.207,984.375
1741606164.697,130.371,351.562,-21.484,913.574
1741606164.701,-727.539,-495.117,-20.02,-659.18
1741606164.705,482.422,421.387,8.301,-419.434
1741606164.708,9.766,-55.664,-12.695,971.191
1741606164.712,187.5,-262.207,-49.805,999.512
1741606164.716,-127.93,677.246,-39.551,869.141
1741606164.72,-1000.0,-1000.0,-68.359,-681.152
1741606164.724,734.863,-21.973,-22.461,-914.551
1741606164.725,593.262,862.305,16.113,679.688
1741606164.729,-387.695,-599.121,-50.781,999.512
1741606164.733,404.785,156.738,-85.938,849.121
1741606164.737,-375.488,-389.16,-100.586,-392.09
1741606164.741,135.254,-54.199,-51.27,-1000.0
1741606164.745,565.43,999.512,14.16,-876.953
1741606164.749,331.543,678.711,-52.734,380.859
1741606164.752,-275.879,-440.43,-120.117,-271.973
1741606164.756,74.707,108.398,-95.215,-1000.0
1741606164.76,-129.883,-245.117,-80.566,-968.262
1741606164.764,371.582,322.266,-37.109,137.207
1741606164.768,-179.199,-283.203,-35.156,999.512
1741606164.725,593.262,862.305,16.113,679.688
1741606164.729,-387.695,-599.121,-50.781,999.512
1741606164.733,404.785,156.738,-85.938,849.121
1741606164.737,-375.488,-389.16,-100.586,-392.09
1741606164.741,135.254,-54.199,-51.27,-1000.0
1741606164.745,565.43,999.512,14.16,-876.953
1741606164.749,331.543,678.711,-52.734,380.859
1741606164.752,-275.879,-440.43,-120.117,-271.973
1741606164.756,74.707,108.398,-95.215,-1000.0
1741606164.76,-129.883,-245.117,-80.566,-968.262
1741606164.764,371.582,322.266,-37.109,137.207
1741606164.768,-179.199,-283.203,-35.156,999.512
1741606164.77,105.469,-13.672,-60.547,999.512
1741606164.774,-381.836,-283.691,-80.566,-65.43
1741606164.778,-84.961,-614.746,-62.5,-1000.0
1741606164.782,211.426,569.336,-30.273,-1000.0
1741606164.786,-319.824,-493.652,-49.316,-977.051
1741606164.79,787.109,516.602,-47.363,574.707
1741606164.794,-576.66,-298.34,-51.758,392.578
1741606164.797,-566.895,-1000.0,-71.777,-1000.0
1741606164.801,999.512,835.449,-19.531,-661.621
1741606164.805,399.902,858.887,-9.766,753.418
1741606164.809,-951.66,-1000.0,-69.824,-330.566
1741606164.813,75.195,-375.488,-93.262,-1000.0
1741606164.816,-90.332,354.004,-67.871,-1000.0
1741606164.82,135.254,-341.797,-22.461,-859.863
1741606164.824,741.699,705.566,0.977,645.02
1741606164.828,-841.797,-686.523,-62.012,-173.34
1741606164.832,149.414,-330.078,-72.754,-1000.0
1741606164.836,16.602,798.828,-33.691,-935.547
1741606164.84,-447.266,-471.191,-41.016,-1000.0
1741606164.843,855.957,607.422,-44.434,438.477
1741606164.847,-552.246,-320.312,-68.359,347.656
1741606164.851,-324.219,-895.02,-81.055,-1000.0
1741606164.855,181.152,373.047,-67.383,-959.961
1741606164.859,-133.789,-291.504,-34.18,-1000.0
1741606164.816,-90.332,354.004,-67.871,-1000.0
1741606164.82,135.254,-341.797,-22.461,-859.863
1741606164.824,741.699,705.566,0.977,645.02
1741606164.828,-841.797,-686.523,-62.012,-173.34
1741606164.832,149.414,-330.078,-72.754,-1000.0
1741606164.836,16.602,798.828,-33.691,-935.547
1741606164.84,-447.266,-471.191,-41.016,-1000.0
1741606164.843,855.957,607.422,-44.434,438.477
1741606164.847,-552.246,-320.312,-68.359,347.656
1741606164.851,-324.219,-895.02,-81.055,-1000.0
1741606164.855,181.152,373.047,-67.383,-959.961
1741606164.859,-133.789,-291.504,-34.18,-1000.0
1741606164.86,928.711,758.301,5.371,62.012
1741606164.864,-493.652,-268.555,-73.242,331.055
1741606164.868,-296.387,-863.281,-102.051,-969.238
1741606164.872,172.363,430.176,-68.848,-1000.0
1741606164.876,-188.965,-290.039,-28.32,-953.125
1741606164.88,854.98,665.527,32.227,598.145
1741606164.884,-648.926,-344.727,-45.898,625.977
1741606164.887,-508.301,-938.965,-101.562,-906.738
1741606164.891,268.066,426.27,-54.199,-1000.0
1741606164.895,-233.398,-376.953,-34.18,-946.289
1741606164.899,693.848,470.703,2.441,536.133
1741606164.903,-603.516,-235.84,-11.719,910.156
1741606164.906,-875.0,-1000.0,-63.477,-682.617
1741606164.91,399.414,284.18,-76.66,-1000.0
1741606164.914,-303.711,-264.16,-61.035,-928.711
1741606164.918,438.965,409.668,-15.137,529.785
1741606164.922,-524.902,-422.363,-27.344,938.477
1741606164.926,-847.656,-961.914,-38.086,-713.379
1741606164.93,191.406,448.242,-45.41,-1000.0
1741606164.933,-355.957,-498.535,-68.848,-1000.0
1741606164.937,795.898,581.543,0.977,-171.387
1741606164.941,-178.223,268.066,-4.883,669.922
1741606164.945,-685.059,-947.754,-56.641,-784.668
1741606164.949,422.363,340.82,-68.848,-1000.0
1741606164.906,-875.0,-1000.0,-63.477,-682.617
1741606164.91,399.414,284.18,-76.66,-1000.0
1741606164.914,-303.711,-264.16,-61.035,-928.711
1741606164.918,438.965,409.668,-15.137,529.785
1741606164.922,-524.902,-422.363,-27.344,938.477
1741606164.926,-847.656,-961.914,-38.086,-713.379
1741606164.93,191.406,448.242,-45.41,-1000.0
1741606164.933,-355.957,-498.535,-68.848,-1000.0
1741606164.937,795.898,581.543,0.977,-171.387
1741606164.941,-178.223,268.066,-4.883,669.922
1741606164.945,-685.059,-947.754,-56.641,-784.668
1741606164.949,422.363,340.82,-68.848,-1000.0
1741606164.95,-335.938,-295.41,-41.992,-925.781
1741606164.954,279.297,396.973,2.93,-1000.0
1741606164.958,-425.293,-366.699,-25.391,-1000.0
1741606164.962,-112.793,-604.004,-56.641,-1000.0
1741606164.966,-45.41,360.84,-27.832,-1000.0
1741606164.97,116.211,156.738,16.602,-1000.0
1741606164.974,291.016,987.305,31.25,-932.129
1741606164.977,-900.391,-614.746,-23.926,-1000.0
1741606164.981,324.219,-602.051,-57.129,-891.602
1741606164.985,784.18,876.465,-47.363,680.664
1741606164.989,-789.551,-746.582,-70.312,-288.086
1741606164.993,447.266,1.465,4.395,-729.98
1741606164.996,366.211,732.91,35.156,882.812
1741606165.0,-363.281,-569.824,-68.359,999.512
1741606165.004,195.801,264.16,-99.609,833.008
1741606165.008,-661.621,-456.543,-90.332,-669.922
1741606165.012,656.738,431.152,-25.391,-132.324
1741606165.016,317.383,999.512,13.184,999.512
1741606165.02,-680.664,-647.461,-57.617,984.863
1741606165.023,-240.723,-1000.0,-112.793,871.094
1741606165.027,-674.316,-934.57,-92.773,-715.332
1741606165.031,647.461,681.641,-38.086,-293.457
1741606165.035,188.965,576.172,-38.574,999.512
1741606165.039,-316.406,-590.82,-80.078,997.559
1741606164.996,366.211,732.91,35.156,882.812
1741606165.0,-363.281,-569.824,-68.359,999.512
1741606165.004,195.801,264.16,-99.609,833.008
1741606165.008,-661.621,-456.543,-90.332,-669.922
1741606165.012,656.738,431.152,-25.391,-132.324
1741606165.016,317.383,999.512,13.184,999.512
1741606165.02,-680.664,-647.461,-57.617,984.863
1741606165.023,-240.723,-1000.0,-112.793,871.094
1741606165.027,-674.316,-934.57,-92.773,-715.332
1741606165.031,647.461,681.641,-38.086,-293.457
1741606165.035,188.965,576.172,-38.574,999.512
1741606165.039,-316.406,-590.82,-80.078,997.559
1741606165.056,114.258,371.094,-73.73,880.859
1741606165.06,-793.457,-569.824,-66.406,-702.148
1741606165.064,658.691,447.266,-33.691,-398.926
1741606165.068,283.691,851.074,-8.789,995.605
1741606165.072,-314.453,-526.367,-34.18,958.008
1741606165.076,442.871,497.07,-49.316,984.375
1741606165.08,-777.344,-613.281,-66.406,-471.191
1741606165.083,349.121,-458.008,-39.551,-955.566
1741606165.087,763.184,786.133,9.277,669.434
1741606165.091,-442.383,-415.527,3.418,999.512
1741606165.095,339.844,280.762,-20.508,987.305
1741606165.099,-533.203,-476.074,-39.551,-403.32
1741606165.056,114.258,371.094,-73.73,880.859
1741606165.06,-793.457,-569.824,-66.406,-702.148
1741606165.064,658.691,447.266,-33.691,-398.926
1741606165.068,283.691,851.074,-8.789,995.605
1741606165.072,-314.453,-526.367,-34.18,958.008
1741606165.076,442.871,497.07,-49.316,984.375
1741606165.08,-777.344,-613.281,-66.406,-471.191
1741606165.083,349.121,-458.008,-39.551,-955.566
1741606165.087,763.184,786.133,9.277,669.434
1741606165.091,-442.383,-415.527,3.418,999.512
1741606165.095,339.844,280.762,-20.508,987.305
1741606165.099,-533.203,-476.074,-39.551,-403.32
1741606165.1,416.016,246.582,-13.184,-630.859
1741606165.104,576.66,931.641,3.418,889.16
1741606165.108,-372.07,-484.863,-27.344,999.512
1741606165.112,321.289,307.129,-58.594,941.895
1741606165.116,-554.688,-401.855,-60.059,-453.613
1741606165.12,488.77,527.832,17.578,-84.473
1741606165.124,108.398,465.82,37.109,999.512
1741606165.127,-116.699,-617.188,-34.668,990.723
1741606165.131,9.277,166.016,-63.477,876.465
1741606165.135,-753.418,-555.664,-58.105,-664.062
1741606165.139,501.465,395.508,-32.715,-80.078
1741606165.143,-88.867,-139.16,-18.555,999.512
1741606165.1,416.016,246.582,-13.184,-630.859
1741606165.104,576.66,931.641,3.418,889.16
1741606165.108,-372.07,-484.863,-27.344,999.512
1741606165.112,321.289,307.129,-58.594,941.895
1741606165.116,-554.688,-401.855,-60.059,-453.613
1741606165.12,488.77,527.832,17.578,-84.473
1741606165.124,108.398,465.82,37.109,999.512
1741606165.127,-116.699,-617.188,-34.668,990.723
1741606165.131,9.277,166.016,-63.477,876.465
1741606165.135,-753.418,-555.664,-58.105,-664.062
1741606165.139,501.465,395.508,-32.715,-80.078
1741606165.143,-88.867,-139.16,-18.555,999.512
1741606165.145,293.457,339.355,-6.348,999.512
1741606165.149,-495.605,-51.758,-54.688,755.371
1741606165.153,-901.367,-1000.0,-79.59,-809.082
1741606165.157,887.695,806.641,-16.602,-231.445
1741606165.161,180.176,482.422,4.395,999.512
1741606165.165,-1.953,-104.492,-21.973,986.816
1741606165.169,-262.695,285.156,-74.219,874.512
1741606165.172,-982.422,-894.531,-119.141,-705.566
1741606165.176,815.43,540.527,-58.594,-736.328
1741606165.18,625.0,976.074,16.113,871.582
1741606165.184,-480.469,-679.688,-10.742,950.684
1741606165.188,495.117,618.164,-32.715,990.234
1741606165.19,-195.801,858.887,-22.461,884.277
1741606165.194,-848.145,-838.379,-40.527,-657.227
1741606165.198,778.32,613.281,10.742,52.734
1741606165.202,198.73,888.184,25.391,999.512
1741606165.206,-469.238,-579.102,-22.461,865.234
1741606165.21,423.34,450.195,10.742,999.512
1741606165.214,-784.18,-600.586,-19.043,-262.695
1741606165.217,259.277,-546.875,-29.297,-835.449
1741606165.221,605.469,745.605,11.23,766.602
1741606165.225,-432.129,-413.574,-31.738,999.512
1741606165.229,327.637,329.59,-55.664,999.512
1741606165.233,-704.59,-570.312,-67.383,-131.348
1741606165.236,299.316,-3.906,-40.527,-502.93
1741606165.24,484.863,795.898,-19.043,943.359
1741606165.244,-212.402,-446.777,-37.109,999.512
1741606165.248,69.336,225.586,-52.734,902.832
1741606165.252,-265.137,-171.875,-55.176,919.922
1741606165.256,201.66,190.918,-11.23,897.461
1741606165.26,-168.945,-100.098,-12.207,999.512
1741606165.263,-112.305,9.766,-70.312,945.312
1741606165.267,-831.543,-797.363,-95.215,-655.273
1741606165.271,505.371,264.648,-70.801,-677.246
1741606165.275,590.82,833.008,-22.461,918.945
1741606165.279,-139.16,-97.656,21.484,999.512
1741606165.295,-249.023,11.719,-15.625,841.309
1741606165.299,66.406,-510.742,-44.922,999.512
1741606165.303,159.668,248.535,-40.527,822.754
1741606165.307,-708.984,-545.898,-48.828,-552.734
1741606165.311,614.258,543.945,30.273,354.98
1741606165.315,-157.715,591.309,27.832,999.512
1741606165.319,-220.703,-311.035,-40.039,999.512
1741606165.322,-377.93,-347.168,-62.988,565.43
1741606165.326,-142.09,-360.84,-12.207,-695.312
1741606165.33,828.125,860.84,28.32,541.992
1741606165.334,-585.449,-737.793,-17.578,999.512
1741606165.338,213.867,-538.086,-30.273,996.094
1741606165.325,-153.809,348.145,-26.855,783.203
1741606165.329,-612.305,-633.789,-36.133,-610.84
1741606165.333,625.977,405.273,9.766,352.051
1741606165.337,-236.328,-206.543,-20.996,999.512
1741606165.341,278.32,248.047,-45.41,999.512
1741606165.345,-553.711,-410.645,-26.855,104.98
1741606165.349,-5.859,-301.27,-16.602,-898.926
1741606165.352,848.145,901.367,-9.766,614.258
1741606165.356,-452.148,-570.312,-34.18,999.512
1741606165.36,476.074,336.914,-52.734,999.512
1741606165.364,-597.168,-439.941,-57.617,479.98
1741606165.368,-367.188,-636.719,-35.156,-634.766
1741606165.325,-153.809,348.145,-26.855,783.203
1741606165.329,-612.305,-633.789,-36.133,-610.84
1741606165.333,625.977,405.273,9.766,352.051
1741606165.337,-236.328,-206.543,-20.996,999.512
1741606165.341,278.32,248.047,-45.41,999.512
1741606165.345,-553.711,-410.645,-26.855,104.98
1741606165.349,-5.859,-301.27,-16.602,-898.926
1741606165.352,848.145,901.367,-9.766,614.258
1741606165.356,-452.148,-570.312,-34.18,999.512
1741606165.36,476.074,336.914,-52.734,999.512
1741606165.364,-597.168,-439.941,-57.617,479.98
1741606165.368,-367.188,-636.719,-35.156,-634.766
1741606165.37,583.496,695.312,0.488,601.074
1741606165.374,-159.668,-332.031,-12.695,999.512
1741606165.378,115.723,138.184,-41.992,882.812
1741606165.382,-136.719,-165.039,-64.941,983.887
1741606165.386,211.426,97.168,-34.18,967.285
1741606165.39,-2.93,28.32,41.992,967.285
1741606165.394,-19.531,250.977,17.09,966.797
1741606165.397,-133.301,-220.703,-74.219,966.797
1741606165.401,209.961,131.348,-69.336,966.797
1741606165.405,-79.59,-157.227,-55.176,967.285
1741606165.409,323.242,173.34,-15.625,966.797
1741606165.413,-151.855,-143.555,-9.277,966.797
1741606165.43,103.027,171.875,-35.156,966.797
1741606165.434,-253.418,-199.707,-44.922,966.797
1741606165.438,270.996,202.637,-29.785,966.797
1741606165.442,-178.711,-219.727,-10.254,966.797
1741606165.446,345.215,418.945,-4.883,967.285
1741606165.45,113.77,673.828,-19.531,967.285
1741606165.454,-51.27,-439.941,-46.875,967.285
1741606165.457,-164.062,-497.07,-59.082,966.797
1741606165.461,495.117,571.777,14.16,966.797
1741606165.465,427.734,723.633,38.574,967.285
1741606165.469,-181.152,-687.5,-27.832,966.797
1741606165.473,661.621,789.062,-36.133,966.797
1741606165.43,103.027,171.875,-35.156,966.797
1741606165.434,-253.418,-199.707,-44.922,966.797
1741606165.438,270.996,202.637,-29.785,966.797
1741606165.442,-178.711,-219.727,-10.254,966.797
1741606165.446,345.215,418.945,-4.883,967.285
1741606165.45,113.77,673.828,-19.531,967.285
1741606165.454,-51.27,-439.941,-46.875,967.285
1741606165.457,-164.062,-497.07,-59.082,966.797
1741606165.461,495.117,571.777,14.16,966.797
1741606165.465,427.734,723.633,38.574,967.285
1741606165.469,-181.152,-687.5,-27.832,966.797
1741606165.473,661.621,789.062,-36.133,966.797
1741606165.475,78.613,808.594,-14.16,966.797
1741606165.479,31.738,-476.074,-17.578,966.797
1741606165.483,567.383,316.895,13.184,966.797
1741606165.487,-186.035,-97.656,9.766,966.797
1741606165.491,42.48,61.523,-14.648,966.797
1741606165.495,182.129,-56.152,13.184,966.797
1741606165.499,282.227,116.211,36.133,966.797
1741606165.502,310.547,-169.922,19.043,966.797
1741606165.506,194.336,162.109,-2.93,966.797
1741606165.51,36.621,-191.406,-40.039,966.797
1741606165.514,308.594,215.82,-31.738,967.285
1741606165.518,-159.668,-188.477,11.719,967.285
1741606165.52,547.852,312.012,66.895,966.797
1741606165.524,-132.324,-150.879,33.691,966.797
1741606165.528,250.0,30.273,-23.438,966.797
1741606165.532,-194.824,-246.094,-37.598,966.797
1741606165.536,482.422,373.535,-7.324,966.797
1741606165.54,780.273,999.512,63.965,967.285
1741606165.544,-526.855,-507.324,32.715,966.797
1741606165.547,-138.672,-1000.0,-39.551,966.797
1741606165.551,291.504,-647.949,-47.363,967.285
1741606165.555,167.48,394.043,-37.598,966.797
1741606165.559,-292.48,-319.824,-37.109,966.797
1741606165.563,316.895,327.148,-29.297,967.285
1741606165.52,547.852,312.012,66.895,966.797
1741606165.524,-132.324,-150.879,33.691,966.797
1741606165.528,250.0,30.273,-23.438,966.797
1741606165.532,-194.824,-246.094,-37.598,966.797
1741606165.536,482.422,373.535,-7.324,966.797
1741606165.54,780.273,999.512,63.965,967.285
1741606165.544,-526.855,-507.324,32.715,966.797
1741606165.547,-138.672,-1000.0,-39.551,966.797
1741606165.551,291.504,-647.949,-47.363,967.285
1741606165.555,167.48,394.043,-37.598,966.797
1741606165.559,-292.48,-319.824,-37.109,966.797
1741606165.563,316.895,327.148,-29.297,967.285
1741606166.03,-102.539,181.641,-12.695,966.797
1741606166.034,67.871,-233.398,-40.527,966.797
1741606166.038,121.094,134.277,-77.148,966.797
1741606166.042,-179.199,-167.969,-74.219,966.797
1741606166.046,117.676,61.523,-59.082,966.797
1741606166.05,20.02,-15.625,-38.574,966.797
1741606166.054,85.938,168.457,-33.691,966.797
1741606166.057,-90.82,-282.227,-101.562,966.797
1741606166.061,119.141,182.129,-110.352,966.797
1741606166.065,-194.824,-190.43,-91.309,966.797
1741606166.069,276.855,214.844,-75.195,966.797
1741606166.073,-191.406,-87.402,-28.32,967.285
1741606165.565,-344.238,-414.062,-96.68,967.285
1741606165.569,281.738,-162.598,-112.305,966.797
1741606165.573,-117.676,-157.227,-60.547,966.797
1741606165.577,338.379,-306.152,8.301,982.422
1741606165.581,230.957,376.465,44.922,906.738
1741606165.585,-25.391,-88.379,46.387,999.512
1741606165.589,-56.641,300.781,73.242,907.715
1741606165.592,-912.109,-816.895,47.852,-657.715
1741606165.596,643.555,545.41,83.984,-125.488
1741606165.6,-52.246,123.047,102.539,999.512
1741606165.604,-94.727,-614.258,74.219,999.512
1741606165.608,-220.215,-102.539,94.727,501.953
1741606165.565,-344.238,-414.062,-96.68,967.285
1741606165.569,281.738,-162.598,-112.305,966.797
1741606165.573,-117.676,-157.227,-60.547,966.797
1741606165.577,338.379,-306.152,8.301,982.422
1741606165.581,230.957,376.465,44.922,906.738
1741606165.585,-25.391,-88.379,46.387,999.512
1741606165.589,-56.641,300.781,73.242,907.715
1741606165.592,-912.109,-816.895,47.852,-657.715
1741606165.596,643.555,545.41,83.984,-125.488
1741606165.6,-52.246,123.047,102.539,999.512
1741606165.604,-94.727,-614.258,74.219,999.512
1741606165.608,-220.215,-102.539,94.727,501.953
1741606165.61,-273.438,-576.172,135.254,-851.562
1741606165.614,388.184,413.574,172.363,-1000.0
1741606165.618,-350.098,-347.656,172.363,-1000.0
1741606165.622,626.953,524.902,165.039,387.207
1741606165.626,-423.34,-208.008,163.574,312.5
1741606165.63,-75.684,-237.793,208.008,-1000.0
1741606165.634,-14.16,673.828,283.691,-1000.0
1741606165.637,-223.633,-464.844,289.551,-950.195
1741606165.641,357.91,185.547,300.293,-888.184
1741606165.645,-200.684,-294.922,358.887,-934.082
1741606165.649,134.766,276.855,414.062,-1000.0
1741606165.653,-479.98,-71.289,515.625,-1000.0
1741606165.656,419.922,364.258,601.074,312.988
1741606165.66,-379.883,-386.23,545.898,59.082
1741606165.664,-385.254,-684.082,562.5,-1000.0
1741606165.668,-194.336,-88.867,617.188,-958.496
1741606165.672,78.613,12.207,660.645,-988.281
1741606165.676,149.414,999.512,736.328,-1000.0
1741606165.68,-707.031,674.316,703.613,-1000.0
1741606165.683,-529.297,-556.152,611.816,-988.77
1741606165.687,275.391,148.926,618.164,-950.684
1741606165.691,-348.145,-255.371,641.113,-1000.0
1741606165.695,443.848,438.965,677.246,11.23
1741606165.699,-392.578,-222.168,620.117,537.598
1741606165.656,419.922,364.258,601.074,312.988
1741606165.66,-379.883,-386.23,545.898,59.082
1741606165.664,-385.254,-684.082,562.5,-1000.0
1741606165.668,-194.336,-88.867,617.188,-958.496
1741606165.672,78.613,12.207,660.645,-988.281
1741606165.676,149.414,999.512,736.328,-1000.0
1741606165.68,-707.031,674.316,703.613,-1000.0
1741606165.683,-529.297,-556.152,611.816,-988.77
1741606165.687,275.391,148.926,618.164,-950.684
1741606165.691,-348.145,-255.371,641.113,-1000.0
1741606165.695,443.848,438.965,677.246,11.23
1741606165.699,-392.578,-222.168,620.117,537.598
1741606165.702,-575.684,-708.984,548.828,-925.293
1741606165.706,-2.441,580.566,530.273,-1000.0
1741606165.71,-565.43,-310.059,537.109,-942.871
1741606165.714,258.301,218.262,532.715,-1000.0
1741606165.718,-387.695,-383.301,425.781,-1000.0
1741606165.722,305.176,366.211,374.512,-1000.0
1741606165.726,-579.102,-74.707,313.965,-1000.0
1741606165.729,-300.293,-816.895,253.418,-1000.0
1741606165.733,246.094,441.406,278.809,-1000.0
1741606165.737,-482.422,-310.547,261.719,-1000.0
1741606165.741,174.805,116.699,197.266,-1000.0
1741606165.745,-248.047,-49.805,178.711,-1000.0
1741606165.702,-575.684,-708.984,548.828,-925.293
1741606165.706,-2.441,580.566,530.273,-1000.0
1741606165.71,-565.43,-310.059,537.109,-942.871
1741606165.714,258.301,218.262,532.715,-1000.0
1741606165.718,-387.695,-383.301,425.781,-1000.0
1741606165.722,305.176,366.211,374.512,-1000.0
1741606165.726,-579.102,-74.707,313.965,-1000.0
1741606165.729,-300.293,-816.895,253.418,-1000.0
1741606165.733,246.094,441.406,278.809,-1000.0
1741606165.737,-482.422,-310.547,261.719,-1000.0
1741606165.741,174.805,116.699,197.266,-1000.0
1741606165.745,-248.047,-49.805,178.711,-1000.0
1741606165.745,-201.172,53.711,200.684,-1000.0
1741606165.749,-99.609,-244.141,162.598,-1000.0
1741606165.753,-47.852,16.602,103.027,-1000.0
1741606165.757,-291.016,-3.418,43.457,-1000.0
1741606165.761,-281.25,-42.969,11.719,-1000.0
1741606165.765,88.867,204.102,13.672,-1000.0
1741606165.769,-143.555,233.887,0.488,-1000.0
1741606165.772,-206.543,-370.117,-57.129,-1000.0
1741606165.776,-181.641,-78.125,-96.68,-1000.0
1741606165.78,-238.281,-223.633,-129.883,-1000.0
1741606165.784,-223.633,60.059,-144.531,-1000.0
1741606165.788,-93.262,-142.578,-125.977,-1000.0
1741606165.805,-284.668,27.832,-141.602,-1000.0
1741606165.809,-525.391,-535.645,-205.566,-1000.0
1741606165.813,20.508,155.762,-205.566,-1000.0
1741606165.817,-414.062,-301.27,-176.27,-1000.0
1741606165.821,-8.789,274.902,-145.996,-1000.0
1741606165.825,-660.156,-430.664,-125.0,-1000.0
1741606165.829,26.367,81.543,-167.969,-1000.0
1741606165.832,-598.145,-341.309,-212.402,-1000.0
1741606165.836,-431.641,-955.566,-199.707,-1000.0
1741606165.84,254.883,495.605,-129.395,-1000.0
1741606165.844,-361.328,-267.09,-95.215,-1000.0
1741606165.848,373.047,373.535,-101.562,-1000.0
1741606165.85,-636.23,-398.926,-153.809,-1000.0
1741606165.854,-485.84,-790.527,-184.57,-1000.0
1741606165.858,-126.953,268.555,-192.383,-1000.0
1741606165.862,-329.102,-228.516,-146.973,-1000.0
1741606165.866,-375.977,-64.453,-124.512,-1000.0
1741606165.87,-397.461,-117.676,-131.836,-1000.0
1741606165.874,-530.273,52.246,-119.141,-1000.0
1741606165.877,-474.609,-640.625,-102.051,-1000.0
1741606165.881,188.477,443.848,-20.996,-1000.0
1741606165.885,-799.316,-272.461,-67.383,-1000.0
1741606165.889,-863.281,-1000.0,-131.836,-1000.0
1741606165.893,-407.715,-493.164,-146.973,-1000.0
1741606165.895,-569.824,250.488,-155.273,-1000.0
1741606165.899,-596.191,-525.879,-125.488,-1000.0
1741606165.903,-107.422,283.691,-128.418,-1000.0
1741606165.907,-743.164,-417.48,-164.062,-1000.0
1741606165.911,-222.168,-5.371,-164.062,-1000.0
1741606165.915,-228.516,999.512,-104.004,-1000.0
1741606165.919,-633.789,474.121,-48.828,-1000.0
1741606165.922,-552.734,-729.492,-72.754,-1000.0
1741606165.926,32.715,177.734,-110.352,-1000.0
1741606165.93,-477.051,-264.648,-125.977,-1000.0
1741606165.934,141.602,87.402,-73.73,-1000.0
1741606165.938,203.125,999.512,6.348,-1000.0
1741606165.895,-569.824,250.488,-155.273,-1000.0
1741606165.899,-596.191,-525.879,-125.488,-1000.0
1741606165.903,-107.422,283.691,-128.418,-1000.0
1741606165.907,-743.164,-417.48,-164.062,-1000.0
1741606165.911,-222.168,-5.371,-164.062,-1000.0
1741606165.915,-228.516,999.512,-104.004,-1000.0
1741606165.919,-633.789,474.121,-48.828,-1000.0
1741606165.922,-552.734,-729.492,-72.754,-1000.0
1741606165.926,32.715,177.734,-110.352,-1000.0
1741606165.93,-477.051,-264.648,-125.977,-1000.0
1741606165.934,141.602,87.402,-73.73,-1000.0
1741606165.938,203.125,999.512,6.348,-1000.0
1741606165.94,-677.734,585.449,-41.504,-1000.0
1741606165.944,-431.641,-612.793,-96.68,-1000.0
1741606165.948,252.441,150.879,-62.988,-1000.0
1741606165.952,-365.723,-253.418,-56.641,-1000.0
1741606165.956,296.875,353.516,-0.977,-1000.0
1741606165.96,189.453,999.512,16.602,-1000.0
1741606165.964,-912.598,-637.695,-38.574,-1000.0
1741606165.967,-97.168,-858.398,-70.312,-1000.0
1741606165.971,288.086,409.18,-75.684,-1000.0
1741606165.975,-301.27,-143.066,-21.973,-1000.0
1741606165.979,-36.133,84.961,-16.602,-1000.0
1741606165.983,-83.008,-161.133,-60.547,-939.453
1741606165.94,-677.734,585.449,-41.504,-1000.0
1741606165.944,-431.641,-612.793,-96.68,-1000.0
1741606165.948,252.441,150.879,-62.988,-1000.0
1741606165.952,-365.723,-253.418,-56.641,-1000.0
1741606165.956,296.875,353.516,-0.977,-1000.0
1741606165.96,189.453,999.512,16.602,-1000.0
1741606165.964,-912.598,-637.695,-38.574,-1000.0
1741606165.967,-97.168,-858.398,-70.312,-1000.0
1741606165.971,288.086,409.18,-75.684,-1000.0
1741606165.975,-301.27,-143.066,-21.973,-1000.0
1741606165.979,-36.133,84.961,-16.602,-1000.0
1741606165.983,-83.008,-161.133,-60.547,-939.453
1741606165.987,-144.531,84.473,-51.27,-1000.0
1741606165.991,-0.977,51.758,-17.578,-853.516
1741606165.995,352.539,413.086,2.441,609.863
1741606165.999,-252.441,-198.73,-42.48,999.512
1741606166.003,-20.508,55.176,-67.871,879.395
1741606166.007,-59.082,3.906,-71.777,999.512
1741606166.011,-254.883,265.625,-87.402,935.547
1741606166.014,-435.059,-239.746,-90.82,717.285
1741606166.018,121.582,173.828,-38.574,897.461
1741606166.022,-285.645,-181.641,-52.246,999.512
1741606166.026,141.113,48.828,-87.402,950.195
1741606166.03,-95.703,23.926,-64.453,970.703
1741606166.075,173.828,195.312,-13.672,967.285
1741606166.079,-245.117,-261.23,-71.289,966.797
1741606166.083,334.473,373.535,-84.473,967.285
1741606166.087,2.93,109.375,-33.203,967.285
1741606166.091,423.34,72.754,2.93,966.797
1741606166.095,184.57,854.492,-22.461,967.285
1741606166.099,-507.812,-344.727,-66.406,966.797
1741606166.102,166.504,90.332,-89.355,966.797
1741606166.106,187.012,-233.887,-68.848,966.797
1741606166.11,303.711,393.066,-22.949,966.797
1741606166.114,-457.031,-549.316,-61.035,966.797
1741606166.118,519.043,85.449,-70.801,966.797
1741606166.075,173.828,195.312,-13.672,967.285
1741606166.079,-245.117,-261.23,-71.289,966.797
1741606166.083,334.473,373.535,-84.473,967.285
1741606166.087,2.93,109.375,-33.203,967.285
1741606166.091,423.34,72.754,2.93,966.797
1741606166.095,184.57,854.492,-22.461,967.285
1741606166.099,-507.812,-344.727,-66.406,966.797
1741606166.102,166.504,90.332,-89.355,966.797
1741606166.106,187.012,-233.887,-68.848,966.797
1741606166.11,303.711,393.066,-22.949,966.797
1741606166.114,-457.031,-549.316,-61.035,966.797
1741606166.118,519.043,85.449,-70.801,966.797
1741606166.12,-95.215,776.367,-72.266,967.285
1741606166.124,-223.145,-526.855,-98.633,967.285
1741606166.128,482.91,297.363,-62.988,966.797
1741606166.132,-274.902,-237.793,-54.688,967.285
1741606166.136,241.211,256.348,-56.641,966.797
1741606166.14,-176.27,132.324,-42.48,966.797
1741606166.144,88.867,65.43,-51.27,966.797
1741606166.147,-15.137,-263.672,-75.195,966.797
1741606166.151,241.211,404.785,-56.641,966.797
1741606166.155,-457.52,-419.434,-77.637,966.797
1741606166.159,168.945,-362.305,-94.727,967.285
1741606166.163,117.188,333.496,-79.102,967.285
1741606166.12,-95.215,776.367,-72.266,967.285
1741606166.124,-223.145,-526.855,-98.633,967.285
1741606166.128,482.91,297.363,-62.988,966.797
1741606166.132,-274.902,-237.793,-54.688,967.285
1741606166.136,241.211,256.348,-56.641,966.797
1741606166.14,-176.27,132.324,-42.48,966.797
1741606166.144,88.867,65.43,-51.27,966.797
1741606166.147,-15.137,-263.672,-75.195,966.797
1741606166.151,241.211,404.785,-56.641,966.797
1741606166.155,-457.52,-419.434,-77.637,966.797
1741606166.159,168.945,-362.305,-94.727,967.285
1741606166.163,117.188,333.496,-79.102,967.285
1741606166.211,207.031,-276.855,-53.711,966.797
1741606166.215,247.07,321.777,-27.344,966.797
1741606166.219,-125.0,-456.055,-70.801,966.797
1741606166.223,393.555,381.836,-75.195,966.797
1741606166.227,-479.492,-246.582,-57.129,966.797
1741606166.231,365.723,473.145,-27.344,972.656
1741606166.235,-130.371,343.262,-41.992,947.754
1741606166.238,-163.574,-858.887,-84.473,930.664
1741606166.242,542.48,489.258,-62.012,999.512
1741606166.246,-748.535,-528.809,-95.703,-166.504
1741606166.25,192.871,-233.887,-87.402,-580.566
1741606166.254,841.797,999.512,-21.484,919.922
1741606166.214,-260.254,740.234,-30.273,999.512
1741606166.218,-478.516,-693.848,-94.238,912.109
1741606166.222,310.547,-254.883,-92.773,980.957
1741606166.226,-211.914,-275.879,-38.086,964.844
1741606166.23,335.938,337.402,-10.254,966.309
1741606166.234,30.762,999.512,-51.27,967.285
1741606166.238,-824.219,-831.055,-96.191,966.797
1741606166.241,116.211,-918.945,-111.328,971.191
1741606166.245,507.324,467.773,-83.008,958.984
1741606166.249,-288.574,-261.23,-39.062,909.18
1741606166.253,295.898,209.961,-51.27,999.512
1741606166.257,-568.848,-464.844,-107.91,62.988
1741606166.214,-260.254,740.234,-30.273,999.512
1741606166.218,-478.516,-693.848,-94.238,912.109
1741606166.222,310.547,-254.883,-92.773,980.957
1741606166.226,-211.914,-275.879,-38.086,964.844
1741606166.23,335.938,337.402,-10.254,966.309
1741606166.234,30.762,999.512,-51.27,967.285
1741606166.238,-824.219,-831.055,-96.191,966.797
1741606166.241,116.211,-918.945,-111.328,971.191
1741606166.245,507.324,467.773,-83.008,958.984
1741606166.249,-288.574,-261.23,-39.062,909.18
1741606166.253,295.898,209.961,-51.27,999.512
1741606166.257,-568.848,-464.844,-107.91,62.988
1741606166.287,-185.547,-606.445,-99.609,-875.488
1741606166.291,999.512,999.512,-20.02,624.512
1741606166.295,-24.414,764.16,5.859,999.512
1741606166.299,-369.141,-625.977,-62.012,900.879
1741606166.303,485.84,416.016,-67.383,901.367
1741606166.307,124.023,999.512,-42.48,999.512
1741606166.311,-849.609,-460.938,-52.734,581.055
1741606166.314,-193.359,-847.656,-51.27,-677.246
1741606166.318,564.941,493.652,-68.359,450.684
1741606166.322,-361.816,-325.195,-90.82,999.512
1741606166.326,212.402,15.137,-85.449,908.203
1741606166.33,-278.809,-248.535,-61.523,-300.781
1741606166.287,-185.547,-606.445,-99.609,-875.488
1741606166.291,999.512,999.512,-20.02,624.512
1741606166.295,-24.414,764.16,5.859,999.512
1741606166.299,-369.141,-625.977,-62.012,900.879
1741606166.303,485.84,416.016,-67.383,901.367
1741606166.307,124.023,999.512,-42.48,999.512
1741606166.311,-849.609,-460.938,-52.734,581.055
1741606166.314,-193.359,-847.656,-51.27,-677.246
1741606166.318,564.941,493.652,-68.359,450.684
1741606166.322,-361.816,-325.195,-90.82,999.512
1741606166.326,212.402,15.137,-85.449,908.203
1741606166.33,-278.809,-248.535,-61.523,-300.781
1741606166.315,294.922,419.922,1.465,85.449
1741606166.319,-144.531,-140.137,-51.27,999.512
1741606166.323,-12.207,-421.387,-76.172,999.512
1741606166.327,-387.695,-301.27,-75.684,363.77
1741606166.331,-47.852,-198.73,-63.477,-792.969
1741606166.335,916.992,999.512,6.836,576.172
1741606166.339,-705.078,-634.277,-14.648,999.512
1741606166.342,-221.68,-1000.0,-75.684,835.938
1741606166.346,598.145,584.473,-57.129,999.512
1741606166.35,-713.867,-568.359,-33.203,-159.18
1741606166.354,281.25,-217.285,9.766,-836.426
1741606166.358,448.73,804.199,-1.953,697.266
1741606166.36,-405.273,-437.5,-49.805,999.512
1741606166.364,119.141,299.316,-55.176,864.258
1741606166.368,-637.695,-499.512,-55.176,-636.719
1741606166.372,517.09,381.348,5.371,-296.875
1741606166.376,215.82,621.094,14.648,999.512
1741606166.38,-69.336,-70.312,-7.812,999.512
1741606166.384,-188.965,407.715,-33.691,847.168
1741606166.387,-843.75,-840.332,-83.008,-735.84
1741606166.391,786.133,567.383,-36.621,-349.121
1741606166.395,209.961,765.137,-18.066,999.512
1741606166.399,-418.945,-853.027,-81.055,885.254
1741606166.403,661.133,680.176,-60.059,999.512
1741606166.36,-405.273,-437.5,-49.805,999.512
1741606166.364,119.141,299.316,-55.176,864.258
1741606166.368,-637.695,-499.512,-55.176,-636.719
1741606166.372,517.09,381.348,5.371,-296.875
1741606166.376,215.82,621.094,14.648,999.512
1741606166.38,-69.336,-70.312,-7.812,999.512
1741606166.384,-188.965,407.715,-33.691,847.168
1741606166.387,-843.75,-840.332,-83.008,-735.84
1741606166.391,786.133,567.383,-36.621,-349.121
1741606166.395,209.961,765.137,-18.066,999.512
1741606166.399,-418.945,-853.027,-81.055,885.254
1741606166.403,661.133,680.176,-60.059,999.512
1741606166.405,-245.605,775.879,-42.48,891.113
1741606166.409,-570.801,-752.93,-53.223,-687.5
1741606166.413,568.359,337.402,-21.973,-83.496
1741606166.417,-224.121,-208.496,-49.805,999.512
1741606166.421,179.688,192.871,-65.43,831.543
1741606166.425,349.609,999.512,-31.738,999.512
1741606166.429,-707.031,-229.004,-36.621,741.699
1741606166.432,-450.684,-990.723,-60.059,-683.105
1741606166.436,779.785,690.918,-10.254,359.863
1741606166.44,-120.605,640.137,-3.906,999.512
1741606166.444,-1000.0,-1000.0,-57.129,-520.02
1741606166.448,534.18,104.004,-23.438,-816.895
1741606166.405,-245.605,775.879,-42.48,891.113
1741606166.409,-570.801,-752.93,-53.223,-687.5
1741606166.413,568.359,337.402,-21.973,-83.496
1741606166.417,-224.121,-208.496,-49.805,999.512
1741606166.421,179.688,192.871,-65.43,831.543
1741606166.425,349.609,999.512,-31.738,999.512
1741606166.429,-707.031,-229.004,-36.621,741.699
1741606166.432,-450.684,-990.723,-60.059,-683.105
1741606166.436,779.785,690.918,-10.254,359.863
1741606166.44,-120.605,640.137,-3.906,999.512
1741606166.444,-1000.0,-1000.0,-57.129,-520.02
1741606166.448,534.18,104.004,-23.438,-816.895
1741606166.465,583.496,894.531,20.02,778.809
1741606166.469,-455.078,-535.645,-28.32,999.512
1741606166.473,406.25,239.746,-40.527,999.512
1741606166.477,-538.086,-438.965,-75.684,-376.953
1741606166.481,296.875,-37.598,-20.02,-824.219
1741606166.485,962.402,999.512,65.918,832.031
1741606166.489,-675.293,-270.996,-5.371,994.141
1741606166.492,-35.156,-837.402,-65.918,921.387
1741606166.496,467.773,508.301,-40.527,999.512
1741606166.5,-687.5,-513.672,-31.25,-540.039
1741606166.504,449.707,248.535,12.695,-459.473
1741606166.508,225.098,496.582,-11.719,958.496
1741606166.465,583.496,894.531,20.02,778.809
1741606166.469,-455.078,-535.645,-28.32,999.512
1741606166.473,406.25,239.746,-40.527,999.512
1741606166.477,-538.086,-438.965,-75.684,-376.953
1741606166.481,296.875,-37.598,-20.02,-824.219
1741606166.485,962.402,999.512,65.918,832.031
1741606166.489,-675.293,-270.996,-5.371,994.141
1741606166.492,-35.156,-837.402,-65.918,921.387
1741606166.496,467.773,508.301,-40.527,999.512
1741606166.5,-687.5,-513.672,-31.25,-540.039
1741606166.504,449.707,248.535,12.695,-459.473
1741606166.508,225.098,496.582,-11.719,958.496
1741606166.497,31.738,135.742,-71.289,999.512
1741606166.501,-447.754,-316.406,-111.328,209.961
1741606166.505,-185.059,-836.914,-94.238,-956.055
1741606166.509,903.809,750.0,-15.625,429.688
1741606166.513,-326.172,-206.055,-41.504,999.512
1741606166.517,287.598,314.453,-48.828,999.512
1741606166.521,-436.523,14.16,-63.965,497.559
1741606166.524,-512.695,-1000.0,-113.281,-899.414
1741606166.528,898.926,750.977,-74.707,301.758
1741606166.532,-237.793,-17.09,-95.215,999.512
1741606166.536,-48.34,-428.711,-143.555,999.512
1741606166.54,-401.855,-432.129,-138.672,122.559
1741606166.497,31.738,135.742,-71.289,999.512
1741606166.501,-447.754,-316.406,-111.328,209.961
1741606166.505,-185.059,-836.914,-94.238,-956.055
1741606166.509,903.809,750.0,-15.625,429.688
1741606166.513,-326.172,-206.055,-41.504,999.512
1741606166.517,287.598,314.453,-48.828,999.512
1741606166.521,-436.523,14.16,-63.965,497.559
1741606166.524,-512.695,-1000.0,-113.281,-899.414
1741606166.528,898.926,750.977,-74.707,301.758
1741606166.532,-237.793,-17.09,-95.215,999.512
1741606166.536,-48.34,-428.711,-143.555,999.512
1741606166.54,-401.855,-432.129,-138.672,122.559
1741606166.56,4.395,-254.883,-82.52,-934.57
1741606166.564,999.512,999.512,-38.086,584.961
1741606166.568,-18.066,862.305,-43.457,999.512
1741606166.572,-910.156,-746.094,-105.957,-414.551
1741606166.576,236.816,-294.922,-117.188,-1000.0
1741606166.58,999.512,999.512,-53.711,598.145
1741606166.584,-326.66,-37.109,-40.527,999.512
1741606166.587,182.617,-743.652,-63.477,941.406
1741606166.591,304.199,389.16,-87.402,869.141
1741606166.595,-623.047,-370.117,-115.234,-519.531
1741606166.599,202.637,29.785,-91.309,-1000.0
1741606166.603,-48.34,-73.242,-33.691,-808.594
1741606166.603,200.195,213.867,13.672,516.602
1741606166.607,-219.238,-219.238,-59.082,999.512
1741606166.611,220.215,273.926,-104.492,990.234
1741606166.615,-546.387,-499.512,-96.68,-318.359
1741606166.619,187.012,-196.289,-28.32,-739.746
1741606166.623,542.969,821.289,-4.395,721.191
1741606166.627,-255.859,-436.523,-63.965,999.512
1741606166.63,172.363,174.316,-68.848,793.945
1741606166.634,-429.199,-470.215,-68.848,-612.793
1741606166.638,478.516,447.266,-28.809,-1000.0
1741606166.642,-302.246,-131.348,-20.996,-990.234
1741606166.646,-96.68,-888.184,-55.664,-963.379
1741606166.603,200.195,213.867,13.672,516.602
1741606166.607,-219.238,-219.238,-59.082,999.512
1741606166.611,220.215,273.926,-104.492,990.234
1741606166.615,-546.387,-499.512,-96.68,-318.359
1741606166.619,187.012,-196.289,-28.32,-739.746
1741606166.623,542.969,821.289,-4.395,721.191
1741606166.627,-255.859,-436.523,-63.965,999.512
1741606166.63,172.363,174.316,-68.848,793.945
1741606166.634,-429.199,-470.215,-68.848,-612.793
1741606166.638,478.516,447.266,-28.809,-1000.0
1741606166.642,-302.246,-131.348,-20.996,-990.234
1741606166.646,-96.68,-888.184,-55.664,-963.379
1741606166.646,787.598,774.414,-62.012,716.797
1741606166.65,-795.898,-650.879,-72.266,128.906
1741606166.654,135.254,-364.258,-30.273,-956.543
1741606166.658,727.539,863.77,4.395,609.863
1741606166.662,-449.707,-353.027,-36.133,999.512
1741606166.666,119.141,261.719,-47.852,860.84
1741606166.67,-471.191,-414.551,-69.336,-445.312
1741606166.673,162.109,34.668,-55.176,-1000.0
1741606166.677,-248.535,-349.609,-40.039,-1000.0
1741606166.681,320.312,-109.375,-44.434,-493.652
1741606166.685,316.406,833.008,-61.035,883.789
1741606166.689,-821.777,-643.066,-87.402,-499.023
1741606166.646,787.598,774.414,-62.012,716.797
1741606166.65,-795.898,-650.879,-72.266,128.906
1741606166.654,135.254,-364.258,-30.273,-956.543
1741606166.658,727.539,863.77,4.395,609.863
1741606166.662,-449.707,-353.027,-36.133,999.512
1741606166.666,119.141,261.719,-47.852,860.84
1741606166.67,-471.191,-414.551,-69.336,-445.312
1741606166.673,162.109,34.668,-55.176,-1000.0
1741606166.677,-248.535,-349.609,-40.039,-1000.0
1741606166.681,320.312,-109.375,-44.434,-493.652
1741606166.685,316.406,833.008,-61.035,883.789
1741606166.689,-821.777,-643.066,-87.402,-499.023
1741606166.691,544.434,527.832,-41.992,-245.605
1741606166.695,-64.453,-74.219,-36.621,999.512
1741606166.699,-7.812,-427.246,-56.152,999.512
1741606166.703,-384.277,-278.809,-76.172,488.281
1741606166.707,-693.848,-994.141,-98.633,-984.375
1741606166.711,862.793,724.121,-47.363,-744.629
1741606166.715,545.41,912.109,-21.484,912.598
1741606166.718,-773.438,-713.379,-68.359,646.973
1741606166.722,-519.043,-1000.0,-80.566,-1000.0
1741606166.726,947.754,637.207,-35.645,-622.07
1741606166.73,250.0,597.656,-28.32,808.105
1741606166.734,-867.676,-917.48,-69.824,-363.281
1741606166.691,544.434,527.832,-41.992,-245.605
1741606166.695,-64.453,-74.219,-36.621,999.512
1741606166.699,-7.812,-427.246,-56.152,999.512
1741606166.703,-384.277,-278.809,-76.172,488.281
1741606166.707,-693.848,-994.141,-98.633,-984.375
1741606166.711,862.793,724.121,-47.363,-744.629
1741606166.715,545.41,912.109,-21.484,912.598
1741606166.718,-773.438,-713.379,-68.359,646.973
1741606166.722,-519.043,-1000.0,-80.566,-1000.0
1741606166.726,947.754,637.207,-35.645,-622.07
1741606166.73,250.0,597.656,-28.32,808.105
1741606166.734,-867.676,-917.48,-69.824,-363.281
1741606166.75,129.883,-13.672,-97.168,-1000.0
1741606166.754,-218.262,-322.266,-76.66,-944.824
1741606166.758,475.586,541.016,3.418,273.926
1741606166.762,-83.496,236.816,-25.879,999.512
1741606166.766,-204.59,-822.754,-79.59,897.461
1741606166.77,383.301,724.609,-30.762,999.512
1741606166.774,-928.223,-575.684,-42.48,-400.879
1741606166.777,33.691,-893.555,-55.664,-1000.0
1741606166.781,922.363,818.848,-40.039,659.18
1741606166.785,-776.367,-670.41,-58.105,548.34
1741606166.789,-348.633,-589.355,-53.711,-873.047
1741606166.793,245.605,434.57,-57.129,-876.465
1741606166.796,-85.938,-714.355,-59.082,-892.09
1741606166.8,820.312,559.082,-31.25,496.094
1741606166.804,-501.465,-113.281,-37.598,999.512
1741606166.808,-1000.0,-1000.0,-61.035,-666.504
1741606166.812,650.879,521.484,-49.316,-776.855
1741606166.816,721.68,999.512,8.301,765.625
1741606166.82,-535.156,-486.328,7.324,999.512
1741606166.823,-323.242,-1000.0,-56.641,904.297
1741606166.827,-700.684,-1000.0,-90.82,-389.648
1741606166.831,38.574,-13.672,-70.312,-1000.0
1741606166.835,-41.504,357.91,-29.785,-1000.0
1741606166.839,202.148,-181.152,18.066,-656.738
1741606166.796,-85.938,-714.355,-59.082,-892.09
1741606166.8,820.312,559.082,-31.25,496.094
1741606166.804,-501.465,-113.281,-37.598,999.512
1741606166.808,-1000.0,-1000.0,-61.035,-666.504
1741606166.812,650.879,521.484,-49.316,-776.855
1741606166.816,721.68,999.512,8.301,765.625
1741606166.82,-535.156,-486.328,7.324,999.512
1741606166.823,-323.242,-1000.0,-56.641,904.297
1741606166.827,-700.684,-1000.0,-90.82,-389.648
1741606166.831,38.574,-13.672,-70.312,-1000.0
1741606166.835,-41.504,357.91,-29.785,-1000.0
1741606166.839,202.148,-181.152,18.066,-656.738
1741606166.84,446.777,809.57,-4.883,904.785
1741606166.844,-995.117,-669.922,-85.449,-270.02
1741606166.848,289.062,-156.25,-56.641,-1000.0
1741606166.852,960.938,999.512,9.766,669.922
1741606166.856,-607.91,-735.84,-12.695,999.512
1741606166.86,130.371,-522.949,-37.598,946.289
1741606166.864,12.695,712.402,-17.09,856.934
1741606166.867,-766.113,-596.191,-48.34,-532.715
1741606166.871,274.902,-175.293,-35.156,-1000.0
1741606166.875,-72.266,-126.465,22.949,-843.75
1741606166.879,240.234,357.91,3.418,645.508
1741606166.883,-658.691,-573.242,-84.473,-75.684
1741606166.84,446.777,809.57,-4.883,904.785
1741606166.844,-995.117,-669.922,-85.449,-270.02
1741606166.848,289.062,-156.25,-56.641,-1000.0
1741606166.852,960.938,999.512,9.766,669.922
1741606166.856,-607.91,-735.84,-12.695,999.512
1741606166.86,130.371,-522.949,-37.598,946.289
1741606166.864,12.695,712.402,-17.09,856.934
1741606166.867,-766.113,-596.191,-48.34,-532.715
1741606166.871,274.902,-175.293,-35.156,-1000.0
1741606166.875,-72.266,-126.465,22.949,-843.75
1741606166.879,240.234,357.91,3.418,645.508
1741606166.883,-658.691,-573.242,-84.473,-75.684
1741606166.885,-54.199,-460.449,-59.082,-1000.0
1741606166.889,959.473,999.512,-30.762,442.871
1741606166.893,-185.547,-90.332,-1.465,999.512
1741606166.897,218.262,281.25,22.461,879.395
1741606166.901,-539.062,-573.242,-67.871,-414.551
1741606166.905,-150.391,-740.234,-76.172,-1000.0
1741606166.909,197.754,820.801,-20.02,-866.699
1741606166.912,-697.266,-543.457,-30.762,-1000.0
1741606166.916,582.52,131.348,-29.785,-140.625
1741606166.92,-279.297,-14.648,-38.086,999.512
1741606166.924,-1000.0,-1000.0,-52.246,-616.699
1741606166.928,780.762,745.605,-22.461,-731.934
1741606166.93,437.5,774.902,5.371,811.035
1741606166.934,-285.156,-515.137,-15.625,999.512
1741606166.938,134.277,360.352,-52.246,794.922
1741606166.942,-620.117,-448.73,-88.867,-527.832
1741606166.946,81.055,86.426,-63.965,-1000.0
1741606166.95,287.109,999.512,-27.344,-964.355
1741606166.954,480.469,753.906,-18.066,474.609
1741606166.957,-431.641,-424.805,-62.988,508.789
1741606166.961,-750.0,-1000.0,-106.445,-1000.0
1741606166.965,110.84,-594.238,-100.098,-932.617
1741606166.969,551.758,683.105,-18.555,532.715
1741606166.973,-400.391,-456.055,-42.969,999.512
1741606166.976,131.836,6.348,-81.543,996.582
1741606166.98,-421.387,-278.32,-81.055,99.121
1741606166.984,-279.297,-646.484,-92.285,-1000.0
1741606166.988,123.047,649.414,-56.641,-1000.0
1741606166.992,-388.672,-508.301,-13.184,-959.961
1741606166.996,664.551,554.688,12.207,616.211
1741606167.0,-632.324,-46.875,-65.43,785.156
1741606167.003,-541.992,-929.688,-93.75,-810.547
1741606167.007,375.0,440.918,-27.832,-1000.0
1741606167.011,-252.93,-384.277,-48.34,-960.938
1741606167.015,618.652,485.352,-66.895,519.043
1741606167.019,-545.898,-250.488,-89.355,675.781
1741606166.976,131.836,6.348,-81.543,996.582
1741606166.98,-421.387,-278.32,-81.055,99.121
1741606166.984,-279.297,-646.484,-92.285,-1000.0
1741606166.988,123.047,649.414,-56.641,-1000.0
1741606166.992,-388.672,-508.301,-13.184,-959.961
1741606166.996,664.551,554.688,12.207,616.211
1741606167.0,-632.324,-46.875,-65.43,785.156
1741606167.003,-541.992,-929.688,-93.75,-810.547
1741606167.007,375.0,440.918,-27.832,-1000.0
1741606167.011,-252.93,-384.277,-48.34,-960.938
1741606167.015,618.652,485.352,-66.895,519.043
1741606167.019,-545.898,-250.488,-89.355,675.781
1741606167.02,-454.59,-902.832,-81.543,-868.164
1741606167.024,275.391,479.004,-39.062,-1000.0
1741606167.028,-216.797,-348.145,-17.09,-916.504
1741606167.032,619.141,394.043,-4.883,687.5
1741606167.036,-663.086,-479.004,-42.969,360.84
1741606167.04,-86.914,-288.086,-31.25,-975.586
1741606167.044,978.516,999.512,-16.113,598.633
1741606167.047,-761.23,-776.855,-62.012,40.039
1741606167.051,43.945,-447.754,-58.105,-1000.0
1741606167.055,999.512,999.512,-27.344,600.098
1741606167.059,-656.738,-407.227,-47.852,494.629
1741606167.063,-427.246,-1000.0,-49.805,-1000.0
1741606167.02,-454.59,-902.832,-81.543,-868.164
1741606167.024,275.391,479.004,-39.062,-1000.0
1741606167.028,-216.797,-348.145,-17.09,-916.504
1741606167.032,619.141,394.043,-4.883,687.5
1741606167.036,-663.086,-479.004,-42.969,360.84
1741606167.04,-86.914,-288.086,-31.25,-975.586
1741606167.044,978.516,999.512,-16.113,598.633
1741606167.047,-761.23,-776.855,-62.012,40.039
1741606167.051,43.945,-447.754,-58.105,-1000.0
1741606167.055,999.512,999.512,-27.344,600.098
1741606167.059,-656.738,-407.227,-47.852,494.629
1741606167.063,-427.246,-1000.0,-49.805,-1000.0
1741606167.065,975.098,695.801,-10.742,5.371
1741606167.069,-581.543,-430.176,-31.25,900.391
1741606167.073,-794.434,-988.77,-28.32,-644.043
1741606167.077,300.781,524.414,-58.105,-1000.0
1741606167.081,-448.242,-427.734,-72.754,-940.43
1741606167.085,588.867,508.789,48.828,445.312
1741606167.089,-61.523,695.312,12.695,999.512
1741606167.092,-985.352,-983.398,-86.914,-539.062
1741606167.096,186.035,-41.504,-64.941,-1000.0
1741606167.1,-258.789,-275.879,-48.34,-985.84
1741606167.104,412.598,480.469,1.465,178.711
1741606167.108,20.996,321.777,-4.395,999.512
1741606167.125,-148.926,-528.809,-45.898,999.512
1741606167.129,-188.477,0.977,-70.801,664.062
1741606167.133,-569.336,-826.66,-69.824,-935.059
1741606167.137,854.004,621.582,-13.184,-835.449
1741606167.141,372.07,858.398,-7.812,782.715
1741606167.145,-874.023,-870.117,-38.574,51.27
1741606167.149,-88.867,-177.246,-52.246,-1000.0
1741606167.152,-297.363,-259.766,-54.688,-1000.0
1741606167.156,270.02,-130.371,-25.879,-602.051
1741606167.16,700.195,999.512,-1.465,928.711
1741606167.164,-769.531,-29.785,-38.574,783.691
1741606167.168,-520.02,-907.227,-55.176,-720.703
1741606167.17,405.762,344.238,-57.617,-1000.0
1741606167.174,-319.336,-379.883,-25.879,-934.082
1741606167.178,553.223,480.957,43.945,459.473
1741606167.182,52.246,983.887,12.695,999.512
1741606167.186,-1000.0,-795.898,-73.73,-634.277
1741606167.19,637.207,419.434,-27.832,-970.215
1741606167.194,823.73,999.512,25.391,638.672
1741606167.197,-384.277,-733.398,-23.438,999.512
1741606167.201,118.164,-218.75,-48.828,963.379
1741606167.205,-522.949,-546.387,-74.219,-158.203
1741606167.209,36.621,-187.5,-58.594,-1000.0
1741606167.213,71.289,590.82,-3.418,-988.281
1741606167.215,-77.637,-609.375,11.719,-954.102
1741606167.219,741.699,604.492,-17.578,676.27
1741606167.223,-780.762,-351.562,-49.805,831.543
1741606167.227,-618.652,-1000.0,-53.223,-842.285
1741606167.231,818.848,823.73,-11.719,129.883
1741606167.235,-87.402,53.223,-1.953,999.512
1741606167.239,168.457,171.875,-26.855,999.023
1741606167.242,-399.902,-139.648,-53.711,467.285
1741606167.246,-598.145,-1000.0,-71.289,-945.801
1741606167.25,740.234,690.918,-30.273,-1000.0
1741606167.254,683.105,999.512,11.719,416.504
1741606167.258,-513.672,-792.969,-56.152,999.512
1741606167.26,76.66,-381.836,-84.473,999.512
1741606167.264,-170.898,347.168,-58.105,777.832
1741606167.268,-551.758,-789.062,-34.668,-838.867
1741606167.272,910.645,673.828,13.672,156.25
1741606167.276,-423.828,-65.43,-41.016,999.512
1741606167.28,-813.965,-1000.0,-59.082,-896.973
1741606167.284,957.031,917.48,-50.781,-320.801
1741606167.287,-160.156,-103.516,-59.57,612.305
1741606167.291,-266.113,-716.797,-15.137,-659.668
1741606167.295,752.441,840.332,-26.855,542.969
1741606167.299,-810.059,-713.867,-75.195,192.871
1741606167.303,-120.605,-592.773,-74.219,-1000.0
1741606167.305,361.816,698.242,-46.875,-836.914
1741606167.309,-170.898,-450.195,-11.719,-809.57
1741606167.313,564.453,470.703,8.789,534.668
1741606167.317,-460.938,-260.742,-28.809,999.512
1741606167.321,124.023,-233.398,-41.016,891.602
1741606167.325,225.098,999.512,-10.742,968.262
1741606167.329,-374.023,-296.387,21.484,934.082
1741606167.332,7.324,-1000.0,0.488,999.512
1741606167.336,-725.098,-1000.0,-71.777,-16.113
1741606167.34,-58.105,-321.777,-56.641,-1000.0
1741606167.344,92.285,831.055,-22.461,-923.828
1741606167.348,-601.562,-482.91,-27.832,-1000.0
1741606167.35,422.363,-134.277,-9.277,-140.137
1741606167.354,-153.809,-160.156,-48.828,958.984
1741606167.358,196.289,236.328,-62.988,999.512
1741606167.362,-420.898,-317.871,-68.359,59.082
1741606167.366,118.652,-278.809,-34.18,-911.621
1741606167.37,953.613,999.512,30.762,737.305
1741606167.374,-839.844,-430.664,-29.785,893.555
1741606167.377,-690.918,-1000.0,-109.863,-750.488
1741606167.381,594.727,620.117,-80.566,-1000.0
1741606167.385,-172.363,-92.773,-34.668,-1000.0
1741606167.389,405.762,230.957,0.977,-18.066
1741606167.393,-16.602,392.578,-29.785,999.512
1741606167.397,-87.891,-605.957,-51.27,949.219
1741606167.401,308.105,626.465,-27.832,999.023
1741606167.405,-804.199,-597.656,-42.48,-634.277
1741606167.409,608.398,253.418,-8.789,-575.195
1741606167.413,83.008,619.141,-33.691,813.477
1741606167.417,-734.375,-709.961,-51.27,-541.016
1741606167.421,368.164,333.496,-37.109,-1000.0
1741606167.424,-78.613,-262.695,-43.945,-790.527
1741606167.428,448.242,323.242,6.836,351.074
1741606167.432,-138.672,6.836,12.207,999.512
1741606167.436,108.398,104.492,-29.785,968.262
1741606167.44,-471.191,-502.441,-78.125,-396.484
1741606167.397,-87.891,-605.957,-51.27,949.219
1741606167.401,308.105,626.465,-27.832,999.023
1741606167.405,-804.199,-597.656,-42.48,-634.277
1741606167.409,608.398,253.418,-8.789,-575.195
1741606167.413,83.008,619.141,-33.691,813.477
1741606167.417,-734.375,-709.961,-51.27,-541.016
1741606167.421,368.164,333.496,-37.109,-1000.0
1741606167.424,-78.613,-262.695,-43.945,-790.527
1741606167.428,448.242,323.242,6.836,351.074
1741606167.432,-138.672,6.836,12.207,999.512
1741606167.436,108.398,104.492,-29.785,968.262
1741606167.44,-471.191,-502.441,-78.125,-396.484
1741606167.44,80.566,-368.164,-63.477,-1000.0
1741606167.444,999.512,999.512,-10.254,754.883
1741606167.448,-686.523,-430.176,-29.297,752.441
1741606167.452,-854.98,-986.328,-41.992,-846.191
1741606167.456,785.645,809.082,-10.742,301.758
1741606167.46,-296.387,101.074,-8.301,977.539
1741606167.464,-924.316,-1000.0,-7.812,-643.555
1741606167.467,30.762,-675.781,-45.898,-1000.0
1741606167.471,671.875,839.355,-77.637,-554.199
1741606167.475,77.637,394.531,-75.684,584.473
1741606167.479,-755.859,-935.059,-47.852,-513.672
1741606167.483,644.531,648.438,9.277,125.0
1741606167.501,-16.602,414.062,-8.301,999.512
1741606167.505,-1000.0,-1000.0,-71.777,127.93
1741606167.509,-46.387,-243.164,-73.242,-921.387
1741606167.513,-20.508,692.383,-52.734,-1000.0
1741606167.517,-222.168,-404.785,-26.855,-837.891
1741606167.521,467.773,460.938,-16.602,534.18
1741606167.525,-450.195,-41.504,-76.172,999.512
1741606167.528,153.32,48.34,-88.379,993.652
1741606167.532,-450.195,-519.531,-99.121,-440.43
1741606167.536,299.316,-64.941,-16.113,-841.797
1741606167.54,363.77,666.016,-6.348,766.113
1741606167.544,-889.648,-854.492,-101.562,-345.215
1741606167.501,-16.602,414.062,-8.301,999.512
1741606167.505,-1000.0,-1000.0,-71.777,127.93
1741606167.509,-46.387,-243.164,-73.242,-921.387
1741606167.513,-20.508,692.383,-52.734,-1000.0
1741606167.517,-222.168,-404.785,-26.855,-837.891
1741606167.521,467.773,460.938,-16.602,534.18
1741606167.525,-450.195,-41.504,-76.172,999.512
1741606167.528,153.32,48.34,-88.379,993.652
1741606167.532,-450.195,-519.531,-99.121,-440.43
1741606167.536,299.316,-64.941,-16.113,-841.797
1741606167.54,363.77,666.016,-6.348,766.113
1741606167.544,-889.648,-854.492,-101.562,-345.215
1741606167.546,221.68,178.223,-89.844,-1000.0
1741606167.55,-284.18,-283.691,-83.496,-986.816
1741606167.554,444.824,448.242,-16.113,92.285
1741606167.558,121.094,574.219,3.418,999.512
1741606167.562,-290.039,-556.641,-57.617,973.145
1741606167.566,-106.445,236.328,-77.148,862.793
1741606167.57,-745.117,-893.066,-56.641,-767.578
1741606167.573,625.488,6.348,-9.766,-873.535
1741606167.577,670.898,999.512,-3.906,890.137
1741606167.581,-890.625,-756.348,-83.496,142.09
1741606167.585,-229.98,-794.434,-83.496,-1000.0
1741606167.589,999.512,999.512,-41.992,-122.559
1741606167.607,-24.902,300.781,-14.648,960.449
1741606167.611,-951.66,-1000.0,-16.602,-685.547
1741606167.615,653.809,662.109,-22.461,-235.352
1741606167.619,-49.316,500.488,-37.109,999.512
1741606167.623,-876.465,-984.863,-69.336,-728.516
1741606167.627,692.383,596.191,-25.391,-1000.0
1741606167.631,789.551,999.512,7.812,745.605
1741606167.634,-780.762,-769.531,-80.078,467.285
1741606167.638,-416.504,-855.957,-98.633,-944.336
1741606167.642,182.617,701.172,-65.918,-1000.0
1741606167.646,196.289,999.512,1.465,-869.629
1741606167.65,575.684,786.133,14.16,521.484
1741606167.635,-346.191,-753.418,-58.594,999.512
1741606167.639,136.23,-101.074,-68.359,999.512
1741606167.643,-420.898,6.348,-57.617,456.543
1741606167.647,-421.387,-914.551,-60.059,-1000.0
1741606167.651,976.562,778.809,-15.625,39.551
1741606167.655,-217.285,201.172,-3.418,933.594
1741606167.659,-1000.0,-1000.0,-56.641,-612.793
1741606167.662,-284.668,-921.387,-82.52,-1000.0
1741606167.666,750.488,583.008,-52.734,-744.141
1741606167.67,722.168,999.512,-10.254,709.473
1741606167.674,-871.094,-757.812,-15.137,931.152
1741606167.678,-771.973,-910.156,-64.453,-597.656
1741606167.682,213.867,402.832,-87.891,-1000.0
1741606167.686,-282.227,-286.133,-63.477,-859.375
1741606167.69,413.086,446.777,20.996,489.746
1741606167.694,-337.891,-317.383,-20.02,999.512
1741606167.698,12.695,-251.465,-68.359,884.277
1741606167.702,136.23,999.512,-32.227,999.512
1741606167.706,-849.121,-391.602,-43.457,-222.656
1741606167.709,-242.188,-1000.0,-49.805,-1000.0
1741606167.713,202.148,-656.25,-59.57,-1000.0
1741606167.717,793.945,911.621,-41.016,252.93
1741606167.721,-415.039,-72.754,-55.664,585.938
1741606167.725,-358.887,-866.211,-79.59,-913.574
1741606167.682,213.867,402.832,-87.891,-1000.0
1741606167.686,-282.227,-286.133,-63.477,-859.375
1741606167.69,413.086,446.777,20.996,489.746
1741606167.694,-337.891,-317.383,-20.02,999.512
1741606167.698,12.695,-251.465,-68.359,884.277
1741606167.702,136.23,999.512,-32.227,999.512
1741606167.706,-849.121,-391.602,-43.457,-222.656
1741606167.709,-242.188,-1000.0,-49.805,-1000.0
1741606167.713,202.148,-656.25,-59.57,-1000.0
1741606167.717,793.945,911.621,-41.016,252.93
1741606167.721,-415.039,-72.754,-55.664,585.938
1741606167.725,-358.887,-866.211,-79.59,-913.574
1741606167.725,396.973,460.938,-22.949,-1000.0
1741606167.729,-350.586,-394.043,-13.672,-1000.0
1741606167.733,617.188,513.672,-55.176,405.762
1741606167.737,-419.922,-118.164,-99.609,646.484
1741606167.741,-382.324,-666.016,-78.613,-959.961
1741606167.745,470.703,999.512,-9.277,-1000.0
1741606167.749,-636.719,-266.113,-34.18,-895.02
1741606167.752,-266.602,-1000.0,-102.539,-1000.0
1741606167.756,810.059,653.32,-71.289,40.527
1741606167.76,-557.617,-462.891,-69.824,480.469
1741606167.764,-210.449,-703.125,-45.898,-843.262
1741606167.768,848.633,942.871,-8.789,621.094
1741606167.77,-842.285,-701.172,-62.5,579.102
1741606167.774,-373.535,-797.852,-80.078,-945.312
1741606167.778,114.258,523.438,-57.617,-1000.0
1741606167.782,-204.59,-385.254,-50.781,-828.125
1741606167.786,660.645,497.559,-20.02,486.816
1741606167.79,37.598,999.512,-32.227,999.512
1741606167.794,-746.094,-252.441,-73.242,521.484
1741606167.797,-596.68,-1000.0,-86.914,-848.145
1741606167.801,75.195,-873.047,-80.078,-1000.0
1741606167.805,836.914,755.859,-15.625,466.797
1741606167.809,-214.355,589.355,-27.344,959.473
1741606167.813,-893.066,-994.629,-105.957,-665.527
1741606167.77,-842.285,-701.172,-62.5,579.102
1741606167.774,-373.535,-797.852,-80.078,-945.312
1741606167.778,114.258,523.438,-57.617,-1000.0
1741606167.782,-204.59,-385.254,-50.781,-828.125
1741606167.786,660.645,497.559,-20.02,486.816
1741606167.79,37.598,999.512,-32.227,999.512
1741606167.794,-746.094,-252.441,-73.242,521.484
1741606167.797,-596.68,-1000.0,-86.914,-848.145
1741606167.801,75.195,-873.047,-80.078,-1000.0
1741606167.805,836.914,755.859,-15.625,466.797
1741606167.809,-214.355,589.355,-27.344,959.473
1741606167.813,-893.066,-994.629,-105.957,-665.527
1741606167.816,235.84,-57.617,-99.609,-1000.0
1741606167.82,-297.363,-264.648,-70.801,-1000.0
1741606167.824,477.051,426.758,-0.488,49.316
1741606167.828,-73.242,429.199,-27.344,999.512
1741606167.832,-997.07,-1000.0,-75.684,-802.246
1741606167.836,813.477,725.098,-0.488,-428.223
1741606167.84,48.34,541.504,0.977,905.762
1741606167.843,-758.301,-1000.0,-39.551,-820.312
1741606167.847,870.605,514.648,-49.805,-730.469
1741606167.851,70.312,564.941,-66.895,732.422
1741606167.855,-753.906,-929.688,-74.219,-587.402
1741606167.859,533.203,543.945,-34.18,-1000.0
1741606167.875,-341.309,-228.516,-7.324,-1000.0
1741606167.879,270.508,-148.438,-29.297,-606.934
1741606167.883,283.203,804.688,-43.945,753.906
1741606167.887,-855.469,-770.508,-47.852,-437.012
1741606167.891,393.066,347.168,-49.805,-1000.0
1741606167.895,125.488,405.762,-24.414,-966.309
1741606167.899,384.766,327.637,-0.977,82.52
1741606167.902,-339.844,-141.113,-61.035,893.555
1741606167.906,-959.961,-1000.0,-83.984,-779.297
1741606167.91,836.914,707.52,-21.973,-978.027
1741606167.914,636.719,853.516,14.648,614.258
1741606167.918,-273.926,-594.238,-29.785,999.512
1741606167.92,221.68,384.277,-73.73,900.391
1741606167.924,-625.0,-543.457,-83.984,-379.883
1741606167.928,48.828,-395.996,-44.434,-1000.0
1741606167.932,103.516,562.012,-4.395,-968.262
1741606167.936,-145.508,-633.789,-17.09,-956.055
1741606167.94,786.133,775.879,-9.277,614.258
1741606167.944,-276.367,799.805,-33.203,999.512
1741606167.947,-871.582,-984.375,-102.051,-786.621
1741606167.951,682.617,250.0,-37.598,-998.535
1741606167.955,886.23,999.512,0.977,692.871
1741606167.959,-751.465,-850.098,-68.359,-109.375
1741606167.963,-78.613,-416.992,-71.289,-1000.0
1741606167.92,221.68,384.277,-73.73,900.391
1741606167.924,-625.0,-543.457,-83.984,-379.883
1741606167.928,48.828,-395.996,-44.434,-1000.0
1741606167.932,103.516,562.012,-4.395,-968.262
1741606167.936,-145.508,-633.789,-17.09,-956.055
1741606167.94,786.133,775.879,-9.277,614.258
1741606167.944,-276.367,799.805,-33.203,999.512
1741606167.947,-871.582,-984.375,-102.051,-786.621
1741606167.951,682.617,250.0,-37.598,-998.535
1741606167.955,886.23,999.512,0.977,692.871
1741606167.959,-751.465,-850.098,-68.359,-109.375
1741606167.963,-78.613,-416.992,-71.289,-1000.0
1741606167.967,-120.117,341.797,-62.988,-1000.0
1741606167.971,16.602,-289.062,-18.066,-851.562
1741606167.975,543.457,683.594,9.766,678.223
1741606167.979,-772.461,-615.234,-72.266,-75.195
1741606167.983,65.918,-169.922,-56.152,-1000.0
1741606167.987,-191.895,128.418,-36.133,-1000.0
1741606167.991,342.773,271.973,-15.625,-674.805
1741606167.994,522.949,743.164,-13.672,931.152
1741606167.998,-1000.0,-1000.0,-59.082,4.883
1741606168.002,306.641,107.422,-35.645,-1000.0
1741606168.006,891.602,978.516,-34.18,574.707
1741606168.01,-615.723,-700.684,-23.926,-406.25
1741606168.026,428.711,291.992,38.574,-528.809
1741606168.03,-287.109,-186.523,-19.531,764.16
1741606168.034,-673.34,-949.707,-51.27,-657.715
1741606168.038,237.793,487.793,-15.137,-1000.0
1741606168.042,-324.707,-413.574,-2.93,-912.109
1741606168.046,607.422,487.305,26.855,381.348
1741606168.05,-358.398,-93.262,-27.344,999.512
1741606168.053,-217.285,-993.652,-77.148,926.27
1741606168.057,424.316,517.578,-44.922,965.332
1741606168.061,-721.68,-540.039,-41.016,-664.551
1741606168.065,528.809,209.473,-11.23,-810.059
1741606168.069,544.434,999.512,3.418,943.848
1741606168.026,428.711,291.992,38.574,-528.809
1741606168.03,-287.109,-186.523,-19.531,764.16
1741606168.034,-673.34,-949.707,-51.27,-657.715
1741606168.038,237.793,487.793,-15.137,-1000.0
1741606168.042,-324.707,-413.574,-2.93,-912.109
1741606168.046,607.422,487.305,26.855,381.348
1741606168.05,-358.398,-93.262,-27.344,999.512
1741606168.053,-217.285,-993.652,-77.148,926.27
1741606168.057,424.316,517.578,-44.922,965.332
1741606168.061,-721.68,-540.039,-41.016,-664.551
1741606168.065,528.809,209.473,-11.23,-810.059
1741606168.069,544.434,999.512,3.418,943.848
1741606168.086,-1000.0,-875.488,-62.012,53.711
1741606168.09,-167.48,-732.91,-85.449,-1000.0
1741606168.094,166.504,541.992,-31.738,-1000.0
1741606168.098,-242.188,-389.648,-9.766,-872.559
1741606168.102,517.578,408.691,-5.371,562.988
1741606168.106,-321.777,30.273,-25.391,999.512
1741606168.11,187.012,256.348,-29.785,991.211
1741606168.113,-257.324,129.883,-50.781,392.578
1741606168.117,-456.543,-1000.0,-49.805,-1000.0
1741606168.121,298.34,-552.246,-5.371,-911.133
1741606168.125,906.25,999.512,42.969,713.379
1741606168.129,-148.438,101.562,15.625,880.371
1741606168.086,-1000.0,-875.488,-62.012,53.711
1741606168.09,-167.48,-732.91,-85.449,-1000.0
1741606168.094,166.504,541.992,-31.738,-1000.0
1741606168.098,-242.188,-389.648,-9.766,-872.559
1741606168.102,517.578,408.691,-5.371,562.988
1741606168.106,-321.777,30.273,-25.391,999.512
1741606168.11,187.012,256.348,-29.785,991.211
1741606168.113,-257.324,129.883,-50.781,392.578
1741606168.117,-456.543,-1000.0,-49.805,-1000.0
1741606168.121,298.34,-552.246,-5.371,-911.133
1741606168.125,906.25,999.512,42.969,713.379
1741606168.129,-148.438,101.562,15.625,880.371
1741606168.132,-467.285,-531.738,-25.879,-608.887
1741606168.136,-16.602,107.91,-10.742,-1000.0
1741606168.14,-142.09,-309.57,-23.926,-843.262
1741606168.144,667.969,973.145,29.297,449.219
1741606168.148,-339.844,-185.547,6.348,999.512
1741606168.152,59.082,50.781,-16.113,999.512
1741606168.156,-465.82,348.633,-23.926,434.082
1741606168.159,-742.676,-1000.0,-31.25,-1000.0
1741606168.163,931.641,424.316,31.738,-416.992
1741606168.167,251.953,604.004,41.504,999.512
1741606168.171,-1000.0,-1000.0,-0.977,-123.047
1741606168.175,-20.996,-5.371,-5.371,-1000.0
1741606168.19,-173.34,132.812,15.625,-1000.0
1741606168.194,178.223,99.121,75.684,-167.969
1741606168.198,36.621,169.922,64.941,989.258
1741606168.202,-257.324,-61.035,19.043,999.512
1741606168.206,-646.973,-397.461,-18.066,62.012
1741606168.21,-5.371,-255.859,21.973,-1000.0
1741606168.214,886.719,955.566,106.934,395.996
1741606168.217,-848.145,-637.207,26.367,637.207
1741606168.221,-718.262,-1000.0,-46.387,-936.523
1741606168.225,202.637,403.809,-24.902,-982.91
1741606168.229,-533.691,-129.395,-25.879,-1000.0
1741606168.233,459.961,31.25,9.277,-216.797
1741606168.19,-173.34,132.812,15.625,-1000.0
1741606168.194,178.223,99.121,75.684,-167.969
1741606168.198,36.621,169.922,64.941,989.258
1741606168.202,-257.324,-61.035,19.043,999.512
1741606168.206,-646.973,-397.461,-18.066,62.012
1741606168.21,-5.371,-255.859,21.973,-1000.0
1741606168.214,886.719,955.566,106.934,395.996
1741606168.217,-848.145,-637.207,26.367,637.207
1741606168.221,-718.262,-1000.0,-46.387,-936.523
1741606168.225,202.637,403.809,-24.902,-982.91
1741606168.229,-533.691,-129.395,-25.879,-1000.0
1741606168.233,459.961,31.25,9.277,-216.797
1741606168.236,51.27,158.203,16.602,966.309
1741606168.24,-163.574,-337.891,-28.32,999.512
1741606168.244,34.18,131.836,-50.293,459.961
1741606168.248,-417.969,-624.512,-67.871,-839.355
1741606168.252,57.129,-130.859,-41.016,-1000.0
1741606168.256,72.754,109.375,-18.066,-476.562
1741606168.26,413.574,718.75,-50.781,999.512
1741606168.263,-893.066,-519.043,-97.656,241.699
1741606168.267,-611.816,-1000.0,-115.234,-1000.0
1741606168.271,754.395,160.645,-57.129,-354.492
1741606168.275,445.801,743.164,-26.367,999.512
1741606168.279,-1000.0,-1000.0,-84.961,221.191
1741606168.236,51.27,158.203,16.602,966.309
1741606168.24,-163.574,-337.891,-28.32,999.512
1741606168.244,34.18,131.836,-50.293,459.961
1741606168.248,-417.969,-624.512,-67.871,-839.355
1741606168.252,57.129,-130.859,-41.016,-1000.0
1741606168.256,72.754,109.375,-18.066,-476.562
1741606168.26,413.574,718.75,-50.781,999.512
1741606168.263,-893.066,-519.043,-97.656,241.699
1741606168.267,-611.816,-1000.0,-115.234,-1000.0
1741606168.271,754.395,160.645,-57.129,-354.492
1741606168.275,445.801,743.164,-26.367,999.512
1741606168.279,-1000.0,-1000.0,-84.961,221.191
1741606168.281,-131.348,-371.582,-114.746,-1000.0
1741606168.285,514.648,999.512,-77.637,-918.945
1741606168.289,-388.672,-189.941,-55.176,-1000.0
1741606168.293,514.16,-113.281,-29.297,-201.172
1741606168.297,76.172,123.047,-44.434,946.777
1741606168.301,-120.117,122.07,-61.523,999.512
1741606168.305,-302.246,380.859,-75.684,761.719
1741606168.308,-449.219,-770.996,-68.848,-861.328
1741606168.312,826.66,709.473,-16.602,2.441
1741606168.316,-610.352,-321.777,-65.43,742.676
1741606168.32,-423.34,-669.434,-81.055,-837.402
1741606168.324,231.445,491.699,-63.965,-1000.0
1741606168.325,-267.578,-499.023,-56.641,-957.52
1741606168.329,716.309,684.57,-6.348,257.812
1741606168.333,-197.266,58.594,-44.922,999.512
1741606168.337,22.949,-141.113,-84.961,999.512
1741606168.341,-385.254,-8.789,-82.031,80.078
1741606168.345,-6.348,-185.547,-37.109,-612.305
1741606168.349,612.305,925.781,-13.184,864.258
1741606168.352,-339.355,-576.66,-67.383,979.004
1741606168.356,189.941,-50.781,-83.984,999.512
1741606168.36,-621.094,-414.062,-94.238,-48.34
1741606168.364,263.672,-155.762,-61.523,-739.258
1741606168.368,586.914,852.539,-9.277,793.457
1741606168.325,-267.578,-499.023,-56.641,-957.52
1741606168.329,716.309,684.57,-6.348,257.812
1741606168.333,-197.266,58.594,-44.922,999.512
1741606168.337,22.949,-141.113,-84.961,999.512
1741606168.341,-385.254,-8.789,-82.031,80.078
1741606168.345,-6.348,-185.547,-37.109,-612.305
1741606168.349,612.305,925.781,-13.184,864.258
1741606168.352,-339.355,-576.66,-67.383,979.004
1741606168.356,189.941,-50.781,-83.984,999.512
1741606168.36,-621.094,-414.062,-94.238,-48.34
1741606168.364,263.672,-155.762,-61.523,-739.258
1741606168.368,586.914,852.539,-9.277,793.457
1741606168.37,-411.133,-725.098,-31.25,985.352
1741606168.374,234.863,291.992,-35.156,999.512
1741606168.378,-670.898,-175.293,-59.082,147.949
1741606168.382,-82.031,-527.832,-61.035,-1000.0
1741606168.386,999.512,999.512,-9.277,40.527
1741606168.39,192.383,959.961,-20.508,999.512
1741606168.394,-864.746,-461.914,-80.566,212.402
1741606168.397,-561.523,-1000.0,-104.492,-1000.0
1741606168.401,977.539,749.512,-71.777,-320.312
1741606168.405,156.738,278.32,-27.344,976.074
1741606168.409,-126.953,-420.898,-12.695,967.773
1741606168.413,260.254,416.016,-34.668,974.609
1741606168.416,-948.73,-1000.0,-98.633,-472.656
1741606168.42,525.879,62.5,-81.055,-588.379
1741606168.424,421.387,647.949,-44.922,914.062
1741606168.428,-233.887,-533.691,-62.988,999.512
1741606168.432,11.719,-226.074,-87.891,869.141
1741606168.436,-547.363,-557.617,-72.266,-622.559
1741606168.44,814.453,834.961,-49.316,-260.254
1741606168.443,67.871,65.918,-61.035,999.512
1741606168.447,78.613,-160.156,-34.18,999.512
1741606168.451,-76.66,242.676,-56.641,482.91
1741606168.455,-765.625,-1000.0,-103.516,-1000.0
1741606168.459,905.273,688.477,-65.918,-713.379
1741606168.461,284.668,301.758,-21.973,649.902
1741606168.465,-44.922,-78.613,-14.648,999.512
1741606168.469,-186.035,50.293,-44.922,395.02
1741606168.473,-385.254,-484.863,-56.152,-859.375
1741606168.477,-107.91,-104.98,-69.824,-1000.0
1741606168.481,42.969,-14.648,-24.902,-231.934
1741606168.485,349.121,659.18,2.441,999.512
1741606168.488,-577.637,-988.77,-89.844,884.277
1741606168.492,413.086,-5.859,-103.027,999.512
1741606168.496,-389.648,240.723,-68.359,583.984
1741606168.5,-450.195,-680.664,-32.227,-973.633
1741606168.504,947.754,999.512,20.02,131.348
1741606168.52,-503.906,-50.781,-25.391,999.512
1741606168.524,-719.727,-1000.0,-76.66,-530.273
1741606168.528,208.008,461.426,-73.242,-1000.0
1741606168.532,-247.559,-213.867,-67.871,-1000.0
1741606168.536,710.938,315.918,-11.23,9.277
1741606168.54,-42.969,610.84,-6.836,999.512
1741606168.544,-305.664,-328.125,-62.988,999.512
1741606168.547,79.59,84.473,-78.613,728.027
1741606168.551,-649.902,-998.535,-62.5,-909.18
1741606168.555,759.766,288.086,13.672,-291.016
1741606168.559,19.043,407.227,-28.809,999.512
1741606168.563,-1000.0,-1000.0,-81.543,-282.715
1741606168.52,-503.906,-50.781,-25.391,999.512
1741606168.524,-719.727,-1000.0,-76.66,-530.273
1741606168.528,208.008,461.426,-73.242,-1000.0
1741606168.532,-247.559,-213.867,-67.871,-1000.0
1741606168.536,710.938,315.918,-11.23,9.277
1741606168.54,-42.969,610.84,-6.836,999.512
1741606168.544,-305.664,-328.125,-62.988,999.512
1741606168.547,79.59,84.473,-78.613,728.027
1741606168.551,-649.902,-998.535,-62.5,-909.18
1741606168.555,759.766,288.086,13.672,-291.016
1741606168.559,19.043,407.227,-28.809,999.512
1741606168.563,-1000.0,-1000.0,-81.543,-282.715
1741606168.566,449.219,-34.18,-52.246,-854.004
1741606168.57,734.863,999.512,-20.508,696.289
1741606168.574,-304.688,-343.262,-13.672,980.469
1741606168.578,407.227,-80.566,-28.809,999.512
1741606168.582,-412.109,22.949,-63.965,195.312
1741606168.586,-91.309,-168.457,-43.457,-1000.0
1741606168.59,724.121,782.227,-20.996,515.625
1741606168.593,-860.84,-983.398,-56.152,21.973
1741606168.597,281.738,-21.484,-39.551,-355.469
1741606168.601,97.656,351.074,-57.617,999.512
1741606168.605,-987.793,-1000.0,-72.266,-524.414
1741606168.609,761.719,466.797,-38.086,-378.418
1741606168.566,449.219,-34.18,-52.246,-854.004
1741606168.57,734.863,999.512,-20.508,696.289
1741606168.574,-304.688,-343.262,-13.672,980.469
1741606168.578,407.227,-80.566,-28.809,999.512
1741606168.582,-412.109,22.949,-63.965,195.312
1741606168.586,-91.309,-168.457,-43.457,-1000.0
1741606168.59,724.121,782.227,-20.996,515.625
1741606168.593,-860.84,-983.398,-56.152,21.973
1741606168.597,281.738,-21.484,-39.551,-355.469
1741606168.601,97.656,351.074,-57.617,999.512
1741606168.605,-987.793,-1000.0,-72.266,-524.414
1741606168.609,761.719,466.797,-38.086,-378.418
1741606168.611,142.578,287.598,-6.348,999.512
1741606168.615,-107.91,-303.223,3.906,999.023
1741606168.619,140.625,227.539,-22.949,839.355
1741606168.623,-788.574,-948.73,-65.43,-698.242
1741606168.627,697.266,259.766,-40.039,-474.609
1741606168.631,758.789,999.512,26.855,999.512
1741606168.635,-437.988,78.613,4.883,968.75
1741606168.638,-386.719,-1000.0,-79.102,930.176
1741606168.642,350.586,-106.445,-89.355,905.762
1741606168.646,237.305,964.844,-41.016,999.512
1741606168.65,-880.371,-722.168,5.371,83.496
1741606168.654,32.715,-153.809,2.441,-435.059
1741606168.611,142.578,287.598,-6.348,999.512
1741606168.615,-107.91,-303.223,3.906,999.023
1741606168.619,140.625,227.539,-22.949,839.355
1741606168.623,-788.574,-948.73,-65.43,-698.242
1741606168.627,697.266,259.766,-40.039,-474.609
1741606168.631,758.789,999.512,26.855,999.512
1741606168.635,-437.988,78.613,4.883,968.75
1741606168.638,-386.719,-1000.0,-79.102,930.176
1741606168.642,350.586,-106.445,-89.355,905.762
1741606168.646,237.305,964.844,-41.016,999.512
1741606168.65,-880.371,-722.168,5.371,83.496
1741606168.654,32.715,-153.809,2.441,-435.059
1741606168.655,331.543,429.199,-34.18,999.512
1741606168.659,-1000.0,-1000.0,-61.035,-75.195
1741606168.663,20.508,-326.66,-56.641,-967.773
1741606168.667,841.309,999.512,-8.301,595.215
1741606168.671,-204.102,-80.078,8.789,999.512
1741606168.675,111.816,176.758,-7.324,959.473
1741606168.679,-520.508,196.289,-35.645,835.938
1741606168.682,-840.332,-1000.0,-61.523,-745.605
1741606168.686,820.312,346.68,-32.715,-301.758
1741606168.69,219.727,610.84,10.742,999.512
1741606168.694,-392.09,-705.078,-25.879,886.23
1741606168.698,291.016,345.703,-59.57,999.512
1741606168.655,331.543,429.199,-34.18,999.512
1741606168.659,-1000.0,-1000.0,-61.035,-75.195
1741606168.663,20.508,-326.66,-56.641,-967.773
1741606168.667,841.309,999.512,-8.301,595.215
1741606168.671,-204.102,-80.078,8.789,999.512
1741606168.675,111.816,176.758,-7.324,959.473
1741606168.679,-520.508,196.289,-35.645,835.938
1741606168.682,-840.332,-1000.0,-61.523,-745.605
1741606168.686,820.312,346.68,-32.715,-301.758
1741606168.69,219.727,610.84,10.742,999.512
1741606168.694,-392.09,-705.078,-25.879,886.23
1741606168.698,291.016,345.703,-59.57,999.512
1741606168.701,-813.477,-560.547,-64.453,-42.969
1741606168.705,308.105,55.664,5.371,-301.27
1741606168.709,139.648,342.773,36.621,999.512
1741606168.713,-371.582,-770.996,-38.086,953.125
1741606168.717,160.645,28.809,-58.594,999.512
1741606168.721,-827.637,-858.887,-36.621,-302.734
1741606168.725,493.652,380.371,-13.672,-309.082
1741606168.728,118.652,127.441,-20.02,999.512
1741606168.732,87.891,-287.109,-30.762,991.211
1741606168.736,118.164,357.91,-37.109,882.324
1741606168.74,-884.766,-1000.0,-54.199,-650.879
1741606168.744,686.523,271.973,-31.25,-406.738
1741606168.745,228.027,253.418,7.324,990.234
1741606168.749,-164.062,-77.148,6.348,999.512
1741606168.753,-442.383,-113.281,-53.711,162.598
1741606168.757,-132.324,-138.672,-51.27,-824.707
1741606168.761,286.621,260.254,-34.18,563.477
1741606168.765,-13.184,-72.754,13.672,999.512
1741606168.769,128.418,424.316,18.555,923.34
1741606168.772,-978.516,-1000.0,-78.125,-228.027
1741606168.776,229.492,-189.453,-87.891,-1000.0
1741606168.78,180.176,651.855,-44.922,-1000.0
1741606168.784,62.012,-193.359,22.949,-660.645
1741606168.788,444.824,652.344,22.949,779.297
1741606168.79,-441.406,-525.879,-40.039,981.934
1741606168.794,334.961,62.5,-40.527,977.051
1741606168.798,-471.68,223.145,-16.113,844.238
1741606168.802,-604.004,-895.996,1.465,-514.16
1741606168.806,668.945,811.523,4.395,164.062
1741606168.81,-543.945,-68.848,-27.344,999.512
1741606168.814,46.387,-243.652,-29.297,983.398
1741606168.817,111.816,358.887,-51.758,758.789
1741606168.821,-674.805,-1000.0,-55.664,-845.703
1741606168.825,763.184,237.305,2.441,-242.188
1741606168.829,-117.676,143.555,-5.371,999.512
1741606168.833,-30.273,-127.441,-31.25,999.512
1741606168.79,-441.406,-525.879,-40.039,981.934
1741606168.794,334.961,62.5,-40.527,977.051
1741606168.798,-471.68,223.145,-16.113,844.238
1741606168.802,-604.004,-895.996,1.465,-514.16
1741606168.806,668.945,811.523,4.395,164.062
1741606168.81,-543.945,-68.848,-27.344,999.512
1741606168.814,46.387,-243.652,-29.297,983.398
1741606168.817,111.816,358.887,-51.758,758.789
1741606168.821,-674.805,-1000.0,-55.664,-845.703
1741606168.825,763.184,237.305,2.441,-242.188
1741606168.829,-117.676,143.555,-5.371,999.512
1741606168.833,-30.273,-127.441,-31.25,999.512
1741606168.836,-252.441,24.414,-56.152,175.781
1741606168.84,-81.543,-95.703,4.883,-403.809
1741606168.844,241.699,340.332,14.648,916.992
1741606168.848,-315.43,-628.418,-63.477,999.512
1741606168.852,44.922,-148.438,-49.316,961.914
1741606168.856,-612.305,-645.508,-26.367,-417.48
1741606168.86,586.914,670.41,6.836,-212.891
1741606168.863,26.855,-35.156,-10.742,999.512
1741606168.867,291.504,-207.52,-22.461,999.512
1741606168.871,-9.277,297.363,-36.621,649.414
1741606168.875,-736.328,-1000.0,-70.312,-940.43
1741606168.879,896.484,576.66,-27.832,-244.629
1741606168.836,-252.441,24.414,-56.152,175.781
1741606168.84,-81.543,-95.703,4.883,-403.809
1741606168.844,241.699,340.332,14.648,916.992
1741606168.848,-315.43,-628.418,-63.477,999.512
1741606168.852,44.922,-148.438,-49.316,961.914
1741606168.856,-612.305,-645.508,-26.367,-417.48
1741606168.86,586.914,670.41,6.836,-212.891
1741606168.863,26.855,-35.156,-10.742,999.512
1741606168.867,291.504,-207.52,-22.461,999.512
1741606168.871,-9.277,297.363,-36.621,649.414
1741606168.875,-736.328,-1000.0,-70.312,-940.43
1741606168.879,896.484,576.66,-27.832,-244.629
1741606168.88,-18.066,119.629,-19.043,999.512
1741606168.884,-24.902,-203.125,-34.18,999.512
1741606168.888,33.203,287.598,-57.617,771.484
1741606168.892,-767.578,-983.398,-83.984,-791.992
1741606168.896,823.73,360.84,-38.574,-282.715
1741606168.9,601.562,999.512,14.16,999.512
1741606168.904,-529.297,-92.773,-27.344,935.547
1741606168.907,-290.527,-1000.0,-63.477,952.148
1741606168.911,154.297,-676.758,-66.895,911.133
1741606168.915,414.062,824.219,-51.27,999.512
1741606168.919,-529.785,56.152,-10.254,639.16
1741606168.923,-836.426,-1000.0,-36.133,-946.777
1741606168.88,-18.066,119.629,-19.043,999.512
1741606168.884,-24.902,-203.125,-34.18,999.512
1741606168.888,33.203,287.598,-57.617,771.484
1741606168.892,-767.578,-983.398,-83.984,-791.992
1741606168.896,823.73,360.84,-38.574,-282.715
1741606168.9,601.562,999.512,14.16,999.512
1741606168.904,-529.297,-92.773,-27.344,935.547
1741606168.907,-290.527,-1000.0,-63.477,952.148
1741606168.911,154.297,-676.758,-66.895,911.133
1741606168.915,414.062,824.219,-51.27,999.512
1741606168.919,-529.785,56.152,-10.254,639.16
1741606168.923,-836.426,-1000.0,-36.133,-946.777
1741606168.927,725.098,370.605,-68.848,-397.461
1741606168.931,380.859,913.086,-56.152,999.512
1741606168.935,-986.328,-929.199,-74.707,-101.074
1741606168.939,347.168,-86.426,-24.902,-416.992
1741606168.943,200.684,170.41,-14.648,978.516
1741606168.947,-198.242,-54.199,-22.461,999.512
1741606168.951,-437.5,109.863,-36.621,349.609
1741606168.954,-573.73,-984.863,-47.852,-1000.0
1741606168.958,886.719,707.52,23.438,10.742
1741606168.962,-157.227,632.812,11.23,999.512
1741606168.966,-502.93,-826.172,-36.621,855.469
1741606168.97,256.348,284.668,-36.133,999.512
1741606168.927,725.098,370.605,-68.848,-397.461
1741606168.931,380.859,913.086,-56.152,999.512
1741606168.935,-986.328,-929.199,-74.707,-101.074
1741606168.939,347.168,-86.426,-24.902,-416.992
1741606168.943,200.684,170.41,-14.648,978.516
1741606168.947,-198.242,-54.199,-22.461,999.512
1741606168.951,-437.5,109.863,-36.621,349.609
1741606168.954,-573.73,-984.863,-47.852,-1000.0
1741606168.958,886.719,707.52,23.438,10.742
1741606168.962,-157.227,632.812,11.23,999.512
1741606168.966,-502.93,-826.172,-36.621,855.469
1741606168.97,256.348,284.668,-36.133,999.512
1741606168.974,-698.73,-388.184,-41.992,-37.109
1741606168.978,282.715,43.457,-0.977,-291.016
1741606168.982,23.438,163.086,-3.906,984.375
1741606168.986,-33.203,-296.387,-41.992,999.512
1741606168.99,2.93,15.625,-64.941,383.301
1741606168.994,-179.688,-171.387,-27.344,-686.035
1741606168.998,596.191,859.375,36.621,584.473
1741606169.001,-425.781,-826.172,-8.789,999.512
1741606169.005,461.426,-95.215,-22.461,999.512
1741606169.009,-275.391,188.965,-51.758,351.074
1741606169.013,-450.195,-699.707,-70.801,-1000.0
1741606169.017,959.473,999.512,-1.465,16.602
1741606169.03,-61.523,96.68,-7.324,999.512
1741606169.034,-80.566,26.367,-18.066,999.512
1741606169.038,-519.531,-72.266,-43.945,188.477
1741606169.042,-282.227,-677.734,-51.758,-1000.0
1741606169.046,862.305,902.832,-8.789,153.32
1741606169.05,64.453,993.652,-6.348,999.512
1741606169.054,-446.777,-327.637,-47.852,907.227
1741606169.057,-209.961,-1000.0,-79.102,962.891
1741606169.061,441.895,52.734,-51.27,968.262
1741606169.065,-25.879,512.207,-22.461,977.539
1741606169.069,-87.402,-424.316,-14.16,893.555
1741606169.073,431.152,463.379,-27.832,999.512
1741606169.076,-1000.0,-694.336,-59.57,545.41
1741606169.08,-435.547,-713.379,-46.387,-724.609
1741606169.084,945.801,999.512,-1.465,369.629
1741606169.088,-122.07,435.547,0.977,999.512
1741606169.092,-406.25,-1000.0,-23.926,890.625
1741606169.096,246.582,117.188,-29.297,974.609
1741606169.1,-145.996,17.578,-46.875,966.797
1741606169.103,50.293,-95.215,-46.387,966.797
1741606169.107,-4.395,-356.934,-35.645,967.285
1741606169.111,260.254,184.082,-39.551,975.098
1741606169.115,-379.395,32.715,-53.711,889.648
1741606169.119,172.363,-122.559,-45.898,999.512
1741606169.076,-1000.0,-694.336,-59.57,545.41
1741606169.08,-435.547,-713.379,-46.387,-724.609
1741606169.084,945.801,999.512,-1.465,369.629
1741606169.088,-122.07,435.547,0.977,999.512
1741606169.092,-406.25,-1000.0,-23.926,890.625
1741606169.096,246.582,117.188,-29.297,974.609
1741606169.1,-145.996,17.578,-46.875,966.797
1741606169.103,50.293,-95.215,-46.387,966.797
1741606169.107,-4.395,-356.934,-35.645,967.285
1741606169.111,260.254,184.082,-39.551,975.098
1741606169.115,-379.395,32.715,-53.711,889.648
1741606169.119,172.363,-122.559,-45.898,999.512
1741606169.12,-312.5,12.207,-50.781,213.867
1741606169.124,-107.91,-102.051,-10.254,-349.609
1741606169.128,167.969,262.695,-8.789,940.918
1741606169.132,-278.32,-573.73,-71.289,999.512
1741606169.136,183.105,268.555,-58.105,999.512
1741606169.14,-618.164,-620.605,-45.41,-442.871
1741606169.144,704.59,431.152,3.418,-232.91
1741606169.147,-37.109,287.109,-19.043,890.137
1741606169.151,-1000.0,-1000.0,-78.613,-714.355
1741606169.155,525.391,2.441,-68.848,-1000.0
1741606169.159,884.766,999.512,-40.039,614.258
1741606169.163,-675.293,-385.254,-17.578,485.352
1741606169.181,-647.949,-1000.0,-39.551,-1000.0
1741606169.185,914.062,721.191,-33.691,-72.754
1741606169.189,-189.453,177.246,-34.668,791.992
1741606169.193,-554.199,-702.637,-54.199,-891.113
1741606169.197,999.512,999.512,9.277,-87.402
1741606169.201,71.289,535.156,21.973,999.512
1741606169.205,-1000.0,-1000.0,-47.363,0.488
1741606169.208,48.34,-203.613,-70.312,-1000.0
1741606169.212,18.066,78.613,-65.43,-1000.0
1741606169.216,-52.246,-213.867,-17.09,-488.281
1741606169.22,574.219,865.234,29.785,999.512
1741606169.224,-974.121,-662.109,-27.344,211.426
1741606169.181,-647.949,-1000.0,-39.551,-1000.0
1741606169.185,914.062,721.191,-33.691,-72.754
1741606169.189,-189.453,177.246,-34.668,791.992
1741606169.193,-554.199,-702.637,-54.199,-891.113
1741606169.197,999.512,999.512,9.277,-87.402
1741606169.201,71.289,535.156,21.973,999.512
1741606169.205,-1000.0,-1000.0,-47.363,0.488
1741606169.208,48.34,-203.613,-70.312,-1000.0
1741606169.212,18.066,78.613,-65.43,-1000.0
1741606169.216,-52.246,-213.867,-17.09,-488.281
1741606169.22,574.219,865.234,29.785,999.512
1741606169.224,-974.121,-662.109,-27.344,211.426
1741606169.21,-210.449,-676.27,-54.688,-1000.0
1741606169.214,314.453,754.883,-44.434,-909.668
1741606169.218,-402.832,-374.512,-37.598,-1000.0
1741606169.222,742.188,294.434,-14.16,-61.035
1741606169.226,-104.98,136.719,-68.359,288.574
1741606169.23,-180.664,-131.836,-67.871,-1000.0
1741606169.234,-183.105,165.039,-42.48,-1000.0
1741606169.237,-188.965,-559.082,-36.133,-965.332
1741606169.241,238.77,311.035,-26.855,-1000.0
1741606169.245,-505.859,-806.152,-68.359,-1000.0
1741606169.249,66.406,134.277,-75.684,-1000.0
1741606169.253,-408.203,-129.395,-84.961,-1000.0
1741606169.257,234.863,-2.93,-43.457,-1000.0
1741606169.261,-126.465,481.445,9.277,-1000.0
1741606169.265,-629.883,-1000.0,-34.18,-1000.0
1741606169.269,321.777,16.602,-84.961,-1000.0
1741606169.273,-235.84,108.398,-90.82,-1000.0
1741606169.277,13.672,-21.973,-21.973,-1000.0
1741606169.281,13.184,626.953,13.184,-1000.0
1741606169.284,-708.496,-978.027,-64.453,-1000.0
1741606169.288,-7.324,-903.809,-98.145,-1000.0
1741606169.292,124.512,647.461,-61.523,-918.457
1741606169.296,-462.402,-101.074,-30.762,-1000.0
1741606169.3,479.004,-66.895,-6.348,-403.809
1741606169.257,234.863,-2.93,-43.457,-1000.0
1741606169.261,-126.465,481.445,9.277,-1000.0
1741606169.265,-629.883,-1000.0,-34.18,-1000.0
1741606169.269,321.777,16.602,-84.961,-1000.0
1741606169.273,-235.84,108.398,-90.82,-1000.0
1741606169.277,13.672,-21.973,-21.973,-1000.0
1741606169.281,13.184,626.953,13.184,-1000.0
1741606169.284,-708.496,-978.027,-64.453,-1000.0
1741606169.288,-7.324,-903.809,-98.145,-1000.0
1741606169.292,124.512,647.461,-61.523,-918.457
1741606169.296,-462.402,-101.074,-30.762,-1000.0
1741606169.3,479.004,-66.895,-6.348,-403.809
1741606169.316,157.715,149.414,-32.715,397.461
1741606169.32,-261.719,-138.184,-45.898,-878.418
1741606169.324,-83.984,-4.883,-52.246,-1000.0
1741606169.328,87.891,-107.91,-45.898,-935.547
1741606169.332,170.898,444.336,19.531,-1000.0
1741606169.336,-228.027,-170.898,16.602,-1000.0
1741606169.34,-35.645,35.156,-52.734,-1000.0
1741606169.343,-432.617,-898.438,-90.82,-1000.0
