timestamps,TP9,AF7,AF8,TP10
1741608717.506,933.105,928.223,-53.223,931.641
1741608717.51,977.539,999.512,93.75,978.027
1741608717.514,976.562,882.324,198.242,976.074
1741608717.517,-382.324,-559.57,-479.98,-380.371
1741608717.521,-1000.0,-1000.0,-568.848,-1000.0
1741608717.525,-929.199,-930.176,-30.762,-929.688
1741608717.529,-1000.0,-1000.0,-4.395,-1000.0
1741608717.533,-928.223,-966.309,-70.312,-928.711
1741608717.506,933.105,928.223,-53.223,931.641
1741608717.51,977.539,999.512,93.75,978.027
1741608717.514,976.562,882.324,198.242,976.074
1741608717.517,-382.324,-559.57,-479.98,-380.371
1741608717.521,-1000.0,-1000.0,-568.848,-1000.0
1741608717.525,-929.199,-930.176,-30.762,-929.688
1741608717.529,-1000.0,-1000.0,-4.395,-1000.0
1741608717.533,-928.223,-966.309,-70.312,-928.711
1741608717.535,-1000.0,-1000.0,-210.938,-1000.0
1741608717.539,-544.922,-18.066,117.676,-587.402
1741608717.543,880.371,999.512,668.457,849.609
1741608717.547,999.512,943.359,170.41,999.512
1741608717.551,930.176,913.574,-256.836,925.781
1741608717.555,910.645,980.469,-79.102,914.551
1741608717.559,999.512,978.027,140.137,999.512
1741608717.562,680.664,-364.746,-94.238,666.016
1741608717.566,-794.922,-1000.0,-523.438,-789.551
1741608717.57,-1000.0,-947.754,-395.996,-1000.0
1741608717.574,-868.164,-936.035,-205.566,-870.605
1741608717.578,-1000.0,-1000.0,-198.73,-1000.0
1741608717.535,-1000.0,-1000.0,-210.938,-1000.0
1741608717.539,-544.922,-18.066,117.676,-587.402
1741608717.543,880.371,999.512,668.457,849.609
1741608717.547,999.512,943.359,170.41,999.512
1741608717.551,930.176,913.574,-256.836,925.781
1741608717.555,910.645,980.469,-79.102,914.551
1741608717.559,999.512,978.027,140.137,999.512
1741608717.562,680.664,-364.746,-94.238,666.016
1741608717.566,-794.922,-1000.0,-523.438,-789.551
1741608717.57,-1000.0,-947.754,-395.996,-1000.0
1741608717.574,-868.164,-936.035,-205.566,-870.605
1741608717.578,-1000.0,-1000.0,-198.73,-1000.0
1741608717.594,-798.828,-668.457,153.32,-803.711
1741608717.598,678.223,780.762,528.32,669.922
1741608717.602,999.512,999.512,145.02,999.512
1741608717.606,903.32,915.039,-235.84,904.297
1741608717.61,951.66,616.699,-217.773,953.125
1741608717.614,959.473,856.445,269.531,959.473
1741608717.618,999.512,978.027,277.832,999.512
1741608717.621,-280.273,-503.906,-469.238,-267.578
1741608717.625,-1000.0,-1000.0,-820.801,-1000.0
1741608717.629,-934.082,-926.758,-303.223,-936.035
1741608717.633,-1000.0,-1000.0,211.914,-1000.0
1741608717.637,-1000.0,-1000.0,154.785,-1000.0
1741608717.594,-798.828,-668.457,153.32,-803.711
1741608717.598,678.223,780.762,528.32,669.922
1741608717.602,999.512,999.512,145.02,999.512
1741608717.606,903.32,915.039,-235.84,904.297
1741608717.61,951.66,616.699,-217.773,953.125
1741608717.614,959.473,856.445,269.531,959.473
1741608717.618,999.512,978.027,277.832,999.512
1741608717.621,-280.273,-503.906,-469.238,-267.578
1741608717.625,-1000.0,-1000.0,-820.801,-1000.0
1741608717.629,-934.082,-926.758,-303.223,-936.035
1741608717.633,-1000.0,-1000.0,211.914,-1000.0
1741608717.637,-1000.0,-1000.0,154.785,-1000.0
1741608717.639,-954.102,-942.383,-117.188,-958.008
1741608717.643,-1000.0,-1000.0,-79.102,-1000.0
1741608717.647,-975.586,-888.184,-84.961,-997.559
1741608717.651,421.387,568.359,327.148,372.559
1741608717.655,999.512,999.512,536.133,999.512
1741608717.659,862.793,837.891,235.84,866.699
1741608717.663,966.797,999.512,98.145,963.867
1741608717.666,999.512,884.766,-104.004,999.512
1741608717.67,-252.93,-555.664,-381.836,-221.68
1741608717.674,-1000.0,-1000.0,-372.07,-1000.0
1741608717.678,-880.371,-864.258,-165.039,-890.137
1741608717.682,-1000.0,-1000.0,-132.324,-1000.0
1741608717.639,-954.102,-942.383,-117.188,-958.008
1741608717.643,-1000.0,-1000.0,-79.102,-1000.0
1741608717.647,-975.586,-888.184,-84.961,-997.559
1741608717.651,421.387,568.359,327.148,372.559
1741608717.655,999.512,999.512,536.133,999.512
1741608717.659,862.793,837.891,235.84,866.699
1741608717.663,966.797,999.512,98.145,963.867
1741608717.666,999.512,884.766,-104.004,999.512
1741608717.67,-252.93,-555.664,-381.836,-221.68
1741608717.674,-1000.0,-1000.0,-372.07,-1000.0
1741608717.678,-880.371,-864.258,-165.039,-890.137
1741608717.682,-1000.0,-1000.0,-132.324,-1000.0
1741608717.684,-912.598,-848.145,-94.238,-942.871
1741608717.688,530.273,615.723,444.824,479.98
1741608717.692,999.512,999.512,429.688,999.512
1741608717.696,891.602,896.973,-62.012,893.066
1741608717.7,999.023,976.562,-36.133,997.559
1741608717.704,895.996,921.387,1.953,898.438
1741608717.708,999.512,999.512,139.16,999.512
1741608717.711,701.172,114.746,10.254,716.309
1741608717.715,-777.344,-1000.0,-627.441,-757.812
1741608717.719,-1000.0,-983.398,-367.188,-1000.0
1741608717.723,-932.617,-976.562,-55.664,-932.129
1741608717.727,-1000.0,-1000.0,-128.906,-1000.0
1741608717.684,-912.598,-848.145,-94.238,-942.871
1741608717.688,530.273,615.723,444.824,479.98
1741608717.692,999.512,999.512,429.688,999.512
1741608717.696,891.602,896.973,-62.012,893.066
1741608717.7,999.023,976.562,-36.133,997.559
1741608717.704,895.996,921.387,1.953,898.438
1741608717.708,999.512,999.512,139.16,999.512
1741608717.711,701.172,114.746,10.254,716.309
1741608717.715,-777.344,-1000.0,-627.441,-757.812
1741608717.719,-1000.0,-983.398,-367.188,-1000.0
1741608717.723,-932.617,-976.562,-55.664,-932.129
1741608717.727,-1000.0,-1000.0,-128.906,-1000.0
1741608717.729,-955.078,-933.105,68.359,-965.332
1741608717.733,-1000.0,-1000.0,51.27,-1000.0
1741608717.737,-978.027,-698.73,4.395,-1000.0
1741608717.741,412.109,751.953,111.816,283.691
1741608717.745,999.512,999.512,148.438,999.512
1741608717.749,835.449,841.309,406.25,842.285
1741608717.753,999.512,999.512,219.727,999.512
1741608717.756,856.934,802.734,-324.707,857.91
1741608717.76,-597.656,-659.18,-686.523,-597.656
1741608717.764,-1000.0,-1000.0,-377.441,-1000.0
1741608717.768,-857.422,-886.719,188.965,-860.352
1741608717.772,-1000.0,-1000.0,73.242,-1000.0
1741608717.729,-955.078,-933.105,68.359,-965.332
1741608717.733,-1000.0,-1000.0,51.27,-1000.0
1741608717.737,-978.027,-698.73,4.395,-1000.0
1741608717.741,412.109,751.953,111.816,283.691
1741608717.745,999.512,999.512,148.438,999.512
1741608717.749,835.449,841.309,406.25,842.285
1741608717.753,999.512,999.512,219.727,999.512
1741608717.756,856.934,802.734,-324.707,857.91
1741608717.76,-597.656,-659.18,-686.523,-597.656
1741608717.764,-1000.0,-1000.0,-377.441,-1000.0
1741608717.768,-857.422,-886.719,188.965,-860.352
1741608717.772,-1000.0,-1000.0,73.242,-1000.0
1741608717.775,-760.742,-96.191,146.484,-794.434
1741608717.779,732.91,999.512,392.578,692.871
1741608717.783,998.535,888.184,29.297,999.512
1741608717.787,951.172,999.512,-33.203,952.637
1741608717.791,874.512,430.664,-78.613,868.164
1741608717.795,-597.656,-894.043,-291.992,-606.445
1741608717.799,-1000.0,-1000.0,-213.867,-1000.0
1741608717.802,-925.781,-952.637,-329.102,-925.781
1741608717.806,-1000.0,-1000.0,-175.293,-1000.0
1741608717.81,-1000.0,-1000.0,62.012,-1000.0
1741608717.814,-960.938,-946.777,-87.402,-968.262
1741608717.818,-1000.0,-1000.0,-222.168,-993.652
1741608717.822,-1000.0,-923.34,-309.082,-1000.0
1741608717.826,335.938,512.207,205.566,242.676
1741608717.83,999.512,999.512,546.875,999.512
1741608717.834,895.508,894.531,115.234,901.855
1741608717.838,992.188,982.91,-268.066,987.793
1741608717.842,899.414,909.668,-112.305,899.902
1741608717.846,999.512,999.512,219.238,999.512
1741608717.849,748.535,281.738,-48.828,734.863
1741608717.853,-729.004,-995.117,-634.766,-740.234
1741608717.857,-1000.0,-1000.0,-521.484,-1000.0
1741608717.861,-872.559,-895.508,-208.984,-873.535
1741608717.865,-1000.0,-1000.0,-118.652,-1000.0
1741608717.822,-1000.0,-923.34,-309.082,-1000.0
1741608717.826,335.938,512.207,205.566,242.676
1741608717.83,999.512,999.512,546.875,999.512
1741608717.834,895.508,894.531,115.234,901.855
1741608717.838,992.188,982.91,-268.066,987.793
1741608717.842,899.414,909.668,-112.305,899.902
1741608717.846,999.512,999.512,219.238,999.512
1741608717.849,748.535,281.738,-48.828,734.863
1741608717.853,-729.004,-995.117,-634.766,-740.234
1741608717.857,-1000.0,-1000.0,-521.484,-1000.0
1741608717.861,-872.559,-895.508,-208.984,-873.535
1741608717.865,-1000.0,-1000.0,-118.652,-1000.0
1741608717.864,-891.113,-748.047,83.008,-891.113
1741608717.868,563.965,726.562,447.266,564.453
1741608717.872,999.512,999.512,141.602,999.512
1741608717.876,892.578,902.344,-291.504,893.066
1741608717.88,987.793,975.098,-188.965,988.77
1741608717.884,902.344,923.34,258.301,903.32
1741608717.888,999.512,999.512,247.559,999.512
1741608717.891,335.449,76.66,-287.598,355.469
1741608717.895,-987.793,-1000.0,-796.387,-975.098
1741608717.899,-1000.0,-977.051,-436.523,-1000.0
1741608717.903,-960.449,-979.492,218.75,-958.496
1741608717.907,-1000.0,-1000.0,91.309,-1000.0
1741608717.864,-891.113,-748.047,83.008,-891.113
1741608717.868,563.965,726.562,447.266,564.453
1741608717.872,999.512,999.512,141.602,999.512
1741608717.876,892.578,902.344,-291.504,893.066
1741608717.88,987.793,975.098,-188.965,988.77
1741608717.884,902.344,923.34,258.301,903.32
1741608717.888,999.512,999.512,247.559,999.512
1741608717.891,335.449,76.66,-287.598,355.469
1741608717.895,-987.793,-1000.0,-796.387,-975.098
1741608717.899,-1000.0,-977.051,-436.523,-1000.0
1741608717.903,-960.449,-979.492,218.75,-958.496
1741608717.907,-1000.0,-1000.0,91.309,-1000.0
1741608717.909,-942.383,-937.988,-171.875,-943.848
1741608717.913,-1000.0,-1000.0,-141.113,-1000.0
1741608717.917,-891.113,-833.008,-26.855,-903.32
1741608717.921,563.477,630.371,457.52,545.41
1741608717.925,999.512,999.512,349.121,999.512
1741608717.929,892.578,904.785,155.273,893.066
1741608717.933,988.281,947.266,83.496,989.258
1741608717.936,901.855,970.703,-207.031,901.855
1741608717.94,999.512,988.281,51.758,999.512
1741608717.944,345.215,-342.773,-94.238,380.371
1741608717.948,-976.074,-1000.0,-447.266,-958.008
1741608717.952,-967.773,-961.914,-312.988,-974.609
1741608717.909,-942.383,-937.988,-171.875,-943.848
1741608717.913,-1000.0,-1000.0,-141.113,-1000.0
1741608717.917,-891.113,-833.008,-26.855,-903.32
1741608717.921,563.477,630.371,457.52,545.41
1741608717.925,999.512,999.512,349.121,999.512
1741608717.929,892.578,904.785,155.273,893.066
1741608717.933,988.281,947.266,83.496,989.258
1741608717.936,901.855,970.703,-207.031,901.855
1741608717.94,999.512,988.281,51.758,999.512
1741608717.944,345.215,-342.773,-94.238,380.371
1741608717.948,-976.074,-1000.0,-447.266,-958.008
1741608717.952,-967.773,-961.914,-312.988,-974.609
1741608717.969,-1000.0,-969.727,-163.086,-1000.0
1741608717.973,-171.387,436.035,441.406,-202.148
1741608717.977,999.512,999.512,482.91,999.512
1741608717.981,949.219,903.32,20.508,956.055
1741608717.985,950.684,944.824,-80.078,951.66
1741608717.989,905.762,966.309,-20.02,905.273
1741608717.993,999.512,999.512,221.191,999.512
1741608717.996,404.297,-299.316,-73.73,484.375
1741608718.0,-958.008,-1000.0,-649.414,-916.016
1741608718.004,-1000.0,-935.547,-356.445,-1000.0
1741608718.008,-955.078,-1000.0,-62.5,-948.73
1741608718.012,-1000.0,-1000.0,-4.395,-1000.0
1741608717.969,-1000.0,-969.727,-163.086,-1000.0
1741608717.973,-171.387,436.035,441.406,-202.148
1741608717.977,999.512,999.512,482.91,999.512
1741608717.981,949.219,903.32,20.508,956.055
1741608717.985,950.684,944.824,-80.078,951.66
1741608717.989,905.762,966.309,-20.02,905.273
1741608717.993,999.512,999.512,221.191,999.512
1741608717.996,404.297,-299.316,-73.73,484.375
1741608718.0,-958.008,-1000.0,-649.414,-916.016
1741608718.004,-1000.0,-935.547,-356.445,-1000.0
1741608718.008,-955.078,-1000.0,-62.5,-948.73
1741608718.012,-1000.0,-1000.0,-4.395,-1000.0
1741608718.014,-942.383,-935.059,76.172,-942.383
1741608718.018,-1000.0,-1000.0,-55.664,-1000.0
1741608718.022,-891.113,-540.039,-20.508,-890.137
1741608718.026,563.965,850.098,145.02,565.918
1741608718.03,999.512,999.512,134.277,999.512
1741608718.034,833.984,851.562,363.281,834.473
1741608718.038,999.512,999.512,210.938,999.512
1741608718.041,856.934,783.203,-285.645,857.422
1741608718.045,-597.656,-676.758,-656.738,-597.656
1741608718.049,-1000.0,-1000.0,-299.805,-1000.0
1741608718.053,-860.352,-860.84,181.641,-862.305
1741608718.057,-1000.0,-1000.0,7.324,-1000.0
1741608718.014,-942.383,-935.059,76.172,-942.383
1741608718.018,-1000.0,-1000.0,-55.664,-1000.0
1741608718.022,-891.113,-540.039,-20.508,-890.137
1741608718.026,563.965,850.098,145.02,565.918
1741608718.03,999.512,999.512,134.277,999.512
1741608718.034,833.984,851.562,363.281,834.473
1741608718.038,999.512,999.512,210.938,999.512
1741608718.041,856.934,783.203,-285.645,857.422
1741608718.045,-597.656,-676.758,-656.738,-597.656
1741608718.049,-1000.0,-1000.0,-299.805,-1000.0
1741608718.053,-860.352,-860.84,181.641,-862.305
1741608718.057,-1000.0,-1000.0,7.324,-1000.0
1741608718.059,-809.082,-486.328,110.352,-826.66
1741608718.063,684.082,854.98,453.613,657.715
1741608718.067,999.512,999.512,177.734,999.512
1741608718.071,974.121,927.246,-72.754,975.586
1741608718.075,780.762,-354.492,-274.414,747.559
1741608718.079,-713.379,-1000.0,-266.602,-725.098
1741608718.083,-1000.0,-930.664,-99.121,-1000.0
1741608718.086,-931.152,-1000.0,-196.777,-933.594
1741608718.09,-1000.0,-963.379,-85.449,-1000.0
1741608718.094,-944.824,-1000.0,13.672,-938.965
1741608718.098,-1000.0,-1000.0,-50.293,-1000.0
1741608718.102,-248.047,308.105,10.742,-354.004
1741608718.059,-809.082,-486.328,110.352,-826.66
1741608718.063,684.082,854.98,453.613,657.715
1741608718.067,999.512,999.512,177.734,999.512
1741608718.071,974.121,927.246,-72.754,975.586
1741608718.075,780.762,-354.492,-274.414,747.559
1741608718.079,-713.379,-1000.0,-266.602,-725.098
1741608718.083,-1000.0,-930.664,-99.121,-1000.0
1741608718.086,-931.152,-1000.0,-196.777,-933.594
1741608718.09,-1000.0,-963.379,-85.449,-1000.0
1741608718.094,-944.824,-1000.0,13.672,-938.965
1741608718.098,-1000.0,-1000.0,-50.293,-1000.0
1741608718.102,-248.047,308.105,10.742,-354.004
1741608718.119,994.141,999.512,147.949,954.102
1741608718.123,977.051,857.422,264.16,990.234
1741608718.127,862.793,988.281,137.695,862.793
1741608718.131,999.512,963.867,-7.812,999.512
1741608718.135,561.035,-401.367,-270.996,467.773
1741608718.139,-882.324,-1000.0,-353.516,-910.645
1741608718.143,-1000.0,-929.199,28.32,-1000.0
1741608718.146,-942.871,-1000.0,-83.496,-950.195
1741608718.15,-1000.0,-1000.0,-300.781,-1000.0
1741608718.154,-926.758,-934.082,-137.207,-928.711
1741608718.158,-1000.0,-1000.0,-120.117,-1000.0
1741608718.162,-649.414,-464.355,73.242,-634.277
1741608718.119,994.141,999.512,147.949,954.102
1741608718.123,977.051,857.422,264.16,990.234
1741608718.127,862.793,988.281,137.695,862.793
1741608718.131,999.512,963.867,-7.812,999.512
1741608718.135,561.035,-401.367,-270.996,467.773
1741608718.139,-882.324,-1000.0,-353.516,-910.645
1741608718.143,-1000.0,-929.199,28.32,-1000.0
1741608718.146,-942.871,-1000.0,-83.496,-950.195
1741608718.15,-1000.0,-1000.0,-300.781,-1000.0
1741608718.154,-926.758,-934.082,-137.207,-928.711
1741608718.158,-1000.0,-1000.0,-120.117,-1000.0
1741608718.162,-649.414,-464.355,73.242,-634.277
1741608718.149,817.871,907.715,438.477,818.848
1741608718.153,999.512,991.211,354.492,999.512
1741608718.157,904.785,864.746,-85.938,906.738
1741608718.161,982.91,999.512,-293.945,983.398
1741608718.165,973.633,91.309,-153.32,973.633
1741608718.169,937.5,-1000.0,116.699,941.895
1741608718.173,953.125,460.938,248.535,948.242
1741608718.176,999.512,999.512,123.047,999.512
1741608718.18,-241.211,-417.969,-440.43,-176.758
1741608718.184,-1000.0,-1000.0,-477.051,-1000.0
1741608718.188,-936.523,-933.105,-12.207,-945.312
1741608718.192,-1000.0,-1000.0,-99.609,-1000.0
1741608718.149,817.871,907.715,438.477,818.848
1741608718.153,999.512,991.211,354.492,999.512
1741608718.157,904.785,864.746,-85.938,906.738
1741608718.161,982.91,999.512,-293.945,983.398
1741608718.165,973.633,91.309,-153.32,973.633
1741608718.169,937.5,-1000.0,116.699,941.895
1741608718.173,953.125,460.938,248.535,948.242
1741608718.176,999.512,999.512,123.047,999.512
1741608718.18,-241.211,-417.969,-440.43,-176.758
1741608718.184,-1000.0,-1000.0,-477.051,-1000.0
1741608718.188,-936.523,-933.105,-12.207,-945.312
1741608718.192,-1000.0,-1000.0,-99.609,-1000.0
1741608718.194,-938.965,-937.988,-184.57,-940.43
1741608718.198,-1000.0,-1000.0,-140.625,-1000.0
1741608718.202,-852.051,-438.965,101.562,-850.586
1741608718.206,613.77,904.785,498.535,614.258
1741608718.21,999.512,997.07,147.949,999.512
1741608718.214,903.32,937.5,44.922,902.832
1741608718.218,945.801,921.875,62.5,950.195
1741608718.221,971.191,999.512,-137.207,962.891
1741608718.225,991.699,859.375,120.117,999.512
1741608718.229,-356.445,-610.84,-308.594,-300.293
1741608718.233,-1000.0,-1000.0,-556.152,-1000.0
1741608718.237,-927.246,-969.238,-333.984,-930.664
1741608718.194,-938.965,-937.988,-184.57,-940.43
1741608718.198,-1000.0,-1000.0,-140.625,-1000.0
1741608718.202,-852.051,-438.965,101.562,-850.586
1741608718.206,613.77,904.785,498.535,614.258
1741608718.21,999.512,997.07,147.949,999.512
1741608718.214,903.32,937.5,44.922,902.832
1741608718.218,945.801,921.875,62.5,950.195
1741608718.221,971.191,999.512,-137.207,962.891
1741608718.225,991.699,859.375,120.117,999.512
1741608718.229,-356.445,-610.84,-308.594,-300.293
1741608718.233,-1000.0,-1000.0,-556.152,-1000.0
1741608718.237,-927.246,-969.238,-333.984,-930.664
1741608718.239,-1000.0,-937.012,-149.902,-1000.0
1741608718.243,267.09,516.113,620.605,264.16
1741608718.247,999.512,999.512,480.469,999.512
1741608718.251,898.926,897.461,-85.449,899.902
1741608718.255,982.91,964.355,-170.41,984.375
1741608718.259,895.508,936.523,-77.637,896.484
1741608718.263,999.512,999.512,348.633,999.512
1741608718.266,472.168,-52.734,-28.32,515.137
1741608718.27,-931.152,-1000.0,-665.527,-903.32
1741608718.274,-1000.0,-960.938,-358.398,-1000.0
1741608718.278,-949.707,-988.281,21.484,-946.289
1741608718.282,-1000.0,-1000.0,82.52,-1000.0
1741608718.239,-1000.0,-937.012,-149.902,-1000.0
1741608718.243,267.09,516.113,620.605,264.16
1741608718.247,999.512,999.512,480.469,999.512
1741608718.251,898.926,897.461,-85.449,899.902
1741608718.255,982.91,964.355,-170.41,984.375
1741608718.259,895.508,936.523,-77.637,896.484
1741608718.263,999.512,999.512,348.633,999.512
1741608718.266,472.168,-52.734,-28.32,515.137
1741608718.27,-931.152,-1000.0,-665.527,-903.32
1741608718.274,-1000.0,-960.938,-358.398,-1000.0
1741608718.278,-949.707,-988.281,21.484,-946.289
1741608718.282,-1000.0,-1000.0,82.52,-1000.0
1741608718.285,-1000.0,-1000.0,-4.883,-1000.0
1741608718.289,-940.43,-941.895,-34.18,-940.918
1741608718.293,-1000.0,-1000.0,-127.93,-1000.0
1741608718.297,-870.605,-332.031,-146.484,-874.023
1741608718.301,599.609,969.727,319.824,595.215
1741608718.305,999.512,927.734,553.223,999.512
1741608718.309,891.602,964.844,141.113,893.555
1741608718.312,999.512,922.363,-308.105,999.512
1741608718.316,-316.406,-507.812,-591.797,-321.289
1741608718.32,-1000.0,-1000.0,-364.258,-1000.0
1741608718.324,-903.809,-868.164,115.234,-910.645
1741608718.328,-991.699,-1000.0,-9.277,-982.422
1741608718.285,-1000.0,-1000.0,-4.883,-1000.0
1741608718.289,-940.43,-941.895,-34.18,-940.918
1741608718.293,-1000.0,-1000.0,-127.93,-1000.0
1741608718.297,-870.605,-332.031,-146.484,-874.023
1741608718.301,599.609,969.727,319.824,595.215
1741608718.305,999.512,927.734,553.223,999.512
1741608718.309,891.602,964.844,141.113,893.555
1741608718.312,999.512,922.363,-308.105,999.512
1741608718.316,-316.406,-507.812,-591.797,-321.289
1741608718.32,-1000.0,-1000.0,-364.258,-1000.0
1741608718.324,-903.809,-868.164,115.234,-910.645
1741608718.328,-991.699,-1000.0,-9.277,-982.422
1741608718.344,-1000.0,-887.695,-180.176,-1000.0
1741608718.348,193.848,568.848,262.207,92.285
1741608718.352,999.512,999.512,501.465,999.512
1741608718.356,904.297,894.043,162.598,918.457
1741608718.36,984.375,986.328,-184.57,977.539
1741608718.364,897.949,907.715,13.672,901.855
1741608718.368,999.512,999.512,153.809,999.512
1741608718.371,718.75,311.523,-112.793,731.445
1741608718.375,-759.766,-983.398,-394.531,-743.652
1741608718.379,-1000.0,-1000.0,-304.688,-1000.0
1741608718.383,-948.73,-973.145,-85.938,-947.754
1741608718.387,-958.008,-945.801,-78.613,-958.008
1741608718.344,-1000.0,-887.695,-180.176,-1000.0
1741608718.348,193.848,568.848,262.207,92.285
1741608718.352,999.512,999.512,501.465,999.512
1741608718.356,904.297,894.043,162.598,918.457
1741608718.36,984.375,986.328,-184.57,977.539
1741608718.364,897.949,907.715,13.672,901.855
1741608718.368,999.512,999.512,153.809,999.512
1741608718.371,718.75,311.523,-112.793,731.445
1741608718.375,-759.766,-983.398,-394.531,-743.652
1741608718.379,-1000.0,-1000.0,-304.688,-1000.0
1741608718.383,-948.73,-973.145,-85.938,-947.754
1741608718.387,-958.008,-945.801,-78.613,-958.008
1741608718.389,-1000.0,-1000.0,-0.977,-1000.0
1741608718.393,-870.117,-560.059,216.309,-868.652
1741608718.397,591.797,839.355,402.344,591.797
1741608718.401,999.512,999.512,268.555,999.512
1741608718.405,895.508,879.883,-146.484,896.484
1741608718.409,921.875,978.027,21.973,922.363
1741608718.413,999.512,999.512,322.266,999.512
1741608718.416,286.133,-277.344,-246.582,304.199
1741608718.42,-1000.0,-1000.0,-666.504,-993.652
1741608718.424,-1000.0,-951.172,-357.422,-1000.0
1741608718.428,-905.762,-933.594,-115.723,-904.297
1741608718.432,-1000.0,-1000.0,18.555,-1000.0
1741608718.434,-885.742,-583.984,166.016,-882.324
1741608718.438,570.801,840.82,384.766,575.195
1741608718.442,999.512,999.512,80.078,999.512
1741608718.446,891.602,910.645,-252.441,892.578
1741608718.45,998.535,999.023,-20.508,999.512
1741608718.454,908.691,905.273,208.984,909.18
1741608718.458,999.512,999.512,167.48,999.512
1741608718.461,857.422,810.059,-40.527,857.91
1741608718.465,-597.656,-655.273,-546.875,-597.656
1741608718.469,-1000.0,-1000.0,-291.992,-1000.0
1741608718.473,-927.246,-933.594,133.301,-928.223
1741608718.477,-1000.0,-996.582,-6.836,-1000.0
1741608718.434,-885.742,-583.984,166.016,-882.324
1741608718.438,570.801,840.82,384.766,575.195
1741608718.442,999.512,999.512,80.078,999.512
1741608718.446,891.602,910.645,-252.441,892.578
1741608718.45,998.535,999.023,-20.508,999.512
1741608718.454,908.691,905.273,208.984,909.18
1741608718.458,999.512,999.512,167.48,999.512
1741608718.461,857.422,810.059,-40.527,857.91
1741608718.465,-597.656,-655.273,-546.875,-597.656
1741608718.469,-1000.0,-1000.0,-291.992,-1000.0
1741608718.473,-927.246,-933.594,133.301,-928.223
1741608718.477,-1000.0,-996.582,-6.836,-1000.0
1741608718.479,-944.336,-975.098,-19.043,-950.195
1741608718.483,-1000.0,-1000.0,20.996,-1000.0
1741608718.487,-249.023,67.871,318.848,-192.871
1741608718.491,994.629,999.512,540.527,999.512
1741608718.495,961.914,922.852,119.629,956.055
1741608718.499,942.383,974.609,127.93,944.824
1741608718.503,948.73,910.156,164.062,958.496
1741608718.506,949.219,999.512,30.762,933.594
1741608718.51,999.512,836.426,95.215,999.512
1741608718.514,-211.426,-639.648,-276.367,-47.852
1741608718.518,-1000.0,-1000.0,-396.484,-1000.0
1741608718.522,-996.582,-980.469,-199.219,-1000.0
1741608718.479,-944.336,-975.098,-19.043,-950.195
1741608718.483,-1000.0,-1000.0,20.996,-1000.0
1741608718.487,-249.023,67.871,318.848,-192.871
1741608718.491,994.629,999.512,540.527,999.512
1741608718.495,961.914,922.852,119.629,956.055
1741608718.499,942.383,974.609,127.93,944.824
1741608718.503,948.73,910.156,164.062,958.496
1741608718.506,949.219,999.512,30.762,933.594
1741608718.51,999.512,836.426,95.215,999.512
1741608718.514,-211.426,-639.648,-276.367,-47.852
1741608718.518,-1000.0,-1000.0,-396.484,-1000.0
1741608718.522,-996.582,-980.469,-199.219,-1000.0
1741608718.525,-889.648,-907.227,59.57,-878.418
1741608718.529,562.5,564.453,703.613,560.059
1741608718.533,999.512,999.512,493.652,999.512
1741608718.537,892.09,902.344,51.27,892.09
1741608718.541,994.141,945.801,-33.691,999.512
1741608718.545,896.973,971.68,244.141,898.926
1741608718.549,999.512,989.746,495.117,999.512
1741608718.552,480.957,-353.516,-72.266,715.332
1741608718.556,-876.953,-1000.0,-499.512,-703.125
1741608718.56,-1000.0,-948.73,-223.145,-1000.0
1741608718.564,-977.539,-1000.0,62.5,-921.387
1741608718.568,290.039,379.395,540.039,367.188
1741608718.569,999.512,999.512,366.699,999.512
1741608718.573,896.484,895.02,-23.926,895.02
1741608718.577,973.145,976.562,-69.336,976.562
1741608718.581,970.215,977.539,-78.613,969.238
1741608718.585,952.637,928.711,96.191,961.426
1741608718.589,928.711,974.609,122.07,917.969
1741608718.593,999.512,981.934,169.434,999.512
1741608718.596,-6.348,-357.91,-273.438,140.625
1741608718.6,-1000.0,-1000.0,-710.449,-1000.0
1741608718.604,-980.957,-947.754,-129.395,-1000.0
1741608718.608,-928.223,-946.289,179.199,-917.48
1741608718.612,-1000.0,-1000.0,-24.414,-1000.0
1741608718.569,999.512,999.512,366.699,999.512
1741608718.573,896.484,895.02,-23.926,895.02
1741608718.577,973.145,976.562,-69.336,976.562
1741608718.581,970.215,977.539,-78.613,969.238
1741608718.585,952.637,928.711,96.191,961.426
1741608718.589,928.711,974.609,122.07,917.969
1741608718.593,999.512,981.934,169.434,999.512
1741608718.596,-6.348,-357.91,-273.438,140.625
1741608718.6,-1000.0,-1000.0,-710.449,-1000.0
1741608718.604,-980.957,-947.754,-129.395,-1000.0
1741608718.608,-928.223,-946.289,179.199,-917.48
1741608718.612,-1000.0,-1000.0,-24.414,-1000.0
1741608718.615,-891.113,-848.145,-29.785,-891.113
1741608718.619,563.965,615.723,452.637,564.453
1741608718.623,999.512,999.512,516.602,999.512
1741608718.627,891.602,899.414,75.195,892.578
1741608718.631,981.934,964.844,-52.734,982.91
1741608718.635,966.309,938.965,61.523,966.797
1741608718.639,966.309,999.512,96.191,966.797
1741608718.642,974.121,-69.336,-21.484,969.238
1741608718.646,936.035,-1000.0,-141.602,962.891
1741608718.65,957.52,-959.961,-93.75,916.016
1741608718.654,999.512,-989.258,8.301,999.512
1741608718.658,-248.047,-1000.0,-183.105,168.457
1741608718.615,-891.113,-848.145,-29.785,-891.113
1741608718.619,563.965,615.723,452.637,564.453
1741608718.623,999.512,999.512,516.602,999.512
1741608718.627,891.602,899.414,75.195,892.578
1741608718.631,981.934,964.844,-52.734,982.91
1741608718.635,966.309,938.965,61.523,966.797
1741608718.639,966.309,999.512,96.191,966.797
1741608718.642,974.121,-69.336,-21.484,969.238
1741608718.646,936.035,-1000.0,-141.602,962.891
1741608718.65,957.52,-959.961,-93.75,916.016
1741608718.654,999.512,-989.258,8.301,999.512
1741608718.658,-248.047,-1000.0,-183.105,168.457
1741608718.674,-1000.0,-999.023,-166.504,-1000.0
1741608718.678,-878.906,-946.289,59.082,-926.758
1741608718.682,-1000.0,-1000.0,-83.008,-1000.0
1741608718.686,-860.84,-257.324,-25.879,-826.172
1741608718.69,604.492,992.676,89.355,648.438
1741608718.694,999.512,934.57,231.934,999.512
1741608718.698,823.73,930.664,192.871,826.66
1741608718.701,999.512,999.512,-234.863,999.512
1741608718.705,442.383,-264.648,-426.758,487.793
1741608718.709,-958.496,-1000.0,-513.184,-928.711
1741608718.713,-975.586,-876.953,-270.996,-986.816
1741608718.717,-1000.0,-1000.0,14.16,-998.047
1741608718.719,-904.785,-835.449,103.027,-919.434
1741608718.723,563.477,631.348,346.68,542.969
1741608718.727,999.512,999.512,59.082,999.512
1741608718.731,891.602,894.531,-177.246,892.09
1741608718.735,999.512,999.512,52.246,999.023
1741608718.739,901.367,896.484,162.598,903.809
1741608718.743,999.512,999.512,132.812,999.512
1741608718.746,778.809,632.812,-200.195,794.922
1741608718.75,-696.777,-825.684,-776.855,-673.828
1741608718.754,-1000.0,-1000.0,-382.812,-1000.0
1741608718.758,-929.688,-943.359,7.812,-929.199
1741608718.762,-1000.0,-997.07,-68.359,-1000.0
1741608718.719,-904.785,-835.449,103.027,-919.434
1741608718.723,563.477,631.348,346.68,542.969
1741608718.727,999.512,999.512,59.082,999.512
1741608718.731,891.602,894.531,-177.246,892.09
1741608718.735,999.512,999.512,52.246,999.023
1741608718.739,901.367,896.484,162.598,903.809
1741608718.743,999.512,999.512,132.812,999.512
1741608718.746,778.809,632.812,-200.195,794.922
1741608718.75,-696.777,-825.684,-776.855,-673.828
1741608718.754,-1000.0,-1000.0,-382.812,-1000.0
1741608718.758,-929.688,-943.359,7.812,-929.199
1741608718.762,-1000.0,-997.07,-68.359,-1000.0
1741608718.764,-939.941,-974.609,-158.691,-938.477
1741608718.768,-1000.0,-1000.0,-164.551,-1000.0
1741608718.772,-312.5,62.988,180.664,-356.934
1741608718.776,973.145,999.512,365.723,954.102
1741608718.78,975.586,939.453,-24.902,984.863
1741608718.784,917.48,900.391,-37.109,914.551
1741608718.788,937.5,999.512,0.977,941.406
1741608718.791,999.512,857.91,-125.488,999.512
1741608718.795,4.395,-597.656,-340.332,13.184
1741608718.799,-1000.0,-1000.0,-461.914,-1000.0
1741608718.803,-901.367,-854.492,-275.879,-907.715
1741608718.807,-1000.0,-1000.0,-227.051,-1000.0
1741608718.764,-939.941,-974.609,-158.691,-938.477
1741608718.768,-1000.0,-1000.0,-164.551,-1000.0
1741608718.772,-312.5,62.988,180.664,-356.934
1741608718.776,973.145,999.512,365.723,954.102
1741608718.78,975.586,939.453,-24.902,984.863
1741608718.784,917.48,900.391,-37.109,914.551
1741608718.788,937.5,999.512,0.977,941.406
1741608718.791,999.512,857.91,-125.488,999.512
1741608718.795,4.395,-597.656,-340.332,13.184
1741608718.799,-1000.0,-1000.0,-461.914,-1000.0
1741608718.803,-901.367,-854.492,-275.879,-907.715
1741608718.807,-1000.0,-1000.0,-227.051,-1000.0
1741608718.809,-819.336,-652.344,94.727,-843.262
1741608718.813,660.156,804.199,604.98,629.395
1741608718.817,999.512,999.512,165.527,999.512
1741608718.821,894.531,910.645,-227.051,894.531
1741608718.825,999.023,965.332,-269.043,999.023
1741608718.829,893.555,937.5,120.117,895.996
1741608718.833,999.512,999.512,403.809,999.512
1741608718.836,578.125,-73.73,-91.797,599.609
1741608718.84,-871.582,-1000.0,-463.379,-841.797
1741608718.844,-1000.0,-932.617,-321.777,-1000.0
1741608718.848,-1000.0,-1000.0,-28.809,-1000.0
1741608718.852,-269.043,56.152,380.371,-197.754
1741608718.809,-819.336,-652.344,94.727,-843.262
1741608718.813,660.156,804.199,604.98,629.395
1741608718.817,999.512,999.512,165.527,999.512
1741608718.821,894.531,910.645,-227.051,894.531
1741608718.825,999.023,965.332,-269.043,999.023
1741608718.829,893.555,937.5,120.117,895.996
1741608718.833,999.512,999.512,403.809,999.512
1741608718.836,578.125,-73.73,-91.797,599.609
1741608718.84,-871.582,-1000.0,-463.379,-841.797
1741608718.844,-1000.0,-932.617,-321.777,-1000.0
1741608718.848,-1000.0,-1000.0,-28.809,-1000.0
1741608718.852,-269.043,56.152,380.371,-197.754
1741608718.854,993.652,999.512,269.043,999.512
1741608718.858,962.402,922.852,55.664,954.59
1741608718.862,935.059,958.008,15.137,940.918
1741608718.866,984.375,984.863,-4.395,981.934
1741608718.87,931.152,914.551,123.535,937.5
1741608718.874,965.82,999.512,187.012,956.543
1741608718.878,999.512,897.949,223.145,999.512
1741608718.881,-317.871,-532.227,-349.609,-245.605
1741608718.885,-1000.0,-1000.0,-610.84,-1000.0
1741608718.889,-948.242,-942.871,-31.25,-954.102
1741608718.893,-948.242,-952.148,152.344,-944.824
1741608718.897,-1000.0,-1000.0,10.254,-1000.0
1741608718.854,993.652,999.512,269.043,999.512
1741608718.858,962.402,922.852,55.664,954.59
1741608718.862,935.059,958.008,15.137,940.918
1741608718.866,984.375,984.863,-4.395,981.934
1741608718.87,931.152,914.551,123.535,937.5
1741608718.874,965.82,999.512,187.012,956.543
1741608718.878,999.512,897.949,223.145,999.512
1741608718.881,-317.871,-532.227,-349.609,-245.605
1741608718.885,-1000.0,-1000.0,-610.84,-1000.0
1741608718.889,-948.242,-942.871,-31.25,-954.102
1741608718.893,-948.242,-952.148,152.344,-944.824
1741608718.897,-1000.0,-1000.0,10.254,-1000.0
1741608718.9,-891.113,-832.031,-51.758,-897.949
1741608718.904,563.965,632.324,432.617,553.711
1741608718.908,999.512,999.512,537.109,999.512
1741608718.912,894.531,909.668,-69.824,895.02
1741608718.916,973.633,930.664,-217.285,977.051
1741608718.92,920.898,999.512,3.418,918.945
1741608718.924,999.512,896.973,5.371,999.512
1741608718.927,82.031,-533.203,-272.461,145.02
1741608718.931,-1000.0,-1000.0,-499.023,-1000.0
1741608718.935,-977.051,-926.27,-253.906,-987.793
1741608718.939,-995.605,-1000.0,-90.82,-990.723
1741608718.943,-948.242,-935.059,-106.445,-949.707
1741608718.944,-1000.0,-1000.0,-51.27,-1000.0
1741608718.948,-891.113,-730.469,65.918,-889.648
1741608718.952,563.965,717.773,274.414,566.406
1741608718.956,999.512,999.512,207.52,999.512
1741608718.96,839.844,843.262,-44.922,842.773
1741608718.964,999.512,999.512,146.484,999.512
1741608718.968,903.809,857.91,107.91,915.527
1741608718.971,-523.926,-597.656,-636.23,-500.977
1741608718.975,-1000.0,-1000.0,-739.746,-1000.0
1741608718.979,-942.383,-934.57,-382.324,-942.871
1741608718.983,-952.148,-950.684,-123.535,-953.613
1741608718.987,-1000.0,-1000.0,-18.555,-1000.0
1741608718.944,-1000.0,-1000.0,-51.27,-1000.0
1741608718.948,-891.113,-730.469,65.918,-889.648
1741608718.952,563.965,717.773,274.414,566.406
1741608718.956,999.512,999.512,207.52,999.512
1741608718.96,839.844,843.262,-44.922,842.773
1741608718.964,999.512,999.512,146.484,999.512
1741608718.968,903.809,857.91,107.91,915.527
1741608718.971,-523.926,-597.656,-636.23,-500.977
1741608718.975,-1000.0,-1000.0,-739.746,-1000.0
1741608718.979,-942.383,-934.57,-382.324,-942.871
1741608718.983,-952.148,-950.684,-123.535,-953.613
1741608718.987,-1000.0,-1000.0,-18.555,-1000.0
1741608718.989,-842.285,-444.824,78.125,-869.629
1741608718.993,625.0,912.598,333.008,590.82
1741608718.997,999.512,997.07,-40.527,999.512
1741608719.001,894.043,922.363,-281.738,895.02
1741608719.005,988.77,981.934,-124.512,982.422
1741608719.009,902.344,907.715,-42.969,912.109
1741608719.013,999.512,999.512,23.438,999.512
1741608719.016,337.891,270.02,-312.5,231.934
1741608719.02,-986.816,-1000.0,-813.477,-1000.0
1741608719.024,-1000.0,-1000.0,-401.367,-1000.0
1741608719.028,-960.938,-975.098,-142.09,-968.262
1741608719.032,-1000.0,-974.121,-227.539,-1000.0
1741608718.989,-842.285,-444.824,78.125,-869.629
1741608718.993,625.0,912.598,333.008,590.82
1741608718.997,999.512,997.07,-40.527,999.512
1741608719.001,894.043,922.363,-281.738,895.02
1741608719.005,988.77,981.934,-124.512,982.422
1741608719.009,902.344,907.715,-42.969,912.109
1741608719.013,999.512,999.512,23.438,999.512
1741608719.016,337.891,270.02,-312.5,231.934
1741608719.02,-986.816,-1000.0,-813.477,-1000.0
1741608719.024,-1000.0,-1000.0,-401.367,-1000.0
1741608719.028,-960.938,-975.098,-142.09,-968.262
1741608719.032,-1000.0,-974.121,-227.539,-1000.0
1741608719.034,-934.57,-1000.0,-209.473,-929.199
1741608719.038,-1000.0,-1000.0,-214.355,-1000.0
1741608719.042,-419.922,289.062,103.027,-572.754
1741608719.046,930.176,999.512,258.789,855.957
1741608719.05,999.512,913.086,-152.832,999.512
1741608719.054,858.887,903.809,-113.281,847.168
1741608719.058,999.512,999.512,82.52,999.512
1741608719.061,796.875,540.039,-239.746,784.18
1741608719.065,-674.316,-875.977,-600.098,-685.547
1741608719.069,-1000.0,-1000.0,-379.883,-1000.0
1741608719.073,-870.117,-875.488,-239.746,-871.094
1741608719.077,-1000.0,-1000.0,-339.844,-1000.0
1741608719.034,-934.57,-1000.0,-209.473,-929.199
1741608719.038,-1000.0,-1000.0,-214.355,-1000.0
1741608719.042,-419.922,289.062,103.027,-572.754
1741608719.046,930.176,999.512,258.789,855.957
1741608719.05,999.512,913.086,-152.832,999.512
1741608719.054,858.887,903.809,-113.281,847.168
1741608719.058,999.512,999.512,82.52,999.512
1741608719.061,796.875,540.039,-239.746,784.18
1741608719.065,-674.316,-875.977,-600.098,-685.547
1741608719.069,-1000.0,-1000.0,-379.883,-1000.0
1741608719.073,-870.117,-875.488,-239.746,-871.094
1741608719.077,-1000.0,-1000.0,-339.844,-1000.0
1741608719.094,-890.137,-737.305,-26.367,-887.207
1741608719.098,569.336,736.816,521.973,554.688
1741608719.102,999.512,994.141,118.652,999.512
1741608719.106,999.512,999.512,-303.711,984.863
1741608719.11,356.445,281.738,-406.25,99.121
1741608719.114,-985.84,-1000.0,-199.219,-1000.0
1741608719.118,-1000.0,-1000.0,78.125,-981.445
1741608719.121,-976.074,-981.934,-220.703,-994.629
1741608719.125,-953.613,-945.801,-290.039,-949.219
1741608719.129,-1000.0,-1000.0,-191.895,-1000.0
1741608719.133,-891.113,-775.391,37.598,-891.113
1741608719.137,563.477,681.152,478.516,563.965
1741608719.139,999.512,999.512,122.559,999.512
1741608719.143,909.18,889.648,-220.703,909.18
1741608719.147,911.621,941.895,-214.355,913.574
1741608719.151,999.512,999.512,-139.648,999.512
1741608719.155,694.824,99.609,-121.094,671.387
1741608719.159,-783.691,-1000.0,-237.305,-793.945
1741608719.163,-1000.0,-984.375,-125.0,-1000.0
1741608719.166,-933.105,-992.188,-338.867,-935.059
1741608719.17,-1000.0,-937.012,-413.574,-1000.0
1741608719.174,-1000.0,-1000.0,-46.387,-1000.0
1741608719.178,-1000.0,-643.555,65.918,-1000.0
1741608719.182,-937.5,805.664,-19.043,-940.918
1741608719.139,999.512,999.512,122.559,999.512
1741608719.143,909.18,889.648,-220.703,909.18
1741608719.147,911.621,941.895,-214.355,913.574
1741608719.151,999.512,999.512,-139.648,999.512
1741608719.155,694.824,99.609,-121.094,671.387
1741608719.159,-783.691,-1000.0,-237.305,-793.945
1741608719.163,-1000.0,-984.375,-125.0,-1000.0
1741608719.166,-933.105,-992.188,-338.867,-935.059
1741608719.17,-1000.0,-937.012,-413.574,-1000.0
1741608719.174,-1000.0,-1000.0,-46.387,-1000.0
1741608719.178,-1000.0,-643.555,65.918,-1000.0
1741608719.182,-937.5,805.664,-19.043,-940.918
1741608719.185,-1000.0,999.512,-202.637,-1000.0
1741608719.189,-832.031,906.25,94.727,-872.07
1741608719.193,635.742,983.398,382.812,587.891
1741608719.197,999.512,972.168,5.859,999.512
1741608719.201,911.621,949.707,-145.996,909.668
1741608719.205,915.527,936.035,-55.176,916.016
1741608719.209,999.512,999.512,68.848,999.512
1741608719.212,738.281,-46.387,-38.086,727.539
1741608719.216,-739.258,-1000.0,-561.035,-741.211
1741608719.22,-1000.0,-962.402,-377.441,-1000.0
1741608719.224,-930.664,-987.793,-145.02,-932.129
1741608719.228,-1000.0,-1000.0,-171.387,-1000.0
1741608719.185,-1000.0,999.512,-202.637,-1000.0
1741608719.189,-832.031,906.25,94.727,-872.07
1741608719.193,635.742,983.398,382.812,587.891
1741608719.197,999.512,972.168,5.859,999.512
1741608719.201,911.621,949.707,-145.996,909.668
1741608719.205,915.527,936.035,-55.176,916.016
1741608719.209,999.512,999.512,68.848,999.512
1741608719.212,738.281,-46.387,-38.086,727.539
1741608719.216,-739.258,-1000.0,-561.035,-741.211
1741608719.22,-1000.0,-962.402,-377.441,-1000.0
1741608719.224,-930.664,-987.793,-145.02,-932.129
1741608719.228,-1000.0,-1000.0,-171.387,-1000.0
1741608719.229,-960.938,-941.895,51.27,-966.797
1741608719.233,-1000.0,-1000.0,95.215,-997.559
1741608719.237,-1000.0,-885.254,-1.953,-1000.0
1741608719.241,338.379,571.777,204.102,264.648
1741608719.245,999.512,999.512,216.797,999.512
1741608719.249,837.402,830.566,206.055,842.773
1741608719.253,999.512,999.512,171.875,999.512
1741608719.256,856.934,783.203,-271.484,857.91
1741608719.26,-597.656,-673.34,-728.516,-597.656
1741608719.264,-1000.0,-1000.0,-558.594,-1000.0
1741608719.268,-925.781,-870.605,-17.09,-925.781
1741608719.272,-1000.0,-1000.0,15.137,-1000.0
1741608719.274,-1000.0,-859.375,-106.445,-1000.0
1741608719.278,-1000.0,530.273,99.609,-1000.0
1741608719.282,-1000.0,999.512,-91.309,-1000.0
1741608719.286,-958.496,865.234,-137.695,-965.82
1741608719.29,-1000.0,-593.75,-157.227,-998.535
1741608719.294,-1000.0,-1000.0,-70.312,-1000.0
1741608719.298,364.258,624.512,392.09,274.902
1741608719.301,999.512,999.512,218.262,999.512
1741608719.305,910.645,908.691,-210.938,915.527
1741608719.309,917.969,922.363,-41.504,915.039
1741608719.313,999.512,999.512,-39.062,999.512
1741608719.317,856.934,829.102,-105.957,866.211
1741608719.334,-597.656,-630.859,-381.348,-584.473
1741608719.338,-1000.0,-1000.0,-333.008,-1000.0
1741608719.342,-933.594,-883.789,77.148,-935.547
1741608719.346,-949.707,-1000.0,33.691,-949.219
1741608719.35,-1000.0,-989.258,-137.695,-1000.0
1741608719.354,-428.711,387.207,199.707,-483.398
1741608719.358,927.734,999.512,557.617,895.508
1741608719.361,999.512,907.715,168.457,999.512
1741608719.365,856.445,908.691,-177.734,853.516
1741608719.369,999.512,999.512,83.496,999.512
1741608719.373,772.949,536.621,-98.145,776.855
1741608719.377,-703.125,-878.418,-588.867,-693.359
1741608719.364,-1000.0,-1000.0,-207.031,-1000.0
1741608719.368,-944.824,-962.402,166.992,-945.312
1741608719.372,-959.961,-947.754,-8.301,-959.473
1741608719.376,-1000.0,-1000.0,-226.074,-1000.0
1741608719.38,-891.113,-765.137,-146.484,-891.113
1741608719.384,563.965,713.867,671.875,564.453
1741608719.388,999.512,999.512,550.293,999.512
1741608719.391,818.359,866.699,-135.254,821.777
1741608719.395,999.512,999.512,-205.566,999.512
1741608719.399,599.121,-29.785,-324.707,593.75
1741608719.403,-860.352,-1000.0,-348.633,-851.074
1741608719.407,-1000.0,-967.285,-121.094,-1000.0
1741608719.41,-957.52,-991.699,-154.297,-958.008
1741608719.414,-946.777,-943.359,-119.141,-946.777
1741608719.418,-1000.0,-1000.0,-63.965,-1000.0
1741608719.422,-726.074,-392.578,160.645,-735.352
1741608719.426,763.184,945.312,389.16,751.465
1741608719.43,999.512,928.711,310.547,999.512
1741608719.434,912.598,988.281,90.82,913.086
1741608719.437,988.281,823.73,-318.848,985.352
1741608719.441,-393.066,-643.066,-400.879,-389.648
1741608719.445,-1000.0,-1000.0,-282.227,-1000.0
1741608719.449,-895.02,-870.605,-167.48,-898.438
1741608719.453,-1000.0,-1000.0,-141.602,-1000.0
1741608719.41,-957.52,-991.699,-154.297,-958.008
1741608719.414,-946.777,-943.359,-119.141,-946.777
1741608719.418,-1000.0,-1000.0,-63.965,-1000.0
1741608719.422,-726.074,-392.578,160.645,-735.352
1741608719.426,763.184,945.312,389.16,751.465
1741608719.43,999.512,928.711,310.547,999.512
1741608719.434,912.598,988.281,90.82,913.086
1741608719.437,988.281,823.73,-318.848,985.352
1741608719.441,-393.066,-643.066,-400.879,-389.648
1741608719.445,-1000.0,-1000.0,-282.227,-1000.0
1741608719.449,-895.02,-870.605,-167.48,-898.438
1741608719.453,-1000.0,-1000.0,-141.602,-1000.0
1741608719.469,-1000.0,-891.113,-266.113,-1000.0
1741608719.473,266.602,564.453,342.773,235.84
1741608719.477,999.512,999.512,599.121,999.512
1741608719.481,899.902,902.344,-126.953,903.809
1741608719.485,975.586,944.824,-363.281,977.539
1741608719.489,903.809,974.121,-116.699,901.855
1741608719.493,999.512,981.934,133.301,999.512
1741608719.496,313.477,-354.492,-154.785,397.461
1741608719.5,-995.605,-1000.0,-648.926,-957.031
1741608719.504,-1000.0,-934.082,-333.984,-1000.0
1741608719.508,-978.516,-1000.0,-123.047,-971.68
1741608719.512,-953.125,-947.754,-62.5,-954.102
1741608719.469,-1000.0,-891.113,-266.113,-1000.0
1741608719.473,266.602,564.453,342.773,235.84
1741608719.477,999.512,999.512,599.121,999.512
1741608719.481,899.902,902.344,-126.953,903.809
1741608719.485,975.586,944.824,-363.281,977.539
1741608719.489,903.809,974.121,-116.699,901.855
1741608719.493,999.512,981.934,133.301,999.512
1741608719.496,313.477,-354.492,-154.785,397.461
1741608719.5,-995.605,-1000.0,-648.926,-957.031
1741608719.504,-1000.0,-934.082,-333.984,-1000.0
1741608719.508,-978.516,-1000.0,-123.047,-971.68
1741608719.512,-953.125,-947.754,-62.5,-954.102
1741608719.514,-1000.0,-1000.0,29.785,-1000.0
1741608719.518,-891.113,-271.484,40.527,-882.324
1741608719.522,563.965,969.238,285.156,575.195
1741608719.526,999.512,975.586,119.629,999.512
1741608719.53,905.273,915.527,-46.387,907.227
1741608719.534,909.668,947.266,354.004,912.109
1741608719.538,999.512,999.512,299.316,999.512
1741608719.541,529.297,-64.941,-261.719,574.219
1741608719.545,-902.344,-1000.0,-682.617,-867.188
1741608719.549,-1000.0,-977.051,-333.496,-1000.0
1741608719.553,-887.695,-921.387,174.316,-884.277
1741608719.557,-1000.0,-1000.0,32.715,-1000.0
1741608719.559,-891.113,-757.324,-9.766,-888.672
1741608719.563,563.965,718.262,404.297,567.383
1741608719.567,999.512,999.512,124.023,999.512
1741608719.571,891.602,898.926,-94.727,892.578
1741608719.575,999.512,997.559,-74.219,999.512
1741608719.579,896.484,896.973,60.547,899.414
1741608719.583,999.512,999.512,161.133,999.512
1741608719.586,711.426,529.785,-198.242,742.676
1741608719.59,-767.578,-892.09,-619.141,-733.887
1741608719.594,-1000.0,-1000.0,-395.996,-1000.0
1741608719.598,-947.266,-961.426,-112.305,-945.312
1741608719.602,-965.82,-958.008,-35.645,-966.309
1741608719.559,-891.113,-757.324,-9.766,-888.672
1741608719.563,563.965,718.262,404.297,567.383
1741608719.567,999.512,999.512,124.023,999.512
1741608719.571,891.602,898.926,-94.727,892.578
1741608719.575,999.512,997.559,-74.219,999.512
1741608719.579,896.484,896.973,60.547,899.414
1741608719.583,999.512,999.512,161.133,999.512
1741608719.586,711.426,529.785,-198.242,742.676
1741608719.59,-767.578,-892.09,-619.141,-733.887
1741608719.594,-1000.0,-1000.0,-395.996,-1000.0
1741608719.598,-947.266,-961.426,-112.305,-945.312
1741608719.602,-965.82,-958.008,-35.645,-966.309
1741608719.604,-1000.0,-1000.0,-115.723,-1000.0
1741608719.608,-937.012,-893.555,18.555,-937.5
1741608719.612,491.699,559.57,453.613,488.281
1741608719.616,999.512,999.512,320.801,999.512
1741608719.62,907.715,909.18,-77.148,908.691
1741608719.624,922.363,919.922,38.086,923.828
1741608719.628,999.512,999.512,261.23,999.512
1741608719.631,856.934,791.504,0.977,863.77
1741608719.635,-597.656,-672.852,-594.238,-588.379
1741608719.639,-1000.0,-1000.0,-334.961,-1000.0
1741608719.643,-866.699,-857.91,-75.684,-865.723
1741608719.647,-1000.0,-1000.0,-121.582,-1000.0
1741608719.604,-1000.0,-1000.0,-115.723,-1000.0
1741608719.608,-937.012,-893.555,18.555,-937.5
1741608719.612,491.699,559.57,453.613,488.281
1741608719.616,999.512,999.512,320.801,999.512
1741608719.62,907.715,909.18,-77.148,908.691
1741608719.624,922.363,919.922,38.086,923.828
1741608719.628,999.512,999.512,261.23,999.512
1741608719.631,856.934,791.504,0.977,863.77
1741608719.635,-597.656,-672.852,-594.238,-588.379
1741608719.639,-1000.0,-1000.0,-334.961,-1000.0
1741608719.643,-866.699,-857.91,-75.684,-865.723
1741608719.647,-1000.0,-1000.0,-121.582,-1000.0
1741608719.649,-880.371,-659.668,208.984,-865.723
1741608719.653,594.238,782.715,388.184,612.305
1741608719.657,999.512,999.512,-15.625,999.512
1741608719.661,945.801,988.77,-282.715,948.73
1741608719.665,873.047,63.965,-276.367,865.234
1741608719.669,-597.656,-1000.0,-188.965,-605.957
1741608719.673,-1000.0,-980.957,-26.367,-1000.0
1741608719.676,-930.664,-972.656,-89.844,-927.734
1741608719.68,-953.125,-960.938,-252.441,-958.496
1741608719.684,-1000.0,-1000.0,-104.98,-1000.0
1741608719.688,-359.863,-135.742,267.09,-301.27
1741608719.692,957.031,999.512,399.902,971.68
1741608719.649,-880.371,-659.668,208.984,-865.723
1741608719.653,594.238,782.715,388.184,612.305
1741608719.657,999.512,999.512,-15.625,999.512
1741608719.661,945.801,988.77,-282.715,948.73
1741608719.665,873.047,63.965,-276.367,865.234
1741608719.669,-597.656,-1000.0,-188.965,-605.957
1741608719.673,-1000.0,-980.957,-26.367,-1000.0
1741608719.676,-930.664,-972.656,-89.844,-927.734
1741608719.68,-953.125,-960.938,-252.441,-958.496
1741608719.684,-1000.0,-1000.0,-104.98,-1000.0
1741608719.688,-359.863,-135.742,267.09,-301.27
1741608719.692,957.031,999.512,399.902,971.68
1741608719.694,979.492,947.754,84.473,972.168
1741608719.698,937.988,960.938,-178.711,939.941
1741608719.702,937.5,912.598,-169.922,947.754
1741608719.706,976.074,999.512,23.438,956.543
1741608719.71,977.539,819.336,-13.672,999.512
1741608719.714,-375.977,-641.113,-195.312,-229.98
1741608719.718,-1000.0,-1000.0,-216.797,-1000.0
1741608719.721,-929.688,-927.246,-324.707,-941.406
1741608719.725,-1000.0,-1000.0,-140.137,-1000.0
1741608719.729,-1000.0,-1000.0,48.34,-1000.0
1741608719.733,-934.082,-927.734,-22.461,-935.059
1741608719.737,-1000.0,-1000.0,-137.207,-1000.0
1741608719.694,979.492,947.754,84.473,972.168
1741608719.698,937.988,960.938,-178.711,939.941
1741608719.702,937.5,912.598,-169.922,947.754
1741608719.706,976.074,999.512,23.438,956.543
1741608719.71,977.539,819.336,-13.672,999.512
1741608719.714,-375.977,-641.113,-195.312,-229.98
1741608719.718,-1000.0,-1000.0,-216.797,-1000.0
1741608719.721,-929.688,-927.246,-324.707,-941.406
1741608719.725,-1000.0,-1000.0,-140.137,-1000.0
1741608719.729,-1000.0,-1000.0,48.34,-1000.0
1741608719.733,-934.082,-927.734,-22.461,-935.059
1741608719.737,-1000.0,-1000.0,-137.207,-1000.0
1741608719.74,-794.922,-607.91,-60.547,-806.152
1741608719.744,682.129,839.844,564.453,666.992
1741608719.748,999.512,999.512,422.852,999.512
1741608719.752,899.902,924.316,-172.852,899.414
1741608719.756,967.285,928.223,-313.965,973.145
1741608719.76,932.617,999.512,-77.148,926.27
1741608719.764,999.512,880.371,204.59,999.512
1741608719.767,-48.828,-562.012,-232.91,47.852
1741608719.771,-1000.0,-1000.0,-637.695,-1000.0
1741608719.775,-958.984,-925.781,-263.184,-973.633
1741608719.779,-995.117,-1000.0,-84.961,-986.816
1741608719.783,-979.004,-950.195,-4.883,-985.84
1741608719.74,-794.922,-607.91,-60.547,-806.152
1741608719.744,682.129,839.844,564.453,666.992
1741608719.748,999.512,999.512,422.852,999.512
1741608719.752,899.902,924.316,-172.852,899.414
1741608719.756,967.285,928.223,-313.965,973.145
1741608719.76,932.617,999.512,-77.148,926.27
1741608719.764,999.512,880.371,204.59,999.512
1741608719.767,-48.828,-562.012,-232.91,47.852
1741608719.771,-1000.0,-1000.0,-637.695,-1000.0
1741608719.775,-958.984,-925.781,-263.184,-973.633
1741608719.779,-995.117,-1000.0,-84.961,-986.816
1741608719.783,-979.004,-950.195,-4.883,-985.84
1741608719.784,-980.469,-1000.0,50.781,-973.145
1741608719.788,-1000.0,-946.289,-44.434,-1000.0
1741608719.792,142.09,470.703,128.906,64.941
1741608719.796,999.512,999.512,188.477,999.512
1741608719.8,926.758,880.859,176.27,937.5
1741608719.804,890.625,941.895,390.137,887.695
1741608719.808,999.512,999.512,137.207,999.512
1741608719.811,629.883,25.391,-347.656,644.531
1741608719.815,-839.844,-1000.0,-744.141,-818.848
1741608719.819,-1000.0,-987.793,-306.641,-1000.0
1741608719.823,-879.883,-921.875,219.727,-879.395
1741608719.827,-1000.0,-1000.0,103.516,-1000.0
1741608719.784,-980.469,-1000.0,50.781,-973.145
1741608719.788,-1000.0,-946.289,-44.434,-1000.0
1741608719.792,142.09,470.703,128.906,64.941
1741608719.796,999.512,999.512,188.477,999.512
1741608719.8,926.758,880.859,176.27,937.5
1741608719.804,890.625,941.895,390.137,887.695
1741608719.808,999.512,999.512,137.207,999.512
1741608719.811,629.883,25.391,-347.656,644.531
1741608719.815,-839.844,-1000.0,-744.141,-818.848
1741608719.819,-1000.0,-987.793,-306.641,-1000.0
1741608719.823,-879.883,-921.875,219.727,-879.395
1741608719.827,-1000.0,-1000.0,103.516,-1000.0
1741608719.844,-891.113,-850.586,83.008,-891.113
1741608719.848,563.477,613.281,453.613,564.453
1741608719.852,999.512,999.512,312.988,999.512
1741608719.856,891.602,894.043,110.352,892.09
1741608719.86,993.164,999.512,72.754,988.77
1741608719.864,925.781,907.715,258.301,946.777
1741608719.868,978.516,999.512,309.57,941.406
1741608719.871,971.68,842.773,100.098,999.512
1741608719.875,-386.23,-616.211,-195.312,-103.516
1741608719.879,-1000.0,-1000.0,-298.34,-1000.0
1741608719.883,-946.777,-943.359,-95.703,-969.238
1741608719.887,-938.477,-945.312,-51.27,-923.34
1741608719.878,-1000.0,-1000.0,-120.605,-1000.0
1741608719.882,-730.957,-708.008,146.973,-617.188
1741608719.886,747.559,767.578,469.238,815.918
1741608719.89,999.512,999.512,131.348,999.512
1741608719.894,881.348,847.656,-248.047,900.391
1741608719.898,952.637,999.512,33.691,937.988
1741608719.902,999.512,886.719,229.492,999.512
1741608719.905,-68.848,-550.781,-334.961,97.656
1741608719.909,-1000.0,-1000.0,-768.555,-1000.0
1741608719.913,-974.609,-933.105,-316.895,-997.559
1741608719.917,-923.34,-949.707,-98.145,-912.598
1741608719.921,-1000.0,-1000.0,-148.926,-1000.0
1741608719.878,-1000.0,-1000.0,-120.605,-1000.0
1741608719.882,-730.957,-708.008,146.973,-617.188
1741608719.886,747.559,767.578,469.238,815.918
1741608719.89,999.512,999.512,131.348,999.512
1741608719.894,881.348,847.656,-248.047,900.391
1741608719.898,952.637,999.512,33.691,937.988
1741608719.902,999.512,886.719,229.492,999.512
1741608719.905,-68.848,-550.781,-334.961,97.656
1741608719.909,-1000.0,-1000.0,-768.555,-1000.0
1741608719.913,-974.609,-933.105,-316.895,-997.559
1741608719.917,-923.34,-949.707,-98.145,-912.598
1741608719.921,-1000.0,-1000.0,-148.926,-1000.0
1741608719.934,-786.133,-414.551,168.945,-793.457
1741608719.938,690.918,926.27,371.094,679.199
1741608719.942,999.512,998.047,-57.617,999.512
1741608719.946,911.133,926.27,-398.438,911.133
1741608719.95,930.176,859.375,-219.238,932.617
1741608719.954,999.512,999.512,211.426,999.512
1741608719.958,891.602,863.77,83.008,906.25
1741608719.961,-543.457,-601.562,-545.41,-517.578
1741608719.965,-1000.0,-1000.0,-718.75,-1000.0
1741608719.969,-932.617,-885.742,-223.145,-933.105
1741608719.973,-949.707,-1000.0,112.793,-949.707
1741608719.977,-1000.0,-1000.0,12.695,-1000.0
1741608719.934,-786.133,-414.551,168.945,-793.457
1741608719.938,690.918,926.27,371.094,679.199
1741608719.942,999.512,998.047,-57.617,999.512
1741608719.946,911.133,926.27,-398.438,911.133
1741608719.95,930.176,859.375,-219.238,932.617
1741608719.954,999.512,999.512,211.426,999.512
1741608719.958,891.602,863.77,83.008,906.25
1741608719.961,-543.457,-601.562,-545.41,-517.578
1741608719.965,-1000.0,-1000.0,-718.75,-1000.0
1741608719.969,-932.617,-885.742,-223.145,-933.105
1741608719.973,-949.707,-1000.0,112.793,-949.707
1741608719.977,-1000.0,-1000.0,12.695,-1000.0
1741608719.979,-401.367,342.285,189.453,-422.363
1741608719.983,939.453,999.512,190.918,923.828
1741608719.987,986.816,896.484,-1.953,992.188
1741608719.991,937.988,990.723,88.379,936.035
1741608719.995,929.688,911.621,-60.059,931.152
1741608719.999,996.582,999.512,100.586,996.582
1741608720.003,926.27,876.953,61.523,928.223
1741608720.006,-483.887,-567.383,-469.238,-478.027
1741608720.01,-1000.0,-1000.0,-426.27,-1000.0
1741608720.014,-942.383,-942.871,-205.078,-942.871
1741608720.018,-955.078,-948.242,-81.055,-955.078
1741608720.022,-1000.0,-1000.0,-240.234,-1000.0
1741608719.979,-401.367,342.285,189.453,-422.363
1741608719.983,939.453,999.512,190.918,923.828
1741608719.987,986.816,896.484,-1.953,992.188
1741608719.991,937.988,990.723,88.379,936.035
1741608719.995,929.688,911.621,-60.059,931.152
1741608719.999,996.582,999.512,100.586,996.582
1741608720.003,926.27,876.953,61.523,928.223
1741608720.006,-483.887,-567.383,-469.238,-478.027
1741608720.01,-1000.0,-1000.0,-426.27,-1000.0
1741608720.014,-942.383,-942.871,-205.078,-942.871
1741608720.018,-955.078,-948.242,-81.055,-955.078
1741608720.022,-1000.0,-1000.0,-240.234,-1000.0
1741608720.025,-891.113,-769.531,-200.684,-891.113
1741608720.029,563.477,703.613,494.629,564.453
1741608720.033,999.512,999.512,307.617,999.512
1741608720.037,895.996,909.668,-132.812,895.996
1741608720.041,966.309,940.918,-327.148,971.191
1741608720.045,932.129,984.375,-87.402,926.758
1741608720.049,999.512,958.496,286.621,999.512
1741608720.052,-42.969,-413.574,-238.77,29.785
1741608720.056,-1000.0,-1000.0,-606.934,-1000.0
1741608720.06,-959.473,-928.711,-256.836,-970.215
1741608720.064,-994.141,-1000.0,-111.328,-988.281
1741608720.068,-982.91,-953.125,60.547,-987.793
1741608720.069,-974.121,-1000.0,80.078,-969.238
1741608720.073,-1000.0,-965.82,-23.438,-1000.0
1741608720.077,87.891,432.129,195.312,28.809
1741608720.081,999.512,999.512,288.086,999.512
1741608720.085,932.129,910.645,151.367,941.406
1741608720.089,901.855,910.156,202.148,897.949
1741608720.093,999.512,999.512,235.84,999.512
1741608720.096,857.422,690.43,-135.742,855.957
1741608720.1,-597.656,-775.391,-790.039,-600.098
1741608720.104,-1000.0,-1000.0,-402.344,-1000.0
1741608720.108,-871.094,-875.0,122.559,-873.047
1741608720.112,-1000.0,-1000.0,-79.102,-1000.0
1741608720.069,-974.121,-1000.0,80.078,-969.238
1741608720.073,-1000.0,-965.82,-23.438,-1000.0
1741608720.077,87.891,432.129,195.312,28.809
1741608720.081,999.512,999.512,288.086,999.512
1741608720.085,932.129,910.645,151.367,941.406
1741608720.089,901.855,910.156,202.148,897.949
1741608720.093,999.512,999.512,235.84,999.512
1741608720.096,857.422,690.43,-135.742,855.957
1741608720.1,-597.656,-775.391,-790.039,-600.098
1741608720.104,-1000.0,-1000.0,-402.344,-1000.0
1741608720.108,-871.094,-875.0,122.559,-873.047
1741608720.112,-1000.0,-1000.0,-79.102,-1000.0
1741608720.129,-915.039,-875.488,-82.031,-929.688
1741608720.133,525.879,583.496,371.582,501.953
1741608720.137,999.512,999.512,291.992,999.512
1741608720.141,907.715,910.156,51.758,908.691
1741608720.145,923.34,916.992,-56.641,922.852
1741608720.149,999.512,999.512,36.621,999.512
1741608720.153,856.934,748.047,-87.402,854.492
1741608720.156,-597.656,-723.145,-494.141,-601.562
1741608720.16,-1000.0,-1000.0,-354.98,-1000.0
1741608720.164,-939.453,-946.289,-131.348,-939.453
1741608720.168,-967.773,-961.914,-19.531,-967.773
1741608720.172,-1000.0,-1000.0,-94.727,-1000.0
1741608720.129,-915.039,-875.488,-82.031,-929.688
1741608720.133,525.879,583.496,371.582,501.953
1741608720.137,999.512,999.512,291.992,999.512
1741608720.141,907.715,910.156,51.758,908.691
1741608720.145,923.34,916.992,-56.641,922.852
1741608720.149,999.512,999.512,36.621,999.512
1741608720.153,856.934,748.047,-87.402,854.492
1741608720.156,-597.656,-723.145,-494.141,-601.562
1741608720.16,-1000.0,-1000.0,-354.98,-1000.0
1741608720.164,-939.453,-946.289,-131.348,-939.453
1741608720.168,-967.773,-961.914,-19.531,-967.773
1741608720.172,-1000.0,-1000.0,-94.727,-1000.0
1741608720.159,-960.449,-907.227,-61.035,-959.473
1741608720.163,449.707,539.062,411.133,449.219
1741608720.167,999.512,999.512,390.625,999.512
1741608720.171,892.09,897.461,36.133,893.066
1741608720.175,995.117,965.332,-192.871,995.605
1741608720.179,893.066,936.035,35.156,895.996
1741608720.183,999.512,999.512,353.516,999.512
1741608720.186,601.562,-48.828,-155.762,640.137
1741608720.19,-858.398,-1000.0,-700.195,-822.754
1741608720.194,-1000.0,-977.539,-400.391,-1000.0
1741608720.198,-881.836,-918.945,-27.832,-878.906
1741608720.202,-1000.0,-1000.0,23.926,-1000.0
1741608720.159,-960.449,-907.227,-61.035,-959.473
1741608720.163,449.707,539.062,411.133,449.219
1741608720.167,999.512,999.512,390.625,999.512
1741608720.171,892.09,897.461,36.133,893.066
1741608720.175,995.117,965.332,-192.871,995.605
1741608720.179,893.066,936.035,35.156,895.996
1741608720.183,999.512,999.512,353.516,999.512
1741608720.186,601.562,-48.828,-155.762,640.137
1741608720.19,-858.398,-1000.0,-700.195,-822.754
1741608720.194,-1000.0,-977.539,-400.391,-1000.0
1741608720.198,-881.836,-918.945,-27.832,-878.906
1741608720.202,-1000.0,-1000.0,23.926,-1000.0
1741608720.219,-891.113,-685.547,131.348,-886.23
1741608720.223,563.477,758.789,350.586,570.801
1741608720.227,999.512,999.512,41.992,999.512
1741608720.231,906.738,888.184,-242.676,906.25
1741608720.235,928.223,741.699,-54.199,932.617
1741608720.239,999.512,986.816,302.246,999.512
1741608720.243,887.207,870.605,86.426,913.086
1741608720.246,-550.293,-620.117,-550.293,-505.371
1741608720.25,-1000.0,-1000.0,-656.25,-1000.0
1741608720.254,-941.895,-942.383,-133.789,-941.895
1741608720.258,-957.031,-956.543,132.812,-957.52
1741608720.262,-1000.0,-1000.0,21.484,-1000.0
1741608720.219,-891.113,-685.547,131.348,-886.23
1741608720.223,563.477,758.789,350.586,570.801
1741608720.227,999.512,999.512,41.992,999.512
1741608720.231,906.738,888.184,-242.676,906.25
1741608720.235,928.223,741.699,-54.199,932.617
1741608720.239,999.512,986.816,302.246,999.512
1741608720.243,887.207,870.605,86.426,913.086
1741608720.246,-550.293,-620.117,-550.293,-505.371
1741608720.25,-1000.0,-1000.0,-656.25,-1000.0
1741608720.254,-941.895,-942.383,-133.789,-941.895
1741608720.258,-957.031,-956.543,132.812,-957.52
1741608720.262,-1000.0,-1000.0,21.484,-1000.0
1741608720.264,-891.113,-865.723,-45.41,-905.762
1741608720.268,563.477,595.703,255.859,541.016
1741608720.272,999.512,999.512,376.465,999.512
1741608720.276,892.09,901.855,157.227,892.578
1741608720.28,995.605,952.637,-36.133,996.582
1741608720.284,894.531,959.961,97.656,896.973
1741608720.288,999.512,999.512,75.684,999.512
1741608720.291,523.926,-251.465,-207.031,585.449
1741608720.295,-902.344,-1000.0,-400.391,-854.98
1741608720.299,-1000.0,-949.707,-289.551,-1000.0
1741608720.303,-876.953,-933.594,-94.727,-873.535
1741608720.307,-1000.0,-1000.0,-210.938,-1000.0
1741608720.264,-891.113,-865.723,-45.41,-905.762
1741608720.268,563.477,595.703,255.859,541.016
1741608720.272,999.512,999.512,376.465,999.512
1741608720.276,892.09,901.855,157.227,892.578
1741608720.28,995.605,952.637,-36.133,996.582
1741608720.284,894.531,959.961,97.656,896.973
1741608720.288,999.512,999.512,75.684,999.512
1741608720.291,523.926,-251.465,-207.031,585.449
1741608720.295,-902.344,-1000.0,-400.391,-854.98
1741608720.299,-1000.0,-949.707,-289.551,-1000.0
1741608720.303,-876.953,-933.594,-94.727,-873.535
1741608720.307,-1000.0,-1000.0,-210.938,-1000.0
1741608720.309,-754.883,-452.637,63.477,-763.184
1741608720.313,723.633,911.621,650.391,712.891
1741608720.317,999.512,998.535,162.598,999.512
1741608720.321,905.762,947.266,-122.559,904.785
1741608720.325,953.125,743.164,-239.258,958.008
1741608720.329,957.031,883.301,16.113,950.195
1741608720.333,999.512,943.848,292.48,999.512
1741608720.336,-266.113,-521.484,-353.027,-195.312
1741608720.34,-1000.0,-1000.0,-602.051,-1000.0
1741608720.344,-934.57,-930.176,-329.102,-942.871
1741608720.348,-1000.0,-1000.0,-120.117,-1000.0
1741608720.352,-929.688,-961.426,130.859,-932.129
1741608720.309,-754.883,-452.637,63.477,-763.184
1741608720.313,723.633,911.621,650.391,712.891
1741608720.317,999.512,998.535,162.598,999.512
1741608720.321,905.762,947.266,-122.559,904.785
1741608720.325,953.125,743.164,-239.258,958.008
1741608720.329,957.031,883.301,16.113,950.195
1741608720.333,999.512,943.848,292.48,999.512
1741608720.336,-266.113,-521.484,-353.027,-195.312
1741608720.34,-1000.0,-1000.0,-602.051,-1000.0
1741608720.344,-934.57,-930.176,-329.102,-942.871
1741608720.348,-1000.0,-1000.0,-120.117,-1000.0
1741608720.352,-929.688,-961.426,130.859,-932.129
1741608720.355,-1000.0,-1000.0,44.434,-1000.0
1741608720.359,-716.309,-86.914,54.199,-724.121
1741608720.363,759.766,999.512,287.598,746.094
1741608720.367,999.512,943.359,103.027,999.512
1741608720.371,916.992,964.844,-40.039,917.48
1741608720.375,923.34,904.785,74.219,923.34
1741608720.379,999.512,999.512,117.188,999.512
1741608720.382,830.078,724.609,-176.758,819.824
1741608720.386,-632.812,-750.0,-726.074,-644.043
1741608720.39,-1000.0,-1000.0,-490.723,-1000.0
1741608720.394,-926.758,-868.652,-126.465,-927.246
1741608720.398,-1000.0,-1000.0,-190.918,-1000.0
1741608720.355,-1000.0,-1000.0,44.434,-1000.0
1741608720.359,-716.309,-86.914,54.199,-724.121
1741608720.363,759.766,999.512,287.598,746.094
1741608720.367,999.512,943.359,103.027,999.512
1741608720.371,916.992,964.844,-40.039,917.48
1741608720.375,923.34,904.785,74.219,923.34
1741608720.379,999.512,999.512,117.188,999.512
1741608720.382,830.078,724.609,-176.758,819.824
1741608720.386,-632.812,-750.0,-726.074,-644.043
1741608720.39,-1000.0,-1000.0,-490.723,-1000.0
1741608720.394,-926.758,-868.652,-126.465,-927.246
1741608720.398,-1000.0,-1000.0,-190.918,-1000.0
1741608720.399,-1000.0,-814.453,-191.895,-1000.0
1741608720.403,-1000.0,604.492,-83.984,-1000.0
1741608720.407,-1000.0,999.512,-120.117,-1000.0
1741608720.411,-1000.0,909.668,-148.438,-1000.0
1741608720.415,-1000.0,-348.145,-275.391,-1000.0
1741608720.419,-936.035,-1000.0,-179.199,-940.43
1741608720.423,-1000.0,-1000.0,-152.344,-1000.0
1741608720.426,-819.824,-639.648,-114.258,-870.117
1741608720.43,666.992,834.473,81.543,606.445
1741608720.434,999.512,977.539,-159.668,999.512
1741608720.438,920.41,946.777,-195.312,936.523
1741608720.442,954.59,915.527,-225.586,903.809
1741608720.444,-463.379,-531.25,-473.145,-546.875
1741608720.448,-1000.0,-1000.0,-391.602,-1000.0
1741608720.452,-918.945,-885.742,-166.992,-929.688
1741608720.456,-971.191,-1000.0,-88.867,-955.566
1741608720.46,-1000.0,-749.512,-136.719,-1000.0
1741608720.464,-58.594,548.828,274.414,-319.336
1741608720.468,999.512,999.512,611.816,976.074
1741608720.471,881.836,842.285,-53.711,912.109
1741608720.475,999.512,999.512,-347.168,999.512
1741608720.479,821.777,750.0,-336.426,728.516
1741608720.483,-650.879,-733.887,-405.273,-737.305
1741608720.487,-1000.0,-1000.0,-230.957,-1000.0
1741608720.444,-463.379,-531.25,-473.145,-546.875
1741608720.448,-1000.0,-1000.0,-391.602,-1000.0
1741608720.452,-918.945,-885.742,-166.992,-929.688
1741608720.456,-971.191,-1000.0,-88.867,-955.566
1741608720.46,-1000.0,-749.512,-136.719,-1000.0
1741608720.464,-58.594,548.828,274.414,-319.336
1741608720.468,999.512,999.512,611.816,976.074
1741608720.471,881.836,842.285,-53.711,912.109
1741608720.475,999.512,999.512,-347.168,999.512
1741608720.479,821.777,750.0,-336.426,728.516
1741608720.483,-650.879,-733.887,-405.273,-737.305
1741608720.487,-1000.0,-1000.0,-230.957,-1000.0
1741608720.489,-926.758,-1000.0,-254.883,-933.105
1741608720.493,-1000.0,-635.254,-8.789,-1000.0
1741608720.497,-1000.0,846.68,-27.344,-1000.0
1741608720.501,-934.082,999.512,-203.613,-939.941
1741608720.505,-1000.0,-692.383,-151.367,-1000.0
1741608720.509,-793.457,-458.984,166.504,-862.793
1741608720.513,682.129,999.512,413.574,599.609
1741608720.516,999.512,981.445,-136.719,999.512
1741608720.52,852.539,876.465,-411.621,847.168
1741608720.524,999.512,999.512,-41.992,999.512
1741608720.528,960.449,897.949,-20.508,939.941
1741608720.532,-417.969,-531.738,-407.715,-452.148
1741608720.535,-1000.0,-1000.0,-449.707,-1000.0
1741608720.539,-927.734,-933.105,-222.656,-927.246
1741608720.543,-1000.0,-975.586,-54.688,-1000.0
1741608720.547,-936.523,-1000.0,-27.832,-941.895
1741608720.551,-1000.0,-880.859,-161.133,-1000.0
1741608720.555,-811.035,438.965,113.281,-881.348
1741608720.559,654.785,999.512,384.766,576.66
1741608720.562,999.512,919.434,121.582,999.512
1741608720.566,829.102,905.762,-136.23,825.684
1741608720.57,999.512,999.512,-77.148,999.512
1741608720.574,760.254,693.848,-211.914,658.691
1741608720.578,-716.797,-777.832,-603.027,-789.062
1741608720.535,-1000.0,-1000.0,-449.707,-1000.0
1741608720.539,-927.734,-933.105,-222.656,-927.246
1741608720.543,-1000.0,-975.586,-54.688,-1000.0
1741608720.547,-936.523,-1000.0,-27.832,-941.895
1741608720.551,-1000.0,-880.859,-161.133,-1000.0
1741608720.555,-811.035,438.965,113.281,-881.348
1741608720.559,654.785,999.512,384.766,576.66
1741608720.562,999.512,919.434,121.582,999.512
1741608720.566,829.102,905.762,-136.23,825.684
1741608720.57,999.512,999.512,-77.148,999.512
1741608720.574,760.254,693.848,-211.914,658.691
1741608720.578,-716.797,-777.832,-603.027,-789.062
1741608720.594,-1000.0,-1000.0,-143.066,-1000.0
1741608720.598,-935.059,-943.848,180.664,-939.453
1741608720.602,-996.582,-980.957,-191.895,-1000.0
1741608720.606,-974.609,-988.281,-139.648,-954.59
1741608720.61,-1000.0,-907.227,-211.914,-1000.0
1741608720.614,91.309,438.477,272.949,-132.324
1741608720.618,999.512,999.512,651.367,999.512
1741608720.621,932.129,904.297,-57.617,962.891
1741608720.625,902.344,917.48,-323.242,886.719
1741608720.629,999.512,999.512,-227.539,999.512
1741608720.633,857.422,532.715,-113.77,852.539
1741608720.637,-597.656,-850.586,-207.52,-604.492
1741608720.594,-1000.0,-1000.0,-143.066,-1000.0
1741608720.598,-935.059,-943.848,180.664,-939.453
1741608720.602,-996.582,-980.957,-191.895,-1000.0
1741608720.606,-974.609,-988.281,-139.648,-954.59
1741608720.61,-1000.0,-907.227,-211.914,-1000.0
1741608720.614,91.309,438.477,272.949,-132.324
1741608720.618,999.512,999.512,651.367,999.512
1741608720.621,932.129,904.297,-57.617,962.891
1741608720.625,902.344,917.48,-323.242,886.719
1741608720.629,999.512,999.512,-227.539,999.512
1741608720.633,857.422,532.715,-113.77,852.539
1741608720.637,-597.656,-850.586,-207.52,-604.492
1741608720.654,-1000.0,-1000.0,-411.621,-1000.0
1741608720.658,-936.523,-957.52,-140.625,-937.012
1741608720.662,-964.844,-953.125,-35.645,-964.844
1741608720.666,-1000.0,-1000.0,-88.867,-1000.0
1741608720.67,-785.645,-648.438,101.074,-784.668
1741608720.674,574.219,702.637,427.734,571.777
1741608720.678,999.512,999.512,377.441,999.512
1741608720.681,978.027,885.742,-60.547,963.379
1741608720.685,-145.996,-424.316,-535.645,-183.594
1741608720.689,-1000.0,-1000.0,-401.855,-1000.0
1741608720.693,-945.801,-858.398,-173.34,-943.848
1741608720.697,-1000.0,-1000.0,-217.285,-1000.0
1741608720.7,999.512,963.867,71.289,999.512
1741608720.704,830.566,940.43,55.664,829.59
1741608720.708,999.512,999.512,96.68,999.512
1741608720.711,819.824,-90.332,-145.508,767.578
1741608720.715,-645.508,-1000.0,-438.965,-691.406
1741608720.719,-1000.0,-957.031,-356.934,-1000.0
1741608720.723,-944.336,-1000.0,-155.273,-944.336
1741608720.727,-945.801,-932.617,-81.055,-949.219
1741608720.7,999.512,963.867,71.289,999.512
1741608720.704,830.566,940.43,55.664,829.59
1741608720.708,999.512,999.512,96.68,999.512
1741608720.711,819.824,-90.332,-145.508,767.578
1741608720.715,-645.508,-1000.0,-438.965,-691.406
1741608720.719,-1000.0,-957.031,-356.934,-1000.0
1741608720.723,-944.336,-1000.0,-155.273,-944.336
1741608720.727,-945.801,-932.617,-81.055,-949.219
1741608720.729,-1000.0,-1000.0,46.387,-1000.0
1741608720.733,-711.426,-620.117,223.633,-627.441
1741608720.737,764.648,825.195,405.762,804.199
1741608720.741,999.512,999.512,294.922,999.512
1741608720.745,916.504,924.316,77.637,923.34
1741608720.749,925.781,916.016,194.824,926.27
1741608720.753,999.512,999.512,391.602,999.512
1741608720.756,856.934,712.402,33.691,868.164
1741608720.76,-598.145,-751.953,-549.805,-581.055
1741608720.764,-1000.0,-1000.0,-435.547,-1000.0
1741608720.768,-890.137,-879.395,106.445,-890.137
1741608720.772,-1000.0,-1000.0,198.73,-1000.0
1741608720.729,-1000.0,-1000.0,46.387,-1000.0
1741608720.733,-711.426,-620.117,223.633,-627.441
1741608720.737,764.648,825.195,405.762,804.199
1741608720.741,999.512,999.512,294.922,999.512
1741608720.745,916.504,924.316,77.637,923.34
1741608720.749,925.781,916.016,194.824,926.27
1741608720.753,999.512,999.512,391.602,999.512
1741608720.756,856.934,712.402,33.691,868.164
1741608720.76,-598.145,-751.953,-549.805,-581.055
1741608720.764,-1000.0,-1000.0,-435.547,-1000.0
1741608720.768,-890.137,-879.395,106.445,-890.137
1741608720.772,-1000.0,-1000.0,198.73,-1000.0
1741608720.774,-1000.0,-922.852,-86.426,-1000.0
1741608720.778,292.48,513.184,257.812,287.598
1741608720.782,999.512,999.512,214.355,999.512
1741608720.786,903.809,906.25,3.418,904.297
1741608720.79,948.242,933.594,124.512,953.613
1741608720.794,945.801,996.582,105.957,937.988
1741608720.798,999.512,926.758,136.719,999.512
1741608720.801,-171.875,-477.539,-350.098,-84.961
1741608720.805,-1000.0,-1000.0,-547.852,-1000.0
1741608720.809,-960.938,-943.848,40.527,-971.68
1741608720.813,-939.453,-951.172,154.297,-933.594
1741608720.817,-1000.0,-1000.0,59.57,-1000.0
1741608720.849,-891.113,-854.004,136.23,-891.113
1741608720.853,563.965,610.352,548.828,564.453
1741608720.857,999.512,999.512,552.246,999.512
1741608720.861,891.602,894.531,158.691,892.578
1741608720.865,981.934,992.676,-0.977,982.91
1741608720.869,966.309,901.367,247.559,966.797
1741608720.873,966.309,999.512,385.254,966.797
1741608720.876,966.309,436.035,108.887,966.797
1741608720.88,966.309,-854.98,-199.219,966.797
1741608720.884,966.309,-1000.0,-63.965,967.285
1741608720.888,969.238,-554.688,195.312,967.773
1741608720.892,956.543,763.184,211.426,976.562
1741608720.864,922.852,999.512,356.445,899.414
1741608720.868,999.512,901.367,383.301,999.512
1741608720.872,62.5,-397.949,-104.98,443.359
1741608720.876,-1000.0,-1000.0,-344.238,-934.57
1741608720.88,-908.691,-924.805,-259.766,-979.004
1741608720.884,-1000.0,-1000.0,89.844,-1000.0
1741608720.888,-411.621,234.863,354.492,-298.34
1741608720.891,937.988,999.512,127.93,974.609
1741608720.895,999.512,921.387,-180.176,985.84
1741608720.899,865.723,911.133,-267.09,878.418
1741608720.903,999.512,999.512,-133.301,999.512
1741608720.907,856.934,857.91,-86.426,880.371
1741608720.909,-598.145,-597.656,-535.645,-562.012
1741608720.913,-1000.0,-1000.0,-559.082,-1000.0
1741608720.917,-925.781,-896.484,-231.934,-925.781
1741608720.921,-1000.0,-1000.0,-98.633,-1000.0
1741608720.925,-1000.0,-1000.0,-101.562,-1000.0
1741608720.929,-1000.0,144.531,72.266,-1000.0
1741608720.933,-1000.0,999.512,248.535,-1000.0
1741608720.936,-1000.0,796.387,-99.121,-1000.0
1741608720.94,-1000.0,-599.121,-433.105,-1000.0
1741608720.944,-1000.0,-1000.0,-356.934,-1000.0
1741608720.948,-942.383,-854.492,-234.375,-945.801
1741608720.952,-1000.0,-1000.0,-309.57,-1000.0
1741608720.909,-598.145,-597.656,-535.645,-562.012
1741608720.913,-1000.0,-1000.0,-559.082,-1000.0
1741608720.917,-925.781,-896.484,-231.934,-925.781
1741608720.921,-1000.0,-1000.0,-98.633,-1000.0
1741608720.925,-1000.0,-1000.0,-101.562,-1000.0
1741608720.929,-1000.0,144.531,72.266,-1000.0
1741608720.933,-1000.0,999.512,248.535,-1000.0
1741608720.936,-1000.0,796.387,-99.121,-1000.0
1741608720.94,-1000.0,-599.121,-433.105,-1000.0
1741608720.944,-1000.0,-1000.0,-356.934,-1000.0
1741608720.948,-942.383,-854.492,-234.375,-945.801
1741608720.952,-1000.0,-1000.0,-309.57,-1000.0
1741608720.969,-886.719,-701.66,-287.598,-915.039
1741608720.973,586.914,789.551,249.023,530.273
1741608720.977,999.512,974.609,146.973,999.512
1741608720.981,984.863,993.164,-254.883,995.605
1741608720.985,721.68,729.492,-389.648,427.734
1741608720.989,-773.438,-765.625,-495.605,-924.316
1741608720.993,-1000.0,-1000.0,-313.477,-1000.0
1741608720.996,-932.617,-932.129,-217.773,-954.102
1741608721.0,-1000.0,-1000.0,-176.758,-1000.0
1741608721.004,-1000.0,-1000.0,-196.289,-1000.0
1741608721.008,-942.383,-937.988,-365.723,-951.172
1741608721.012,-1000.0,-1000.0,-363.77,-1000.0
1741608720.969,-886.719,-701.66,-287.598,-915.039
1741608720.973,586.914,789.551,249.023,530.273
1741608720.977,999.512,974.609,146.973,999.512
1741608720.981,984.863,993.164,-254.883,995.605
1741608720.985,721.68,729.492,-389.648,427.734
1741608720.989,-773.438,-765.625,-495.605,-924.316
1741608720.993,-1000.0,-1000.0,-313.477,-1000.0
1741608720.996,-932.617,-932.129,-217.773,-954.102
1741608721.0,-1000.0,-1000.0,-176.758,-1000.0
1741608721.004,-1000.0,-1000.0,-196.289,-1000.0
1741608721.008,-942.383,-937.988,-365.723,-951.172
1741608721.012,-1000.0,-1000.0,-363.77,-1000.0
1741608721.014,-891.113,-834.961,-111.328,-952.637
1741608721.018,566.406,630.859,248.047,469.727
1741608721.022,999.512,999.512,162.109,999.512
1741608721.026,843.75,838.379,-147.949,905.273
1741608721.03,999.512,999.512,-151.855,962.402
1741608721.034,106.445,228.027,-104.98,-358.887
1741608721.038,-1000.0,-1000.0,-268.555,-1000.0
1741608721.041,-996.094,-1000.0,-395.508,-953.613
1741608721.045,-919.922,-899.414,-427.246,-949.219
1741608721.049,-1000.0,-1000.0,-296.387,-1000.0
1741608721.053,-891.113,-741.211,102.539,-905.762
1741608721.057,581.543,750.0,425.293,545.41
1741608721.059,999.512,981.934,128.418,999.512
1741608721.063,988.77,999.512,44.922,995.117
1741608721.067,702.637,678.223,-215.332,423.828
1741608721.071,-791.016,-802.246,-426.27,-925.781
1741608721.075,-1000.0,-1000.0,-55.664,-1000.0
1741608721.079,-933.594,-925.781,212.891,-954.102
1741608721.083,-1000.0,-920.898,106.445,-1000.0
1741608721.086,-986.816,-939.453,-230.469,-991.211
1741608721.09,-962.402,-1000.0,-151.367,-956.543
1741608721.094,-1000.0,-1000.0,44.434,-1000.0
1741608721.098,-31.738,235.352,175.293,-106.445
1741608721.102,999.512,999.512,359.863,999.512
1741608721.104,931.152,920.898,59.57,942.871
1741608721.108,951.66,913.574,88.379,946.777
1741608721.112,970.215,998.535,240.234,972.656
1741608721.116,966.309,941.406,-35.156,966.797
1741608721.12,971.191,-625.977,-233.887,969.238
1741608721.124,948.73,-972.656,52.734,963.379
1741608721.128,934.57,756.348,359.375,915.527
1741608721.131,999.512,999.512,220.215,999.512
1741608721.135,-65.918,-525.391,-235.352,171.387
1741608721.139,-1000.0,-1000.0,-308.105,-1000.0
1741608721.143,-884.277,-857.91,-97.168,-921.875
1741608721.147,-1000.0,-1000.0,-34.668,-1000.0
1741608721.149,-658.203,-502.441,373.535,-544.922
1741608721.153,813.477,894.043,614.258,869.629
1741608721.157,999.512,999.512,130.371,999.512
1741608721.161,910.156,932.617,-130.859,916.992
1741608721.165,959.961,925.293,-37.109,975.586
1741608721.169,944.336,999.512,296.387,918.945
1741608721.173,999.512,872.559,294.922,999.512
1741608721.176,-152.344,-574.707,-206.055,130.859
1741608721.18,-1000.0,-1000.0,-423.828,-1000.0
1741608721.184,-878.906,-854.492,-135.742,-947.754
1741608721.188,-1000.0,-1000.0,160.645,-1000.0
1741608721.192,-474.609,-520.996,324.219,-114.258
1741608721.194,911.133,892.578,485.84,999.512
1741608721.198,998.535,999.512,309.57,948.73
1741608721.202,918.457,842.773,121.582,945.312
1741608721.206,979.492,999.512,230.957,973.633
1741608721.21,967.285,458.496,182.129,966.797
1741608721.214,971.68,-642.578,286.621,975.586
1741608721.218,904.297,674.316,547.363,937.988
1741608721.221,999.512,999.512,288.574,962.891
1741608721.225,368.164,-578.125,-3.906,985.84
1741608721.229,-975.586,-1000.0,-25.391,-223.633
1741608721.233,-964.355,-861.328,31.738,-1000.0
1741608721.237,-1000.0,-1000.0,51.758,-1000.0
1741608721.194,911.133,892.578,485.84,999.512
1741608721.198,998.535,999.512,309.57,948.73
1741608721.202,918.457,842.773,121.582,945.312
1741608721.206,979.492,999.512,230.957,973.633
1741608721.21,967.285,458.496,182.129,966.797
1741608721.214,971.68,-642.578,286.621,975.586
1741608721.218,904.297,674.316,547.363,937.988
1741608721.221,999.512,999.512,288.574,962.891
1741608721.225,368.164,-578.125,-3.906,985.84
1741608721.229,-975.586,-1000.0,-25.391,-223.633
1741608721.233,-964.355,-861.328,31.738,-1000.0
1741608721.237,-1000.0,-1000.0,51.758,-1000.0
1741608721.239,-890.137,-803.223,126.953,-818.359
1741608721.243,581.055,670.41,714.355,641.113
1741608721.247,999.512,999.512,563.477,999.512
1741608721.251,892.09,906.738,42.48,895.508
1741608721.255,982.422,944.824,-68.359,983.887
1741608721.259,966.309,977.539,150.391,966.797
1741608721.263,966.309,974.609,347.168,966.797
1741608721.266,966.309,-373.047,17.09,967.285
1741608721.27,966.309,-1000.0,-104.492,967.285
1741608721.274,966.309,-932.617,17.578,967.285
1741608721.278,966.309,-1000.0,-94.238,966.797
1741608721.282,966.309,-942.383,-59.082,966.797
1741608721.239,-890.137,-803.223,126.953,-818.359
1741608721.243,581.055,670.41,714.355,641.113
1741608721.247,999.512,999.512,563.477,999.512
1741608721.251,892.09,906.738,42.48,895.508
1741608721.255,982.422,944.824,-68.359,983.887
1741608721.259,966.309,977.539,150.391,966.797
1741608721.263,966.309,974.609,347.168,966.797
1741608721.266,966.309,-373.047,17.09,967.285
1741608721.27,966.309,-1000.0,-104.492,967.285
1741608721.274,966.309,-932.617,17.578,967.285
1741608721.278,966.309,-1000.0,-94.238,966.797
1741608721.282,966.309,-942.383,-59.082,966.797
1741608721.284,966.309,-1000.0,-8.301,967.285
1741608721.288,966.309,-363.77,6.348,967.285
1741608721.292,966.309,934.57,70.312,966.797
1741608721.296,976.074,999.512,-76.172,973.145
1741608721.3,929.199,875.0,-186.523,942.383
1741608721.304,970.215,999.512,178.711,947.266
1741608721.308,992.676,903.32,222.656,999.512
1741608721.311,-343.75,-527.344,-363.281,-170.41
1741608721.315,-1000.0,-1000.0,-699.707,-1000.0
1741608721.319,-859.375,-898.926,-284.668,-879.395
1741608721.323,-1000.0,-1000.0,116.699,-1000.0
1741608721.327,-519.043,53.223,263.184,-443.359
1741608721.284,966.309,-1000.0,-8.301,967.285
1741608721.288,966.309,-363.77,6.348,967.285
1741608721.292,966.309,934.57,70.312,966.797
1741608721.296,976.074,999.512,-76.172,973.145
1741608721.3,929.199,875.0,-186.523,942.383
1741608721.304,970.215,999.512,178.711,947.266
1741608721.308,992.676,903.32,222.656,999.512
1741608721.311,-343.75,-527.344,-363.281,-170.41
1741608721.315,-1000.0,-1000.0,-699.707,-1000.0
1741608721.319,-859.375,-898.926,-284.668,-879.395
1741608721.323,-1000.0,-1000.0,116.699,-1000.0
1741608721.327,-519.043,53.223,263.184,-443.359
1741608721.33,891.602,999.512,348.145,919.434
1741608721.334,999.512,923.828,145.508,994.629
1741608721.338,914.551,957.52,-243.652,921.387
1741608721.342,995.605,986.328,-155.273,994.141
1741608721.346,912.598,909.18,-17.578,916.504
1741608721.35,999.512,999.512,-8.301,999.512
1741608721.354,890.137,857.91,-26.367,911.621
1741608721.357,-545.898,-597.656,-594.727,-507.812
1741608721.361,-1000.0,-1000.0,-657.227,-1000.0
1741608721.365,-927.246,-934.082,-153.32,-927.246
1741608721.369,-1000.0,-984.375,-84.961,-1000.0
1741608721.373,-941.895,-995.117,-166.016,-938.965
1741608721.33,891.602,999.512,348.145,919.434
1741608721.334,999.512,923.828,145.508,994.629
1741608721.338,914.551,957.52,-243.652,921.387
1741608721.342,995.605,986.328,-155.273,994.141
1741608721.346,912.598,909.18,-17.578,916.504
1741608721.35,999.512,999.512,-8.301,999.512
1741608721.354,890.137,857.91,-26.367,911.621
1741608721.357,-545.898,-597.656,-594.727,-507.812
1741608721.361,-1000.0,-1000.0,-657.227,-1000.0
1741608721.365,-927.246,-934.082,-153.32,-927.246
1741608721.369,-1000.0,-984.375,-84.961,-1000.0
1741608721.373,-941.895,-995.117,-166.016,-938.965
1741608721.378,-1000.0,-1000.0,-296.875,-1000.0
1741608721.382,-288.574,238.77,127.93,-348.145
1741608721.386,980.957,999.512,458.984,957.031
1741608721.39,971.68,916.504,-49.316,982.91
1741608721.394,922.363,925.781,-260.254,916.992
1741608721.398,932.617,987.793,-140.137,937.5
1741608721.402,999.512,951.172,-21.973,999.512
1741608721.405,49.805,-426.27,-373.535,33.691
1741608721.409,-1000.0,-1000.0,-776.367,-1000.0
1741608721.413,-988.77,-944.336,-446.777,-986.816
1741608721.417,-924.316,-939.941,-226.562,-927.734
1741608721.421,-1000.0,-1000.0,-174.316,-1000.0
1741608721.378,-1000.0,-1000.0,-296.875,-1000.0
1741608721.382,-288.574,238.77,127.93,-348.145
1741608721.386,980.957,999.512,458.984,957.031
1741608721.39,971.68,916.504,-49.316,982.91
1741608721.394,922.363,925.781,-260.254,916.992
1741608721.398,932.617,987.793,-140.137,937.5
1741608721.402,999.512,951.172,-21.973,999.512
1741608721.405,49.805,-426.27,-373.535,33.691
1741608721.409,-1000.0,-1000.0,-776.367,-1000.0
1741608721.413,-988.77,-944.336,-446.777,-986.816
1741608721.417,-924.316,-939.941,-226.562,-927.734
1741608721.421,-1000.0,-1000.0,-174.316,-1000.0
1741608721.449,-891.113,-652.832,38.574,-912.109
1741608721.453,563.477,800.781,298.828,531.25
1741608721.457,999.512,999.512,-10.254,999.512
1741608721.461,909.18,922.363,-387.695,905.273
1741608721.465,911.133,911.621,-290.527,913.086
1741608721.469,999.512,999.512,83.008,999.512
1741608721.473,683.105,654.297,-52.734,554.199
1741608721.476,-794.434,-818.848,-673.828,-869.141
1741608721.48,-1000.0,-1000.0,-639.648,-1000.0
1741608721.484,-934.082,-936.523,-188.477,-943.848
1741608721.488,-1000.0,-1000.0,49.316,-1000.0
1741608721.492,-1000.0,-934.57,38.574,-1000.0
1741608721.479,-934.57,-1000.0,-2.93,-942.383
1741608721.483,-1000.0,-592.285,-93.75,-1000.0
1741608721.487,-776.855,817.871,33.691,-888.672
1741608721.491,690.43,999.512,336.426,567.383
1741608721.495,999.512,926.27,231.445,999.512
1741608721.499,851.562,924.316,193.848,846.191
1741608721.503,999.512,999.512,140.137,999.512
1741608721.506,945.312,857.91,-39.551,940.43
1741608721.51,-448.242,-597.656,-333.008,-452.637
1741608721.514,-1000.0,-1000.0,-319.824,-1000.0
1741608721.518,-869.141,-856.934,-41.992,-869.141
1741608721.522,-1000.0,-1000.0,-71.289,-1000.0
1741608721.479,-934.57,-1000.0,-2.93,-942.383
1741608721.483,-1000.0,-592.285,-93.75,-1000.0
1741608721.487,-776.855,817.871,33.691,-888.672
1741608721.491,690.43,999.512,336.426,567.383
1741608721.495,999.512,926.27,231.445,999.512
1741608721.499,851.562,924.316,193.848,846.191
1741608721.503,999.512,999.512,140.137,999.512
1741608721.506,945.312,857.91,-39.551,940.43
1741608721.51,-448.242,-597.656,-333.008,-452.637
1741608721.514,-1000.0,-1000.0,-319.824,-1000.0
1741608721.518,-869.141,-856.934,-41.992,-869.141
1741608721.522,-1000.0,-1000.0,-71.289,-1000.0
1741608721.524,-891.113,-734.863,12.207,-888.672
1741608721.528,563.477,735.84,690.43,567.383
1741608721.532,999.512,999.512,493.164,999.512
1741608721.536,891.602,911.621,-38.086,892.578
1741608721.54,999.023,942.383,-87.402,999.512
1741608721.544,905.273,982.422,88.379,906.25
1741608721.548,999.512,961.914,329.59,999.512
1741608721.551,823.73,-400.879,19.531,818.359
1741608721.555,-640.137,-1000.0,-372.07,-640.625
1741608721.559,-1000.0,-929.688,-156.738,-1000.0
1741608721.563,-938.477,-1000.0,-110.352,-938.965
1741608721.567,-975.098,-944.824,-26.367,-976.074
1741608721.524,-891.113,-734.863,12.207,-888.672
1741608721.528,563.477,735.84,690.43,567.383
1741608721.532,999.512,999.512,493.164,999.512
1741608721.536,891.602,911.621,-38.086,892.578
1741608721.54,999.023,942.383,-87.402,999.512
1741608721.544,905.273,982.422,88.379,906.25
1741608721.548,999.512,961.914,329.59,999.512
1741608721.551,823.73,-400.879,19.531,818.359
1741608721.555,-640.137,-1000.0,-372.07,-640.625
1741608721.559,-1000.0,-929.688,-156.738,-1000.0
1741608721.563,-938.477,-1000.0,-110.352,-938.965
1741608721.567,-975.098,-944.824,-26.367,-976.074
1741608721.569,-1000.0,-1000.0,57.617,-1000.0
1741608721.573,-1000.0,-908.691,15.137,-1000.0
1741608721.577,366.699,537.109,270.996,352.539
1741608721.581,999.512,999.512,242.676,999.512
1741608721.585,906.738,877.93,18.066,907.715
1741608721.589,904.297,947.266,205.078,905.762
1741608721.593,999.512,999.512,158.691,999.512
1741608721.596,488.281,-9.766,-373.047,483.398
1741608721.6,-924.316,-1000.0,-764.16,-918.945
1741608721.604,-1000.0,-975.098,-405.273,-1000.0
1741608721.608,-948.242,-953.613,-37.598,-948.73
1741608721.612,-1000.0,-999.512,-104.492,-1000.0
1741608721.569,-1000.0,-1000.0,57.617,-1000.0
1741608721.573,-1000.0,-908.691,15.137,-1000.0
1741608721.577,366.699,537.109,270.996,352.539
1741608721.581,999.512,999.512,242.676,999.512
1741608721.585,906.738,877.93,18.066,907.715
1741608721.589,904.297,947.266,205.078,905.762
1741608721.593,999.512,999.512,158.691,999.512
1741608721.596,488.281,-9.766,-373.047,483.398
1741608721.6,-924.316,-1000.0,-764.16,-918.945
1741608721.604,-1000.0,-975.098,-405.273,-1000.0
1741608721.608,-948.242,-953.613,-37.598,-948.73
1741608721.612,-1000.0,-999.512,-104.492,-1000.0
1741608721.615,-1000.0,-1000.0,-269.043,-1000.0
1741608721.619,-1000.0,215.82,-157.715,-1000.0
1741608721.623,-1000.0,999.512,-87.891,-1000.0
1741608721.627,-1000.0,980.469,-108.887,-1000.0
1741608721.631,-928.711,-133.301,-282.715,-936.035
1741608721.635,-1000.0,-1000.0,-234.863,-1000.0
1741608721.639,-634.277,12.207,-4.395,-811.523
1741608721.642,819.336,999.512,-58.594,657.715
1741608721.646,999.512,951.172,-145.508,999.512
1741608721.65,850.586,893.066,-202.637,840.332
1741608721.654,999.512,999.512,-237.793,999.512
1741608721.658,874.023,856.445,-286.133,874.023
1741608721.615,-1000.0,-1000.0,-269.043,-1000.0
1741608721.619,-1000.0,215.82,-157.715,-1000.0
1741608721.623,-1000.0,999.512,-87.891,-1000.0
1741608721.627,-1000.0,980.469,-108.887,-1000.0
1741608721.631,-928.711,-133.301,-282.715,-936.035
1741608721.635,-1000.0,-1000.0,-234.863,-1000.0
1741608721.639,-634.277,12.207,-4.395,-811.523
1741608721.642,819.336,999.512,-58.594,657.715
1741608721.646,999.512,951.172,-145.508,999.512
1741608721.65,850.586,893.066,-202.637,840.332
1741608721.654,999.512,999.512,-237.793,999.512
1741608721.658,874.023,856.445,-286.133,874.023
1741608721.66,-570.801,-599.609,-618.164,-572.266
1741608721.664,-1000.0,-1000.0,-305.664,-1000.0
1741608721.668,-941.406,-897.461,66.895,-937.988
1741608721.672,-960.938,-1000.0,-215.332,-971.68
1741608721.676,-1000.0,-1000.0,-325.195,-1000.0
1741608721.68,-914.551,190.43,-49.316,-986.328
1741608721.684,542.969,999.512,372.559,409.668
1741608721.687,999.512,851.562,83.984,999.512
1741608721.691,939.453,999.512,-329.59,946.777
1741608721.695,889.648,866.699,-332.52,872.07
1741608721.699,-570.312,-585.938,-520.996,-590.82
1741608721.703,-1000.0,-1000.0,-383.789,-1000.0
1741608721.66,-570.801,-599.609,-618.164,-572.266
1741608721.664,-1000.0,-1000.0,-305.664,-1000.0
1741608721.668,-941.406,-897.461,66.895,-937.988
1741608721.672,-960.938,-1000.0,-215.332,-971.68
1741608721.676,-1000.0,-1000.0,-325.195,-1000.0
1741608721.68,-914.551,190.43,-49.316,-986.328
1741608721.684,542.969,999.512,372.559,409.668
1741608721.687,999.512,851.562,83.984,999.512
1741608721.691,939.453,999.512,-329.59,946.777
1741608721.695,889.648,866.699,-332.52,872.07
1741608721.699,-570.312,-585.938,-520.996,-590.82
1741608721.703,-1000.0,-1000.0,-383.789,-1000.0
1741608721.719,-925.781,-934.57,-140.137,-925.781
1741608721.723,-1000.0,-982.91,-24.902,-1000.0
1741608721.727,-928.711,-996.582,-231.934,-934.082
1741608721.731,-1000.0,-1000.0,-421.875,-1000.0
1741608721.735,-632.324,275.879,66.895,-769.531
1741608721.739,747.07,999.512,525.879,624.512
1741608721.743,999.512,968.75,93.262,999.512
1741608721.746,760.742,812.5,-493.164,585.449
1741608721.75,-626.953,-659.18,-839.355,-766.602
1741608721.754,-1000.0,-1000.0,-426.758,-1000.0
1741608721.758,-927.734,-938.965,-43.457,-937.5
1741608721.762,-1000.0,-975.098,-148.438,-1000.0
1741608721.764,-934.082,-1000.0,-62.5,-929.199
1741608721.768,-1000.0,-992.676,-135.254,-1000.0
1741608721.772,-441.406,373.047,52.734,-645.996
1741608721.776,919.922,999.512,390.137,808.105
1741608721.78,997.07,911.621,80.566,999.512
1741608721.784,910.156,920.898,118.652,896.973
1741608721.788,937.012,999.512,132.812,939.941
1741608721.791,999.512,880.371,-34.18,999.512
1741608721.795,45.898,-562.5,-196.777,91.309
1741608721.799,-1000.0,-1000.0,-368.652,-1000.0
1741608721.803,-913.086,-855.469,-115.234,-920.898
1741608721.807,-1000.0,-1000.0,-20.02,-1000.0
1741608721.764,-934.082,-1000.0,-62.5,-929.199
1741608721.768,-1000.0,-992.676,-135.254,-1000.0
1741608721.772,-441.406,373.047,52.734,-645.996
1741608721.776,919.922,999.512,390.137,808.105
1741608721.78,997.07,911.621,80.566,999.512
1741608721.784,910.156,920.898,118.652,896.973
1741608721.788,937.012,999.512,132.812,939.941
1741608721.791,999.512,880.371,-34.18,999.512
1741608721.795,45.898,-562.5,-196.777,91.309
1741608721.799,-1000.0,-1000.0,-368.652,-1000.0
1741608721.803,-913.086,-855.469,-115.234,-920.898
1741608721.807,-1000.0,-1000.0,-20.02,-1000.0
1741608721.809,-884.766,-598.145,177.734,-875.0
1741608721.813,579.102,834.473,704.59,592.285
1741608721.817,999.512,999.512,369.141,999.512
1741608721.821,894.531,919.434,-6.348,895.02
1741608721.825,975.586,945.312,-78.125,982.91
1741608721.829,918.457,973.145,103.027,910.645
1741608721.833,999.512,986.328,407.715,999.512
1741608721.836,110.84,-346.68,-61.035,233.887
1741608721.84,-1000.0,-1000.0,-512.695,-1000.0
1741608721.844,-980.469,-931.641,-86.914,-999.512
1741608721.848,-979.004,-1000.0,16.602,-970.215
1741608721.852,-1000.0,-949.707,64.941,-1000.0
1741608721.809,-884.766,-598.145,177.734,-875.0
1741608721.813,579.102,834.473,704.59,592.285
1741608721.817,999.512,999.512,369.141,999.512
1741608721.821,894.531,919.434,-6.348,895.02
1741608721.825,975.586,945.312,-78.125,982.91
1741608721.829,918.457,973.145,103.027,910.645
1741608721.833,999.512,986.328,407.715,999.512
1741608721.836,110.84,-346.68,-61.035,233.887
1741608721.84,-1000.0,-1000.0,-512.695,-1000.0
1741608721.844,-980.469,-931.641,-86.914,-999.512
1741608721.848,-979.004,-1000.0,16.602,-970.215
1741608721.852,-1000.0,-949.707,64.941,-1000.0
1741608721.854,-942.871,-1000.0,109.863,-945.801
1741608721.858,-1000.0,-941.406,25.879,-1000.0
1741608721.862,-277.344,479.004,196.777,-265.137
1741608721.866,984.375,999.512,267.09,980.469
1741608721.87,984.375,905.762,164.062,984.863
1741608721.874,868.164,912.109,317.383,871.582
1741608721.878,999.512,999.512,230.469,999.512
1741608721.881,777.344,539.062,-194.824,797.852
1741608721.885,-698.73,-892.578,-591.797,-669.922
1741608721.889,-1000.0,-994.141,-274.414,-1000.0
1741608721.893,-928.711,-1000.0,50.293,-928.223
1741608721.897,-1000.0,-877.441,-58.105,-1000.0
1741608721.854,-942.871,-1000.0,109.863,-945.801
1741608721.858,-1000.0,-941.406,25.879,-1000.0
1741608721.862,-277.344,479.004,196.777,-265.137
1741608721.866,984.375,999.512,267.09,980.469
1741608721.87,984.375,905.762,164.062,984.863
1741608721.874,868.164,912.109,317.383,871.582
1741608721.878,999.512,999.512,230.469,999.512
1741608721.881,777.344,539.062,-194.824,797.852
1741608721.885,-698.73,-892.578,-591.797,-669.922
1741608721.889,-1000.0,-994.141,-274.414,-1000.0
1741608721.893,-928.711,-1000.0,50.293,-928.223
1741608721.897,-1000.0,-877.441,-58.105,-1000.0
1741608721.899,-1000.0,534.18,48.34,-1000.0
1741608721.903,-1000.0,999.512,41.992,-1000.0
1741608721.907,-1000.0,830.566,-63.477,-1000.0
1741608721.911,-942.383,-401.367,-41.992,-942.383
1741608721.915,-1000.0,-1000.0,-73.242,-1000.0
1741608721.919,-891.113,-651.855,61.035,-887.695
1741608721.923,563.477,729.492,315.918,568.848
1741608721.926,999.512,999.512,60.547,999.512
1741608721.93,908.203,915.039,-145.996,908.691
1741608721.934,924.316,917.969,-85.449,925.293
1741608721.938,999.512,999.512,-101.074,999.512
1741608721.942,856.934,647.461,-187.988,857.422
1741608721.945,-597.656,-790.039,-413.086,-597.656
1741608721.949,-1000.0,-1000.0,-53.711,-1000.0
1741608721.953,-925.781,-914.062,225.586,-924.316
1741608721.957,-959.473,-995.605,58.594,-961.426
1741608721.961,-1000.0,-1000.0,-96.191,-1000.0
1741608721.965,-263.184,123.047,225.098,-246.582
1741608721.969,989.746,999.512,766.602,993.164
1741608721.972,964.355,914.551,173.34,962.891
1741608721.976,934.57,973.145,-311.035,936.035
1741608721.98,975.098,930.176,-130.371,975.586
1741608721.984,969.727,975.586,3.418,967.285
1741608721.988,957.031,979.98,156.738,979.98
1741608721.989,923.34,-362.793,41.016,896.973
1741608721.993,999.512,-1000.0,75.195,999.512
1741608721.997,87.402,-895.508,-114.258,529.785
1741608722.001,-1000.0,-1000.0,-447.754,-862.793
1741608722.005,-1000.0,-1000.0,-110.352,-1000.0
1741608722.009,-128.418,260.742,494.141,32.715
1741608722.013,947.266,999.512,566.406,977.051
1741608722.016,999.512,953.125,40.527,994.629
1741608722.02,679.199,-201.172,-359.375,816.406
1741608722.024,-755.859,-1000.0,-295.898,-624.512
1741608722.028,-1000.0,-960.938,-37.109,-1000.0
1741608722.032,-875.488,-940.43,13.184,-869.141
1741608722.034,-1000.0,-1000.0,-45.898,-1000.0
1741608722.038,-891.113,-891.113,0.0,-890.137
1741608722.042,563.965,564.453,477.539,565.43
1741608722.046,999.512,999.512,487.305,999.512
1741608722.05,891.602,907.227,24.902,892.578
1741608722.054,981.934,930.664,160.645,982.91
1741608722.058,966.309,999.512,241.211,966.797
1741608722.061,966.309,900.391,124.023,967.285
1741608722.065,966.309,-530.273,-92.773,966.797
1741608722.069,966.309,-1000.0,-136.719,966.797
1741608722.073,966.309,-876.465,-35.156,966.797
1741608722.077,966.309,-1000.0,-104.492,966.797
1741608722.034,-1000.0,-1000.0,-45.898,-1000.0
1741608722.038,-891.113,-891.113,0.0,-890.137
1741608722.042,563.965,564.453,477.539,565.43
1741608722.046,999.512,999.512,487.305,999.512
1741608722.05,891.602,907.227,24.902,892.578
1741608722.054,981.934,930.664,160.645,982.91
1741608722.058,966.309,999.512,241.211,966.797
1741608722.061,966.309,900.391,124.023,967.285
1741608722.065,966.309,-530.273,-92.773,966.797
1741608722.069,966.309,-1000.0,-136.719,966.797
1741608722.073,966.309,-876.465,-35.156,966.797
1741608722.077,966.309,-1000.0,-104.492,966.797
1741608722.095,978.027,-168.457,268.066,974.121
1741608722.099,924.805,955.566,568.848,939.941
1741608722.103,979.98,998.047,166.504,951.172
1741608722.107,961.426,857.422,-0.977,999.512
1741608722.111,-364.258,-516.602,-318.848,-148.438
1741608722.115,-1000.0,-1000.0,-68.848,-1000.0
1741608722.119,-980.957,-1000.0,387.695,-838.867
1741608722.122,230.469,110.84,239.746,541.504
1741608722.126,999.512,999.512,145.996,999.512
1741608722.13,874.512,856.934,100.098,907.227
1741608722.134,952.637,999.512,155.273,912.598
1741608722.138,999.512,874.023,170.898,999.512
1741608722.095,978.027,-168.457,268.066,974.121
1741608722.099,924.805,955.566,568.848,939.941
1741608722.103,979.98,998.047,166.504,951.172
1741608722.107,961.426,857.422,-0.977,999.512
1741608722.111,-364.258,-516.602,-318.848,-148.438
1741608722.115,-1000.0,-1000.0,-68.848,-1000.0
1741608722.119,-980.957,-1000.0,387.695,-838.867
1741608722.122,230.469,110.84,239.746,541.504
1741608722.126,999.512,999.512,145.996,999.512
1741608722.13,874.512,856.934,100.098,907.227
1741608722.134,952.637,999.512,155.273,912.598
1741608722.138,999.512,874.023,170.898,999.512
1741608722.154,-196.777,-581.543,-199.707,549.316
1741608722.158,-1000.0,-1000.0,-352.539,-815.918
1741608722.162,-937.012,-909.668,-109.863,-1000.0
1741608722.166,-1000.0,-1000.0,-13.184,-902.832
1741608722.17,240.234,179.688,297.852,425.293
1741608722.174,999.512,999.512,673.34,999.512
1741608722.178,900.391,906.25,373.047,894.043
1741608722.181,969.727,983.398,-135.254,978.516
1741608722.185,966.309,906.25,-200.195,966.797
1741608722.189,966.309,999.512,54.199,967.285
1741608722.193,966.309,850.586,93.262,966.797
1741608722.197,966.309,-687.012,-112.305,966.797
1741608722.154,-196.777,-581.543,-199.707,549.316
1741608722.158,-1000.0,-1000.0,-352.539,-815.918
1741608722.162,-937.012,-909.668,-109.863,-1000.0
1741608722.166,-1000.0,-1000.0,-13.184,-902.832
1741608722.17,240.234,179.688,297.852,425.293
1741608722.174,999.512,999.512,673.34,999.512
1741608722.178,900.391,906.25,373.047,894.043
1741608722.181,969.727,983.398,-135.254,978.516
1741608722.185,966.309,906.25,-200.195,966.797
1741608722.189,966.309,999.512,54.199,967.285
1741608722.193,966.309,850.586,93.262,966.797
1741608722.197,966.309,-687.012,-112.305,966.797
1741608722.215,982.91,-1000.0,-62.5,983.398
1741608722.219,906.738,451.66,144.043,909.18
1741608722.223,999.512,999.512,168.945,999.512
1741608722.227,840.82,494.629,-54.199,857.422
1741608722.231,-624.023,-848.145,-529.297,-607.422
1741608722.235,-1000.0,-1000.0,-207.031,-1000.0
1741608722.239,-893.066,-901.367,156.25,-929.688
1741608722.242,-1000.0,-1000.0,15.625,-1000.0
1741608722.246,24.902,-69.824,182.129,284.668
1741608722.25,999.512,999.512,305.664,999.512
1741608722.254,923.34,937.012,82.031,903.32
1741608722.258,955.566,949.707,-116.211,970.703
1741608722.23,972.168,988.77,-11.23,967.773
1741608722.234,962.402,899.902,210.449,982.91
1741608722.238,914.551,999.512,224.121,901.367
1741608722.242,999.512,718.75,110.352,999.512
1741608722.246,241.699,-685.547,-191.406,856.934
1741608722.25,-1000.0,-1000.0,-27.832,-652.344
1741608722.254,-211.914,-250.0,495.605,77.637
1741608722.257,999.512,954.59,380.371,999.512
1741608722.261,948.73,981.445,-35.156,894.043
1741608722.265,937.988,902.344,20.508,966.309
1741608722.269,973.633,966.797,230.957,968.262
1741608722.273,966.309,999.512,274.414,966.797
1741608722.23,972.168,988.77,-11.23,967.773
1741608722.234,962.402,899.902,210.449,982.91
1741608722.238,914.551,999.512,224.121,901.367
1741608722.242,999.512,718.75,110.352,999.512
1741608722.246,241.699,-685.547,-191.406,856.934
1741608722.25,-1000.0,-1000.0,-27.832,-652.344
1741608722.254,-211.914,-250.0,495.605,77.637
1741608722.257,999.512,954.59,380.371,999.512
1741608722.261,948.73,981.445,-35.156,894.043
1741608722.265,937.988,902.344,20.508,966.309
1741608722.269,973.633,966.797,230.957,968.262
1741608722.273,966.309,999.512,274.414,966.797
1741608722.274,966.309,-221.191,174.316,966.797
1741608722.278,966.309,-1000.0,259.277,966.797
1741608722.282,966.309,-912.598,61.523,967.285
1741608722.286,966.309,-1000.0,12.207,967.285
1741608722.29,983.887,8.789,354.004,983.398
1741608722.294,898.926,989.258,399.902,908.691
1741608722.298,999.512,999.512,220.215,999.512
1741608722.301,723.145,433.105,-208.008,840.82
1741608722.305,-679.688,-859.863,-690.43,-540.039
1741608722.309,-1000.0,-1000.0,-310.547,-1000.0
1741608722.313,-821.777,-841.309,71.289,-673.828
1741608722.317,546.387,550.781,274.414,667.48
1741608722.319,999.512,999.512,69.336,999.512
1741608722.323,891.602,892.578,-166.504,900.879
1741608722.327,981.934,982.91,47.363,982.422
1741608722.331,982.91,983.887,13.184,983.398
1741608722.335,905.273,897.461,-58.105,908.691
1741608722.339,999.512,999.512,-30.273,999.512
1741608722.343,821.289,676.758,-189.453,849.609
1741608722.346,-643.555,-790.527,-389.648,-608.398
1741608722.35,-1000.0,-1000.0,-498.535,-1000.0
1741608722.354,-944.336,-946.289,-416.016,-942.871
1741608722.358,-953.125,-949.219,-273.438,-954.102
1741608722.362,-1000.0,-1000.0,-302.246,-1000.0
1741608722.319,999.512,999.512,69.336,999.512
1741608722.323,891.602,892.578,-166.504,900.879
1741608722.327,981.934,982.91,47.363,982.422
1741608722.331,982.91,983.887,13.184,983.398
1741608722.335,905.273,897.461,-58.105,908.691
1741608722.339,999.512,999.512,-30.273,999.512
1741608722.343,821.289,676.758,-189.453,849.609
1741608722.346,-643.555,-790.527,-389.648,-608.398
1741608722.35,-1000.0,-1000.0,-498.535,-1000.0
1741608722.354,-944.336,-946.289,-416.016,-942.871
1741608722.358,-953.125,-949.219,-273.438,-954.102
1741608722.362,-1000.0,-1000.0,-302.246,-1000.0
1741608722.364,-817.383,-506.348,12.695,-827.637
1741608722.368,617.188,836.914,397.461,595.215
1741608722.372,999.512,999.512,-127.441,999.512
1741608722.376,953.613,910.156,-467.285,928.223
1741608722.38,-237.305,-395.02,-646.484,-298.828
1741608722.384,-1000.0,-1000.0,-273.438,-1000.0
1741608722.388,-946.777,-945.312,100.586,-936.035
1741608722.391,-961.426,-948.73,-365.723,-998.047
1741608722.395,-1000.0,-1000.0,-565.918,-955.078
1741608722.399,-1000.0,-852.539,-365.723,-1000.0
1741608722.403,377.441,627.441,118.652,-122.07
1741608722.407,999.512,999.512,118.652,959.961
1741608722.364,-817.383,-506.348,12.695,-827.637
1741608722.368,617.188,836.914,397.461,595.215
1741608722.372,999.512,999.512,-127.441,999.512
1741608722.376,953.613,910.156,-467.285,928.223
1741608722.38,-237.305,-395.02,-646.484,-298.828
1741608722.384,-1000.0,-1000.0,-273.438,-1000.0
1741608722.388,-946.777,-945.312,100.586,-936.035
1741608722.391,-961.426,-948.73,-365.723,-998.047
1741608722.395,-1000.0,-1000.0,-565.918,-955.078
1741608722.399,-1000.0,-852.539,-365.723,-1000.0
1741608722.403,377.441,627.441,118.652,-122.07
1741608722.407,999.512,999.512,118.652,959.961
1741608722.409,949.219,947.754,-275.391,999.512
1741608722.413,865.723,866.699,-328.613,780.273
1741608722.417,-597.656,-569.336,-571.777,-649.902
1741608722.421,-1000.0,-1000.0,-479.492,-1000.0
1741608722.425,-925.781,-1000.0,-150.391,-928.223
1741608722.429,-1000.0,147.949,129.395,-1000.0
1741608722.433,-1000.0,999.512,145.996,-1000.0
1741608722.436,-1000.0,-154.785,-405.762,-1000.0
1741608722.44,-1000.0,-1000.0,-490.234,-1000.0
1741608722.444,-944.336,-895.508,-41.504,-961.426
1741608722.448,-1000.0,-1000.0,-20.02,-1000.0
1741608722.452,-904.297,-866.699,-125.977,-1000.0
1741608722.409,949.219,947.754,-275.391,999.512
1741608722.413,865.723,866.699,-328.613,780.273
1741608722.417,-597.656,-569.336,-571.777,-649.902
1741608722.421,-1000.0,-1000.0,-479.492,-1000.0
1741608722.425,-925.781,-1000.0,-150.391,-928.223
1741608722.429,-1000.0,147.949,129.395,-1000.0
1741608722.433,-1000.0,999.512,145.996,-1000.0
1741608722.436,-1000.0,-154.785,-405.762,-1000.0
1741608722.44,-1000.0,-1000.0,-490.234,-1000.0
1741608722.444,-944.336,-895.508,-41.504,-961.426
1741608722.448,-1000.0,-1000.0,-20.02,-1000.0
1741608722.452,-904.297,-866.699,-125.977,-1000.0
1741608722.469,550.781,609.375,268.066,341.309
1741608722.473,999.512,999.512,387.695,999.512
1741608722.477,879.395,916.992,-0.488,896.484
1741608722.481,999.512,960.449,-243.164,999.512
1741608722.485,-247.07,-445.312,-543.945,-314.453
1741608722.489,-1000.0,-1000.0,-376.465,-1000.0
1741608722.493,-936.035,-927.246,-45.41,-932.617
1741608722.496,-1000.0,-1000.0,-36.133,-1000.0
1741608722.5,-1000.0,-1000.0,-62.5,-1000.0
1741608722.504,-942.383,-936.523,-141.113,-943.359
1741608722.508,-1000.0,-1000.0,-147.949,-1000.0
1741608722.512,-891.113,-787.598,-131.348,-895.508
1741608722.469,550.781,609.375,268.066,341.309
1741608722.473,999.512,999.512,387.695,999.512
1741608722.477,879.395,916.992,-0.488,896.484
1741608722.481,999.512,960.449,-243.164,999.512
1741608722.485,-247.07,-445.312,-543.945,-314.453
1741608722.489,-1000.0,-1000.0,-376.465,-1000.0
1741608722.493,-936.035,-927.246,-45.41,-932.617
1741608722.496,-1000.0,-1000.0,-36.133,-1000.0
1741608722.5,-1000.0,-1000.0,-62.5,-1000.0
1741608722.504,-942.383,-936.523,-141.113,-943.359
1741608722.508,-1000.0,-1000.0,-147.949,-1000.0
1741608722.512,-891.113,-787.598,-131.348,-895.508
1741608722.516,565.918,679.199,273.926,560.059
1741608722.52,999.512,999.512,346.191,999.512
1741608722.524,836.914,885.742,79.59,845.215
1741608722.528,999.512,999.512,14.648,999.512
1741608722.532,198.73,-220.703,-442.871,120.605
1741608722.536,-1000.0,-1000.0,-259.766,-1000.0
1741608722.54,-993.652,-943.359,118.652,-983.398
1741608722.543,-988.281,-1000.0,-193.848,-993.652
1741608722.547,-937.988,-936.035,-223.145,-939.453
1741608722.551,-1000.0,-1000.0,-202.637,-1000.0
1741608722.555,-726.074,-427.734,69.824,-767.578
1741608722.559,751.953,925.781,377.441,708.984
1741608722.559,999.512,992.188,46.387,999.512
1741608722.563,899.414,922.363,-43.457,897.461
1741608722.567,983.887,979.492,-203.125,984.375
1741608722.571,978.027,979.004,-150.391,979.492
1741608722.575,923.34,923.34,100.586,921.875
1741608722.579,982.91,985.84,99.121,989.746
1741608722.583,962.402,957.031,71.777,944.824
1741608722.586,-413.086,-421.387,-417.969,-441.406
1741608722.59,-1000.0,-1000.0,-670.898,-1000.0
1741608722.594,-927.734,-928.223,-148.926,-927.734
1741608722.598,-1000.0,-1000.0,-68.359,-1000.0
1741608722.602,-941.406,-931.641,-134.277,-941.406
1741608722.559,999.512,992.188,46.387,999.512
1741608722.563,899.414,922.363,-43.457,897.461
1741608722.567,983.887,979.492,-203.125,984.375
1741608722.571,978.027,979.004,-150.391,979.492
1741608722.575,923.34,923.34,100.586,921.875
1741608722.579,982.91,985.84,99.121,989.746
1741608722.583,962.402,957.031,71.777,944.824
1741608722.586,-413.086,-421.387,-417.969,-441.406
1741608722.59,-1000.0,-1000.0,-670.898,-1000.0
1741608722.594,-927.734,-928.223,-148.926,-927.734
1741608722.598,-1000.0,-1000.0,-68.359,-1000.0
1741608722.602,-941.406,-931.641,-134.277,-941.406
1741608722.604,-1000.0,-1000.0,-222.168,-1000.0
1741608722.608,-878.906,-564.453,22.949,-877.441
1741608722.612,579.59,849.609,577.148,581.543
1741608722.616,999.512,999.512,275.391,999.512
1741608722.62,899.414,925.781,-67.871,899.414
1741608722.624,952.637,932.617,-13.672,957.52
1741608722.628,955.078,999.023,-55.176,949.219
1741608722.631,999.512,921.387,31.25,999.512
1741608722.635,-253.418,-491.211,-308.594,-186.523
1741608722.639,-1000.0,-1000.0,-570.312,-1000.0
1741608722.643,-874.512,-854.98,-277.832,-882.324
1741608722.647,-1000.0,-1000.0,-152.832,-1000.0
1741608722.604,-1000.0,-1000.0,-222.168,-1000.0
1741608722.608,-878.906,-564.453,22.949,-877.441
1741608722.612,579.59,849.609,577.148,581.543
1741608722.616,999.512,999.512,275.391,999.512
1741608722.62,899.414,925.781,-67.871,899.414
1741608722.624,952.637,932.617,-13.672,957.52
1741608722.628,955.078,999.023,-55.176,949.219
1741608722.631,999.512,921.387,31.25,999.512
1741608722.635,-253.418,-491.211,-308.594,-186.523
1741608722.639,-1000.0,-1000.0,-570.312,-1000.0
1741608722.643,-874.512,-854.98,-277.832,-882.324
1741608722.647,-1000.0,-1000.0,-152.832,-1000.0
1741608722.649,-846.68,-625.977,258.301,-839.844
1741608722.653,578.125,762.207,552.246,586.426
1741608722.657,999.512,999.512,75.195,999.512
1741608722.661,941.895,846.191,-229.98,942.383
1741608722.665,-266.602,-499.512,-490.234,-253.906
1741608722.669,-1000.0,-1000.0,-101.074,-1000.0
1741608722.673,-948.73,-942.383,343.75,-950.684
1741608722.676,-951.66,-956.055,-67.383,-952.148
1741608722.68,-1000.0,-1000.0,-346.191,-1000.0
1741608722.684,-931.152,-891.113,-113.77,-942.871
1741608722.688,500.977,564.453,552.734,479.004
1741608722.692,999.512,999.512,437.5,999.512
1741608722.694,891.602,907.227,-82.52,892.578
1741608722.698,980.469,930.664,-175.781,980.469
1741608722.702,966.309,990.723,-208.008,966.797
1741608722.706,966.309,957.031,-31.25,966.797
1741608722.71,982.422,-564.941,-77.148,981.934
1741608722.714,909.668,-1000.0,9.766,914.062
1741608722.718,999.512,690.43,199.707,999.512
1741608722.721,867.188,954.59,-187.5,895.02
1741608722.725,-582.031,-683.105,-500.977,-537.598
1741608722.729,-1000.0,-1000.0,-223.633,-1000.0
1741608722.733,-870.605,-864.746,-87.402,-871.094
1741608722.737,-1000.0,-1000.0,-145.02,-1000.0
1741608722.694,891.602,907.227,-82.52,892.578
1741608722.698,980.469,930.664,-175.781,980.469
1741608722.702,966.309,990.723,-208.008,966.797
1741608722.706,966.309,957.031,-31.25,966.797
1741608722.71,982.422,-564.941,-77.148,981.934
1741608722.714,909.668,-1000.0,9.766,914.062
1741608722.718,999.512,690.43,199.707,999.512
1741608722.721,867.188,954.59,-187.5,895.02
1741608722.725,-582.031,-683.105,-500.977,-537.598
1741608722.729,-1000.0,-1000.0,-223.633,-1000.0
1741608722.733,-870.605,-864.746,-87.402,-871.094
1741608722.737,-1000.0,-1000.0,-145.02,-1000.0
1741608722.74,-911.133,-846.68,-42.48,-916.992
1741608722.744,532.227,617.188,508.301,523.438
1741608722.748,999.512,999.512,450.195,999.512
1741608722.752,892.578,907.227,-247.559,892.578
1741608722.756,986.816,937.988,-263.184,992.676
1741608722.76,903.32,991.211,20.508,898.926
1741608722.764,999.512,941.406,111.328,999.512
1741608722.767,338.867,-448.242,-121.094,479.98
1741608722.771,-982.422,-1000.0,-496.094,-916.016
1741608722.775,-1000.0,-927.734,-323.242,-1000.0
1741608722.779,-964.844,-1000.0,-159.18,-953.125
1741608722.783,-994.141,-946.777,-125.977,-1000.0
1741608722.74,-911.133,-846.68,-42.48,-916.992
1741608722.744,532.227,617.188,508.301,523.438
1741608722.748,999.512,999.512,450.195,999.512
1741608722.752,892.578,907.227,-247.559,892.578
1741608722.756,986.816,937.988,-263.184,992.676
1741608722.76,903.32,991.211,20.508,898.926
1741608722.764,999.512,941.406,111.328,999.512
1741608722.767,338.867,-448.242,-121.094,479.98
1741608722.771,-982.422,-1000.0,-496.094,-916.016
1741608722.775,-1000.0,-927.734,-323.242,-1000.0
1741608722.779,-964.844,-1000.0,-159.18,-953.125
1741608722.783,-994.141,-946.777,-125.977,-1000.0
1741608722.784,-967.773,-1000.0,84.961,-960.938
1741608722.788,-1000.0,-924.316,35.645,-1000.0
1741608722.792,29.785,510.254,170.41,-59.082
1741608722.796,999.512,999.512,347.656,999.512
1741608722.8,895.02,850.098,-145.508,909.668
1741608722.804,941.406,998.047,42.969,935.059
1741608722.808,999.512,960.938,236.816,999.512
1741608722.811,-229.004,-409.668,-461.426,-206.055
1741608722.815,-1000.0,-1000.0,-712.402,-1000.0
1741608722.819,-938.965,-945.312,-369.141,-942.871
1741608722.823,-1000.0,-950.684,10.254,-1000.0
1741608722.827,-938.477,-1000.0,-34.668,-933.594
1741608722.844,-1000.0,-873.535,-234.375,-1000.0
1741608722.848,-368.164,586.426,135.254,-572.266
1741608722.852,947.266,999.512,137.207,841.309
1741608722.856,998.535,909.18,2.441,999.512
1741608722.86,868.652,925.781,-91.309,852.051
1741608722.864,999.512,999.512,-73.73,999.512
1741608722.868,856.934,857.91,-15.137,837.402
1741608722.871,-597.656,-597.656,-500.488,-621.094
1741608722.875,-1000.0,-1000.0,-573.73,-1000.0
1741608722.879,-925.781,-926.27,-145.508,-926.758
1741608722.883,-1000.0,-1000.0,-129.883,-1000.0
1741608722.887,-941.895,-934.57,-181.152,-942.383
1741608722.844,-1000.0,-873.535,-234.375,-1000.0
1741608722.848,-368.164,586.426,135.254,-572.266
1741608722.852,947.266,999.512,137.207,841.309
1741608722.856,998.535,909.18,2.441,999.512
1741608722.86,868.652,925.781,-91.309,852.051
1741608722.864,999.512,999.512,-73.73,999.512
1741608722.868,856.934,857.91,-15.137,837.402
1741608722.871,-597.656,-597.656,-500.488,-621.094
1741608722.875,-1000.0,-1000.0,-573.73,-1000.0
1741608722.879,-925.781,-926.27,-145.508,-926.758
1741608722.883,-1000.0,-1000.0,-129.883,-1000.0
1741608722.887,-941.895,-934.57,-181.152,-942.383
1741608722.889,-1000.0,-1000.0,-265.137,-1000.0
1741608722.893,-886.719,-506.348,3.418,-889.648
1741608722.897,569.824,875.0,460.449,566.406
1741608722.901,999.512,999.512,207.52,999.512
1741608722.905,900.391,927.734,-106.934,901.855
1741608722.909,949.219,937.988,-45.898,947.754
1741608722.913,960.938,985.352,100.098,967.285
1741608722.916,999.512,950.195,47.852,999.512
1741608722.92,-290.527,-416.016,-416.016,-318.848
1741608722.924,-1000.0,-1000.0,-580.566,-1000.0
1741608722.928,-900.391,-858.887,-317.383,-906.738
1741608722.932,-1000.0,-1000.0,-130.859,-990.723
1741608722.889,-1000.0,-1000.0,-265.137,-1000.0
1741608722.893,-886.719,-506.348,3.418,-889.648
1741608722.897,569.824,875.0,460.449,566.406
1741608722.901,999.512,999.512,207.52,999.512
1741608722.905,900.391,927.734,-106.934,901.855
1741608722.909,949.219,937.988,-45.898,947.754
1741608722.913,960.938,985.352,100.098,967.285
1741608722.916,999.512,950.195,47.852,999.512
1741608722.92,-290.527,-416.016,-416.016,-318.848
1741608722.924,-1000.0,-1000.0,-580.566,-1000.0
1741608722.928,-900.391,-858.887,-317.383,-906.738
1741608722.932,-1000.0,-1000.0,-130.859,-990.723
1741608722.934,-1000.0,-690.918,94.727,-1000.0
1741608722.938,258.301,777.832,345.215,141.602
1741608722.942,999.512,999.512,182.617,999.512
1741608722.946,915.527,918.945,-207.031,932.617
1741608722.95,912.598,926.27,-169.922,904.297
1741608722.954,999.512,999.512,195.312,999.512
1741608722.958,856.934,857.91,121.582,854.004
1741608722.961,-610.84,-614.746,-498.535,-614.746
1741608722.965,-1000.0,-1000.0,-654.297,-1000.0
1741608722.969,-949.707,-1000.0,-229.492,-948.242
1741608722.973,-992.676,-822.754,290.039,-994.629
1741608722.977,417.48,662.109,439.453,404.785
1741608722.934,-1000.0,-690.918,94.727,-1000.0
1741608722.938,258.301,777.832,345.215,141.602
1741608722.942,999.512,999.512,182.617,999.512
1741608722.946,915.527,918.945,-207.031,932.617
1741608722.95,912.598,926.27,-169.922,904.297
1741608722.954,999.512,999.512,195.312,999.512
1741608722.958,856.934,857.91,121.582,854.004
1741608722.961,-610.84,-614.746,-498.535,-614.746
1741608722.965,-1000.0,-1000.0,-654.297,-1000.0
1741608722.969,-949.707,-1000.0,-229.492,-948.242
1741608722.973,-992.676,-822.754,290.039,-994.629
1741608722.977,417.48,662.109,439.453,404.785
1741608722.979,999.512,999.512,90.82,999.512
1741608722.983,854.98,843.262,-138.672,858.887
1741608722.987,983.398,999.512,-157.227,979.492
1741608722.991,988.77,895.996,-9.277,997.07
1741608722.995,-354.004,-536.133,-290.039,-328.613
1741608722.999,-1000.0,-1000.0,-292.48,-1000.0
1741608723.003,-930.176,-925.781,-25.879,-931.641
1741608723.006,-1000.0,-1000.0,-245.605,-1000.0
1741608723.01,-1000.0,-955.078,-126.465,-1000.0
1741608723.014,-1000.0,-1000.0,83.008,-1000.0
1741608723.018,-945.801,-977.539,-47.852,-950.684
1741608723.022,-1000.0,407.715,-78.125,-1000.0
1741608722.979,999.512,999.512,90.82,999.512
1741608722.983,854.98,843.262,-138.672,858.887
1741608722.987,983.398,999.512,-157.227,979.492
1741608722.991,988.77,895.996,-9.277,997.07
1741608722.995,-354.004,-536.133,-290.039,-328.613
1741608722.999,-1000.0,-1000.0,-292.48,-1000.0
1741608723.003,-930.176,-925.781,-25.879,-931.641
1741608723.006,-1000.0,-1000.0,-245.605,-1000.0
1741608723.01,-1000.0,-955.078,-126.465,-1000.0
1741608723.014,-1000.0,-1000.0,83.008,-1000.0
1741608723.018,-945.801,-977.539,-47.852,-950.684
1741608723.022,-1000.0,407.715,-78.125,-1000.0
1741608723.026,-917.48,999.512,-37.598,-950.195
1741608723.03,534.18,862.305,291.992,472.656
1741608723.034,999.512,972.656,305.176,999.512
1741608723.038,993.164,999.512,-198.73,997.559
1741608723.042,567.871,-282.715,-474.121,482.422
1741608723.046,-854.004,-1000.0,-447.754,-894.531
1741608723.05,-1000.0,-935.547,-49.316,-1000.0
1741608723.053,-944.336,-1000.0,-43.457,-950.684
1741608723.057,-1000.0,-1000.0,-315.918,-1000.0
1741608723.061,-932.617,-935.059,-199.219,-935.059
1741608723.065,-1000.0,-1000.0,-216.309,-1000.0
1741608723.069,-769.043,-475.098,-69.824,-803.711
1741608723.069,708.984,898.926,342.285,669.922
1741608723.073,999.512,988.281,146.973,999.512
1741608723.077,838.867,884.766,2.441,835.449
1741608723.081,999.512,999.512,95.215,999.512
1741608723.085,854.492,12.207,-210.938,817.871
1741608723.089,-601.562,-1000.0,-191.406,-642.09
1741608723.093,-1000.0,-972.168,-28.32,-1000.0
1741608723.096,-941.895,-999.512,-244.629,-943.848
1741608723.1,-958.496,-947.266,-263.184,-957.031
1741608723.104,-1000.0,-1000.0,-172.363,-1000.0
1741608723.108,-891.113,-887.207,81.055,-868.164
1741608723.112,563.965,569.824,382.812,591.309
1741608723.114,999.512,999.512,256.836,999.512
1741608723.118,907.715,900.879,131.836,909.668
1741608723.122,924.316,919.922,-34.18,925.293
1741608723.126,999.512,999.512,65.918,999.512
1741608723.13,856.934,448.73,-27.344,855.957
1741608723.134,-597.656,-912.598,-309.082,-600.098
1741608723.138,-1000.0,-1000.0,-77.148,-1000.0
1741608723.141,-925.781,-951.66,-62.012,-925.781
1741608723.145,-1000.0,-1000.0,-38.086,-1000.0
1741608723.149,-1000.0,-1000.0,40.039,-1000.0
1741608723.153,-942.383,-941.895,-43.457,-942.383
1741608723.157,-1000.0,-1000.0,-125.0,-1000.0
1741608723.114,999.512,999.512,256.836,999.512
1741608723.118,907.715,900.879,131.836,909.668
1741608723.122,924.316,919.922,-34.18,925.293
1741608723.126,999.512,999.512,65.918,999.512
1741608723.13,856.934,448.73,-27.344,855.957
1741608723.134,-597.656,-912.598,-309.082,-600.098
1741608723.138,-1000.0,-1000.0,-77.148,-1000.0
1741608723.141,-925.781,-951.66,-62.012,-925.781
1741608723.145,-1000.0,-1000.0,-38.086,-1000.0
1741608723.149,-1000.0,-1000.0,40.039,-1000.0
1741608723.153,-942.383,-941.895,-43.457,-942.383
1741608723.157,-1000.0,-1000.0,-125.0,-1000.0
1741608723.161,-891.113,-884.766,-148.926,-890.625
1741608723.165,563.477,572.266,419.434,564.941
1741608723.169,999.512,999.512,493.164,999.512
1741608723.173,891.602,908.691,64.941,892.578
1741608723.177,981.934,924.316,-86.426,982.91
1741608723.181,966.309,999.512,102.051,966.797
1741608723.185,966.309,849.121,142.578,967.285
1741608723.188,982.422,-608.398,-149.902,983.398
1741608723.192,895.02,-1000.0,-82.52,901.367
1741608723.196,999.512,-933.594,-36.621,999.512
1741608723.2,623.535,-988.77,-219.238,705.078
1741608723.204,-754.395,-986.816,-260.254,-671.875
1741608723.161,-891.113,-884.766,-148.926,-890.625
1741608723.165,563.477,572.266,419.434,564.941
1741608723.169,999.512,999.512,493.164,999.512
1741608723.173,891.602,908.691,64.941,892.578
1741608723.177,981.934,924.316,-86.426,982.91
1741608723.181,966.309,999.512,102.051,966.797
1741608723.185,966.309,849.121,142.578,967.285
1741608723.188,982.422,-608.398,-149.902,983.398
1741608723.192,895.02,-1000.0,-82.52,901.367
1741608723.196,999.512,-933.594,-36.621,999.512
1741608723.2,623.535,-988.77,-219.238,705.078
1741608723.204,-754.395,-986.816,-260.254,-671.875
1741608723.219,-1000.0,-1000.0,-50.293,-1000.0
1741608723.223,-701.66,175.781,291.992,-585.938
1741608723.227,696.289,999.512,311.035,770.996
1741608723.231,999.512,920.898,-42.969,999.512
1741608723.235,890.137,925.293,7.324,909.668
1741608723.239,936.523,979.98,324.707,921.875
1741608723.243,999.512,972.168,211.914,999.512
1741608723.246,105.957,-380.371,-295.41,312.5
1741608723.25,-1000.0,-1000.0,-643.555,-990.723
1741608723.254,-979.98,-930.176,-219.727,-1000.0
1741608723.258,-977.539,-1000.0,249.023,-961.914
1741608723.262,-1000.0,-1000.0,138.672,-1000.0
1741608723.219,-1000.0,-1000.0,-50.293,-1000.0
1741608723.223,-701.66,175.781,291.992,-585.938
1741608723.227,696.289,999.512,311.035,770.996
1741608723.231,999.512,920.898,-42.969,999.512
1741608723.235,890.137,925.293,7.324,909.668
1741608723.239,936.523,979.98,324.707,921.875
1741608723.243,999.512,972.168,211.914,999.512
1741608723.246,105.957,-380.371,-295.41,312.5
1741608723.25,-1000.0,-1000.0,-643.555,-990.723
1741608723.254,-979.98,-930.176,-219.727,-1000.0
1741608723.258,-977.539,-1000.0,249.023,-961.914
1741608723.262,-1000.0,-1000.0,138.672,-1000.0
1741608723.264,-935.059,-931.641,-125.977,-934.082
1741608723.268,-1000.0,-1000.0,-194.824,-1000.0
1741608723.272,-810.059,-726.074,44.922,-786.621
1741608723.276,666.016,741.699,476.074,686.523
