timestamps,TP9,AF7,AF8,TP10
1741689010.364,-972.168,-953.613,-7.324,-973.633
1741689010.368,-1000.0,-1000.0,-29.297,-1000.0
1741689010.372,-451.172,-147.949,-31.738,-442.383
1741689010.375,951.172,999.512,-19.043,949.707
1741689010.379,924.805,904.297,-34.668,925.293
1741689010.383,999.512,999.512,-28.809,999.512
1741689010.387,194.824,-21.973,-38.086,192.383
1741689010.391,-1000.0,-1000.0,-30.273,-1000.0
1741689010.364,-972.168,-953.613,-7.324,-973.633
1741689010.368,-1000.0,-1000.0,-29.297,-1000.0
1741689010.372,-451.172,-147.949,-31.738,-442.383
1741689010.375,951.172,999.512,-19.043,949.707
1741689010.379,924.805,904.297,-34.668,925.293
1741689010.383,999.512,999.512,-28.809,999.512
1741689010.387,194.824,-21.973,-38.086,192.383
1741689010.391,-1000.0,-1000.0,-30.273,-1000.0
1741689010.393,-954.102,-1000.0,33.203,-956.543
1741689010.397,-1000.0,-826.172,48.828,-1000.0
1741689010.401,85.449,522.949,83.984,91.309
1741689010.405,999.512,999.512,117.676,999.512
1741689010.409,851.562,846.68,145.508,857.422
1741689010.413,999.512,999.512,189.941,999.512
1741689010.417,720.703,727.539,185.547,609.375
1741689010.42,-697.266,-679.688,123.047,-760.742
1741689010.424,-1000.0,-1000.0,94.238,-1000.0
1741689010.428,-873.535,-874.023,117.676,-878.418
1741689010.432,-1000.0,-1000.0,130.859,-1000.0
1741689010.436,-220.703,-206.055,182.617,-246.094
1741689010.393,-954.102,-1000.0,33.203,-956.543
1741689010.397,-1000.0,-826.172,48.828,-1000.0
1741689010.401,85.449,522.949,83.984,91.309
1741689010.405,999.512,999.512,117.676,999.512
1741689010.409,851.562,846.68,145.508,857.422
1741689010.413,999.512,999.512,189.941,999.512
1741689010.417,720.703,727.539,185.547,609.375
1741689010.42,-697.266,-679.688,123.047,-760.742
1741689010.424,-1000.0,-1000.0,94.238,-1000.0
1741689010.428,-873.535,-874.023,117.676,-878.418
1741689010.432,-1000.0,-1000.0,130.859,-1000.0
1741689010.436,-220.703,-206.055,182.617,-246.094
1741689010.438,999.512,999.512,211.426,999.512
1741689010.442,890.137,976.074,162.598,908.691
1741689010.446,999.512,797.852,135.742,999.512
1741689010.45,195.801,-308.105,116.211,96.191
1741689010.454,-1000.0,-1000.0,94.238,-1000.0
1741689010.458,-970.703,-458.496,159.18,-930.176
1741689010.462,324.219,824.707,239.746,350.586
1741689010.465,999.512,999.512,222.168,999.512
1741689010.469,989.258,548.828,233.887,968.262
1741689010.473,-148.438,-794.922,229.004,-169.434
1741689010.477,-1000.0,-1000.0,195.312,-1000.0
1741689010.481,-939.453,-1000.0,200.195,-947.266
1741689010.438,999.512,999.512,211.426,999.512
1741689010.442,890.137,976.074,162.598,908.691
1741689010.446,999.512,797.852,135.742,999.512
1741689010.45,195.801,-308.105,116.211,96.191
1741689010.454,-1000.0,-1000.0,94.238,-1000.0
1741689010.458,-970.703,-458.496,159.18,-930.176
1741689010.462,324.219,824.707,239.746,350.586
1741689010.465,999.512,999.512,222.168,999.512
1741689010.469,989.258,548.828,233.887,968.262
1741689010.473,-148.438,-794.922,229.004,-169.434
1741689010.477,-1000.0,-1000.0,195.312,-1000.0
1741689010.481,-939.453,-1000.0,200.195,-947.266
1741689010.483,-1000.0,-736.816,183.594,-1000.0
1741689010.487,246.582,678.223,176.27,264.648
1741689010.491,999.512,999.512,120.117,999.512
1741689010.495,902.832,907.715,121.094,903.809
1741689010.499,906.738,916.504,188.965,910.156
1741689010.503,999.512,999.512,215.82,999.512
1741689010.507,186.523,186.523,145.02,152.832
1741689010.51,-1000.0,-1000.0,72.266,-1000.0
1741689010.514,-921.387,-925.293,111.816,-916.504
1741689010.518,-1000.0,-1000.0,118.164,-1000.0
1741689010.522,-227.539,-184.082,109.863,-230.469
1741689010.526,999.512,999.512,145.996,999.512
1741689010.483,-1000.0,-736.816,183.594,-1000.0
1741689010.487,246.582,678.223,176.27,264.648
1741689010.491,999.512,999.512,120.117,999.512
1741689010.495,902.832,907.715,121.094,903.809
1741689010.499,906.738,916.504,188.965,910.156
1741689010.503,999.512,999.512,215.82,999.512
1741689010.507,186.523,186.523,145.02,152.832
1741689010.51,-1000.0,-1000.0,72.266,-1000.0
1741689010.514,-921.387,-925.293,111.816,-916.504
1741689010.518,-1000.0,-1000.0,118.164,-1000.0
1741689010.522,-227.539,-184.082,109.863,-230.469
1741689010.526,999.512,999.512,145.996,999.512
1741689010.528,876.465,876.953,123.047,881.348
1741689010.532,999.512,999.512,94.727,999.512
1741689010.536,550.781,314.453,170.41,565.43
1741689010.54,-818.359,-956.543,183.594,-789.062
1741689010.544,-1000.0,-1000.0,142.09,-1000.0
1741689010.548,-637.207,-201.66,194.336,-624.512
1741689010.552,743.164,999.512,205.566,732.91
1741689010.555,968.75,890.137,136.23,967.285
1741689010.559,999.512,999.512,172.363,999.512
1741689010.563,363.281,223.633,149.902,365.723
1741689010.567,-1000.0,-1000.0,52.734,-1000.0
1741689010.571,-938.477,-921.875,114.258,-941.406
1741689010.528,876.465,876.953,123.047,881.348
1741689010.532,999.512,999.512,94.727,999.512
1741689010.536,550.781,314.453,170.41,565.43
1741689010.54,-818.359,-956.543,183.594,-789.062
1741689010.544,-1000.0,-1000.0,142.09,-1000.0
1741689010.548,-637.207,-201.66,194.336,-624.512
1741689010.552,743.164,999.512,205.566,732.91
1741689010.555,968.75,890.137,136.23,967.285
1741689010.559,999.512,999.512,172.363,999.512
1741689010.563,363.281,223.633,149.902,365.723
1741689010.567,-1000.0,-1000.0,52.734,-1000.0
1741689010.571,-938.477,-921.875,114.258,-941.406
1741689010.576,-1000.0,-1000.0,169.434,-1000.0
1741689010.58,-438.477,-313.965,127.441,-407.715
1741689010.584,955.566,999.512,101.562,966.309
1741689010.588,998.535,972.656,87.891,994.141
1741689010.592,848.145,862.793,36.621,851.562
1741689010.596,999.512,999.512,86.426,999.512
1741689010.6,449.707,328.125,83.008,470.703
1741689010.603,-960.938,-1000.0,-40.527,-946.289
1741689010.607,-1000.0,-1000.0,-38.086,-1000.0
1741689010.611,-889.16,-902.344,-15.137,-891.113
1741689010.615,-1000.0,-1000.0,0.977,-1000.0
1741689010.619,-205.566,-178.711,36.621,-167.969
1741689010.576,-1000.0,-1000.0,169.434,-1000.0
1741689010.58,-438.477,-313.965,127.441,-407.715
1741689010.584,955.566,999.512,101.562,966.309
1741689010.588,998.535,972.656,87.891,994.141
1741689010.592,848.145,862.793,36.621,851.562
1741689010.596,999.512,999.512,86.426,999.512
1741689010.6,449.707,328.125,83.008,470.703
1741689010.603,-960.938,-1000.0,-40.527,-946.289
1741689010.607,-1000.0,-1000.0,-38.086,-1000.0
1741689010.611,-889.16,-902.344,-15.137,-891.113
1741689010.615,-1000.0,-1000.0,0.977,-1000.0
1741689010.619,-205.566,-178.711,36.621,-167.969
1741689010.618,965.332,977.539,23.438,977.051
1741689010.622,999.512,999.512,-17.09,999.512
1741689010.626,554.199,284.668,-40.527,556.152
1741689010.63,-773.438,-957.031,-19.043,-761.23
1741689010.634,-1000.0,-1000.0,39.551,-1000.0
1741689010.638,-383.301,-185.547,72.266,-381.836
1741689010.642,869.141,999.512,72.754,867.188
1741689010.645,999.512,999.512,3.906,999.512
1741689010.649,141.602,-126.465,-32.227,142.09
1741689010.653,-1000.0,-1000.0,1.953,-1000.0
1741689010.657,-963.379,-921.387,5.371,-962.891
1741689010.661,-944.336,-1000.0,-8.789,-947.266
1741689010.618,965.332,977.539,23.438,977.051
1741689010.622,999.512,999.512,-17.09,999.512
1741689010.626,554.199,284.668,-40.527,556.152
1741689010.63,-773.438,-957.031,-19.043,-761.23
1741689010.634,-1000.0,-1000.0,39.551,-1000.0
1741689010.638,-383.301,-185.547,72.266,-381.836
1741689010.642,869.141,999.512,72.754,867.188
1741689010.645,999.512,999.512,3.906,999.512
1741689010.649,141.602,-126.465,-32.227,142.09
1741689010.653,-1000.0,-1000.0,1.953,-1000.0
1741689010.657,-963.379,-921.387,5.371,-962.891
1741689010.661,-944.336,-1000.0,-8.789,-947.266
1741689010.678,-1000.0,-960.938,-6.836,-1000.0
1741689010.682,99.609,336.426,18.555,103.516
1741689010.686,999.512,999.512,41.016,999.512
1741689010.69,907.227,905.762,43.457,900.879
1741689010.694,905.762,910.645,51.27,925.293
1741689010.698,999.512,999.512,64.941,999.512
1741689010.702,109.863,155.762,37.598,-22.461
1741689010.705,-1000.0,-1000.0,37.598,-1000.0
1741689010.709,-954.59,-936.523,38.574,-944.824
1741689010.713,-946.777,-1000.0,-5.371,-955.078
1741689010.717,-1000.0,-928.711,6.348,-1000.0
1741689010.721,88.379,414.551,30.762,83.984
1741689010.678,-1000.0,-960.938,-6.836,-1000.0
1741689010.682,99.609,336.426,18.555,103.516
1741689010.686,999.512,999.512,41.016,999.512
1741689010.69,907.227,905.762,43.457,900.879
1741689010.694,905.762,910.645,51.27,925.293
1741689010.698,999.512,999.512,64.941,999.512
1741689010.702,109.863,155.762,37.598,-22.461
1741689010.705,-1000.0,-1000.0,37.598,-1000.0
1741689010.709,-954.59,-936.523,38.574,-944.824
1741689010.713,-946.777,-1000.0,-5.371,-955.078
1741689010.717,-1000.0,-928.711,6.348,-1000.0
1741689010.721,88.379,414.551,30.762,83.984
1741689010.723,999.512,999.512,40.039,999.512
1741689010.727,999.512,999.512,37.109,999.512
1741689010.731,564.453,375.0,9.277,554.199
1741689010.735,-803.711,-936.035,20.02,-794.922
1741689010.739,-1000.0,-1000.0,23.926,-1000.0
1741689010.743,-234.375,-185.059,71.289,-258.301
1741689010.747,934.082,999.512,88.867,926.27
1741689010.75,999.512,994.629,35.156,999.512
1741689010.754,149.414,-197.266,-1.465,140.137
1741689010.758,-1000.0,-1000.0,-5.371,-1000.0
1741689010.762,-954.102,-957.031,1.465,-967.285
1741689010.766,-1000.0,-973.633,-3.418,-1000.0
1741689010.723,999.512,999.512,40.039,999.512
1741689010.727,999.512,999.512,37.109,999.512
1741689010.731,564.453,375.0,9.277,554.199
1741689010.735,-803.711,-936.035,20.02,-794.922
1741689010.739,-1000.0,-1000.0,23.926,-1000.0
1741689010.743,-234.375,-185.059,71.289,-258.301
1741689010.747,934.082,999.512,88.867,926.27
1741689010.75,999.512,994.629,35.156,999.512
1741689010.754,149.414,-197.266,-1.465,140.137
1741689010.758,-1000.0,-1000.0,-5.371,-1000.0
1741689010.762,-954.102,-957.031,1.465,-967.285
1741689010.766,-1000.0,-973.633,-3.418,-1000.0
1741689010.768,73.242,230.469,66.895,141.602
1741689010.772,999.512,999.512,58.105,999.512
1741689010.776,999.512,676.758,14.648,999.512
1741689010.78,69.336,-568.848,-3.418,27.344
1741689010.784,-1000.0,-1000.0,18.066,-1000.0
1741689010.788,-651.367,-173.828,35.645,-652.832
1741689010.792,765.137,999.512,8.301,736.816
1741689010.795,974.121,904.785,-31.25,974.121
1741689010.799,999.512,999.512,-3.906,999.512
1741689010.803,201.172,94.238,3.906,220.215
1741689010.807,-1000.0,-1000.0,-54.688,-1000.0
1741689010.811,-1000.0,-1000.0,-32.715,-1000.0
1741689010.768,73.242,230.469,66.895,141.602
1741689010.772,999.512,999.512,58.105,999.512
1741689010.776,999.512,676.758,14.648,999.512
1741689010.78,69.336,-568.848,-3.418,27.344
1741689010.784,-1000.0,-1000.0,18.066,-1000.0
1741689010.788,-651.367,-173.828,35.645,-652.832
1741689010.792,765.137,999.512,8.301,736.816
1741689010.795,974.121,904.785,-31.25,974.121
1741689010.799,999.512,999.512,-3.906,999.512
1741689010.803,201.172,94.238,3.906,220.215
1741689010.807,-1000.0,-1000.0,-54.688,-1000.0
1741689010.811,-1000.0,-1000.0,-32.715,-1000.0
1741689010.813,-193.359,77.148,26.367,-189.941
1741689010.817,999.512,999.512,18.555,999.512
1741689010.821,887.207,837.402,-20.996,888.184
1741689010.825,999.512,999.512,12.695,999.512
1741689010.829,193.359,188.477,-12.207,185.059
1741689010.833,-1000.0,-1000.0,-22.949,-1000.0
1741689010.837,-951.172,-946.289,30.273,-941.895
1741689010.84,-970.215,-982.91,36.621,-999.512
1741689010.844,-1000.0,-998.535,45.898,-915.039
1741689010.848,257.324,320.312,59.082,399.902
1741689010.852,999.512,999.512,61.035,999.512
1741689010.856,830.078,832.031,92.285,838.379
1741689010.813,-193.359,77.148,26.367,-189.941
1741689010.817,999.512,999.512,18.555,999.512
1741689010.821,887.207,837.402,-20.996,888.184
1741689010.825,999.512,999.512,12.695,999.512
1741689010.829,193.359,188.477,-12.207,185.059
1741689010.833,-1000.0,-1000.0,-22.949,-1000.0
1741689010.837,-951.172,-946.289,30.273,-941.895
1741689010.84,-970.215,-982.91,36.621,-999.512
1741689010.844,-1000.0,-998.535,45.898,-915.039
1741689010.848,257.324,320.312,59.082,399.902
1741689010.852,999.512,999.512,61.035,999.512
1741689010.856,830.078,832.031,92.285,838.379
1741689010.86,999.512,999.512,151.367,999.512
1741689010.864,590.332,372.559,140.625,614.746
1741689010.868,-856.934,-980.957,125.977,-816.406
1741689010.872,-997.07,-971.191,132.324,-1000.0
1741689010.876,-1000.0,-1000.0,145.02,-1000.0
1741689010.88,-259.277,-131.836,230.957,-239.746
1741689010.884,999.512,999.512,199.219,999.512
1741689010.887,999.512,574.219,107.91,999.512
1741689010.891,-193.359,-815.43,74.707,-232.91
1741689010.895,-1000.0,-1000.0,70.312,-1000.0
1741689010.899,-914.062,-975.098,108.398,-916.504
1741689010.903,-1000.0,-924.805,98.145,-1000.0
1741689010.86,999.512,999.512,151.367,999.512
1741689010.864,590.332,372.559,140.625,614.746
1741689010.868,-856.934,-980.957,125.977,-816.406
1741689010.872,-997.07,-971.191,132.324,-1000.0
1741689010.876,-1000.0,-1000.0,145.02,-1000.0
1741689010.88,-259.277,-131.836,230.957,-239.746
1741689010.884,999.512,999.512,199.219,999.512
1741689010.887,999.512,574.219,107.91,999.512
1741689010.891,-193.359,-815.43,74.707,-232.91
1741689010.895,-1000.0,-1000.0,70.312,-1000.0
1741689010.899,-914.062,-975.098,108.398,-916.504
1741689010.903,-1000.0,-924.805,98.145,-1000.0
1741689010.903,99.121,427.246,70.801,94.727
1741689010.907,999.512,999.512,34.18,999.512
1741689010.911,848.145,842.773,7.812,849.609
1741689010.915,999.512,999.512,32.715,999.512
1741689010.919,187.5,173.34,-4.883,223.145
1741689010.923,-1000.0,-1000.0,-13.184,-1000.0
1741689010.927,-976.074,-977.539,25.879,-972.656
1741689010.93,-922.852,-918.945,20.996,-940.43
1741689010.934,-1000.0,-1000.0,19.531,-1000.0
1741689010.938,-81.055,-132.324,96.68,43.945
1741689010.942,999.512,999.512,107.91,999.512
1741689010.946,868.164,889.16,38.086,863.281
1741689010.949,999.512,999.512,57.617,999.512
1741689010.953,177.734,58.105,74.707,166.016
1741689010.957,-1000.0,-1000.0,30.762,-1000.0
1741689010.961,-1000.0,-1000.0,62.988,-1000.0
1741689010.965,-877.441,-492.676,130.371,-879.883
1741689010.969,482.91,893.555,185.059,463.867
1741689010.973,999.512,928.711,150.879,999.512
1741689010.976,999.512,999.512,130.371,999.512
1741689010.98,632.812,455.566,109.863,604.004
1741689010.984,-837.891,-969.727,37.109,-848.145
1741689010.988,-1000.0,-963.867,68.848,-1000.0
1741689010.992,-996.582,-1000.0,86.426,-999.023
1741689010.949,999.512,999.512,57.617,999.512
1741689010.953,177.734,58.105,74.707,166.016
1741689010.957,-1000.0,-1000.0,30.762,-1000.0
1741689010.961,-1000.0,-1000.0,62.988,-1000.0
1741689010.965,-877.441,-492.676,130.371,-879.883
1741689010.969,482.91,893.555,185.059,463.867
1741689010.973,999.512,928.711,150.879,999.512
1741689010.976,999.512,999.512,130.371,999.512
1741689010.98,632.812,455.566,109.863,604.004
1741689010.984,-837.891,-969.727,37.109,-848.145
1741689010.988,-1000.0,-963.867,68.848,-1000.0
1741689010.992,-996.582,-1000.0,86.426,-999.023
1741689010.993,-862.793,-645.508,111.816,-853.027
1741689010.997,574.219,795.41,128.906,570.312
1741689011.001,999.512,958.496,79.59,999.512
1741689011.005,970.215,999.512,75.195,978.027
1741689011.009,772.949,519.043,60.547,733.398
1741689011.013,-662.598,-901.367,81.055,-687.5
1741689011.017,-1000.0,-1000.0,62.5,-1000.0
1741689011.02,-860.352,-876.465,-20.996,-864.746
1741689011.024,-1000.0,-1000.0,-17.09,-1000.0
1741689011.028,-540.527,-425.781,36.621,-548.34
1741689011.032,895.508,958.984,54.688,883.301
1741689011.036,996.094,965.332,-5.371,993.652
1741689010.993,-862.793,-645.508,111.816,-853.027
1741689010.997,574.219,795.41,128.906,570.312
1741689011.001,999.512,958.496,79.59,999.512
1741689011.005,970.215,999.512,75.195,978.027
1741689011.009,772.949,519.043,60.547,733.398
1741689011.013,-662.598,-901.367,81.055,-687.5
1741689011.017,-1000.0,-1000.0,62.5,-1000.0
1741689011.02,-860.352,-876.465,-20.996,-864.746
1741689011.024,-1000.0,-1000.0,-17.09,-1000.0
1741689011.028,-540.527,-425.781,36.621,-548.34
1741689011.032,895.508,958.984,54.688,883.301
1741689011.036,996.094,965.332,-5.371,993.652
1741689011.04,869.629,897.949,-1.953,882.324
1741689011.044,999.512,999.512,3.418,999.512
1741689011.048,-17.09,-137.695,-72.266,-85.938
1741689011.052,-1000.0,-1000.0,-69.824,-1000.0
1741689011.056,-1000.0,-1000.0,-24.414,-1000.0
1741689011.06,-222.656,-168.945,19.531,-251.953
1741689011.064,952.637,980.957,18.066,947.266
1741689011.067,999.512,999.512,-49.316,999.512
1741689011.071,551.758,224.609,-39.551,566.895
1741689011.075,-860.84,-1000.0,-52.246,-828.125
1741689011.079,-989.746,-931.641,-35.645,-992.188
1741689011.083,-1000.0,-1000.0,29.297,-1000.0
1741689011.04,869.629,897.949,-1.953,882.324
1741689011.044,999.512,999.512,3.418,999.512
1741689011.048,-17.09,-137.695,-72.266,-85.938
1741689011.052,-1000.0,-1000.0,-69.824,-1000.0
1741689011.056,-1000.0,-1000.0,-24.414,-1000.0
1741689011.06,-222.656,-168.945,19.531,-251.953
1741689011.064,952.637,980.957,18.066,947.266
1741689011.067,999.512,999.512,-49.316,999.512
1741689011.071,551.758,224.609,-39.551,566.895
1741689011.075,-860.84,-1000.0,-52.246,-828.125
1741689011.079,-989.746,-931.641,-35.645,-992.188
1741689011.083,-1000.0,-1000.0,29.297,-1000.0
1741689011.098,-321.777,-229.004,116.211,-350.586
1741689011.102,999.512,999.512,151.855,999.512
1741689011.106,889.16,880.371,96.68,896.973
1741689011.11,999.512,999.512,102.539,999.512
1741689011.114,505.859,353.516,76.66,470.215
1741689011.118,-932.617,-1000.0,41.016,-948.242
1741689011.122,-1000.0,-1000.0,99.609,-1000.0
1741689011.125,-902.344,-903.32,63.965,-906.25
1741689011.129,-1000.0,-1000.0,3.418,-1000.0
1741689011.133,-936.035,-806.152,4.883,-922.363
1741689011.137,428.711,595.215,32.227,425.781
1741689011.141,999.512,999.512,98.633,999.512
1741689011.098,-321.777,-229.004,116.211,-350.586
1741689011.102,999.512,999.512,151.855,999.512
1741689011.106,889.16,880.371,96.68,896.973
1741689011.11,999.512,999.512,102.539,999.512
1741689011.114,505.859,353.516,76.66,470.215
1741689011.118,-932.617,-1000.0,41.016,-948.242
1741689011.122,-1000.0,-1000.0,99.609,-1000.0
1741689011.125,-902.344,-903.32,63.965,-906.25
1741689011.129,-1000.0,-1000.0,3.418,-1000.0
1741689011.133,-936.035,-806.152,4.883,-922.363
1741689011.137,428.711,595.215,32.227,425.781
1741689011.141,999.512,999.512,98.633,999.512
1741689011.143,836.426,840.332,105.469,840.82
1741689011.147,999.512,999.512,65.43,999.512
1741689011.151,186.035,203.613,15.137,178.223
1741689011.155,-1000.0,-1000.0,3.906,-1000.0
1741689011.159,-1000.0,-1000.0,33.203,-1000.0
1741689011.163,-179.199,69.824,84.961,-173.34
1741689011.167,970.215,999.512,76.66,974.121
1741689011.17,999.512,999.512,39.062,999.512
1741689011.174,730.957,444.824,43.945,721.68
1741689011.178,-672.363,-941.895,25.879,-667.969
1741689011.182,-1000.0,-963.867,39.062,-1000.0
1741689011.186,-989.746,-1000.0,48.34,-991.211
1741689011.143,836.426,840.332,105.469,840.82
1741689011.147,999.512,999.512,65.43,999.512
1741689011.151,186.035,203.613,15.137,178.223
1741689011.155,-1000.0,-1000.0,3.906,-1000.0
1741689011.159,-1000.0,-1000.0,33.203,-1000.0
1741689011.163,-179.199,69.824,84.961,-173.34
1741689011.167,970.215,999.512,76.66,974.121
1741689011.17,999.512,999.512,39.062,999.512
1741689011.174,730.957,444.824,43.945,721.68
1741689011.178,-672.363,-941.895,25.879,-667.969
1741689011.182,-1000.0,-963.867,39.062,-1000.0
1741689011.186,-989.746,-1000.0,48.34,-991.211
1741689011.188,-866.211,-538.574,51.27,-857.422
1741689011.192,562.988,875.0,39.062,559.082
1741689011.196,997.559,943.359,34.18,996.582
1741689011.2,999.512,999.512,57.617,999.512
1741689011.204,441.406,231.445,-18.555,445.312
1741689011.208,-971.68,-1000.0,-46.387,-966.309
1741689011.212,-1000.0,-987.793,-14.648,-1000.0
1741689011.215,-895.996,-910.645,-61.035,-911.133
1741689011.219,-1000.0,-1000.0,-44.922,-1000.0
1741689011.223,-158.691,-187.5,8.789,-48.828
1741689011.227,999.512,999.512,-5.371,999.512
1741689011.231,918.457,902.832,-34.668,905.762
1741689011.188,-866.211,-538.574,51.27,-857.422
1741689011.192,562.988,875.0,39.062,559.082
1741689011.196,997.559,943.359,34.18,996.582
1741689011.2,999.512,999.512,57.617,999.512
1741689011.204,441.406,231.445,-18.555,445.312
1741689011.208,-971.68,-1000.0,-46.387,-966.309
1741689011.212,-1000.0,-987.793,-14.648,-1000.0
1741689011.215,-895.996,-910.645,-61.035,-911.133
1741689011.219,-1000.0,-1000.0,-44.922,-1000.0
1741689011.223,-158.691,-187.5,8.789,-48.828
1741689011.227,999.512,999.512,-5.371,999.512
1741689011.231,918.457,902.832,-34.668,905.762
1741689011.234,919.434,972.656,-29.785,938.477
1741689011.238,999.512,873.535,-1.953,999.512
1741689011.242,-164.062,-435.547,-30.762,-214.844
1741689011.246,-1000.0,-1000.0,-46.387,-1000.0
1741689011.25,-1000.0,-1000.0,-17.09,-1000.0
1741689011.254,-189.453,92.773,41.016,-168.457
1741689011.258,965.82,999.512,26.855,972.656
1741689011.261,999.512,999.512,15.137,999.512
1741689011.265,466.797,291.992,17.578,454.59
1741689011.269,-929.688,-1000.0,-55.664,-932.129
1741689011.273,-976.562,-941.406,-5.859,-975.586
1741689011.277,-1000.0,-1000.0,28.32,-1000.0
1741689011.234,919.434,972.656,-29.785,938.477
1741689011.238,999.512,873.535,-1.953,999.512
1741689011.242,-164.062,-435.547,-30.762,-214.844
1741689011.246,-1000.0,-1000.0,-46.387,-1000.0
1741689011.25,-1000.0,-1000.0,-17.09,-1000.0
1741689011.254,-189.453,92.773,41.016,-168.457
1741689011.258,965.82,999.512,26.855,972.656
1741689011.261,999.512,999.512,15.137,999.512
1741689011.265,466.797,291.992,17.578,454.59
1741689011.269,-929.688,-1000.0,-55.664,-932.129
1741689011.273,-976.562,-941.406,-5.859,-975.586
1741689011.277,-1000.0,-1000.0,28.32,-1000.0
1741689011.278,-235.84,-218.75,81.055,-223.633
1741689011.282,999.512,999.512,68.359,999.512
1741689011.286,875.488,882.324,-1.953,875.977
1741689011.29,999.512,999.512,60.059,999.512
1741689011.294,481.934,271.973,53.711,495.605
1741689011.298,-945.801,-1000.0,3.418,-929.199
1741689011.302,-1000.0,-997.559,11.719,-1000.0
1741689011.305,-887.207,-904.297,-14.16,-886.719
1741689011.309,-1000.0,-1000.0,-23.438,-1000.0
1741689011.313,-220.703,-216.797,59.57,-213.867
1741689011.317,999.512,999.512,98.145,999.512
1741689011.321,885.742,897.461,33.691,884.277
1741689011.324,999.512,999.512,8.301,999.512
1741689011.328,217.773,108.887,-14.16,233.398
1741689011.332,-1000.0,-1000.0,-19.043,-1000.0
1741689011.336,-925.293,-940.918,4.883,-929.688
1741689011.34,-1000.0,-1000.0,-17.09,-1000.0
1741689011.344,-228.027,34.668,30.273,-208.008
1741689011.348,999.512,999.512,35.645,999.512
1741689011.351,887.207,899.902,-22.949,886.719
1741689011.355,999.512,999.512,7.324,999.512
1741689011.359,178.223,-137.207,-41.992,159.668
1741689011.363,-996.582,-1000.0,-83.984,-1000.0
1741689011.367,-1000.0,-1000.0,-16.113,-1000.0
1741689011.324,999.512,999.512,8.301,999.512
1741689011.328,217.773,108.887,-14.16,233.398
1741689011.332,-1000.0,-1000.0,-19.043,-1000.0
1741689011.336,-925.293,-940.918,4.883,-929.688
1741689011.34,-1000.0,-1000.0,-17.09,-1000.0
1741689011.344,-228.027,34.668,30.273,-208.008
1741689011.348,999.512,999.512,35.645,999.512
1741689011.351,887.207,899.902,-22.949,886.719
1741689011.355,999.512,999.512,7.324,999.512
1741689011.359,178.223,-137.207,-41.992,159.668
1741689011.363,-996.582,-1000.0,-83.984,-1000.0
1741689011.367,-1000.0,-1000.0,-16.113,-1000.0
1741689011.369,-545.898,-351.562,59.082,-572.754
1741689011.373,878.418,999.512,84.961,839.844
1741689011.377,940.918,812.012,5.859,948.73
1741689011.381,999.512,948.242,34.668,999.512
1741689011.385,452.148,331.543,21.973,426.27
1741689011.389,-967.773,-1000.0,-17.09,-975.586
1741689011.393,-1000.0,-1000.0,56.641,-1000.0
1741689011.396,-882.812,-895.508,2.93,-885.742
1741689011.4,-1000.0,-1000.0,-13.184,-1000.0
1741689011.404,-350.586,-318.848,51.758,-340.82
1741689011.408,999.512,999.512,57.617,999.512
1741689011.412,932.129,912.109,36.621,926.27
1741689011.369,-545.898,-351.562,59.082,-572.754
1741689011.373,878.418,999.512,84.961,839.844
1741689011.377,940.918,812.012,5.859,948.73
1741689011.381,999.512,948.242,34.668,999.512
1741689011.385,452.148,331.543,21.973,426.27
1741689011.389,-967.773,-1000.0,-17.09,-975.586
1741689011.393,-1000.0,-1000.0,56.641,-1000.0
1741689011.396,-882.812,-895.508,2.93,-885.742
1741689011.4,-1000.0,-1000.0,-13.184,-1000.0
1741689011.404,-350.586,-318.848,51.758,-340.82
1741689011.408,999.512,999.512,57.617,999.512
1741689011.412,932.129,912.109,36.621,926.27
1741689011.414,942.871,992.676,32.715,961.426
1741689011.418,958.496,781.738,25.879,887.207
1741689011.422,-382.812,-612.793,13.672,-465.332
1741689011.426,-1000.0,-1000.0,20.996,-1000.0
1741689011.43,-1000.0,-1000.0,22.949,-1000.0
1741689011.434,-227.051,-209.473,103.516,-227.539
1741689011.438,999.512,999.512,122.559,999.512
1741689011.441,887.207,896.973,27.344,888.672
1741689011.445,999.512,999.512,38.574,999.512
1741689011.449,193.359,88.867,23.926,185.059
1741689011.453,-1000.0,-1000.0,17.578,-1000.0
1741689011.457,-921.387,-927.734,79.102,-918.457
1741689011.414,942.871,992.676,32.715,961.426
1741689011.418,958.496,781.738,25.879,887.207
1741689011.422,-382.812,-612.793,13.672,-465.332
1741689011.426,-1000.0,-1000.0,20.996,-1000.0
1741689011.43,-1000.0,-1000.0,22.949,-1000.0
1741689011.434,-227.051,-209.473,103.516,-227.539
1741689011.438,999.512,999.512,122.559,999.512
1741689011.441,887.207,896.973,27.344,888.672
1741689011.445,999.512,999.512,38.574,999.512
1741689011.449,193.359,88.867,23.926,185.059
1741689011.453,-1000.0,-1000.0,17.578,-1000.0
1741689011.457,-921.387,-927.734,79.102,-918.457
1741689011.473,-1000.0,-1000.0,86.914,-1000.0
1741689011.477,-226.074,-81.543,97.168,-247.07
1741689011.481,999.512,999.512,137.695,999.512
1741689011.485,900.391,968.262,116.211,915.039
1741689011.489,999.512,812.988,83.984,999.512
1741689011.493,46.387,-435.547,76.172,-17.09
1741689011.497,-1000.0,-1000.0,44.922,-1000.0
1741689011.5,-905.762,-885.742,61.035,-902.344
1741689011.504,-1000.0,-1000.0,46.387,-1000.0
1741689011.508,-826.172,-759.766,45.898,-766.113
1741689011.512,593.262,662.598,87.402,628.418
1741689011.516,999.512,999.512,83.008,999.512
1741689011.473,-1000.0,-1000.0,86.914,-1000.0
1741689011.477,-226.074,-81.543,97.168,-247.07
1741689011.481,999.512,999.512,137.695,999.512
1741689011.485,900.391,968.262,116.211,915.039
1741689011.489,999.512,812.988,83.984,999.512
1741689011.493,46.387,-435.547,76.172,-17.09
1741689011.497,-1000.0,-1000.0,44.922,-1000.0
1741689011.5,-905.762,-885.742,61.035,-902.344
1741689011.504,-1000.0,-1000.0,46.387,-1000.0
1741689011.508,-826.172,-759.766,45.898,-766.113
1741689011.512,593.262,662.598,87.402,628.418
1741689011.516,999.512,999.512,83.008,999.512
1741689011.518,844.727,841.309,76.172,850.586
1741689011.522,999.512,999.512,80.566,999.512
1741689011.526,797.363,708.008,78.613,775.879
1741689011.53,-519.531,-658.203,40.527,-535.156
1741689011.534,-1000.0,-1000.0,30.273,-1000.0
1741689011.538,-499.512,-95.215,89.355,-473.145
1741689011.542,852.539,999.512,99.121,849.121
1741689011.545,967.773,937.012,2.93,965.82
1741689011.549,999.512,972.168,-17.09,999.512
1741689011.553,25.879,-252.441,-41.504,15.137
1741689011.557,-1000.0,-1000.0,-43.457,-1000.0
1741689011.561,-897.461,-922.852,29.785,-899.902
1741689011.518,844.727,841.309,76.172,850.586
1741689011.522,999.512,999.512,80.566,999.512
1741689011.526,797.363,708.008,78.613,775.879
1741689011.53,-519.531,-658.203,40.527,-535.156
1741689011.534,-1000.0,-1000.0,30.273,-1000.0
1741689011.538,-499.512,-95.215,89.355,-473.145
1741689011.542,852.539,999.512,99.121,849.121
1741689011.545,967.773,937.012,2.93,965.82
1741689011.549,999.512,972.168,-17.09,999.512
1741689011.553,25.879,-252.441,-41.504,15.137
1741689011.557,-1000.0,-1000.0,-43.457,-1000.0
1741689011.561,-897.461,-922.852,29.785,-899.902
1741689011.563,-1000.0,-1000.0,28.32,-1000.0
1741689011.567,-214.355,101.074,24.414,-190.918
1741689011.571,999.512,994.141,42.969,999.512
1741689011.575,958.984,999.512,66.406,960.938
1741689011.579,936.523,486.328,55.176,914.551
1741689011.583,-346.68,-893.555,19.043,-361.328
1741689011.587,-1000.0,-1000.0,3.906,-1000.0
1741689011.59,-872.559,-888.672,-17.578,-877.93
1741689011.594,-1000.0,-1000.0,10.742,-1000.0
1741689011.598,-221.191,-202.148,83.496,-194.336
1741689011.602,999.512,999.512,108.398,999.512
1741689011.606,886.23,878.418,30.762,883.301
1741689011.608,999.512,999.512,-10.742,999.512
1741689011.612,726.074,555.176,27.832,673.34
1741689011.616,-714.355,-851.562,22.461,-748.535
1741689011.62,-1000.0,-1000.0,29.297,-1000.0
1741689011.624,-1000.0,-1000.0,27.832,-1000.0
1741689011.628,-234.863,-11.23,68.359,-222.656
1741689011.632,999.512,999.512,72.266,999.512
1741689011.635,892.578,906.738,30.762,894.531
1741689011.639,999.512,999.512,63.477,999.512
1741689011.643,125.488,-188.965,32.715,103.516
1741689011.647,-1000.0,-1000.0,-25.879,-1000.0
1741689011.651,-956.543,-1000.0,-48.828,-961.914
1741689011.608,999.512,999.512,-10.742,999.512
1741689011.612,726.074,555.176,27.832,673.34
1741689011.616,-714.355,-851.562,22.461,-748.535
1741689011.62,-1000.0,-1000.0,29.297,-1000.0
1741689011.624,-1000.0,-1000.0,27.832,-1000.0
1741689011.628,-234.863,-11.23,68.359,-222.656
1741689011.632,999.512,999.512,72.266,999.512
1741689011.635,892.578,906.738,30.762,894.531
1741689011.639,999.512,999.512,63.477,999.512
1741689011.643,125.488,-188.965,32.715,103.516
1741689011.647,-1000.0,-1000.0,-25.879,-1000.0
1741689011.651,-956.543,-1000.0,-48.828,-961.914
1741689011.654,-1000.0,-829.59,-34.668,-1000.0
1741689011.658,172.363,561.035,11.23,205.566
1741689011.662,999.512,999.512,-41.016,999.512
1741689011.666,999.512,999.512,-65.918,999.512
1741689011.67,430.176,277.832,-101.562,399.414
1741689011.674,-970.703,-1000.0,-122.559,-981.934
1741689011.678,-1000.0,-997.07,-67.383,-1000.0
1741689011.681,-890.625,-905.273,-93.75,-895.02
1741689011.685,-1000.0,-1000.0,-97.168,-1000.0
1741689011.689,-220.703,-206.055,-10.254,-199.219
1741689011.693,999.512,999.512,-0.488,999.512
1741689011.697,875.488,877.441,-45.41,875.977
1741689011.699,999.512,999.512,-43.945,999.512
1741689011.703,475.586,419.922,-78.613,426.758
1741689011.707,-886.719,-1000.0,-134.277,-906.738
1741689011.711,-1000.0,-902.832,-50.293,-1000.0
1741689011.715,-192.383,385.742,20.02,-185.059
1741689011.719,996.582,999.512,-0.977,999.512
1741689011.723,999.512,686.035,-42.48,999.512
1741689011.726,-176.758,-654.785,-123.047,-193.359
1741689011.73,-1000.0,-1000.0,-79.102,-1000.0
1741689011.734,-869.141,-866.699,21.484,-872.07
1741689011.738,-1000.0,-1000.0,-8.789,-1000.0
1741689011.742,-523.926,-398.438,-0.977,-529.297
1741689011.699,999.512,999.512,-43.945,999.512
1741689011.703,475.586,419.922,-78.613,426.758
1741689011.707,-886.719,-1000.0,-134.277,-906.738
1741689011.711,-1000.0,-902.832,-50.293,-1000.0
1741689011.715,-192.383,385.742,20.02,-185.059
1741689011.719,996.582,999.512,-0.977,999.512
1741689011.723,999.512,686.035,-42.48,999.512
1741689011.726,-176.758,-654.785,-123.047,-193.359
1741689011.73,-1000.0,-1000.0,-79.102,-1000.0
1741689011.734,-869.141,-866.699,21.484,-872.07
1741689011.738,-1000.0,-1000.0,-8.789,-1000.0
1741689011.742,-523.926,-398.438,-0.977,-529.297
1741689011.743,903.809,964.844,53.711,894.043
1741689011.747,999.512,985.84,4.395,999.512
1741689011.751,851.562,847.656,-33.203,852.051
1741689011.755,999.512,999.512,25.879,999.512
1741689011.759,187.012,190.43,-16.113,190.43
1741689011.763,-1000.0,-1000.0,-62.5,-1000.0
1741689011.767,-972.656,-965.82,-40.527,-967.773
1741689011.77,-928.711,-941.895,-75.195,-940.43
1741689011.774,-1000.0,-1000.0,-49.316,-1000.0
1741689011.778,-26.367,63.965,10.742,41.016
1741689011.782,999.512,999.512,15.625,999.512
1741689011.786,849.609,846.191,9.766,851.562
1741689011.743,903.809,964.844,53.711,894.043
1741689011.747,999.512,985.84,4.395,999.512
1741689011.751,851.562,847.656,-33.203,852.051
1741689011.755,999.512,999.512,25.879,999.512
1741689011.759,187.012,190.43,-16.113,190.43
1741689011.763,-1000.0,-1000.0,-62.5,-1000.0
1741689011.767,-972.656,-965.82,-40.527,-967.773
1741689011.77,-928.711,-941.895,-75.195,-940.43
1741689011.774,-1000.0,-1000.0,-49.316,-1000.0
1741689011.778,-26.367,63.965,10.742,41.016
1741689011.782,999.512,999.512,15.625,999.512
1741689011.786,849.609,846.191,9.766,851.562
1741689011.789,999.512,999.512,14.16,999.512
1741689011.793,550.781,406.738,-21.973,558.105
1741689011.797,-897.949,-955.566,-68.359,-868.164
1741689011.801,-990.234,-993.164,-36.133,-994.141
1741689011.805,-1000.0,-1000.0,19.043,-1000.0
1741689011.809,-210.449,59.57,100.098,-189.453
1741689011.813,999.512,999.512,72.754,999.512
1741689011.816,883.301,858.887,-37.109,884.766
1741689011.82,999.512,999.512,-5.859,999.512
1741689011.824,192.871,133.789,-65.43,164.062
1741689011.828,-1000.0,-1000.0,-117.676,-1000.0
1741689011.832,-927.246,-911.621,-56.641,-924.805
1741689011.789,999.512,999.512,14.16,999.512
1741689011.793,550.781,406.738,-21.973,558.105
1741689011.797,-897.949,-955.566,-68.359,-868.164
1741689011.801,-990.234,-993.164,-36.133,-994.141
1741689011.805,-1000.0,-1000.0,19.043,-1000.0
1741689011.809,-210.449,59.57,100.098,-189.453
1741689011.813,999.512,999.512,72.754,999.512
1741689011.816,883.301,858.887,-37.109,884.766
1741689011.82,999.512,999.512,-5.859,999.512
1741689011.824,192.871,133.789,-65.43,164.062
1741689011.828,-1000.0,-1000.0,-117.676,-1000.0
1741689011.832,-927.246,-911.621,-56.641,-924.805
1741689011.789,999.512,999.512,14.16,999.512
1741689011.793,550.781,406.738,-21.973,558.105
1741689011.797,-897.949,-955.566,-68.359,-868.164
1741689011.801,-990.234,-993.164,-36.133,-994.141
1741689011.805,-1000.0,-1000.0,19.043,-1000.0
1741689011.809,-210.449,59.57,100.098,-189.453
1741689011.813,999.512,999.512,72.754,999.512
1741689011.816,883.301,858.887,-37.109,884.766
1741689011.82,999.512,999.512,-5.859,999.512
1741689011.824,192.871,133.789,-65.43,164.062
1741689011.828,-1000.0,-1000.0,-117.676,-1000.0
1741689011.832,-927.246,-911.621,-56.641,-924.805
1741689011.848,-1000.0,-1000.0,-62.5,-1000.0
1741689011.852,-842.285,-702.148,-59.57,-831.055
1741689011.856,577.148,727.051,5.371,573.242
1741689011.86,999.512,999.512,50.781,999.512
1741689011.864,836.914,844.238,28.32,838.867
1741689011.868,999.512,999.512,25.879,999.512
1741689011.872,186.523,187.5,-50.781,202.148
1741689011.875,-1000.0,-1000.0,-121.582,-1000.0
1741689011.879,-980.957,-972.168,-32.715,-982.422
1741689011.883,-916.016,-929.199,22.949,-916.016
1741689011.887,-1000.0,-1000.0,2.93,-1000.0
1741689011.891,-139.648,-19.531,55.176,-131.836
1741689011.848,-1000.0,-1000.0,-62.5,-1000.0
1741689011.852,-842.285,-702.148,-59.57,-831.055
1741689011.856,577.148,727.051,5.371,573.242
1741689011.86,999.512,999.512,50.781,999.512
1741689011.864,836.914,844.238,28.32,838.867
1741689011.868,999.512,999.512,25.879,999.512
1741689011.872,186.523,187.5,-50.781,202.148
1741689011.875,-1000.0,-1000.0,-121.582,-1000.0
1741689011.879,-980.957,-972.168,-32.715,-982.422
1741689011.883,-916.016,-929.199,22.949,-916.016
1741689011.887,-1000.0,-1000.0,2.93,-1000.0
1741689011.891,-139.648,-19.531,55.176,-131.836
1741689011.896,986.816,999.512,53.711,991.211
1741689011.9,999.512,999.512,-7.324,999.512
1741689011.904,644.043,340.82,-14.648,658.691
1741689011.908,-709.961,-959.961,-47.363,-675.781
1741689011.912,-1000.0,-1000.0,-10.254,-1000.0
1741689011.916,-145.996,-7.324,67.871,-151.855
1741689011.92,972.168,990.234,32.227,975.098
1741689011.923,990.723,999.512,-36.133,988.281
1741689011.927,836.914,434.57,-5.371,843.262
1741689011.931,-525.391,-943.848,-6.836,-499.512
1741689011.935,-1000.0,-960.449,13.184,-1000.0
1741689011.939,-1000.0,-1000.0,30.273,-1000.0
1741689011.896,986.816,999.512,53.711,991.211
1741689011.9,999.512,999.512,-7.324,999.512
1741689011.904,644.043,340.82,-14.648,658.691
1741689011.908,-709.961,-959.961,-47.363,-675.781
1741689011.912,-1000.0,-1000.0,-10.254,-1000.0
1741689011.916,-145.996,-7.324,67.871,-151.855
1741689011.92,972.168,990.234,32.227,975.098
1741689011.923,990.723,999.512,-36.133,988.281
1741689011.927,836.914,434.57,-5.371,843.262
1741689011.931,-525.391,-943.848,-6.836,-499.512
1741689011.935,-1000.0,-960.449,13.184,-1000.0
1741689011.939,-1000.0,-1000.0,30.273,-1000.0
1741689011.938,-600.098,-483.398,77.148,-577.148
1741689011.942,870.605,934.082,122.07,864.258
1741689011.946,943.848,917.48,23.438,942.383
1741689011.95,999.512,999.512,18.066,999.512
1741689011.954,476.562,302.734,3.906,468.262
1741689011.958,-954.59,-1000.0,-32.715,-952.637
1741689011.962,-1000.0,-1000.0,-8.789,-1000.0
1741689011.965,-880.371,-895.508,-37.109,-883.301
1741689011.969,-1000.0,-1000.0,-50.293,-1000.0
1741689011.973,-657.227,-664.062,-17.09,-592.773
1741689011.977,789.551,779.785,34.668,819.824
1741689011.981,999.512,999.512,41.016,999.512
1741689011.938,-600.098,-483.398,77.148,-577.148
1741689011.942,870.605,934.082,122.07,864.258
1741689011.946,943.848,917.48,23.438,942.383
1741689011.95,999.512,999.512,18.066,999.512
1741689011.954,476.562,302.734,3.906,468.262
1741689011.958,-954.59,-1000.0,-32.715,-952.637
1741689011.962,-1000.0,-1000.0,-8.789,-1000.0
1741689011.965,-880.371,-895.508,-37.109,-883.301
1741689011.969,-1000.0,-1000.0,-50.293,-1000.0
1741689011.973,-657.227,-664.062,-17.09,-592.773
1741689011.977,789.551,779.785,34.668,819.824
1741689011.981,999.512,999.512,41.016,999.512
1741689011.984,841.309,844.727,26.855,847.168
1741689011.988,999.512,999.512,44.434,999.512
1741689011.992,204.102,171.387,4.883,209.961
1741689011.996,-1000.0,-1000.0,17.09,-1000.0
1741689012.0,-1000.0,-1000.0,61.035,-1000.0
1741689012.004,-801.27,-370.117,53.223,-795.41
1741689012.008,519.043,892.09,69.824,509.277
1741689012.011,999.512,999.512,28.809,999.512
1741689012.015,879.883,191.406,48.34,836.914
1741689012.019,-384.766,-1000.0,50.293,-424.316
1741689012.023,-1000.0,-925.293,-9.766,-1000.0
1741689012.027,-1000.0,-1000.0,-6.836,-1000.0
1741689011.984,841.309,844.727,26.855,847.168
1741689011.988,999.512,999.512,44.434,999.512
1741689011.992,204.102,171.387,4.883,209.961
1741689011.996,-1000.0,-1000.0,17.09,-1000.0
1741689012.0,-1000.0,-1000.0,61.035,-1000.0
1741689012.004,-801.27,-370.117,53.223,-795.41
1741689012.008,519.043,892.09,69.824,509.277
1741689012.011,999.512,999.512,28.809,999.512
1741689012.015,879.883,191.406,48.34,836.914
1741689012.019,-384.766,-1000.0,50.293,-424.316
1741689012.023,-1000.0,-925.293,-9.766,-1000.0
1741689012.027,-1000.0,-1000.0,-6.836,-1000.0
1741689012.043,-498.047,-312.012,47.363,-501.953
1741689012.047,931.641,999.512,76.66,924.316
1741689012.051,926.27,898.926,50.293,929.199
1741689012.055,999.512,999.512,41.992,999.512
1741689012.059,382.324,246.094,-17.09,378.418
1741689012.063,-1000.0,-1000.0,-39.062,-998.535
1741689012.067,-952.148,-937.5,15.625,-954.102
1741689012.07,-1000.0,-1000.0,41.504,-1000.0
1741689012.074,-223.633,-175.781,60.059,-202.637
1741689012.078,965.82,999.512,65.918,972.168
1741689012.082,999.512,984.375,52.246,999.512
1741689012.086,333.984,-88.867,24.902,331.543
1741689012.075,-997.559,-1000.0,46.875,-995.117
1741689012.079,-951.172,-923.34,64.941,-952.637
1741689012.083,-1000.0,-1000.0,24.902,-1000.0
1741689012.087,-216.797,-52.734,56.152,-200.195
1741689012.091,969.727,994.629,76.66,977.539
1741689012.095,999.512,999.512,113.281,999.512
1741689012.099,640.625,340.82,71.289,652.832
1741689012.102,-770.508,-999.512,-0.977,-742.188
1741689012.106,-1000.0,-1000.0,56.641,-1000.0
1741689012.11,-875.488,-897.949,65.918,-882.812
1741689012.114,-1000.0,-1000.0,51.758,-1000.0
1741689012.118,-202.637,-193.848,81.543,-141.113
1741689012.075,-997.559,-1000.0,46.875,-995.117
1741689012.079,-951.172,-923.34,64.941,-952.637
1741689012.083,-1000.0,-1000.0,24.902,-1000.0
1741689012.087,-216.797,-52.734,56.152,-200.195
1741689012.091,969.727,994.629,76.66,977.539
1741689012.095,999.512,999.512,113.281,999.512
1741689012.099,640.625,340.82,71.289,652.832
1741689012.102,-770.508,-999.512,-0.977,-742.188
1741689012.106,-1000.0,-1000.0,56.641,-1000.0
1741689012.11,-875.488,-897.949,65.918,-882.812
1741689012.114,-1000.0,-1000.0,51.758,-1000.0
1741689012.118,-202.637,-193.848,81.543,-141.113
1741689012.118,979.492,971.68,97.656,992.676
1741689012.122,999.512,999.512,82.031,999.512
1741689012.126,733.398,362.305,82.52,705.566
1741689012.13,-574.219,-914.551,81.543,-597.656
1741689012.134,-1000.0,-1000.0,37.109,-1000.0
1741689012.138,-686.523,-177.246,48.34,-670.41
1741689012.142,676.758,999.512,71.777,672.363
1741689012.145,999.512,891.602,3.906,999.512
1741689012.149,916.504,999.512,7.812,921.387
1741689012.153,962.891,706.543,28.32,953.125
1741689012.157,-381.836,-695.801,-20.02,-381.348
1741689012.161,-1000.0,-1000.0,-8.301,-1000.0
1741689012.166,-874.512,-888.184,48.34,-875.0
1741689012.17,-1000.0,-1000.0,71.777,-1000.0
1741689012.174,-798.828,-877.441,31.25,-677.246
1741689012.178,635.254,519.043,48.34,726.074
1741689012.182,986.816,999.512,43.945,964.355
1741689012.186,999.512,999.512,41.504,999.512
1741689012.19,462.891,286.621,-10.742,468.75
1741689012.193,-963.379,-1000.0,-55.664,-955.566
1741689012.197,-1000.0,-968.75,2.93,-1000.0
1741689012.201,-909.668,-961.426,19.531,-910.156
1741689012.205,-1000.0,-1000.0,15.625,-1000.0
1741689012.209,5.371,229.492,37.109,4.883
1741689012.166,-874.512,-888.184,48.34,-875.0
1741689012.17,-1000.0,-1000.0,71.777,-1000.0
1741689012.174,-798.828,-877.441,31.25,-677.246
1741689012.178,635.254,519.043,48.34,726.074
1741689012.182,986.816,999.512,43.945,964.355
1741689012.186,999.512,999.512,41.504,999.512
1741689012.19,462.891,286.621,-10.742,468.75
1741689012.193,-963.379,-1000.0,-55.664,-955.566
1741689012.197,-1000.0,-968.75,2.93,-1000.0
1741689012.201,-909.668,-961.426,19.531,-910.156
1741689012.205,-1000.0,-1000.0,15.625,-1000.0
1741689012.209,5.371,229.492,37.109,4.883
1741689012.223,999.512,999.512,34.18,999.512
1741689012.227,999.512,999.512,35.156,999.512
1741689012.231,465.82,264.648,16.602,454.59
1741689012.235,-859.863,-971.191,-27.344,-862.793
1741689012.239,-1000.0,-1000.0,-44.922,-1000.0
1741689012.243,-546.875,-292.969,3.418,-560.547
1741689012.247,833.008,992.188,22.949,810.059
1741689012.25,999.512,952.148,-32.227,999.512
1741689012.254,849.609,900.391,-1.465,855.469
1741689012.258,999.512,999.512,33.691,999.512
1741689012.262,145.02,-79.102,-20.996,104.004
1741689012.266,-1000.0,-1000.0,-56.641,-1000.0
1741689012.313,-933.594,-955.078,-1.953,-930.176
1741689012.317,-1000.0,-1000.0,18.555,-1000.0
1741689012.321,-36.621,244.141,59.57,-35.156
1741689012.325,999.512,999.512,97.656,999.512
1741689012.329,853.516,839.355,79.59,855.469
1741689012.333,999.512,999.512,63.477,999.512
1741689012.337,344.727,253.418,12.695,343.262
1741689012.34,-1000.0,-1000.0,-36.621,-1000.0
1741689012.344,-1000.0,-991.211,18.066,-1000.0
1741689012.348,-897.949,-911.621,30.273,-900.391
1741689012.352,-1000.0,-1000.0,-12.695,-1000.0
1741689012.356,-219.238,-138.184,32.715,-190.918
1741689012.313,-933.594,-955.078,-1.953,-930.176
1741689012.317,-1000.0,-1000.0,18.555,-1000.0
1741689012.321,-36.621,244.141,59.57,-35.156
1741689012.325,999.512,999.512,97.656,999.512
1741689012.329,853.516,839.355,79.59,855.469
1741689012.333,999.512,999.512,63.477,999.512
1741689012.337,344.727,253.418,12.695,343.262
1741689012.34,-1000.0,-1000.0,-36.621,-1000.0
1741689012.344,-1000.0,-991.211,18.066,-1000.0
1741689012.348,-897.949,-911.621,30.273,-900.391
1741689012.352,-1000.0,-1000.0,-12.695,-1000.0
1741689012.356,-219.238,-138.184,32.715,-190.918
1741689012.316,999.512,999.512,79.59,999.512
1741689012.32,901.855,999.512,55.176,902.832
1741689012.324,999.512,709.473,37.109,999.512
1741689012.328,60.059,-528.32,34.18,48.34
1741689012.332,-1000.0,-1000.0,12.695,-1000.0
1741689012.336,-1000.0,-424.316,11.719,-971.191
1741689012.34,119.141,843.262,82.031,177.734
1741689012.343,999.512,999.512,78.613,999.512
1741689012.347,385.254,133.301,-19.043,378.418
1741689012.351,-948.242,-1000.0,-56.152,-945.312
1741689012.355,-989.746,-1000.0,-26.855,-990.234
1741689012.359,-1000.0,-905.273,35.156,-1000.0
1741689012.316,999.512,999.512,79.59,999.512
1741689012.32,901.855,999.512,55.176,902.832
1741689012.324,999.512,709.473,37.109,999.512
1741689012.328,60.059,-528.32,34.18,48.34
1741689012.332,-1000.0,-1000.0,12.695,-1000.0
1741689012.336,-1000.0,-424.316,11.719,-971.191
1741689012.34,119.141,843.262,82.031,177.734
1741689012.343,999.512,999.512,78.613,999.512
1741689012.347,385.254,133.301,-19.043,378.418
1741689012.351,-948.242,-1000.0,-56.152,-945.312
1741689012.355,-989.746,-1000.0,-26.855,-990.234
1741689012.359,-1000.0,-905.273,35.156,-1000.0
1741689012.359,-3.418,362.305,91.309,-1.953
1741689012.363,999.512,999.512,80.566,999.512
1741689012.367,856.934,855.957,41.992,866.211
1741689012.371,999.512,999.512,26.367,999.512
1741689012.375,188.477,93.75,12.207,128.906
1741689012.379,-1000.0,-1000.0,32.715,-1000.0
1741689012.383,-945.801,-915.527,34.18,-940.43
1741689012.386,-983.398,-1000.0,-16.113,-984.375
1741689012.39,-1000.0,-779.785,5.859,-1000.0
1741689012.394,327.637,637.207,47.363,306.641
1741689012.398,999.512,999.512,8.301,999.512
1741689012.402,851.074,882.812,-25.391,863.77
1741689012.359,-3.418,362.305,91.309,-1.953
1741689012.363,999.512,999.512,80.566,999.512
1741689012.367,856.934,855.957,41.992,866.211
1741689012.371,999.512,999.512,26.367,999.512
1741689012.375,188.477,93.75,12.207,128.906
1741689012.379,-1000.0,-1000.0,32.715,-1000.0
1741689012.383,-945.801,-915.527,34.18,-940.43
1741689012.386,-983.398,-1000.0,-16.113,-984.375
1741689012.39,-1000.0,-779.785,5.859,-1000.0
1741689012.394,327.637,637.207,47.363,306.641
1741689012.398,999.512,999.512,8.301,999.512
1741689012.402,851.074,882.812,-25.391,863.77
1741689012.403,999.512,999.512,-8.789,999.512
1741689012.407,79.102,-89.355,-47.852,22.949
1741689012.411,-1000.0,-1000.0,-30.273,-1000.0
1741689012.415,-942.871,-247.07,34.18,-863.281
1741689012.419,367.188,997.07,9.766,452.148
1741689012.423,999.512,925.781,11.23,999.512
1741689012.427,999.512,999.512,22.949,999.512
1741689012.43,181.641,-37.109,-58.594,150.391
1741689012.434,-1000.0,-1000.0,-51.758,-1000.0
1741689012.438,-920.898,-913.574,4.395,-918.457
1741689012.442,-1000.0,-1000.0,-25.879,-1000.0
1741689012.446,-210.449,-27.344,37.109,-190.43
1741689012.403,999.512,999.512,-8.789,999.512
1741689012.407,79.102,-89.355,-47.852,22.949
1741689012.411,-1000.0,-1000.0,-30.273,-1000.0
1741689012.415,-942.871,-247.07,34.18,-863.281
1741689012.419,367.188,997.07,9.766,452.148
1741689012.423,999.512,925.781,11.23,999.512
1741689012.427,999.512,999.512,22.949,999.512
1741689012.43,181.641,-37.109,-58.594,150.391
1741689012.434,-1000.0,-1000.0,-51.758,-1000.0
1741689012.438,-920.898,-913.574,4.395,-918.457
1741689012.442,-1000.0,-1000.0,-25.879,-1000.0
1741689012.446,-210.449,-27.344,37.109,-190.43
1741689012.449,999.512,999.512,31.25,999.512
1741689012.453,876.953,857.422,-7.324,876.465
1741689012.457,999.512,999.512,28.809,999.512
1741689012.461,334.473,308.105,-31.25,306.641
1741689012.465,-951.172,-988.77,-74.707,-959.473
1741689012.469,-1000.0,-1000.0,12.695,-1000.0
1741689012.473,-232.422,4.395,31.738,-250.0
1741689012.476,982.91,999.512,-1.465,968.262
1741689012.48,937.988,933.594,14.648,963.379
1741689012.484,999.512,955.078,-25.391,942.383
1741689012.488,-185.547,-329.59,-97.656,-291.992
1741689012.492,-1000.0,-1000.0,-72.266,-1000.0
1741689012.449,999.512,999.512,31.25,999.512
1741689012.453,876.953,857.422,-7.324,876.465
1741689012.457,999.512,999.512,28.809,999.512
1741689012.461,334.473,308.105,-31.25,306.641
1741689012.465,-951.172,-988.77,-74.707,-959.473
1741689012.469,-1000.0,-1000.0,12.695,-1000.0
1741689012.473,-232.422,4.395,31.738,-250.0
1741689012.476,982.91,999.512,-1.465,968.262
1741689012.48,937.988,933.594,14.648,963.379
1741689012.484,999.512,955.078,-25.391,942.383
1741689012.488,-185.547,-329.59,-97.656,-291.992
1741689012.492,-1000.0,-1000.0,-72.266,-1000.0
1741689012.494,-937.5,-1000.0,-35.156,-935.547
1741689012.498,-1000.0,-711.914,-41.016,-1000.0
1741689012.502,253.418,715.82,-9.766,237.305
1741689012.506,999.512,999.512,1.465,999.512
1741689012.51,835.449,842.773,-26.367,838.867
1741689012.514,999.512,999.512,6.348,999.512
1741689012.518,248.047,194.336,-50.293,260.742
1741689012.521,-1000.0,-1000.0,-109.863,-1000.0
1741689012.525,-986.328,-973.633,-42.48,-984.375
1741689012.529,-916.992,-928.223,-31.738,-925.781
1741689012.533,-1000.0,-1000.0,-20.02,-1000.0
1741689012.537,-78.613,-15.625,21.484,-18.555
1741689012.494,-937.5,-1000.0,-35.156,-935.547
1741689012.498,-1000.0,-711.914,-41.016,-1000.0
1741689012.502,253.418,715.82,-9.766,237.305
1741689012.506,999.512,999.512,1.465,999.512
1741689012.51,835.449,842.773,-26.367,838.867
1741689012.514,999.512,999.512,6.348,999.512
1741689012.518,248.047,194.336,-50.293,260.742
1741689012.521,-1000.0,-1000.0,-109.863,-1000.0
1741689012.525,-986.328,-973.633,-42.48,-984.375
1741689012.529,-916.992,-928.223,-31.738,-925.781
1741689012.533,-1000.0,-1000.0,-20.02,-1000.0
1741689012.537,-78.613,-15.625,21.484,-18.555
1741689012.539,999.512,999.512,43.945,999.512
1741689012.543,955.566,999.512,11.23,954.59
1741689012.547,895.02,530.273,-19.043,884.766
1741689012.551,-357.422,-812.5,-6.836,-361.328
1741689012.555,-1000.0,-1000.0,33.691,-1000.0
1741689012.559,-288.086,-56.641,97.168,-283.203
1741689012.563,967.773,999.023,69.336,970.703
1741689012.566,927.734,978.027,1.953,926.27
1741689012.57,999.512,800.293,43.945,999.512
1741689012.574,4.395,-508.789,16.113,25.879
1741689012.578,-1000.0,-1000.0,-22.949,-1000.0
1741689012.582,-937.5,-983.398,2.441,-952.148
1741689012.539,999.512,999.512,43.945,999.512
1741689012.543,955.566,999.512,11.23,954.59
1741689012.547,895.02,530.273,-19.043,884.766
1741689012.551,-357.422,-812.5,-6.836,-361.328
1741689012.555,-1000.0,-1000.0,33.691,-1000.0
1741689012.559,-288.086,-56.641,97.168,-283.203
1741689012.563,967.773,999.023,69.336,970.703
1741689012.566,927.734,978.027,1.953,926.27
1741689012.57,999.512,800.293,43.945,999.512
1741689012.574,4.395,-508.789,16.113,25.879
1741689012.578,-1000.0,-1000.0,-22.949,-1000.0
1741689012.582,-937.5,-983.398,2.441,-952.148
1741689012.598,-1000.0,-883.789,25.879,-1000.0
1741689012.602,159.668,491.699,78.125,211.426
1741689012.606,999.512,999.512,56.641,999.512
1741689012.61,979.004,999.512,19.043,983.398
1741689012.614,755.371,523.438,-28.809,728.027
1741689012.618,-666.016,-893.555,-84.961,-684.57
1741689012.622,-1000.0,-1000.0,-72.754,-1000.0
1741689012.625,-866.211,-878.418,-74.707,-871.582
1741689012.629,-1000.0,-1000.0,-66.406,-1000.0
1741689012.633,-688.477,-645.996,-43.457,-649.414
1741689012.637,758.789,793.457,-22.461,766.602
1741689012.641,999.512,999.512,-15.625,999.512
1741689012.598,-1000.0,-883.789,25.879,-1000.0
1741689012.602,159.668,491.699,78.125,211.426
1741689012.606,999.512,999.512,56.641,999.512
1741689012.61,979.004,999.512,19.043,983.398
1741689012.614,755.371,523.438,-28.809,728.027
1741689012.618,-666.016,-893.555,-84.961,-684.57
1741689012.622,-1000.0,-1000.0,-72.754,-1000.0
1741689012.625,-866.211,-878.418,-74.707,-871.582
1741689012.629,-1000.0,-1000.0,-66.406,-1000.0
1741689012.633,-688.477,-645.996,-43.457,-649.414
1741689012.637,758.789,793.457,-22.461,766.602
1741689012.641,999.512,999.512,-15.625,999.512
1741689012.643,841.797,846.191,-8.301,849.121
1741689012.647,999.512,999.512,-9.766,999.512
1741689012.651,186.035,175.293,-76.172,159.18
1741689012.655,-1000.0,-1000.0,-82.031,-1000.0
1741689012.659,-1000.0,-1000.0,-8.789,-1000.0
1741689012.663,-192.871,-162.598,63.965,-216.797
1741689012.667,967.773,999.512,82.031,962.891
1741689012.67,999.512,999.512,-25.391,999.512
1741689012.674,159.668,-104.004,-68.848,147.461
1741689012.678,-1000.0,-1000.0,-23.438,-1000.0
1741689012.682,-910.645,-886.719,-1.953,-910.645
1741689012.686,-1000.0,-1000.0,-24.902,-1000.0
1741689012.643,841.797,846.191,-8.301,849.121
1741689012.647,999.512,999.512,-9.766,999.512
1741689012.651,186.035,175.293,-76.172,159.18
1741689012.655,-1000.0,-1000.0,-82.031,-1000.0
1741689012.659,-1000.0,-1000.0,-8.789,-1000.0
1741689012.663,-192.871,-162.598,63.965,-216.797
1741689012.667,967.773,999.512,82.031,962.891
1741689012.67,999.512,999.512,-25.391,999.512
1741689012.674,159.668,-104.004,-68.848,147.461
1741689012.678,-1000.0,-1000.0,-23.438,-1000.0
1741689012.682,-910.645,-886.719,-1.953,-910.645
1741689012.686,-1000.0,-1000.0,-24.902,-1000.0
1741689012.688,-451.66,-355.957,15.625,-432.617
1741689012.692,947.266,975.586,60.059,951.66
1741689012.696,926.27,928.223,45.898,925.781
1741689012.7,999.512,999.512,41.504,999.512
1741689012.704,199.707,34.668,-51.27,185.059
1741689012.708,-1000.0,-1000.0,-21.484,-1000.0
1741689012.712,-909.668,-890.625,31.738,-910.156
1741689012.715,-1000.0,-1000.0,-35.156,-1000.0
1741689012.719,-487.793,-473.145,0.488,-441.895
1741689012.723,935.059,945.801,28.32,952.148
1741689012.727,968.75,937.5,-9.277,959.473
1741689012.731,902.832,989.258,-8.789,914.062
1741689012.688,-451.66,-355.957,15.625,-432.617
1741689012.692,947.266,975.586,60.059,951.66
1741689012.696,926.27,928.223,45.898,925.781
1741689012.7,999.512,999.512,41.504,999.512
1741689012.704,199.707,34.668,-51.27,185.059
1741689012.708,-1000.0,-1000.0,-21.484,-1000.0
1741689012.712,-909.668,-890.625,31.738,-910.156
1741689012.715,-1000.0,-1000.0,-35.156,-1000.0
1741689012.719,-487.793,-473.145,0.488,-441.895
1741689012.723,935.059,945.801,28.32,952.148
1741689012.727,968.75,937.5,-9.277,959.473
1741689012.731,902.832,989.258,-8.789,914.062
1741689012.736,999.512,747.559,-8.789,999.512
1741689012.74,-224.609,-666.016,-52.734,-253.418
1741689012.744,-1000.0,-1000.0,-47.363,-1000.0
1741689012.748,-900.391,-936.035,-17.578,-901.855
1741689012.752,-1000.0,-1000.0,-12.207,-1000.0
1741689012.756,30.762,247.559,37.598,21.973
1741689012.76,999.512,999.512,8.301,999.512
1741689012.763,999.512,999.512,-54.199,999.512
1741689012.767,373.047,181.641,-39.062,362.305
1741689012.771,-993.164,-1000.0,-30.762,-995.605
1741689012.775,-955.078,-920.898,3.418,-952.148
1741689012.779,-1000.0,-1000.0,57.129,-1000.0
1741689012.736,999.512,747.559,-8.789,999.512
1741689012.74,-224.609,-666.016,-52.734,-253.418
1741689012.744,-1000.0,-1000.0,-47.363,-1000.0
1741689012.748,-900.391,-936.035,-17.578,-901.855
1741689012.752,-1000.0,-1000.0,-12.207,-1000.0
1741689012.756,30.762,247.559,37.598,21.973
1741689012.76,999.512,999.512,8.301,999.512
1741689012.763,999.512,999.512,-54.199,999.512
1741689012.767,373.047,181.641,-39.062,362.305
1741689012.771,-993.164,-1000.0,-30.762,-995.605
1741689012.775,-955.078,-920.898,3.418,-952.148
1741689012.779,-1000.0,-1000.0,57.129,-1000.0
1741689012.779,-232.91,-225.098,79.59,-256.348
1741689012.783,999.512,999.512,80.566,999.512
1741689012.787,887.207,891.602,82.031,890.625
1741689012.791,999.512,999.512,80.566,999.512
1741689012.795,193.848,155.273,31.738,218.75
1741689012.799,-1000.0,-1000.0,31.738,-1000.0
1741689012.803,-984.863,-977.051,34.18,-985.84
1741689012.806,-910.156,-916.504,29.785,-912.598
1741689012.81,-1000.0,-1000.0,43.457,-1000.0
1741689012.814,-220.703,-182.617,74.219,-179.199
1741689012.818,999.512,999.512,103.027,999.512
1741689012.822,883.301,881.836,22.949,878.418
1741689012.779,-232.91,-225.098,79.59,-256.348
1741689012.783,999.512,999.512,80.566,999.512
1741689012.787,887.207,891.602,82.031,890.625
1741689012.791,999.512,999.512,80.566,999.512
1741689012.795,193.848,155.273,31.738,218.75
1741689012.799,-1000.0,-1000.0,31.738,-1000.0
1741689012.803,-984.863,-977.051,34.18,-985.84
1741689012.806,-910.156,-916.504,29.785,-912.598
1741689012.81,-1000.0,-1000.0,43.457,-1000.0
1741689012.814,-220.703,-182.617,74.219,-179.199
1741689012.818,999.512,999.512,103.027,999.512
1741689012.822,883.301,881.836,22.949,878.418
1741689012.838,999.512,999.512,-0.977,999.512
1741689012.842,245.117,198.242,-34.18,250.488
1741689012.846,-1000.0,-994.141,-61.523,-1000.0
1741689012.85,-1000.0,-1000.0,-9.766,-1000.0
1741689012.854,-903.32,-489.258,8.789,-900.391
1741689012.858,398.926,812.5,56.152,382.324
1741689012.862,999.512,999.512,25.879,999.512
1741689012.865,999.512,596.68,-28.809,994.629
1741689012.869,-68.848,-724.609,-42.48,-79.102
1741689012.873,-1000.0,-1000.0,-53.223,-1000.0
1741689012.877,-887.695,-890.625,-14.16,-889.648
1741689012.881,-1000.0,-1000.0,-12.207,-1000.0
1741689012.884,419.434,283.691,-17.09,388.672
1741689012.888,-979.492,-1000.0,-14.16,-990.723
1741689012.892,-1000.0,-998.535,35.156,-1000.0
1741689012.895,-955.566,-966.309,8.301,-954.59
1741689012.899,-950.684,-947.266,-1.953,-955.078
1741689012.903,-1000.0,-1000.0,-32.227,-1000.0
1741689012.907,-220.703,-212.891,-19.531,-167.48
1741689012.911,999.512,999.512,46.387,999.512
1741689012.884,419.434,283.691,-17.09,388.672
1741689012.888,-979.492,-1000.0,-14.16,-990.723
1741689012.892,-1000.0,-998.535,35.156,-1000.0
1741689012.895,-955.566,-966.309,8.301,-954.59
1741689012.899,-950.684,-947.266,-1.953,-955.078
1741689012.903,-1000.0,-1000.0,-32.227,-1000.0
1741689012.907,-220.703,-212.891,-19.531,-167.48
1741689012.911,999.512,999.512,46.387,999.512
1741689012.916,875.488,878.906,63.477,871.582
1741689012.92,999.512,999.512,60.547,999.512
1741689012.924,507.812,359.863,-6.348,495.117
1741689012.928,-847.168,-937.988,-49.316,-845.215
1741689012.932,-1000.0,-1000.0,-23.926,-1000.0
1741689012.936,-476.562,-208.008,27.832,-472.168
1741689012.94,838.867,944.336,76.66,833.008
1741689012.943,999.512,999.512,-12.695,999.512
1741689012.947,899.902,394.531,-34.18,885.742
1741689012.951,-371.582,-950.684,3.418,-372.07
1741689012.955,-1000.0,-956.055,-6.836,-1000.0
1741689012.959,-1000.0,-1000.0,-20.508,-1000.0
1741689012.916,875.488,878.906,63.477,871.582
1741689012.92,999.512,999.512,60.547,999.512
1741689012.924,507.812,359.863,-6.348,495.117
1741689012.928,-847.168,-937.988,-49.316,-845.215
1741689012.932,-1000.0,-1000.0,-23.926,-1000.0
1741689012.936,-476.562,-208.008,27.832,-472.168
1741689012.94,838.867,944.336,76.66,833.008
1741689012.943,999.512,999.512,-12.695,999.512
1741689012.947,899.902,394.531,-34.18,885.742
1741689012.951,-371.582,-950.684,3.418,-372.07
1741689012.955,-1000.0,-956.055,-6.836,-1000.0
1741689012.959,-1000.0,-1000.0,-20.508,-1000.0
1741689012.988,-568.359,-435.547,41.504,-541.992
1741689012.992,894.531,961.426,103.027,895.996
1741689012.996,937.988,916.016,21.973,937.012
1741689013.0,999.512,999.512,22.461,999.512
1741689013.004,543.457,356.445,6.836,545.41
1741689013.008,-916.992,-1000.0,-19.043,-900.391
1741689013.012,-1000.0,-992.676,18.555,-1000.0
1741689013.015,-906.25,-929.199,-7.812,-929.199
1741689013.019,-1000.0,-1000.0,7.324,-1000.0
1741689013.023,19.531,73.73,24.902,140.625
1741689013.027,999.512,999.512,-19.531,999.512
1741689013.031,855.957,859.375,-17.578,854.004
1741689012.988,-568.359,-435.547,41.504,-541.992
1741689012.992,894.531,961.426,103.027,895.996
1741689012.996,937.988,916.016,21.973,937.012
1741689013.0,999.512,999.512,22.461,999.512
1741689013.004,543.457,356.445,6.836,545.41
1741689013.008,-916.992,-1000.0,-19.043,-900.391
1741689013.012,-1000.0,-992.676,18.555,-1000.0
1741689013.015,-906.25,-929.199,-7.812,-929.199
1741689013.019,-1000.0,-1000.0,7.324,-1000.0
1741689013.023,19.531,73.73,24.902,140.625
1741689013.027,999.512,999.512,-19.531,999.512
1741689013.031,855.957,859.375,-17.578,854.004
1741689013.018,999.512,999.512,16.113,999.512
1741689013.022,187.5,121.582,-63.477,187.988
1741689013.026,-1000.0,-1000.0,-67.383,-1000.0
1741689013.03,-929.688,-956.055,9.766,-930.176
1741689013.034,-1000.0,-1000.0,11.719,-1000.0
1741689013.038,-118.652,149.902,72.754,-121.582
1741689013.042,999.512,999.512,62.012,999.512
1741689013.045,964.355,999.512,-16.602,967.773
1741689013.049,888.184,592.773,-4.883,874.512
1741689013.053,-453.613,-819.824,-45.41,-456.543
1741689013.057,-1000.0,-1000.0,-51.27,-1000.0
1741689013.061,-907.715,-1000.0,11.719,-915.039
1741689013.018,999.512,999.512,16.113,999.512
1741689013.022,187.5,121.582,-63.477,187.988
1741689013.026,-1000.0,-1000.0,-67.383,-1000.0
1741689013.03,-929.688,-956.055,9.766,-930.176
1741689013.034,-1000.0,-1000.0,11.719,-1000.0
1741689013.038,-118.652,149.902,72.754,-121.582
1741689013.042,999.512,999.512,62.012,999.512
1741689013.045,964.355,999.512,-16.602,967.773
1741689013.049,888.184,592.773,-4.883,874.512
1741689013.053,-453.613,-819.824,-45.41,-456.543
1741689013.057,-1000.0,-1000.0,-51.27,-1000.0
1741689013.061,-907.715,-1000.0,11.719,-915.039
1741689013.018,999.512,999.512,16.113,999.512
1741689013.022,187.5,121.582,-63.477,187.988
1741689013.026,-1000.0,-1000.0,-67.383,-1000.0
1741689013.03,-929.688,-956.055,9.766,-930.176
1741689013.034,-1000.0,-1000.0,11.719,-1000.0
1741689013.038,-118.652,149.902,72.754,-121.582
1741689013.042,999.512,999.512,62.012,999.512
1741689013.045,964.355,999.512,-16.602,967.773
1741689013.049,888.184,592.773,-4.883,874.512
1741689013.053,-453.613,-819.824,-45.41,-456.543
1741689013.057,-1000.0,-1000.0,-51.27,-1000.0
1741689013.061,-907.715,-1000.0,11.719,-915.039
1741689013.078,-1000.0,-806.152,11.23,-1000.0
1741689013.082,137.695,566.895,11.23,153.32
1741689013.086,999.512,991.699,1.465,999.512
1741689013.09,999.512,999.512,13.672,999.512
1741689013.094,507.812,254.883,-3.906,524.902
1741689013.098,-923.34,-1000.0,-58.105,-895.508
1741689013.102,-1000.0,-991.699,-56.641,-1000.0
1741689013.105,-885.742,-910.156,-45.898,-894.043
1741689013.109,-1000.0,-1000.0,-13.672,-1000.0
1741689013.113,-199.707,-171.387,37.109,-126.465
1741689013.117,999.512,999.512,43.945,999.512
1741689013.121,884.277,883.301,-3.906,875.977
1741689013.11,999.512,999.512,5.371,999.512
1741689013.114,186.523,154.785,1.953,200.195
1741689013.118,-1000.0,-1000.0,-6.348,-1000.0
1741689013.122,-967.773,-1000.0,-12.207,-973.633
1741689013.126,-1000.0,-715.332,-21.484,-1000.0
1741689013.13,156.25,595.703,6.836,169.434
1741689013.134,999.512,999.512,-16.602,999.512
1741689013.137,999.512,684.082,-77.637,999.512
1741689013.141,-71.289,-642.09,-121.094,-71.777
1741689013.145,-1000.0,-1000.0,-94.238,-1000.0
1741689013.149,-981.934,-1000.0,-26.367,-982.91
1741689013.153,-927.734,-659.668,7.324,-921.387
1741689013.11,999.512,999.512,5.371,999.512
1741689013.114,186.523,154.785,1.953,200.195
1741689013.118,-1000.0,-1000.0,-6.348,-1000.0
1741689013.122,-967.773,-1000.0,-12.207,-973.633
1741689013.126,-1000.0,-715.332,-21.484,-1000.0
1741689013.13,156.25,595.703,6.836,169.434
1741689013.134,999.512,999.512,-16.602,999.512
1741689013.137,999.512,684.082,-77.637,999.512
1741689013.141,-71.289,-642.09,-121.094,-71.777
1741689013.145,-1000.0,-1000.0,-94.238,-1000.0
1741689013.149,-981.934,-1000.0,-26.367,-982.91
1741689013.153,-927.734,-659.668,7.324,-921.387
1741689013.153,425.293,750.488,42.48,414.551
1741689013.157,999.512,999.512,12.207,999.512
1741689013.161,836.426,725.098,-2.441,840.82
1741689013.165,999.512,995.605,36.133,999.512
1741689013.169,187.012,204.59,-40.039,174.316
1741689013.173,-1000.0,-1000.0,-45.41,-1000.0
1741689013.177,-998.535,-998.047,-37.598,-995.117
1741689013.18,-914.062,-912.598,-70.801,-916.016
1741689013.184,-1000.0,-1000.0,-44.922,-1000.0
1741689013.188,-810.547,-771.973,-28.809,-772.949
1741689013.192,610.352,656.25,0.977,626.953
1741689013.196,999.512,999.512,-14.648,999.512
1741689013.153,425.293,750.488,42.48,414.551
1741689013.157,999.512,999.512,12.207,999.512
1741689013.161,836.426,725.098,-2.441,840.82
1741689013.165,999.512,995.605,36.133,999.512
1741689013.169,187.012,204.59,-40.039,174.316
1741689013.173,-1000.0,-1000.0,-45.41,-1000.0
1741689013.177,-998.535,-998.047,-37.598,-995.117
1741689013.18,-914.062,-912.598,-70.801,-916.016
1741689013.184,-1000.0,-1000.0,-44.922,-1000.0
1741689013.188,-810.547,-771.973,-28.809,-772.949
1741689013.192,610.352,656.25,0.977,626.953
1741689013.196,999.512,999.512,-14.648,999.512
1741689013.199,854.492,885.254,-28.32,867.676
1741689013.203,999.512,999.512,-15.137,999.512
1741689013.207,7.812,-171.875,-76.172,-46.875
1741689013.211,-1000.0,-1000.0,-97.168,-1000.0
1741689013.215,-1000.0,-1000.0,-69.336,-1000.0
1741689013.219,-192.383,0.0,3.906,-186.523
1741689013.223,975.098,999.512,5.371,980.469
1741689013.226,999.512,999.512,-96.68,999.512
1741689013.23,738.77,381.836,-100.098,742.188
1741689013.234,-649.414,-975.586,-76.172,-628.906
1741689013.238,-1000.0,-1000.0,-49.805,-1000.0
1741689013.242,-867.188,-890.625,-30.762,-868.652
1741689013.199,854.492,885.254,-28.32,867.676
1741689013.203,999.512,999.512,-15.137,999.512
1741689013.207,7.812,-171.875,-76.172,-46.875
1741689013.211,-1000.0,-1000.0,-97.168,-1000.0
1741689013.215,-1000.0,-1000.0,-69.336,-1000.0
1741689013.219,-192.383,0.0,3.906,-186.523
1741689013.223,975.098,999.512,5.371,980.469
1741689013.226,999.512,999.512,-96.68,999.512
1741689013.23,738.77,381.836,-100.098,742.188
1741689013.234,-649.414,-975.586,-76.172,-628.906
1741689013.238,-1000.0,-1000.0,-49.805,-1000.0
1741689013.242,-867.188,-890.625,-30.762,-868.652
1741689013.243,-1000.0,-1000.0,-26.367,-1000.0
1741689013.247,-296.387,-264.16,-0.488,-311.035
1741689013.251,999.512,999.512,42.969,999.512
1741689013.255,975.098,979.004,50.781,978.027
1741689013.259,858.398,834.473,22.949,858.887
1741689013.263,999.512,999.512,32.715,999.512
1741689013.267,455.078,367.188,30.762,459.473
1741689013.27,-958.496,-996.094,-40.527,-950.684
1741689013.274,-1000.0,-1000.0,-12.695,-1000.0
1741689013.278,-888.672,-895.996,10.742,-886.719
1741689013.282,-1000.0,-1000.0,-15.137,-1000.0
1741689013.286,-215.332,-199.219,27.344,-238.77
1741689013.243,-1000.0,-1000.0,-26.367,-1000.0
1741689013.247,-296.387,-264.16,-0.488,-311.035
1741689013.251,999.512,999.512,42.969,999.512
1741689013.255,975.098,979.004,50.781,978.027
1741689013.259,858.398,834.473,22.949,858.887
1741689013.263,999.512,999.512,32.715,999.512
1741689013.267,455.078,367.188,30.762,459.473
1741689013.27,-958.496,-996.094,-40.527,-950.684
1741689013.274,-1000.0,-1000.0,-12.695,-1000.0
1741689013.278,-888.672,-895.996,10.742,-886.719
1741689013.282,-1000.0,-1000.0,-15.137,-1000.0
1741689013.286,-215.332,-199.219,27.344,-238.77
1741689013.291,999.512,974.609,61.523,999.512
1741689013.295,929.199,999.512,-18.555,941.406
1741689013.299,999.512,579.59,-45.898,973.633
1741689013.303,-104.492,-730.957,-44.434,-132.812
1741689013.307,-1000.0,-1000.0,-62.988,-1000.0
1741689013.311,-456.543,-154.297,18.066,-440.43
1741689013.315,901.367,994.629,49.316,905.273
1741689013.318,952.148,948.73,-33.203,951.172
1741689013.322,999.512,949.707,-15.625,999.512
1741689013.326,66.895,-264.16,-35.645,62.5
1741689013.33,-1000.0,-1000.0,-56.641,-1000.0
1741689013.334,-899.902,-874.023,-19.043,-902.344
1741689013.291,999.512,974.609,61.523,999.512
1741689013.295,929.199,999.512,-18.555,941.406
1741689013.299,999.512,579.59,-45.898,973.633
1741689013.303,-104.492,-730.957,-44.434,-132.812
1741689013.307,-1000.0,-1000.0,-62.988,-1000.0
1741689013.311,-456.543,-154.297,18.066,-440.43
1741689013.315,901.367,994.629,49.316,905.273
1741689013.318,952.148,948.73,-33.203,951.172
1741689013.322,999.512,949.707,-15.625,999.512
1741689013.326,66.895,-264.16,-35.645,62.5
1741689013.33,-1000.0,-1000.0,-56.641,-1000.0
1741689013.334,-899.902,-874.023,-19.043,-902.344
1741689013.348,-1000.0,-1000.0,-13.672,-1000.0
1741689013.352,-734.863,-625.0,-5.859,-707.031
1741689013.356,707.52,806.641,42.48,713.867
1741689013.36,999.512,999.512,62.5,999.512
1741689013.364,836.914,843.75,11.719,839.844
1741689013.368,999.512,999.512,28.32,999.512
1741689013.372,234.863,187.988,-7.324,252.93
1741689013.375,-1000.0,-1000.0,-48.828,-1000.0
1741689013.379,-916.992,-916.992,35.156,-923.34
1741689013.383,-1000.0,-1000.0,25.391,-1000.0
1741689013.387,-571.777,-316.895,1.953,-563.965
1741689013.391,894.531,999.512,62.012,879.395
1741689013.393,941.406,895.02,55.664,943.848
1741689013.397,999.512,999.512,12.207,999.512
1741689013.401,599.609,390.137,3.418,614.746
1741689013.405,-775.879,-927.734,-5.859,-748.535
1741689013.409,-1000.0,-1000.0,-3.906,-1000.0
1741689013.413,-553.711,-164.551,39.062,-534.668
1741689013.417,729.492,962.891,95.703,729.004
1741689013.42,999.512,999.512,32.715,999.512
1741689013.424,404.785,220.703,-61.035,397.949
1741689013.428,-943.359,-1000.0,-75.195,-946.289
1741689013.432,-1000.0,-958.984,-3.906,-1000.0
1741689013.436,-932.129,-973.633,39.551,-948.73
1741689013.393,941.406,895.02,55.664,943.848
1741689013.397,999.512,999.512,12.207,999.512
1741689013.401,599.609,390.137,3.418,614.746
1741689013.405,-775.879,-927.734,-5.859,-748.535
1741689013.409,-1000.0,-1000.0,-3.906,-1000.0
1741689013.413,-553.711,-164.551,39.062,-534.668
1741689013.417,729.492,962.891,95.703,729.004
1741689013.42,999.512,999.512,32.715,999.512
1741689013.424,404.785,220.703,-61.035,397.949
1741689013.428,-943.359,-1000.0,-75.195,-946.289
1741689013.432,-1000.0,-958.984,-3.906,-1000.0
1741689013.436,-932.129,-973.633,39.551,-948.73
1741689013.438,-1000.0,-1000.0,34.668,-1000.0
1741689013.442,174.805,293.945,66.895,250.977
1741689013.446,999.512,999.512,54.199,999.512
1741689013.45,999.512,999.512,37.598,999.512
1741689013.454,353.027,205.078,-23.926,348.633
1741689013.458,-1000.0,-1000.0,-35.156,-1000.0
1741689013.462,-1000.0,-1000.0,-14.16,-1000.0
1741689013.465,-894.531,-908.203,-8.301,-896.973
1741689013.469,-1000.0,-1000.0,23.926,-1000.0
1741689013.473,-734.863,-790.039,4.883,-702.637
1741689013.477,713.379,635.254,38.086,720.703
1741689013.481,975.098,997.07,5.859,970.703
1741689013.438,-1000.0,-1000.0,34.668,-1000.0
1741689013.442,174.805,293.945,66.895,250.977
1741689013.446,999.512,999.512,54.199,999.512
1741689013.45,999.512,999.512,37.598,999.512
1741689013.454,353.027,205.078,-23.926,348.633
1741689013.458,-1000.0,-1000.0,-35.156,-1000.0
1741689013.462,-1000.0,-1000.0,-14.16,-1000.0
1741689013.465,-894.531,-908.203,-8.301,-896.973
1741689013.469,-1000.0,-1000.0,23.926,-1000.0
1741689013.473,-734.863,-790.039,4.883,-702.637
1741689013.477,713.379,635.254,38.086,720.703
1741689013.481,975.098,997.07,5.859,970.703
1741689013.484,999.512,999.512,-11.23,999.512
1741689013.488,428.711,210.938,-28.32,408.691
1741689013.492,-979.492,-1000.0,-74.707,-984.375
1741689013.496,-960.938,-929.199,-10.254,-958.496
1741689013.5,-1000.0,-1000.0,1.465,-1000.0
1741689013.504,-218.262,-163.086,40.527,-215.332
1741689013.508,967.285,991.211,56.152,973.633
1741689013.511,999.512,999.512,7.812,999.512
1741689013.515,590.332,158.203,20.508,615.723
1741689013.519,-824.219,-1000.0,3.418,-772.461
1741689013.523,-998.047,-912.598,37.109,-1000.0
1741689013.527,-1000.0,-1000.0,55.664,-1000.0
1741689013.484,999.512,999.512,-11.23,999.512
1741689013.488,428.711,210.938,-28.32,408.691
1741689013.492,-979.492,-1000.0,-74.707,-984.375
1741689013.496,-960.938,-929.199,-10.254,-958.496
1741689013.5,-1000.0,-1000.0,1.465,-1000.0
1741689013.504,-218.262,-163.086,40.527,-215.332
1741689013.508,967.285,991.211,56.152,973.633
1741689013.511,999.512,999.512,7.812,999.512
1741689013.515,590.332,158.203,20.508,615.723
1741689013.519,-824.219,-1000.0,3.418,-772.461
1741689013.523,-998.047,-912.598,37.109,-1000.0
1741689013.527,-1000.0,-1000.0,55.664,-1000.0
1741689013.528,-308.594,-365.234,62.988,-244.629
1741689013.532,999.512,947.754,118.164,999.512
1741689013.536,898.926,983.887,154.297,889.648
1741689013.54,999.512,905.273,169.922,999.512
1741689013.544,251.953,-280.273,119.141,276.367
1741689013.548,-1000.0,-1000.0,181.152,-1000.0
1741689013.552,-821.289,-851.074,300.781,-561.523
1741689013.555,601.074,435.059,272.461,865.234
1741689013.559,999.023,999.512,245.605,938.477
1741689013.563,999.512,969.238,285.645,999.512
1741689013.567,270.508,-2.441,259.277,525.391
1741689013.571,-1000.0,-1000.0,247.07,-1000.0
1741689013.576,-329.59,-237.305,343.75,-276.367
1741689013.58,999.512,999.512,362.793,999.512
1741689013.584,963.867,957.52,302.734,941.406
1741689013.588,931.641,936.523,359.375,937.988
1741689013.592,965.332,968.75,471.68,974.609
1741689013.596,922.363,915.527,482.91,904.785
1741689013.6,999.512,999.512,437.012,999.512
1741689013.603,44.922,141.113,387.695,233.398
1741689013.607,-1000.0,-1000.0,372.07,-1000.0
1741689013.611,-925.781,-498.535,451.172,-840.82
1741689013.615,393.555,898.438,524.414,555.176
1741689013.619,999.512,999.512,481.934,999.512
1741689013.576,-329.59,-237.305,343.75,-276.367
1741689013.58,999.512,999.512,362.793,999.512
1741689013.584,963.867,957.52,302.734,941.406
1741689013.588,931.641,936.523,359.375,937.988
1741689013.592,965.332,968.75,471.68,974.609
1741689013.596,922.363,915.527,482.91,904.785
1741689013.6,999.512,999.512,437.012,999.512
1741689013.603,44.922,141.113,387.695,233.398
1741689013.607,-1000.0,-1000.0,372.07,-1000.0
1741689013.611,-925.781,-498.535,451.172,-840.82
1741689013.615,393.555,898.438,524.414,555.176
1741689013.619,999.512,999.512,481.934,999.512
1741689013.618,828.613,840.82,460.449,832.52
1741689013.622,999.512,999.512,443.359,999.512
1741689013.626,342.285,574.707,410.156,338.379
1741689013.63,-1000.0,-1000.0,385.254,-1000.0
1741689013.634,-1000.0,-674.805,283.691,-1000.0
1741689013.638,-961.426,999.512,249.512,-963.379
1741689013.642,-948.73,647.949,232.422,-945.801
1741689013.645,-1000.0,-1000.0,194.824,-1000.0
1741689013.649,-215.332,-166.992,266.602,-249.023
1741689013.653,999.512,999.512,291.016,980.469
1741689013.657,928.223,890.137,208.496,990.234
1741689013.661,999.512,999.512,179.199,828.125
1741689013.618,828.613,840.82,460.449,832.52
1741689013.622,999.512,999.512,443.359,999.512
1741689013.626,342.285,574.707,410.156,338.379
1741689013.63,-1000.0,-1000.0,385.254,-1000.0
1741689013.634,-1000.0,-674.805,283.691,-1000.0
1741689013.638,-961.426,999.512,249.512,-963.379
1741689013.642,-948.73,647.949,232.422,-945.801
1741689013.645,-1000.0,-1000.0,194.824,-1000.0
1741689013.649,-215.332,-166.992,266.602,-249.023
1741689013.653,999.512,999.512,291.016,980.469
1741689013.657,928.223,890.137,208.496,990.234
1741689013.661,999.512,999.512,179.199,828.125
1741689013.664,-172.852,-13.672,143.555,-460.449
1741689013.668,-1000.0,-1000.0,124.512,-1000.0
1741689013.672,-944.336,-195.801,167.48,-952.637
1741689013.676,-933.105,999.512,164.062,-934.57
1741689013.68,-1000.0,955.078,125.977,-1000.0
1741689013.684,-261.23,930.176,98.633,-543.945
1741689013.688,971.191,924.805,23.926,864.258
1741689013.691,999.512,999.512,-77.637,999.512
1741689013.695,54.688,43.457,-196.289,-182.129
1741689013.699,-1000.0,-1000.0,-304.199,-1000.0
1741689013.703,-910.645,-1000.0,-287.598,-891.113
1741689013.707,-1000.0,-294.434,-399.902,-1000.0
1741689013.664,-172.852,-13.672,143.555,-460.449
1741689013.668,-1000.0,-1000.0,124.512,-1000.0
1741689013.672,-944.336,-195.801,167.48,-952.637
1741689013.676,-933.105,999.512,164.062,-934.57
1741689013.68,-1000.0,955.078,125.977,-1000.0
1741689013.684,-261.23,930.176,98.633,-543.945
1741689013.688,971.191,924.805,23.926,864.258
1741689013.691,999.512,999.512,-77.637,999.512
1741689013.695,54.688,43.457,-196.289,-182.129
1741689013.699,-1000.0,-1000.0,-304.199,-1000.0
1741689013.703,-910.645,-1000.0,-287.598,-891.113
1741689013.707,-1000.0,-294.434,-399.902,-1000.0
1741689013.723,-225.586,934.57,-580.566,-758.789
1741689013.727,999.512,999.512,-578.125,750.0
1741689013.731,947.754,689.453,-622.559,864.746
1741689013.735,-372.07,-584.961,-695.801,-656.25
1741689013.739,-1000.0,-1000.0,-851.562,-1000.0
1741689013.743,-935.547,-118.164,-998.535,-940.918
1741689013.747,-942.871,541.992,-997.559,-944.824
1741689013.75,-1000.0,-1000.0,-998.047,-1000.0
1741689013.754,-208.496,-244.629,-1000.0,-270.02
1741689013.758,988.281,999.512,-1000.0,959.961
1741689013.762,990.234,999.512,-1000.0,999.512
1741689013.766,841.309,471.68,-1000.0,757.812
1741689013.723,-225.586,934.57,-580.566,-758.789
1741689013.727,999.512,999.512,-578.125,750.0
1741689013.731,947.754,689.453,-622.559,864.746
1741689013.735,-372.07,-584.961,-695.801,-656.25
1741689013.739,-1000.0,-1000.0,-851.562,-1000.0
1741689013.743,-935.547,-118.164,-998.535,-940.918
1741689013.747,-942.871,541.992,-997.559,-944.824
1741689013.75,-1000.0,-1000.0,-998.047,-1000.0
1741689013.754,-208.496,-244.629,-1000.0,-270.02
1741689013.758,988.281,999.512,-1000.0,959.961
1741689013.762,990.234,999.512,-1000.0,999.512
1741689013.766,841.309,471.68,-1000.0,757.812
1741689013.768,-504.883,-898.926,-1000.0,-599.121
1741689013.772,-1000.0,-1000.0,-1000.0,-1000.0
1741689013.776,-866.699,-884.277,-997.07,-867.676
1741689013.78,-1000.0,-1000.0,-1000.0,-1000.0
1741689013.784,-271.484,-249.023,-987.305,-304.688
1741689013.788,956.543,957.52,-897.949,942.871
1741689013.792,999.512,999.512,-897.461,999.512
1741689013.795,733.887,269.043,-980.469,700.684
1741689013.799,-597.656,-947.266,-1000.0,-616.211
1741689013.803,-1000.0,-1000.0,-969.238,-1000.0
1741689013.807,-937.012,-600.098,-885.254,-929.199
1741689013.811,313.965,774.414,-836.426,314.453
1741689013.768,-504.883,-898.926,-1000.0,-599.121
1741689013.772,-1000.0,-1000.0,-1000.0,-1000.0
1741689013.776,-866.699,-884.277,-997.07,-867.676
1741689013.78,-1000.0,-1000.0,-1000.0,-1000.0
1741689013.784,-271.484,-249.023,-987.305,-304.688
1741689013.788,956.543,957.52,-897.949,942.871
1741689013.792,999.512,999.512,-897.461,999.512
1741689013.795,733.887,269.043,-980.469,700.684
1741689013.799,-597.656,-947.266,-1000.0,-616.211
1741689013.803,-1000.0,-1000.0,-969.238,-1000.0
1741689013.807,-937.012,-600.098,-885.254,-929.199
1741689013.811,313.965,774.414,-836.426,314.453
1741689013.828,999.512,958.008,-771.484,999.512
1741689013.832,999.512,999.512,-651.855,999.512
1741689013.836,582.52,373.535,-721.191,604.492
1741689013.84,-799.805,-925.781,-756.836,-767.09
1741689013.844,-1000.0,-1000.0,-709.473,-1000.0
1741689013.848,-781.738,-378.906,-660.645,-762.695
1741689013.852,541.016,870.605,-611.816,551.758
1741689013.855,999.512,999.512,-692.383,999.512
1741689013.859,999.512,562.5,-670.41,999.512
1741689013.863,38.574,-779.297,-565.918,50.781
1741689013.867,-1000.0,-994.629,-532.715,-1000.0
1741689013.871,-1000.0,-1000.0,-484.863,-1000.0
1741689013.828,999.512,958.008,-771.484,999.512
1741689013.832,999.512,999.512,-651.855,999.512
1741689013.836,582.52,373.535,-721.191,604.492
1741689013.84,-799.805,-925.781,-756.836,-767.09
1741689013.844,-1000.0,-1000.0,-709.473,-1000.0
1741689013.848,-781.738,-378.906,-660.645,-762.695
1741689013.852,541.016,870.605,-611.816,551.758
1741689013.855,999.512,999.512,-692.383,999.512
1741689013.859,999.512,562.5,-670.41,999.512
1741689013.863,38.574,-779.297,-565.918,50.781
1741689013.867,-1000.0,-994.629,-532.715,-1000.0
1741689013.871,-1000.0,-1000.0,-484.863,-1000.0
1741689013.861,-330.566,-344.727,-360.84,-286.133
1741689013.865,912.598,951.66,-270.02,932.129
1741689013.869,999.512,999.512,-290.039,999.512
1741689013.873,590.82,44.434,-293.945,561.523
1741689013.877,-726.074,-1000.0,-275.391,-727.539
1741689013.881,-1000.0,-1000.0,-235.84,-1000.0
1741689013.885,-301.27,-135.254,-256.348,-303.711
1741689013.888,897.461,992.188,-355.469,895.02
1741689013.892,999.512,999.512,-415.039,999.512
1741689013.896,263.672,88.379,-474.121,293.457
1741689013.9,-1000.0,-1000.0,-495.117,-986.816
1741689013.904,-949.707,-922.363,-410.645,-974.121
1741689013.861,-330.566,-344.727,-360.84,-286.133
1741689013.865,912.598,951.66,-270.02,932.129
1741689013.869,999.512,999.512,-290.039,999.512
1741689013.873,590.82,44.434,-293.945,561.523
1741689013.877,-726.074,-1000.0,-275.391,-727.539
1741689013.881,-1000.0,-1000.0,-235.84,-1000.0
1741689013.885,-301.27,-135.254,-256.348,-303.711
1741689013.888,897.461,992.188,-355.469,895.02
1741689013.892,999.512,999.512,-415.039,999.512
1741689013.896,263.672,88.379,-474.121,293.457
1741689013.9,-1000.0,-1000.0,-495.117,-986.816
1741689013.904,-949.707,-922.363,-410.645,-974.121
1741689013.903,-1000.0,-1000.0,-339.355,-1000.0
1741689013.907,-126.465,-109.863,-260.742,-2.93
1741689013.911,999.512,999.512,-346.68,999.512
1741689013.915,897.949,873.535,-377.93,894.043
1741689013.919,956.055,999.512,-291.504,953.613
1741689013.923,967.773,652.344,-317.871,989.746
1741689013.927,-354.492,-746.582,-448.242,-293.457
1741689013.93,-1000.0,-1000.0,-530.762,-1000.0
1741689013.934,-861.328,-869.629,-488.281,-869.141
1741689013.938,-1000.0,-1000.0,-483.887,-1000.0
1741689013.942,-457.52,-454.102,-547.363,-362.793
1741689013.946,945.312,951.66,-661.621,984.863
1741689013.949,969.238,943.359,-749.512,953.125
1741689013.953,895.02,962.891,-797.852,905.273
1741689013.957,999.512,853.516,-754.883,999.512
1741689013.961,-84.961,-456.543,-758.301,-83.984
1741689013.965,-1000.0,-1000.0,-753.418,-1000.0
1741689013.969,-471.68,-145.996,-621.582,-420.898
1741689013.973,832.52,975.098,-598.145,856.445
1741689013.976,999.512,999.512,-727.539,999.512
1741689013.98,206.055,115.234,-854.98,257.324
1741689013.984,-1000.0,-1000.0,-973.145,-1000.0
1741689013.988,-924.805,-910.156,-1000.0,-935.547
1741689013.992,-1000.0,-1000.0,-997.07,-1000.0
1741689013.949,969.238,943.359,-749.512,953.125
1741689013.953,895.02,962.891,-797.852,905.273
1741689013.957,999.512,853.516,-754.883,999.512
1741689013.961,-84.961,-456.543,-758.301,-83.984
1741689013.965,-1000.0,-1000.0,-753.418,-1000.0
1741689013.969,-471.68,-145.996,-621.582,-420.898
1741689013.973,832.52,975.098,-598.145,856.445
1741689013.976,999.512,999.512,-727.539,999.512
1741689013.98,206.055,115.234,-854.98,257.324
1741689013.984,-1000.0,-1000.0,-973.145,-1000.0
1741689013.988,-924.805,-910.156,-1000.0,-935.547
1741689013.992,-1000.0,-1000.0,-997.07,-1000.0
1741689013.993,-375.977,-323.242,-1000.0,-334.961
1741689013.997,998.535,999.512,-1000.0,999.512
1741689014.001,903.809,772.461,-1000.0,901.367
1741689014.005,999.512,934.57,-1000.0,999.512
1741689014.009,621.582,351.074,-1000.0,650.391
1741689014.013,-835.938,-1000.0,-994.629,-789.062
1741689014.017,-1000.0,-945.312,-998.047,-1000.0
1741689014.02,-1000.0,-1000.0,-925.781,-1000.0
1741689014.024,-231.445,-240.723,-727.539,-227.051
1741689014.028,969.727,993.164,-608.398,971.191
1741689014.032,999.512,999.512,-541.504,999.512
1741689014.036,244.629,0.0,-509.277,247.07
1741689013.993,-375.977,-323.242,-1000.0,-334.961
1741689013.997,998.535,999.512,-1000.0,999.512
1741689014.001,903.809,772.461,-1000.0,901.367
1741689014.005,999.512,934.57,-1000.0,999.512
1741689014.009,621.582,351.074,-1000.0,650.391
1741689014.013,-835.938,-1000.0,-994.629,-789.062
1741689014.017,-1000.0,-945.312,-998.047,-1000.0
1741689014.02,-1000.0,-1000.0,-925.781,-1000.0
1741689014.024,-231.445,-240.723,-727.539,-227.051
1741689014.028,969.727,993.164,-608.398,971.191
1741689014.032,999.512,999.512,-541.504,999.512
1741689014.036,244.629,0.0,-509.277,247.07
1741689014.039,-1000.0,-1000.0,-529.785,-1000.0
1741689014.043,-933.105,-899.414,-567.871,-933.594
1741689014.047,-1000.0,-1000.0,-594.238,-1000.0
1741689014.051,-264.16,-259.766,-446.777,-265.137
1741689014.055,999.512,960.938,-296.875,999.512
1741689014.059,899.414,999.512,-222.656,907.715
1741689014.063,999.512,674.316,-118.652,999.512
1741689014.066,106.934,-698.242,-60.059,53.711
1741689014.07,-1000.0,-1000.0,-62.988,-1000.0
1741689014.074,-1000.0,-1000.0,-120.117,-1000.0
1741689014.078,-509.277,-369.629,-92.773,-490.234
1741689014.082,900.391,981.445,-105.957,912.109
1741689014.039,-1000.0,-1000.0,-529.785,-1000.0
1741689014.043,-933.105,-899.414,-567.871,-933.594
1741689014.047,-1000.0,-1000.0,-594.238,-1000.0
1741689014.051,-264.16,-259.766,-446.777,-265.137
1741689014.055,999.512,960.938,-296.875,999.512
1741689014.059,899.414,999.512,-222.656,907.715
1741689014.063,999.512,674.316,-118.652,999.512
1741689014.066,106.934,-698.242,-60.059,53.711
1741689014.07,-1000.0,-1000.0,-62.988,-1000.0
1741689014.074,-1000.0,-1000.0,-120.117,-1000.0
1741689014.078,-509.277,-369.629,-92.773,-490.234
1741689014.082,900.391,981.445,-105.957,912.109
1741689014.039,-1000.0,-1000.0,-529.785,-1000.0
1741689014.043,-933.105,-899.414,-567.871,-933.594
1741689014.047,-1000.0,-1000.0,-594.238,-1000.0
1741689014.051,-264.16,-259.766,-446.777,-265.137
1741689014.055,999.512,960.938,-296.875,999.512
1741689014.059,899.414,999.512,-222.656,907.715
1741689014.063,999.512,674.316,-118.652,999.512
1741689014.066,106.934,-698.242,-60.059,53.711
1741689014.07,-1000.0,-1000.0,-62.988,-1000.0
1741689014.074,-1000.0,-1000.0,-120.117,-1000.0
1741689014.078,-509.277,-369.629,-92.773,-490.234
1741689014.082,900.391,981.445,-105.957,912.109
1741689014.098,937.012,916.992,-143.066,933.105
1741689014.102,999.512,999.512,-13.672,999.512
1741689014.106,302.246,132.324,73.242,333.008
1741689014.11,-993.652,-1000.0,238.77,-969.238
1741689014.114,-1000.0,-1000.0,414.551,-1000.0
1741689014.118,-962.891,-912.109,514.648,-853.027
1741689014.122,317.383,406.738,576.172,454.59
1741689014.125,999.512,999.512,598.145,999.512
1741689014.129,999.512,999.512,644.043,999.512
1741689014.133,333.008,109.375,605.469,376.465
1741689014.137,-1000.0,-1000.0,534.668,-990.723
1741689014.141,-952.148,-948.242,562.988,-963.379
1741689014.098,937.012,916.992,-143.066,933.105
1741689014.102,999.512,999.512,-13.672,999.512
1741689014.106,302.246,132.324,73.242,333.008
1741689014.11,-993.652,-1000.0,238.77,-969.238
1741689014.114,-1000.0,-1000.0,414.551,-1000.0
1741689014.118,-962.891,-912.109,514.648,-853.027
1741689014.122,317.383,406.738,576.172,454.59
1741689014.125,999.512,999.512,598.145,999.512
1741689014.129,999.512,999.512,644.043,999.512
1741689014.133,333.008,109.375,605.469,376.465
1741689014.137,-1000.0,-1000.0,534.668,-990.723
1741689014.141,-952.148,-948.242,562.988,-963.379
1741689014.143,-1000.0,-1000.0,572.754,-1000.0
1741689014.147,-148.438,100.098,565.918,-126.953
1741689014.151,999.512,999.512,521.484,999.512
1741689014.155,938.965,914.062,471.68,936.523
1741689014.159,882.324,899.414,487.793,886.23
1741689014.163,999.512,999.512,470.215,999.512
1741689014.167,186.523,187.012,322.266,169.434
1741689014.17,-1000.0,-1000.0,244.141,-1000.0
1741689014.174,-983.398,-977.539,317.871,-976.562
1741689014.178,-912.109,-920.898,254.395,-920.41
1741689014.182,-1000.0,-1000.0,193.359,-1000.0
1741689014.186,-201.172,-109.375,293.945,-134.766
1741689014.143,-1000.0,-1000.0,572.754,-1000.0
1741689014.147,-148.438,100.098,565.918,-126.953
1741689014.151,999.512,999.512,521.484,999.512
1741689014.155,938.965,914.062,471.68,936.523
1741689014.159,882.324,899.414,487.793,886.23
1741689014.163,999.512,999.512,470.215,999.512
1741689014.167,186.523,187.012,322.266,169.434
1741689014.17,-1000.0,-1000.0,244.141,-1000.0
1741689014.174,-983.398,-977.539,317.871,-976.562
1741689014.178,-912.109,-920.898,254.395,-920.41
1741689014.182,-1000.0,-1000.0,193.359,-1000.0
1741689014.186,-201.172,-109.375,293.945,-134.766
1741689014.188,999.512,999.512,323.73,999.512
1741689014.192,955.078,945.801,259.766,946.777
1741689014.196,870.117,875.488,254.883,876.465
1741689014.2,999.512,999.512,269.043,999.512
1741689014.204,333.984,378.418,147.461,314.941
1741689014.208,-1000.0,-996.582,103.027,-1000.0
1741689014.212,-1000.0,-1000.0,148.926,-1000.0
1741689014.215,-939.453,-912.598,73.73,-941.406
1741689014.219,-984.863,-1000.0,-18.555,-985.352
1741689014.223,-1000.0,-910.645,-116.211,-1000.0
1741689014.227,116.211,435.059,-146.973,109.863
1741689014.231,999.512,999.512,-221.68,999.512
1741689014.188,999.512,999.512,323.73,999.512
1741689014.192,955.078,945.801,259.766,946.777
1741689014.196,870.117,875.488,254.883,876.465
1741689014.2,999.512,999.512,269.043,999.512
1741689014.204,333.984,378.418,147.461,314.941
1741689014.208,-1000.0,-996.582,103.027,-1000.0
1741689014.212,-1000.0,-1000.0,148.926,-1000.0
1741689014.215,-939.453,-912.598,73.73,-941.406
1741689014.219,-984.863,-1000.0,-18.555,-985.352
1741689014.223,-1000.0,-910.645,-116.211,-1000.0
1741689014.227,116.211,435.059,-146.973,109.863
1741689014.231,999.512,999.512,-221.68,999.512
1741689014.235,845.215,838.867,-299.316,849.609
1741689014.239,999.512,999.512,-299.316,999.512
1741689014.243,213.379,225.586,-343.262,203.125
1741689014.247,-999.023,-1000.0,-338.867,-999.023
1741689014.251,-1000.0,-1000.0,-223.145,-1000.0
1741689014.255,-198.242,-115.723,-123.535,-229.492
1741689014.259,961.914,990.723,-114.258,951.66
1741689014.262,999.512,999.512,-197.754,999.512
1741689014.266,191.406,110.84,-288.574,202.637
1741689014.27,-1000.0,-1000.0,-300.781,-1000.0
1741689014.274,-920.41,-906.738,-270.508,-929.688
1741689014.278,-1000.0,-1000.0,-210.938,-1000.0
1741689014.235,845.215,838.867,-299.316,849.609
1741689014.239,999.512,999.512,-299.316,999.512
1741689014.243,213.379,225.586,-343.262,203.125
1741689014.247,-999.023,-1000.0,-338.867,-999.023
1741689014.251,-1000.0,-1000.0,-223.145,-1000.0
1741689014.255,-198.242,-115.723,-123.535,-229.492
1741689014.259,961.914,990.723,-114.258,951.66
1741689014.262,999.512,999.512,-197.754,999.512
1741689014.266,191.406,110.84,-288.574,202.637
1741689014.27,-1000.0,-1000.0,-300.781,-1000.0
1741689014.274,-920.41,-906.738,-270.508,-929.688
1741689014.278,-1000.0,-1000.0,-210.938,-1000.0
1741689014.278,-697.266,-408.691,-116.699,-763.672
1741689014.282,771.973,972.168,-43.945,679.688
1741689014.286,979.98,914.551,20.508,989.746
1741689014.29,971.191,999.512,64.453,989.258
1741689014.294,791.016,588.379,21.973,691.895
1741689014.298,-660.156,-852.539,-32.227,-750.488
1741689014.302,-1000.0,-986.816,-42.969,-1000.0
1741689014.305,-1000.0,-1000.0,-66.406,-1000.0
1741689014.309,-651.367,-403.32,18.066,-685.059
1741689014.313,814.453,978.027,120.605,769.531
1741689014.317,999.512,942.871,123.047,999.512
1741689014.321,882.812,937.5,158.691,898.926
1741689014.324,999.512,959.473,163.574,999.512
1741689014.328,-167.48,-364.746,100.098,-249.512
1741689014.332,-1000.0,-1000.0,66.406,-1000.0
1741689014.336,-901.855,-930.176,86.426,-899.902
1741689014.34,-1000.0,-1000.0,148.438,-1000.0
1741689014.344,11.719,219.238,243.652,-7.324
1741689014.348,999.512,999.512,203.613,999.512
1741689014.351,999.512,999.512,130.859,999.512
1741689014.355,203.613,132.324,117.676,213.379
1741689014.359,-982.91,-1000.0,109.375,-979.492
1741689014.363,-1000.0,-1000.0,105.469,-1000.0
1741689014.367,-415.527,-160.645,85.938,-411.621
1741689014.324,999.512,959.473,163.574,999.512
1741689014.328,-167.48,-364.746,100.098,-249.512
1741689014.332,-1000.0,-1000.0,66.406,-1000.0
1741689014.336,-901.855,-930.176,86.426,-899.902
1741689014.34,-1000.0,-1000.0,148.438,-1000.0
1741689014.344,11.719,219.238,243.652,-7.324
1741689014.348,999.512,999.512,203.613,999.512
1741689014.351,999.512,999.512,130.859,999.512
1741689014.355,203.613,132.324,117.676,213.379
1741689014.359,-982.91,-1000.0,109.375,-979.492
1741689014.363,-1000.0,-1000.0,105.469,-1000.0
1741689014.367,-415.527,-160.645,85.938,-411.621
1741689014.368,855.957,969.238,78.613,853.516
1741689014.372,999.512,999.512,1.953,999.512
1741689014.376,440.918,304.688,-102.539,443.848
1741689014.38,-851.562,-944.336,-193.848,-842.285
1741689014.384,-1000.0,-1000.0,-232.91,-1000.0
1741689014.388,-685.059,-203.613,-250.977,-648.438
1741689014.392,684.082,999.512,-368.652,704.59
1741689014.395,984.863,894.043,-387.695,976.074
1741689014.399,999.512,999.512,-283.691,999.512
1741689014.403,222.168,168.457,-365.234,250.488
1741689014.407,-1000.0,-1000.0,-465.332,-1000.0
1741689014.411,-924.805,-918.457,-479.004,-929.199
1741689014.368,855.957,969.238,78.613,853.516
1741689014.372,999.512,999.512,1.953,999.512
1741689014.376,440.918,304.688,-102.539,443.848
1741689014.38,-851.562,-944.336,-193.848,-842.285
1741689014.384,-1000.0,-1000.0,-232.91,-1000.0
1741689014.388,-685.059,-203.613,-250.977,-648.438
1741689014.392,684.082,999.512,-368.652,704.59
1741689014.395,984.863,894.043,-387.695,976.074
1741689014.399,999.512,999.512,-283.691,999.512
1741689014.403,222.168,168.457,-365.234,250.488
1741689014.407,-1000.0,-1000.0,-465.332,-1000.0
1741689014.411,-924.805,-918.457,-479.004,-929.199
1741689014.416,-1000.0,-1000.0,-455.566,-1000.0
1741689014.42,-228.516,-219.238,-369.629,-228.516
1741689014.424,999.512,999.512,-377.93,999.512
1741689014.428,961.914,962.402,-398.926,959.961
1741689014.432,864.746,866.699,-341.797,869.629
1741689014.436,999.512,999.512,-332.031,999.512
1741689014.44,439.941,454.102,-386.719,393.066
1741689014.443,-965.82,-955.566,-481.934,-978.516
1741689014.447,-1000.0,-1000.0,-492.676,-1000.0
1741689014.451,-889.648,-889.16,-405.762,-896.484
1741689014.455,-1000.0,-1000.0,-365.723,-1000.0
1741689014.459,-218.75,-200.195,-284.668,-189.453
1741689014.416,-1000.0,-1000.0,-455.566,-1000.0
1741689014.42,-228.516,-219.238,-369.629,-228.516
1741689014.424,999.512,999.512,-377.93,999.512
1741689014.428,961.914,962.402,-398.926,959.961
1741689014.432,864.746,866.699,-341.797,869.629
1741689014.436,999.512,999.512,-332.031,999.512
1741689014.44,439.941,454.102,-386.719,393.066
1741689014.443,-965.82,-955.566,-481.934,-978.516
1741689014.447,-1000.0,-1000.0,-492.676,-1000.0
1741689014.451,-889.648,-889.16,-405.762,-896.484
1741689014.455,-1000.0,-1000.0,-365.723,-1000.0
1741689014.459,-218.75,-200.195,-284.668,-189.453
1741689014.473,999.512,978.516,-250.977,999.512
1741689014.477,905.762,999.512,-328.613,907.715
1741689014.481,999.512,636.23,-324.707,999.512
1741689014.485,104.98,-709.961,-269.531,53.223
1741689014.489,-998.047,-1000.0,-317.383,-1000.0
1741689014.493,-1000.0,-1000.0,-343.262,-1000.0
1741689014.497,-186.523,-30.273,-220.215,-189.453
1741689014.5,993.164,994.141,-150.879,995.117
1741689014.504,958.984,999.512,-202.637,961.914
1741689014.508,937.5,513.184,-252.93,923.828
1741689014.512,-347.656,-868.652,-376.953,-353.516
1741689014.516,-1000.0,-1000.0,-380.371,-1000.0
1741689014.518,-890.625,-979.004,-333.008,-892.578
1741689014.522,-1000.0,-902.832,-420.898,-1000.0
1741689014.526,-27.832,419.434,-409.668,-37.598
1741689014.53,999.512,999.512,-451.66,999.512
1741689014.534,879.395,856.445,-523.926,881.836
1741689014.538,980.469,999.512,-499.512,984.863
1741689014.542,913.086,832.52,-545.898,886.23
1741689014.545,-449.707,-557.617,-546.387,-468.75
1741689014.549,-1000.0,-1000.0,-514.648,-1000.0
1741689014.553,-875.0,-880.859,-503.418,-881.836
1741689014.557,-1000.0,-1000.0,-327.148,-1000.0
1741689014.561,-170.898,-121.094,-63.965,-133.301
1741689014.518,-890.625,-979.004,-333.008,-892.578
1741689014.522,-1000.0,-902.832,-420.898,-1000.0
1741689014.526,-27.832,419.434,-409.668,-37.598
1741689014.53,999.512,999.512,-451.66,999.512
1741689014.534,879.395,856.445,-523.926,881.836
1741689014.538,980.469,999.512,-499.512,984.863
1741689014.542,913.086,832.52,-545.898,886.23
1741689014.545,-449.707,-557.617,-546.387,-468.75
1741689014.549,-1000.0,-1000.0,-514.648,-1000.0
1741689014.553,-875.0,-880.859,-503.418,-881.836
1741689014.557,-1000.0,-1000.0,-327.148,-1000.0
1741689014.561,-170.898,-121.094,-63.965,-133.301
1741689014.564,999.512,999.512,26.855,999.512
1741689014.568,910.645,908.691,-137.207,899.902
1741689014.572,937.988,935.059,-230.957,964.355
1741689014.576,999.512,999.512,-247.559,926.758
1741689014.58,-281.25,-239.258,-390.137,-391.113
1741689014.584,-1000.0,-1000.0,-327.637,-1000.0
1741689014.588,-873.535,-893.555,-217.285,-874.023
1741689014.591,-1000.0,-1000.0,-312.5,-1000.0
1741689014.595,-221.191,-129.395,-321.289,-250.488
1741689014.599,976.074,999.512,-293.945,973.633
1741689014.603,999.512,794.922,-325.195,999.512
1741689014.607,137.207,-536.621,-361.328,77.637
1741689014.564,999.512,999.512,26.855,999.512
1741689014.568,910.645,908.691,-137.207,899.902
1741689014.572,937.988,935.059,-230.957,964.355
1741689014.576,999.512,999.512,-247.559,926.758
1741689014.58,-281.25,-239.258,-390.137,-391.113
1741689014.584,-1000.0,-1000.0,-327.637,-1000.0
1741689014.588,-873.535,-893.555,-217.285,-874.023
1741689014.591,-1000.0,-1000.0,-312.5,-1000.0
1741689014.595,-221.191,-129.395,-321.289,-250.488
1741689014.599,976.074,999.512,-293.945,973.633
1741689014.603,999.512,794.922,-325.195,999.512
1741689014.607,137.207,-536.621,-361.328,77.637
1741689014.608,-1000.0,-1000.0,-356.445,-1000.0
1741689014.612,-966.797,-1000.0,-284.668,-958.008
1741689014.616,-1000.0,-734.863,-269.043,-1000.0
1741689014.62,182.617,670.898,-266.602,166.016
1741689014.624,999.512,999.512,-245.605,999.512
1741689014.628,857.91,899.414,-179.199,867.676
1741689014.632,999.512,999.512,-106.445,999.512
1741689014.635,20.996,-252.441,-65.918,-19.043
1741689014.639,-1000.0,-1000.0,-115.723,-1000.0
1741689014.643,-916.016,-935.547,-135.254,-911.621
1741689014.647,-1000.0,-1000.0,22.461,-1000.0
1741689014.651,-28.809,222.656,132.324,-43.945
1741689014.608,-1000.0,-1000.0,-356.445,-1000.0
1741689014.612,-966.797,-1000.0,-284.668,-958.008
1741689014.616,-1000.0,-734.863,-269.043,-1000.0
1741689014.62,182.617,670.898,-266.602,166.016
1741689014.624,999.512,999.512,-245.605,999.512
1741689014.628,857.91,899.414,-179.199,867.676
1741689014.632,999.512,999.512,-106.445,999.512
1741689014.635,20.996,-252.441,-65.918,-19.043
1741689014.639,-1000.0,-1000.0,-115.723,-1000.0
1741689014.643,-916.016,-935.547,-135.254,-911.621
1741689014.647,-1000.0,-1000.0,22.461,-1000.0
1741689014.651,-28.809,222.656,132.324,-43.945
1741689014.653,999.512,999.512,96.68,999.512
1741689014.657,999.512,999.512,120.605,999.512
1741689014.661,429.688,243.652,167.969,429.199
1741689014.665,-891.602,-995.117,72.266,-883.789
1741689014.669,-1000.0,-1000.0,73.73,-1000.0
1741689014.673,-243.164,-128.906,225.098,-270.02
1741689014.677,922.363,986.816,255.859,912.109
1741689014.68,999.512,999.512,234.375,999.512
1741689014.684,356.934,114.258,243.652,348.145
1741689014.688,-981.445,-1000.0,256.348,-979.98
1741689014.692,-1000.0,-976.562,307.617,-1000.0
1741689014.696,-894.043,-917.48,124.512,-894.531
1741689014.653,999.512,999.512,96.68,999.512
1741689014.657,999.512,999.512,120.605,999.512
1741689014.661,429.688,243.652,167.969,429.199
1741689014.665,-891.602,-995.117,72.266,-883.789
1741689014.669,-1000.0,-1000.0,73.73,-1000.0
1741689014.673,-243.164,-128.906,225.098,-270.02
1741689014.677,922.363,986.816,255.859,912.109
1741689014.68,999.512,999.512,234.375,999.512
1741689014.684,356.934,114.258,243.652,348.145
1741689014.688,-981.445,-1000.0,256.348,-979.98
1741689014.692,-1000.0,-976.562,307.617,-1000.0
1741689014.696,-894.043,-917.48,124.512,-894.531
1741689014.701,-1000.0,-1000.0,-41.992,-1000.0
1741689014.705,-220.703,-181.152,59.082,-216.797
1741689014.709,999.512,999.512,96.191,999.512
1741689014.713,960.449,954.59,111.328,959.473
1741689014.717,866.211,871.094,183.594,868.652
1741689014.721,999.512,999.512,236.816,999.512
1741689014.725,396.484,355.957,184.57,374.023
1741689014.728,-987.793,-1000.0,39.551,-995.117
1741689014.732,-1000.0,-1000.0,72.754,-1000.0
1741689014.736,-890.625,-896.973,159.668,-891.602
1741689014.74,-1000.0,-1000.0,122.559,-1000.0
1741689014.744,-248.535,-204.102,138.184,-266.113
1741689014.701,-1000.0,-1000.0,-41.992,-1000.0
1741689014.705,-220.703,-181.152,59.082,-216.797
1741689014.709,999.512,999.512,96.191,999.512
1741689014.713,960.449,954.59,111.328,959.473
1741689014.717,866.211,871.094,183.594,868.652
1741689014.721,999.512,999.512,236.816,999.512
1741689014.725,396.484,355.957,184.57,374.023
1741689014.728,-987.793,-1000.0,39.551,-995.117
1741689014.732,-1000.0,-1000.0,72.754,-1000.0
1741689014.736,-890.625,-896.973,159.668,-891.602
1741689014.74,-1000.0,-1000.0,122.559,-1000.0
1741689014.744,-248.535,-204.102,138.184,-266.113
1741689014.758,975.098,968.262,206.055,968.262
1741689014.762,993.652,999.512,205.566,999.512
1741689014.766,844.238,435.059,158.203,815.918
1741689014.77,-477.539,-865.234,116.211,-498.535
1741689014.774,-1000.0,-1000.0,93.262,-1000.0
1741689014.778,-1000.0,-685.547,77.148,-1000.0
1741689014.782,-12.207,601.074,94.238,-20.02
1741689014.785,999.512,999.512,115.234,999.512
1741689014.789,999.512,969.727,127.93,999.512
1741689014.793,170.41,-138.184,127.441,154.297
1741689014.797,-1000.0,-1000.0,102.539,-1000.0
1741689014.801,-958.496,-1000.0,106.445,-960.938
1741689014.758,975.098,968.262,206.055,968.262
1741689014.762,993.652,999.512,205.566,999.512
1741689014.766,844.238,435.059,158.203,815.918
1741689014.77,-477.539,-865.234,116.211,-498.535
1741689014.774,-1000.0,-1000.0,93.262,-1000.0
1741689014.778,-1000.0,-685.547,77.148,-1000.0
1741689014.782,-12.207,601.074,94.238,-20.02
1741689014.785,999.512,999.512,115.234,999.512
1741689014.789,999.512,969.727,127.93,999.512
1741689014.793,170.41,-138.184,127.441,154.297
1741689014.797,-1000.0,-1000.0,102.539,-1000.0
1741689014.801,-958.496,-1000.0,106.445,-960.938
1741689014.789,-1000.0,-726.074,61.035,-1000.0
1741689014.793,116.211,651.367,16.113,131.836
1741689014.797,999.512,999.512,-1.465,999.512
1741689014.801,909.668,908.691,-14.16,910.156
1741689014.805,900.391,916.016,62.988,904.297
1741689014.809,999.512,999.512,143.555,999.512
1741689014.813,187.012,183.594,65.918,150.879
1741689014.816,-1000.0,-1000.0,23.438,-1000.0
1741689014.82,-984.863,-983.887,74.707,-979.004
1741689014.824,-910.156,-910.645,75.684,-914.062
1741689014.828,-1000.0,-1000.0,65.43,-1000.0
1741689014.832,-220.703,-217.773,74.707,-206.543
1741689014.789,-1000.0,-726.074,61.035,-1000.0
1741689014.793,116.211,651.367,16.113,131.836
1741689014.797,999.512,999.512,-1.465,999.512
1741689014.801,909.668,908.691,-14.16,910.156
1741689014.805,900.391,916.016,62.988,904.297
1741689014.809,999.512,999.512,143.555,999.512
1741689014.813,187.012,183.594,65.918,150.879
1741689014.816,-1000.0,-1000.0,23.438,-1000.0
1741689014.82,-984.863,-983.887,74.707,-979.004
1741689014.824,-910.156,-910.645,75.684,-914.062
1741689014.828,-1000.0,-1000.0,65.43,-1000.0
1741689014.832,-220.703,-217.773,74.707,-206.543
1741689014.848,999.512,999.512,74.219,999.512
1741689014.852,950.684,951.172,18.555,949.219
1741689014.856,876.465,877.441,19.043,878.418
1741689014.86,999.512,999.512,49.805,999.512
1741689014.864,187.012,187.5,-42.969,181.152
1741689014.868,-1000.0,-1000.0,-54.199,-1000.0
1741689014.872,-976.562,-961.914,-83.496,-975.586
1741689014.875,-922.363,-948.73,-189.941,-922.852
1741689014.879,-1000.0,-1000.0,-200.684,-1000.0
1741689014.883,-86.914,114.746,-209.473,-93.262
1741689014.887,999.512,999.512,-245.117,999.512
1741689014.891,885.742,850.586,-277.344,888.672
1741689014.848,999.512,999.512,74.219,999.512
1741689014.852,950.684,951.172,18.555,949.219
1741689014.856,876.465,877.441,19.043,878.418
1741689014.86,999.512,999.512,49.805,999.512
1741689014.864,187.012,187.5,-42.969,181.152
1741689014.868,-1000.0,-1000.0,-54.199,-1000.0
1741689014.872,-976.562,-961.914,-83.496,-975.586
1741689014.875,-922.363,-948.73,-189.941,-922.852
1741689014.879,-1000.0,-1000.0,-200.684,-1000.0
1741689014.883,-86.914,114.746,-209.473,-93.262
1741689014.887,999.512,999.512,-245.117,999.512
1741689014.891,885.742,850.586,-277.344,888.672
1741689014.893,978.516,999.512,-267.09,980.469
1741689014.897,906.25,622.07,-220.215,888.184
1741689014.901,-454.102,-740.234,-227.051,-458.008
1741689014.905,-1000.0,-1000.0,-272.461,-1000.0
1741689014.909,-1000.0,-985.352,-246.582,-1000.0
1741689014.913,-115.234,198.73,-67.383,-106.934
1741689014.917,999.512,999.512,-8.301,999.512
1741689014.92,988.77,999.512,-57.617,986.328
1741689014.924,791.016,440.918,-53.223,793.945
1741689014.928,-519.043,-861.328,-67.383,-500.977
1741689014.932,-1000.0,-1000.0,-22.949,-1000.0
1741689014.936,-792.48,-478.516,97.168,-776.367
1741689014.893,978.516,999.512,-267.09,980.469
1741689014.897,906.25,622.07,-220.215,888.184
1741689014.901,-454.102,-740.234,-227.051,-458.008
1741689014.905,-1000.0,-1000.0,-272.461,-1000.0
1741689014.909,-1000.0,-985.352,-246.582,-1000.0
1741689014.913,-115.234,198.73,-67.383,-106.934
1741689014.917,999.512,999.512,-8.301,999.512
1741689014.92,988.77,999.512,-57.617,986.328
1741689014.924,791.016,440.918,-53.223,793.945
1741689014.928,-519.043,-861.328,-67.383,-500.977
1741689014.932,-1000.0,-1000.0,-22.949,-1000.0
1741689014.936,-792.48,-478.516,97.168,-776.367
1741689014.939,482.422,794.434,156.25,497.07
1741689014.943,999.512,999.512,104.98,999.512
1741689014.947,919.922,313.965,86.426,891.602
1741689014.951,-298.828,-945.312,76.172,-311.035
1741689014.955,-1000.0,-1000.0,50.781,-1000.0
1741689014.959,-1000.0,-895.996,81.055,-1000.0
1741689014.963,-181.152,307.129,88.867,-152.832
1741689014.966,999.512,999.512,95.215,999.512
1741689014.97,915.039,978.516,120.117,915.039
1741689014.974,999.512,727.539,110.84,999.512
1741689014.978,-131.348,-648.926,104.98,-136.23
1741689014.982,-1000.0,-1000.0,102.539,-1000.0
1741689014.939,482.422,794.434,156.25,497.07
1741689014.943,999.512,999.512,104.98,999.512
1741689014.947,919.922,313.965,86.426,891.602
1741689014.951,-298.828,-945.312,76.172,-311.035
1741689014.955,-1000.0,-1000.0,50.781,-1000.0
1741689014.959,-1000.0,-895.996,81.055,-1000.0
1741689014.963,-181.152,307.129,88.867,-152.832
1741689014.966,999.512,999.512,95.215,999.512
1741689014.97,915.039,978.516,120.117,915.039
1741689014.974,999.512,727.539,110.84,999.512
1741689014.978,-131.348,-648.926,104.98,-136.23
1741689014.982,-1000.0,-1000.0,102.539,-1000.0
1741689014.987,-942.383,-1000.0,129.883,-961.914
1741689014.991,-1000.0,-817.383,139.648,-966.797
1741689014.995,256.348,576.172,135.254,337.891
1741689014.999,999.512,999.512,183.594,999.512
1741689015.003,865.723,846.191,253.906,869.629
1741689015.007,975.586,999.512,312.5,975.098
1741689015.011,973.633,754.395,317.871,976.074
1741689015.014,-338.379,-649.902,306.152,-317.383
1741689015.018,-1000.0,-1000.0,326.66,-1000.0
1741689015.022,-882.812,-885.742,365.723,-879.395
1741689015.026,-1000.0,-1000.0,367.188,-1000.0
1741689015.03,-873.535,-872.07,270.996,-735.84
1741689014.987,-942.383,-1000.0,129.883,-961.914
1741689014.991,-1000.0,-817.383,139.648,-966.797
1741689014.995,256.348,576.172,135.254,337.891
1741689014.999,999.512,999.512,183.594,999.512
1741689015.003,865.723,846.191,253.906,869.629
1741689015.007,975.586,999.512,312.5,975.098
1741689015.011,973.633,754.395,317.871,976.074
1741689015.014,-338.379,-649.902,306.152,-317.383
1741689015.018,-1000.0,-1000.0,326.66,-1000.0
1741689015.022,-882.812,-885.742,365.723,-879.395
1741689015.026,-1000.0,-1000.0,367.188,-1000.0
1741689015.03,-873.535,-872.07,270.996,-735.84
1741689015.028,520.508,461.914,226.562,650.879
1741689015.032,999.512,999.512,212.891,999.512
1741689015.036,899.414,522.949,262.207,907.715
1741689015.04,991.699,289.551,370.117,991.211
1741689015.044,906.738,917.48,354.98,910.156
1741689015.048,999.512,999.512,319.824,999.512
1741689015.052,768.555,715.332,310.059,763.184
1741689015.055,-652.832,-677.246,238.281,-631.836
1741689015.059,-1000.0,-1000.0,222.168,-1000.0
1741689015.063,-868.652,-873.535,239.258,-871.094
1741689015.067,-1000.0,-1000.0,153.809,-1000.0
1741689015.071,-274.902,-204.59,97.656,-273.926
1741689015.028,520.508,461.914,226.562,650.879
1741689015.032,999.512,999.512,212.891,999.512
1741689015.036,899.414,522.949,262.207,907.715
1741689015.04,991.699,289.551,370.117,991.211
1741689015.044,906.738,917.48,354.98,910.156
1741689015.048,999.512,999.512,319.824,999.512
1741689015.052,768.555,715.332,310.059,763.184
1741689015.055,-652.832,-677.246,238.281,-631.836
1741689015.059,-1000.0,-1000.0,222.168,-1000.0
1741689015.063,-868.652,-873.535,239.258,-871.094
1741689015.067,-1000.0,-1000.0,153.809,-1000.0
1741689015.071,-274.902,-204.59,97.656,-273.926
1741689015.074,999.512,979.004,97.168,999.512
1741689015.078,913.574,999.512,6.348,914.551
1741689015.082,999.512,643.066,-57.129,999.512
1741689015.086,87.891,-646.484,-41.016,104.492
1741689015.09,-1000.0,-1000.0,-44.922,-1000.0
1741689015.094,-484.375,-185.059,22.461,-479.004
1741689015.098,834.473,957.52,101.562,833.008
1741689015.101,999.512,999.512,82.52,999.512
1741689015.105,388.184,147.461,-17.09,400.879
1741689015.109,-950.684,-1000.0,-103.027,-938.965
1741689015.113,-966.309,-925.293,-67.383,-970.215
1741689015.117,-1000.0,-1000.0,-14.648,-1000.0
1741689015.074,999.512,979.004,97.168,999.512
1741689015.078,913.574,999.512,6.348,914.551
1741689015.082,999.512,643.066,-57.129,999.512
1741689015.086,87.891,-646.484,-41.016,104.492
1741689015.09,-1000.0,-1000.0,-44.922,-1000.0
1741689015.094,-484.375,-185.059,22.461,-479.004
1741689015.098,834.473,957.52,101.562,833.008
1741689015.101,999.512,999.512,82.52,999.512
1741689015.105,388.184,147.461,-17.09,400.879
1741689015.109,-950.684,-1000.0,-103.027,-938.965
1741689015.113,-966.309,-925.293,-67.383,-970.215
1741689015.117,-1000.0,-1000.0,-14.648,-1000.0
1741689015.133,-234.375,-171.875,4.395,-225.586
1741689015.137,999.512,999.512,-39.551,999.512
1741689015.141,876.953,874.512,-83.496,877.441
1741689015.145,999.512,999.512,-79.59,999.512
1741689015.149,404.785,304.688,-202.637,386.719
1741689015.153,-1000.0,-1000.0,-302.734,-1000.0
1741689015.157,-962.891,-934.082,-253.418,-961.914
1741689015.16,-1000.0,-1000.0,-251.465,-1000.0
1741689015.164,-837.891,-606.445,-210.449,-835.449
1741689015.168,590.332,818.359,-64.453,575.684
1741689015.172,999.512,999.512,-58.594,999.512
1741689015.176,900.391,908.203,-18.555,899.414
1741689015.133,-234.375,-171.875,4.395,-225.586
1741689015.137,999.512,999.512,-39.551,999.512
1741689015.141,876.953,874.512,-83.496,877.441
1741689015.145,999.512,999.512,-79.59,999.512
1741689015.149,404.785,304.688,-202.637,386.719
1741689015.153,-1000.0,-1000.0,-302.734,-1000.0
1741689015.157,-962.891,-934.082,-253.418,-961.914
1741689015.16,-1000.0,-1000.0,-251.465,-1000.0
1741689015.164,-837.891,-606.445,-210.449,-835.449
1741689015.168,590.332,818.359,-64.453,575.684
1741689015.172,999.512,999.512,-58.594,999.512
1741689015.176,900.391,908.203,-18.555,899.414
1741689015.164,916.992,925.293,126.465,921.875
1741689015.168,999.512,999.512,153.809,999.512
1741689015.172,178.223,120.605,98.145,127.93
1741689015.176,-1000.0,-1000.0,65.918,-1000.0
1741689015.18,-1000.0,-1000.0,130.859,-1000.0
1741689015.184,-194.336,-91.309,238.77,-202.148
1741689015.188,999.512,999.512,228.027,999.512
1741689015.191,875.488,865.234,111.816,878.906
1741689015.195,999.512,999.512,111.816,999.512
1741689015.199,472.656,413.574,84.473,457.031
1741689015.203,-888.184,-974.609,62.012,-889.648
1741689015.207,-1000.0,-1000.0,178.223,-1000.0
1741689015.164,916.992,925.293,126.465,921.875
1741689015.168,999.512,999.512,153.809,999.512
1741689015.172,178.223,120.605,98.145,127.93
1741689015.176,-1000.0,-1000.0,65.918,-1000.0
1741689015.18,-1000.0,-1000.0,130.859,-1000.0
1741689015.184,-194.336,-91.309,238.77,-202.148
1741689015.188,999.512,999.512,228.027,999.512
1741689015.191,875.488,865.234,111.816,878.906
1741689015.195,999.512,999.512,111.816,999.512
1741689015.199,472.656,413.574,84.473,457.031
1741689015.203,-888.184,-974.609,62.012,-889.648
1741689015.207,-1000.0,-1000.0,178.223,-1000.0
1741689015.223,-170.898,198.73,277.832,-180.664
1741689015.227,999.512,999.512,241.699,999.512
1741689015.231,887.207,862.793,237.305,891.113
1741689015.235,999.512,999.512,275.879,999.512
1741689015.239,193.359,80.078,213.379,175.293
1741689015.243,-1000.0,-1000.0,214.844,-1000.0
1741689015.247,-962.402,-932.129,235.84,-957.52
1741689015.25,-946.777,-995.117,227.051,-954.59
1741689015.254,-1000.0,-972.656,272.949,-1000.0
1741689015.258,116.211,335.938,306.152,143.555
1741689015.262,999.512,999.512,264.16,999.512
1741689015.266,834.961,833.984,204.59,841.309
1741689015.223,-170.898,198.73,277.832,-180.664
1741689015.227,999.512,999.512,241.699,999.512
1741689015.231,887.207,862.793,237.305,891.113
1741689015.235,999.512,999.512,275.879,999.512
1741689015.239,193.359,80.078,213.379,175.293
1741689015.243,-1000.0,-1000.0,214.844,-1000.0
1741689015.247,-962.402,-932.129,235.84,-957.52
1741689015.25,-946.777,-995.117,227.051,-954.59
1741689015.254,-1000.0,-972.656,272.949,-1000.0
1741689015.258,116.211,335.938,306.152,143.555
1741689015.262,999.512,999.512,264.16,999.512
1741689015.266,834.961,833.984,204.59,841.309
1741689015.269,999.512,999.512,205.078,999.512
1741689015.273,546.387,409.18,203.125,544.922
1741689015.277,-891.602,-937.5,208.984,-866.211
1741689015.281,-1000.0,-1000.0,211.914,-1000.0
1741689015.285,-1000.0,-982.422,211.426,-1000.0
1741689015.289,-88.379,237.793,301.758,-77.637
1741689015.293,999.512,999.512,331.055,999.512
1741689015.296,868.164,879.395,305.664,870.605
1741689015.3,999.512,999.512,359.375,999.512
1741689015.304,175.781,-108.887,321.777,152.832
1741689015.308,-1000.0,-1000.0,333.008,-1000.0
1741689015.312,-909.668,-883.301,365.723,-908.691
1741689015.269,999.512,999.512,205.078,999.512
1741689015.273,546.387,409.18,203.125,544.922
1741689015.277,-891.602,-937.5,208.984,-866.211
1741689015.281,-1000.0,-1000.0,211.914,-1000.0
1741689015.285,-1000.0,-982.422,211.426,-1000.0
1741689015.289,-88.379,237.793,301.758,-77.637
1741689015.293,999.512,999.512,331.055,999.512
1741689015.296,868.164,879.395,305.664,870.605
1741689015.3,999.512,999.512,359.375,999.512
1741689015.304,175.781,-108.887,321.777,152.832
1741689015.308,-1000.0,-1000.0,333.008,-1000.0
1741689015.312,-909.668,-883.301,365.723,-908.691
1741689015.313,-1000.0,-1000.0,305.664,-1000.0
1741689015.317,-630.371,-427.734,252.441,-622.559
1741689015.321,823.73,950.195,212.891,815.43
1741689015.325,999.512,999.512,220.215,999.512
1741689015.329,841.797,853.516,226.074,846.191
1741689015.333,999.512,999.512,247.07,999.512
1741689015.337,692.871,553.223,270.02,682.617
1741689015.34,-747.07,-866.211,256.836,-736.816
1741689015.344,-1000.0,-1000.0,353.027,-1000.0
1741689015.348,-874.512,-882.812,417.969,-876.953
1741689015.352,-1000.0,-1000.0,405.273,-1000.0
1741689015.356,-217.285,-205.078,479.492,-208.984
1741689015.313,-1000.0,-1000.0,305.664,-1000.0
1741689015.317,-630.371,-427.734,252.441,-622.559
1741689015.321,823.73,950.195,212.891,815.43
1741689015.325,999.512,999.512,220.215,999.512
1741689015.329,841.797,853.516,226.074,846.191
1741689015.333,999.512,999.512,247.07,999.512
1741689015.337,692.871,553.223,270.02,682.617
1741689015.34,-747.07,-866.211,256.836,-736.816
1741689015.344,-1000.0,-1000.0,353.027,-1000.0
1741689015.348,-874.512,-882.812,417.969,-876.953
1741689015.352,-1000.0,-1000.0,405.273,-1000.0
1741689015.356,-217.285,-205.078,479.492,-208.984
1741689015.359,999.512,978.027,495.605,999.512
1741689015.363,915.527,999.512,451.66,918.457
1741689015.367,999.512,632.812,453.125,999.512
1741689015.371,-12.207,-658.691,428.223,-17.09
1741689015.375,-1000.0,-1000.0,413.086,-1000.0
1741689015.379,-571.777,-215.82,490.723,-562.5
1741689015.383,750.977,946.289,507.812,746.094
1741689015.386,999.512,999.512,431.152,999.512
1741689015.39,279.297,133.789,357.422,308.594
1741689015.394,-999.512,-1000.0,351.074,-983.887
1741689015.398,-946.777,-920.41,386.23,-953.613
1741689015.402,-1000.0,-1000.0,395.02,-1000.0
1741689015.359,999.512,978.027,495.605,999.512
1741689015.363,915.527,999.512,451.66,918.457
1741689015.367,999.512,632.812,453.125,999.512
1741689015.371,-12.207,-658.691,428.223,-17.09
1741689015.375,-1000.0,-1000.0,413.086,-1000.0
1741689015.379,-571.777,-215.82,490.723,-562.5
1741689015.383,750.977,946.289,507.812,746.094
1741689015.386,999.512,999.512,431.152,999.512
1741689015.39,279.297,133.789,357.422,308.594
1741689015.394,-999.512,-1000.0,351.074,-983.887
1741689015.398,-946.777,-920.41,386.23,-953.613
1741689015.402,-1000.0,-1000.0,395.02,-1000.0
1741689015.403,-231.934,-201.66,440.918,-217.285
1741689015.407,999.512,999.512,409.18,999.512
1741689015.411,881.836,884.277,333.984,879.883
1741689015.415,999.512,999.512,358.398,999.512
1741689015.419,277.832,197.266,312.5,302.734
1741689015.423,-1000.0,-1000.0,238.281,-1000.0
1741689015.427,-1000.0,-990.723,263.672,-1000.0
1741689015.43,-894.531,-904.297,282.227,-893.066
1741689015.434,-1000.0,-1000.0,292.969,-1000.0
1741689015.438,-394.043,-324.707,312.012,-395.996
1741689015.442,972.168,999.512,297.852,967.285
1741689015.446,979.98,963.867,202.148,981.445
1741689015.449,862.305,876.953,186.035,863.281
1741689015.453,999.512,999.512,235.352,999.512
1741689015.457,186.035,122.07,236.816,181.641
1741689015.461,-1000.0,-1000.0,189.453,-1000.0
1741689015.465,-1000.0,-1000.0,169.434,-1000.0
1741689015.469,-193.359,-20.02,235.84,-193.359
1741689015.473,999.512,999.512,224.609,999.512
1741689015.476,887.207,895.02,122.559,889.648
1741689015.48,999.512,999.512,172.852,999.512
1741689015.484,189.453,-41.504,170.898,171.875
1741689015.488,-1000.0,-1000.0,141.113,-1000.0
1741689015.492,-1000.0,-1000.0,171.875,-1000.0
1741689015.449,862.305,876.953,186.035,863.281
1741689015.453,999.512,999.512,235.352,999.512
1741689015.457,186.035,122.07,236.816,181.641
1741689015.461,-1000.0,-1000.0,189.453,-1000.0
1741689015.465,-1000.0,-1000.0,169.434,-1000.0
1741689015.469,-193.359,-20.02,235.84,-193.359
1741689015.473,999.512,999.512,224.609,999.512
1741689015.476,887.207,895.02,122.559,889.648
1741689015.48,999.512,999.512,172.852,999.512
1741689015.484,189.453,-41.504,170.898,171.875
1741689015.488,-1000.0,-1000.0,141.113,-1000.0
1741689015.492,-1000.0,-1000.0,171.875,-1000.0
1741689015.494,-258.789,-158.203,205.078,-284.668
1741689015.498,999.512,999.512,200.684,999.512
1741689015.502,897.949,882.324,178.711,902.344
1741689015.506,999.512,999.512,210.938,999.512
1741689015.51,195.312,179.688,174.316,206.055
1741689015.514,-1000.0,-1000.0,184.082,-1000.0
1741689015.518,-990.723,-986.328,191.895,-993.164
1741689015.521,-903.32,-907.715,153.809,-902.344
1741689015.525,-1000.0,-1000.0,174.316,-1000.0
1741689015.529,-345.215,-283.691,226.562,-360.352
1741689015.533,991.699,999.512,239.746,984.375
1741689015.537,971.191,960.449,209.473,974.609
1741689015.494,-258.789,-158.203,205.078,-284.668
1741689015.498,999.512,999.512,200.684,999.512
1741689015.502,897.949,882.324,178.711,902.344
1741689015.506,999.512,999.512,210.938,999.512
1741689015.51,195.312,179.688,174.316,206.055
1741689015.514,-1000.0,-1000.0,184.082,-1000.0
1741689015.518,-990.723,-986.328,191.895,-993.164
1741689015.521,-903.32,-907.715,153.809,-902.344
1741689015.525,-1000.0,-1000.0,174.316,-1000.0
1741689015.529,-345.215,-283.691,226.562,-360.352
1741689015.533,991.699,999.512,239.746,984.375
1741689015.537,971.191,960.449,209.473,974.609
1741689015.54,866.211,874.023,190.43,867.188
1741689015.544,999.512,999.512,138.672,999.512
1741689015.548,176.758,166.016,120.605,163.574
1741689015.552,-999.023,-1000.0,80.078,-1000.0
1741689015.556,-1000.0,-1000.0,75.195,-1000.0
1741689015.56,-382.324,-161.133,132.324,-377.93
1741689015.564,957.52,999.512,121.582,955.566
1741689015.567,919.922,904.297,67.871,921.875
1741689015.571,999.512,999.512,62.988,999.512
1741689015.575,198.73,33.203,19.531,179.688
1741689015.579,-1000.0,-1000.0,-16.113,-1000.0
1741689015.583,-916.504,-906.738,11.23,-913.086
1741689015.54,866.211,874.023,190.43,867.188
1741689015.544,999.512,999.512,138.672,999.512
1741689015.548,176.758,166.016,120.605,163.574
1741689015.552,-999.023,-1000.0,80.078,-1000.0
1741689015.556,-1000.0,-1000.0,75.195,-1000.0
1741689015.56,-382.324,-161.133,132.324,-377.93
1741689015.564,957.52,999.512,121.582,955.566
1741689015.567,919.922,904.297,67.871,921.875
1741689015.571,999.512,999.512,62.988,999.512
1741689015.575,198.73,33.203,19.531,179.688
1741689015.579,-1000.0,-1000.0,-16.113,-1000.0
1741689015.583,-916.504,-906.738,11.23,-913.086
1741689015.598,-1000.0,-1000.0,62.012,-1000.0
1741689015.602,-308.594,-224.609,114.258,-329.102
1741689015.606,999.512,999.512,152.832,999.512
1741689015.61,972.168,974.609,157.715,975.098
1741689015.614,860.84,806.152,118.164,861.816
1741689015.618,999.512,999.512,128.418,999.512
1741689015.622,353.027,373.047,101.074,330.078
1741689015.625,-1000.0,-1000.0,36.133,-1000.0
1741689015.629,-1000.0,-1000.0,41.992,-1000.0
1741689015.633,-896.973,-899.414,44.922,-896.484
1741689015.637,-1000.0,-1000.0,35.645,-1000.0
1741689015.641,-209.961,-178.223,65.918,-244.629
1741689015.598,-1000.0,-1000.0,62.012,-1000.0
1741689015.602,-308.594,-224.609,114.258,-329.102
1741689015.606,999.512,999.512,152.832,999.512
1741689015.61,972.168,974.609,157.715,975.098
1741689015.614,860.84,806.152,118.164,861.816
1741689015.618,999.512,999.512,128.418,999.512
1741689015.622,353.027,373.047,101.074,330.078
1741689015.625,-1000.0,-1000.0,36.133,-1000.0
1741689015.629,-1000.0,-1000.0,41.992,-1000.0
1741689015.633,-896.973,-899.414,44.922,-896.484
1741689015.637,-1000.0,-1000.0,35.645,-1000.0
1741689015.641,-209.961,-178.223,65.918,-244.629
