timestamps,TP9,AF7,AF8,TP10
1741690160.822,-916.504,-45.898,26.367,-974.609
1741690160.826,535.156,35.156,84.473,466.309
1741690160.83,999.512,34.18,102.051,999.512
1741690160.834,265.625,-52.734,21.484,380.371
1741690160.837,-1000.0,-65.43,-9.766,-908.691
1741690160.841,-967.773,-8.789,27.344,-1000.0
1741690160.845,391.113,13.672,39.062,276.367
1741690160.849,999.512,-24.414,53.711,999.512
1741690160.853,753.418,-20.508,49.316,741.699
1741690160.855,-617.188,-27.344,2.441,-614.258
1741690160.859,-1000.0,-25.879,-13.672,-1000.0
1741690160.863,57.129,-1.953,52.246,-113.77
1741690160.867,999.512,-3.418,56.152,999.512
1741690160.871,770.996,-60.547,9.766,789.062
1741690160.875,-573.242,-85.449,-9.277,-597.656
1741690160.879,-1000.0,-34.668,-35.156,-1000.0
1741690160.882,-769.531,-20.02,-50.293,-798.34
1741690160.886,723.633,-22.949,-17.578,681.152
1741690160.89,936.035,-36.133,-15.625,940.918
1741690160.894,-606.445,-56.152,-30.762,-609.863
1741690160.898,-1000.0,-56.152,-25.391,-1000.0
1741690160.902,-828.125,-39.062,-24.414,-832.031
1741690160.906,631.348,-8.301,9.766,606.934
1741690160.91,999.512,-70.801,7.812,999.512
1741690160.914,-520.508,-129.883,-53.223,-461.426
1741690160.918,-1000.0,-93.75,-71.777,-1000.0
1741690160.922,-785.156,-52.246,-44.434,-809.082
1741690160.926,658.691,-34.668,4.883,615.723
1741690160.929,999.512,-39.062,12.207,999.512
1741690160.933,-440.43,-72.266,-53.223,-373.047
1741690160.937,-1000.0,-104.004,-98.145,-1000.0
1741690160.941,-818.848,-66.895,-88.867,-817.871
1741690160.945,512.207,10.254,-7.324,517.09
1741690160.902,-828.125,-39.062,-24.414,-832.031
1741690160.906,631.348,-8.301,9.766,606.934
1741690160.91,999.512,-70.801,7.812,999.512
1741690160.914,-520.508,-129.883,-53.223,-461.426
1741690160.918,-1000.0,-93.75,-71.777,-1000.0
1741690160.922,-785.156,-52.246,-44.434,-809.082
1741690160.926,658.691,-34.668,4.883,615.723
1741690160.929,999.512,-39.062,12.207,999.512
1741690160.933,-440.43,-72.266,-53.223,-373.047
1741690160.937,-1000.0,-104.004,-98.145,-1000.0
1741690160.941,-818.848,-66.895,-88.867,-817.871
1741690160.945,512.207,10.254,-7.324,517.09
1741690160.961,999.512,-41.504,16.602,999.512
1741690160.965,108.887,-62.988,-39.062,185.059
1741690160.969,-1000.0,-55.664,-59.082,-985.84
1741690160.973,-957.52,-48.34,-61.523,-1000.0
1741690160.977,348.633,24.902,-36.621,233.887
1741690160.981,999.512,49.316,17.09,999.512
1741690160.985,521.484,-27.832,-20.02,550.293
1741690160.988,-909.18,-71.289,-83.984,-858.398
1741690160.992,-987.305,-27.832,-69.824,-1000.0
1741690160.996,448.73,34.668,-18.555,369.141
1741690161.0,999.512,24.414,30.762,999.512
1741690161.004,658.691,-56.152,17.578,691.895
1741690161.006,-759.277,-71.777,-49.316,-692.871
1741690161.01,-1000.0,-42.48,-77.637,-1000.0
1741690161.014,285.156,-3.418,-57.617,156.25
1741690161.018,999.512,5.371,-10.254,999.512
1741690161.022,757.812,-50.781,-11.719,778.32
1741690161.026,-634.277,-91.797,-32.227,-618.652
1741690161.03,-1000.0,-39.062,-7.324,-1000.0
1741690161.033,115.723,4.395,15.625,-26.367
1741690161.037,999.512,-34.18,59.082,999.512
1741690161.041,812.988,-75.684,23.926,827.637
1741690161.045,-581.055,-83.984,-83.008,-587.891
1741690161.049,-1000.0,-73.73,-66.895,-1000.0
1741690161.006,-759.277,-71.777,-49.316,-692.871
1741690161.01,-1000.0,-42.48,-77.637,-1000.0
1741690161.014,285.156,-3.418,-57.617,156.25
1741690161.018,999.512,5.371,-10.254,999.512
1741690161.022,757.812,-50.781,-11.719,778.32
1741690161.026,-634.277,-91.797,-32.227,-618.652
1741690161.03,-1000.0,-39.062,-7.324,-1000.0
1741690161.033,115.723,4.395,15.625,-26.367
1741690161.037,999.512,-34.18,59.082,999.512
1741690161.041,812.988,-75.684,23.926,827.637
1741690161.045,-581.055,-83.984,-83.008,-587.891
1741690161.049,-1000.0,-73.73,-66.895,-1000.0
1741690161.006,-759.277,-71.777,-49.316,-692.871
1741690161.01,-1000.0,-42.48,-77.637,-1000.0
1741690161.014,285.156,-3.418,-57.617,156.25
1741690161.018,999.512,5.371,-10.254,999.512
1741690161.022,757.812,-50.781,-11.719,778.32
1741690161.026,-634.277,-91.797,-32.227,-618.652
1741690161.03,-1000.0,-39.062,-7.324,-1000.0
1741690161.033,115.723,4.395,15.625,-26.367
1741690161.037,999.512,-34.18,59.082,999.512
1741690161.041,812.988,-75.684,23.926,827.637
1741690161.045,-581.055,-83.984,-83.008,-587.891
1741690161.049,-1000.0,-73.73,-66.895,-1000.0
1741690161.051,15.137,-53.223,-27.832,-112.793
1741690161.055,999.512,-49.805,3.418,999.512
1741690161.059,873.047,-47.363,53.711,939.453
1741690161.063,-448.242,-63.965,3.906,-365.723
1741690161.067,-1000.0,-60.059,-17.09,-1000.0
1741690161.071,-375.977,-5.371,40.039,-438.477
1741690161.075,969.727,-14.648,53.711,904.297
1741690161.078,885.254,-70.312,58.105,947.266
1741690161.082,-532.227,-92.285,1.953,-457.52
1741690161.086,-1000.0,-85.449,-50.781,-1000.0
1741690161.09,-724.609,-49.316,-19.043,-751.953
1741690161.094,708.008,-2.93,41.504,645.02
1741690161.095,999.512,-6.348,54.688,999.512
1741690161.099,-371.094,-71.777,-23.926,-261.719
1741690161.103,-1000.0,-80.566,-46.387,-1000.0
1741690161.107,-773.926,-26.855,5.371,-777.832
1741690161.111,621.582,-43.945,51.27,599.121
1741690161.115,999.512,-70.312,55.664,999.512
1741690161.119,-177.246,-128.418,-18.555,0.0
1741690161.122,-1000.0,-137.207,-45.898,-1000.0
1741690161.126,-783.691,-42.48,12.207,-814.941
1741690161.13,551.27,-22.461,40.039,558.594
1741690161.134,999.512,-59.57,44.922,999.512
1741690161.138,431.152,-54.199,43.945,479.98
1741690161.095,999.512,-6.348,54.688,999.512
1741690161.099,-371.094,-71.777,-23.926,-261.719
1741690161.103,-1000.0,-80.566,-46.387,-1000.0
1741690161.107,-773.926,-26.855,5.371,-777.832
1741690161.111,621.582,-43.945,51.27,599.121
1741690161.115,999.512,-70.312,55.664,999.512
1741690161.119,-177.246,-128.418,-18.555,0.0
1741690161.122,-1000.0,-137.207,-45.898,-1000.0
1741690161.126,-783.691,-42.48,12.207,-814.941
1741690161.13,551.27,-22.461,40.039,558.594
1741690161.134,999.512,-59.57,44.922,999.512
1741690161.138,431.152,-54.199,43.945,479.98
1741690161.141,-920.41,-74.707,21.484,-857.422
1741690161.145,-923.828,-70.801,12.207,-880.371
1741690161.149,390.625,-20.996,28.809,349.121
1741690161.153,999.512,-19.043,25.879,999.512
1741690161.157,444.336,-84.473,-30.273,506.348
1741690161.161,-894.043,-88.867,-52.246,-830.078
1741690161.165,-1000.0,-91.797,-71.777,-1000.0
1741690161.168,156.738,-64.941,-73.242,0.488
1741690161.172,999.512,-10.742,-27.344,999.512
1741690161.176,733.398,-33.691,-50.781,751.953
1741690161.18,-706.055,-69.824,-96.68,-680.176
1741690161.184,-1000.0,-77.637,-64.453,-1000.0
1741690161.204,236.328,-35.645,-5.371,67.871
1741690161.208,999.512,-12.207,32.227,999.512
1741690161.212,759.766,-92.773,0.0,778.809
1741690161.216,-667.48,-154.785,-61.035,-646.973
1741690161.22,-1000.0,-91.309,-48.828,-1000.0
1741690161.224,242.676,-31.738,13.184,70.312
1741690161.228,999.512,-94.238,21.973,999.512
1741690161.231,708.984,-97.656,-33.203,731.445
1741690161.235,-608.398,-81.055,-92.285,-612.793
1741690161.239,-1000.0,-69.824,-100.098,-1000.0
1741690161.243,-588.379,-34.18,-75.195,-662.109
1741690161.247,871.094,-38.086,-42.48,780.762
1741690161.232,899.902,-99.609,-52.246,951.172
1741690161.236,-593.75,-126.953,-90.332,-542.48
1741690161.24,-1000.0,-111.328,-105.957,-1000.0
1741690161.244,-849.121,-113.77,-104.98,-833.984
1741690161.248,582.031,-86.426,-52.734,579.59
1741690161.252,999.512,-71.289,-14.16,999.512
1741690161.256,-440.918,-117.676,-110.352,-351.074
1741690161.259,-1000.0,-115.234,-161.133,-1000.0
1741690161.263,-812.012,-55.664,-112.793,-815.918
1741690161.267,607.91,-34.18,-49.805,590.332
1741690161.271,999.512,-71.777,-44.922,999.512
1741690161.275,-346.68,-134.277,-122.559,-227.539
1741690161.277,-1000.0,-124.023,-141.113,-1000.0
1741690161.281,-812.012,-91.797,-107.422,-825.684
1741690161.285,508.789,-82.031,-72.266,511.719
1741690161.289,999.512,-60.547,-30.273,999.512
1741690161.293,252.441,-66.895,-27.344,312.988
1741690161.297,-997.559,-78.613,-32.715,-937.012
1741690161.301,-996.094,-60.547,-21.484,-1000.0
1741690161.304,326.66,-44.922,-7.812,217.285
1741690161.308,999.512,-63.965,27.832,999.512
1741690161.312,508.789,-108.887,-7.812,544.434
1741690161.316,-931.641,-126.465,-18.555,-875.0
1741690161.32,-949.219,-111.816,16.113,-1000.0
1741690161.277,-1000.0,-124.023,-141.113,-1000.0
1741690161.281,-812.012,-91.797,-107.422,-825.684
1741690161.285,508.789,-82.031,-72.266,511.719
1741690161.289,999.512,-60.547,-30.273,999.512
1741690161.293,252.441,-66.895,-27.344,312.988
1741690161.297,-997.559,-78.613,-32.715,-937.012
1741690161.301,-996.094,-60.547,-21.484,-1000.0
1741690161.304,326.66,-44.922,-7.812,217.285
1741690161.308,999.512,-63.965,27.832,999.512
1741690161.312,508.789,-108.887,-7.812,544.434
1741690161.316,-931.641,-126.465,-18.555,-875.0
1741690161.32,-949.219,-111.816,16.113,-1000.0
1741690161.32,508.301,-72.266,17.578,427.246
1741690161.324,999.512,-52.734,43.457,999.512
1741690161.328,683.594,-23.926,33.203,700.195
1741690161.332,-741.211,-80.566,-48.34,-685.547
1741690161.336,-1000.0,-89.355,-64.453,-1000.0
1741690161.34,301.758,-17.09,-0.977,177.246
1741690161.344,999.512,-72.266,20.508,999.512
1741690161.347,660.645,-124.023,-43.945,696.777
1741690161.351,-730.957,-116.211,-96.191,-675.293
1741690161.355,-1000.0,-92.773,-67.383,-1000.0
1741690161.359,70.801,-82.031,-6.836,-119.141
1741690161.363,999.512,-64.941,32.227,999.512
1741690161.32,508.301,-72.266,17.578,427.246
1741690161.324,999.512,-52.734,43.457,999.512
1741690161.328,683.594,-23.926,33.203,700.195
1741690161.332,-741.211,-80.566,-48.34,-685.547
1741690161.336,-1000.0,-89.355,-64.453,-1000.0
1741690161.34,301.758,-17.09,-0.977,177.246
1741690161.344,999.512,-72.266,20.508,999.512
1741690161.347,660.645,-124.023,-43.945,696.777
1741690161.351,-730.957,-116.211,-96.191,-675.293
1741690161.355,-1000.0,-92.773,-67.383,-1000.0
1741690161.359,70.801,-82.031,-6.836,-119.141
1741690161.363,999.512,-64.941,32.227,999.512
1741690161.367,799.805,-50.293,-12.695,816.895
1741690161.371,-550.781,-112.793,-78.613,-578.613
1741690161.375,-1000.0,-104.004,-67.871,-1000.0
1741690161.379,-374.023,-60.547,-28.809,-457.031
1741690161.383,970.215,-83.984,-0.977,895.02
1741690161.387,877.441,-57.617,21.484,935.059
1741690161.391,-542.969,-85.449,-35.645,-490.234
1741690161.394,-1000.0,-122.559,-67.383,-1000.0
1741690161.398,-668.457,-83.008,-37.598,-698.242
1741690161.402,791.504,-69.336,-30.762,719.727
1741690161.406,976.074,-67.871,-66.406,999.512
1741690161.41,-506.836,-94.238,-83.008,-433.594
1741690161.367,799.805,-50.293,-12.695,816.895
1741690161.371,-550.781,-112.793,-78.613,-578.613
1741690161.375,-1000.0,-104.004,-67.871,-1000.0
1741690161.379,-374.023,-60.547,-28.809,-457.031
1741690161.383,970.215,-83.984,-0.977,895.02
1741690161.387,877.441,-57.617,21.484,935.059
1741690161.391,-542.969,-85.449,-35.645,-490.234
1741690161.394,-1000.0,-122.559,-67.383,-1000.0
1741690161.398,-668.457,-83.008,-37.598,-698.242
1741690161.402,791.504,-69.336,-30.762,719.727
1741690161.406,976.074,-67.871,-66.406,999.512
1741690161.41,-506.836,-94.238,-83.008,-433.594
1741690161.426,-1000.0,-77.637,-60.547,-1000.0
1741690161.43,-595.215,-36.621,-32.227,-623.047
1741690161.434,773.438,-35.156,10.254,705.566
1741690161.438,999.512,-56.641,-8.301,999.512
1741690161.442,-365.234,-125.488,-72.266,-257.324
1741690161.446,-1000.0,-100.586,-48.34,-1000.0
1741690161.45,-700.684,-53.711,-15.137,-731.934
1741690161.453,708.984,-83.984,-20.996,648.438
1741690161.457,999.512,-117.188,-18.066,999.512
1741690161.461,-218.262,-153.32,-48.34,-47.852
1741690161.465,-1000.0,-119.629,-62.5,-1000.0
1741690161.469,-745.605,-65.43,-33.203,-770.02
1741690161.487,653.809,-106.445,-18.555,622.559
1741690161.491,999.512,-88.867,2.93,999.512
1741690161.495,-64.941,-97.168,-17.09,147.461
1741690161.499,-1000.0,-106.445,-48.828,-1000.0
1741690161.503,-848.145,-74.219,-60.547,-895.996
1741690161.507,515.137,-77.637,-51.758,499.512
1741690161.511,999.512,-81.055,-22.949,999.512
1741690161.514,281.25,-68.848,-64.453,395.508
1741690161.518,-980.469,-75.684,-86.426,-894.531
1741690161.522,-1000.0,-68.359,-44.922,-1000.0
1741690161.526,317.871,-16.602,-14.16,213.867
1741690161.53,999.512,-38.086,-3.418,999.512
1741690161.517,749.023,-86.426,-39.551,765.625
1741690161.521,-704.102,-83.008,-82.52,-670.898
1741690161.525,-1000.0,-82.52,-68.359,-1000.0
1741690161.529,401.367,-55.664,-61.523,290.527
1741690161.533,999.512,-29.297,-41.992,999.512
1741690161.537,783.203,-29.785,12.695,781.25
1741690161.541,-539.551,-80.566,-26.367,-552.246
1741690161.544,-1000.0,-61.523,-42.969,-1000.0
1741690161.548,-220.215,-17.09,-6.836,-343.262
1741690161.552,999.512,-8.789,39.062,957.52
1741690161.556,849.609,-60.059,-7.324,882.812
1741690161.56,-568.359,-93.262,-90.82,-557.617
1741690161.517,749.023,-86.426,-39.551,765.625
1741690161.521,-704.102,-83.008,-82.52,-670.898
1741690161.525,-1000.0,-82.52,-68.359,-1000.0
1741690161.529,401.367,-55.664,-61.523,290.527
1741690161.533,999.512,-29.297,-41.992,999.512
1741690161.537,783.203,-29.785,12.695,781.25
1741690161.541,-539.551,-80.566,-26.367,-552.246
1741690161.544,-1000.0,-61.523,-42.969,-1000.0
1741690161.548,-220.215,-17.09,-6.836,-343.262
1741690161.552,999.512,-8.789,39.062,957.52
1741690161.556,849.609,-60.059,-7.324,882.812
1741690161.56,-568.359,-93.262,-90.82,-557.617
1741690161.561,-1000.0,-78.613,-92.285,-1000.0
1741690161.565,-311.523,-14.16,-39.551,-414.551
1741690161.569,984.375,-4.883,-0.977,902.832
1741690161.573,888.672,-64.453,-5.371,956.543
1741690161.577,-502.93,-88.379,-21.973,-429.688
1741690161.581,-1000.0,-54.688,-30.762,-1000.0
1741690161.585,-663.086,-1.465,-31.25,-702.637
1741690161.588,771.973,-12.207,-1.465,695.312
1741690161.592,999.512,-54.688,0.0,999.512
1741690161.596,-406.738,-78.125,-30.762,-310.547
1741690161.6,-1000.0,-75.195,-23.926,-1000.0
1741690161.604,-708.984,-35.645,8.789,-735.84
1741690161.561,-1000.0,-78.613,-92.285,-1000.0
1741690161.565,-311.523,-14.16,-39.551,-414.551
1741690161.569,984.375,-4.883,-0.977,902.832
1741690161.573,888.672,-64.453,-5.371,956.543
1741690161.577,-502.93,-88.379,-21.973,-429.688
1741690161.581,-1000.0,-54.688,-30.762,-1000.0
1741690161.585,-663.086,-1.465,-31.25,-702.637
1741690161.588,771.973,-12.207,-1.465,695.312
1741690161.592,999.512,-54.688,0.0,999.512
1741690161.596,-406.738,-78.125,-30.762,-310.547
1741690161.6,-1000.0,-75.195,-23.926,-1000.0
1741690161.604,-708.984,-35.645,8.789,-735.84
1741690161.606,744.629,-15.137,46.387,677.734
1741690161.61,999.512,-34.668,53.223,999.512
1741690161.614,-428.711,-88.379,-8.789,-280.273
1741690161.618,-1000.0,-87.402,-73.73,-1000.0
1741690161.622,-834.473,-52.246,-82.031,-852.051
1741690161.626,519.043,14.648,-13.184,501.465
1741690161.63,999.512,-5.371,4.883,999.512
1741690161.633,-42.969,-101.074,-80.078,72.754
1741690161.637,-1000.0,-131.836,-101.562,-1000.0
1741690161.641,-886.719,-59.57,-46.875,-955.566
1741690161.645,465.332,-16.113,5.859,371.094
1741690161.649,999.512,-62.5,41.992,999.512
1741690161.606,744.629,-15.137,46.387,677.734
1741690161.61,999.512,-34.668,53.223,999.512
1741690161.614,-428.711,-88.379,-8.789,-280.273
1741690161.618,-1000.0,-87.402,-73.73,-1000.0
1741690161.622,-834.473,-52.246,-82.031,-852.051
1741690161.626,519.043,14.648,-13.184,501.465
1741690161.63,999.512,-5.371,4.883,999.512
1741690161.633,-42.969,-101.074,-80.078,72.754
1741690161.637,-1000.0,-131.836,-101.562,-1000.0
1741690161.641,-886.719,-59.57,-46.875,-955.566
1741690161.645,465.332,-16.113,5.859,371.094
1741690161.649,999.512,-62.5,41.992,999.512
1741690161.652,250.488,-153.32,-6.836,334.961
1741690161.656,-1000.0,-176.758,-65.43,-970.215
1741690161.66,-899.414,-104.004,-43.457,-970.215
1741690161.664,505.859,-33.203,-1.953,415.039
1741690161.668,999.512,-30.762,-3.906,999.512
1741690161.672,729.004,-63.477,9.277,717.285
1741690161.676,-588.867,-159.668,-39.062,-591.797
1741690161.679,-1000.0,-145.508,-111.328,-1000.0
1741690161.683,-284.668,-41.992,-74.707,-413.086
1741690161.687,999.512,-65.43,8.301,954.59
1741690161.691,810.059,-144.531,-22.461,815.43
1741690161.695,-673.34,-118.652,-95.215,-665.527
1741690161.652,250.488,-153.32,-6.836,334.961
1741690161.656,-1000.0,-176.758,-65.43,-970.215
1741690161.66,-899.414,-104.004,-43.457,-970.215
1741690161.664,505.859,-33.203,-1.953,415.039
1741690161.668,999.512,-30.762,-3.906,999.512
1741690161.672,729.004,-63.477,9.277,717.285
1741690161.676,-588.867,-159.668,-39.062,-591.797
1741690161.679,-1000.0,-145.508,-111.328,-1000.0
1741690161.683,-284.668,-41.992,-74.707,-413.086
1741690161.687,999.512,-65.43,8.301,954.59
1741690161.691,810.059,-144.531,-22.461,815.43
1741690161.695,-673.34,-118.652,-95.215,-665.527
1741690161.696,-1000.0,-62.5,-75.684,-1000.0
1741690161.7,-20.996,-56.641,-31.25,-258.301
1741690161.704,999.512,-66.406,-3.906,999.512
1741690161.708,779.785,-89.844,-40.039,801.27
1741690161.712,-610.352,-104.98,-90.82,-627.93
1741690161.716,-1000.0,-40.039,-47.363,-1000.0
1741690161.72,-258.301,-74.219,-61.523,-438.477
1741690161.723,999.512,-104.492,-78.125,927.734
1741690161.727,841.309,-94.238,-69.824,865.234
1741690161.731,-562.988,-143.066,-127.441,-592.773
1741690161.735,-1000.0,-136.23,-127.441,-1000.0
1741690161.739,-593.262,-85.938,-73.242,-662.598
1741690161.696,-1000.0,-62.5,-75.684,-1000.0
1741690161.7,-20.996,-56.641,-31.25,-258.301
1741690161.704,999.512,-66.406,-3.906,999.512
1741690161.708,779.785,-89.844,-40.039,801.27
1741690161.712,-610.352,-104.98,-90.82,-627.93
1741690161.716,-1000.0,-40.039,-47.363,-1000.0
1741690161.72,-258.301,-74.219,-61.523,-438.477
1741690161.723,999.512,-104.492,-78.125,927.734
1741690161.727,841.309,-94.238,-69.824,865.234
1741690161.731,-562.988,-143.066,-127.441,-592.773
1741690161.735,-1000.0,-136.23,-127.441,-1000.0
1741690161.739,-593.262,-85.938,-73.242,-662.598
1741690161.744,869.141,-70.801,-51.27,783.203
1741690161.748,898.926,-129.395,-69.824,948.242
1741690161.752,-593.262,-169.922,-113.281,-547.852
1741690161.756,-1000.0,-107.422,-157.227,-1000.0
1741690161.76,-796.875,-101.074,-165.527,-799.805
1741690161.764,644.531,-63.477,-131.348,616.699
1741690161.768,999.512,-8.301,-143.066,999.512
1741690161.771,-444.824,-59.57,-194.824,-373.047
1741690161.775,-1000.0,-62.012,-185.547,-1000.0
1741690161.779,-847.168,-47.852,-165.039,-875.488
1741690161.783,543.457,-14.648,-107.91,486.816
1741690161.787,999.512,15.625,-62.5,999.512
1741690161.744,869.141,-70.801,-51.27,783.203
1741690161.748,898.926,-129.395,-69.824,948.242
1741690161.752,-593.262,-169.922,-113.281,-547.852
1741690161.756,-1000.0,-107.422,-157.227,-1000.0
1741690161.76,-796.875,-101.074,-165.527,-799.805
1741690161.764,644.531,-63.477,-131.348,616.699
1741690161.768,999.512,-8.301,-143.066,999.512
1741690161.771,-444.824,-59.57,-194.824,-373.047
1741690161.775,-1000.0,-62.012,-185.547,-1000.0
1741690161.779,-847.168,-47.852,-165.039,-875.488
1741690161.783,543.457,-14.648,-107.91,486.816
1741690161.787,999.512,15.625,-62.5,999.512
1741690161.802,-250.977,-59.57,-131.836,-145.508
1741690161.806,-1000.0,-94.238,-142.09,-1000.0
1741690161.81,-786.133,-59.082,-84.961,-811.523
1741690161.814,559.082,-45.41,-62.5,548.828
1741690161.818,999.512,-45.898,-34.668,999.512
1741690161.822,220.703,-69.336,-70.801,301.27
1741690161.826,-1000.0,-78.613,-123.047,-937.988
1741690161.829,-985.352,-72.266,-89.844,-1000.0
1741690161.833,350.586,-21.973,-32.715,204.102
1741690161.837,999.512,-30.273,-40.039,999.512
1741690161.841,363.281,-105.957,-72.266,390.625
1741690161.845,-921.387,-98.145,-82.52,-867.188
1741690161.846,-1000.0,-90.82,-88.867,-1000.0
1741690161.85,130.371,-55.176,-50.293,-90.82
1741690161.854,999.512,-21.973,-38.086,999.512
1741690161.858,737.305,-35.645,-57.129,745.605
1741690161.862,-666.992,-41.504,-59.082,-662.598
1741690161.866,-1000.0,-35.645,-36.133,-1000.0
1741690161.87,33.203,-22.949,-5.859,-187.012
1741690161.873,999.512,-28.32,-30.762,999.512
1741690161.877,772.461,-66.406,-57.617,791.992
1741690161.881,-602.051,-118.164,-93.262,-619.141
1741690161.885,-1000.0,-79.102,-103.027,-1000.0
1741690161.889,-297.852,0.488,-79.102,-441.895
1741690161.846,-1000.0,-90.82,-88.867,-1000.0
1741690161.85,130.371,-55.176,-50.293,-90.82
1741690161.854,999.512,-21.973,-38.086,999.512
1741690161.858,737.305,-35.645,-57.129,745.605
1741690161.862,-666.992,-41.504,-59.082,-662.598
1741690161.866,-1000.0,-35.645,-36.133,-1000.0
1741690161.87,33.203,-22.949,-5.859,-187.012
1741690161.873,999.512,-28.32,-30.762,999.512
1741690161.877,772.461,-66.406,-57.617,791.992
1741690161.881,-602.051,-118.164,-93.262,-619.141
1741690161.885,-1000.0,-79.102,-103.027,-1000.0
1741690161.889,-297.852,0.488,-79.102,-441.895
1741690161.891,999.512,-8.301,-62.988,920.898
1741690161.895,847.168,-9.277,-38.086,887.207
1741690161.899,-565.43,-0.977,-67.871,-563.965
1741690161.903,-1000.0,-46.387,-97.168,-1000.0
1741690161.907,-718.262,-41.504,-83.496,-760.254
1741690161.911,745.605,1.465,-69.336,669.434
1741690161.915,988.77,-40.039,-89.844,999.512
1741690161.918,-500.488,-99.121,-133.301,-436.523
1741690161.922,-1000.0,-70.312,-141.602,-1000.0
1741690161.926,-824.707,-17.09,-88.379,-827.637
1741690161.93,639.648,4.395,-19.531,620.605
1741690161.934,999.512,-36.621,-32.715,999.512
1741690161.891,999.512,-8.301,-62.988,920.898
1741690161.895,847.168,-9.277,-38.086,887.207
1741690161.899,-565.43,-0.977,-67.871,-563.965
1741690161.903,-1000.0,-46.387,-97.168,-1000.0
1741690161.907,-718.262,-41.504,-83.496,-760.254
1741690161.911,745.605,1.465,-69.336,669.434
1741690161.915,988.77,-40.039,-89.844,999.512
1741690161.918,-500.488,-99.121,-133.301,-436.523
1741690161.922,-1000.0,-70.312,-141.602,-1000.0
1741690161.926,-824.707,-17.09,-88.379,-827.637
1741690161.93,639.648,4.395,-19.531,620.605
1741690161.934,999.512,-36.621,-32.715,999.512
1741690161.937,-526.855,-67.871,-94.238,-463.379
1741690161.941,-1000.0,-41.504,-121.582,-1000.0
1741690161.945,-813.965,-19.531,-103.027,-821.289
1741690161.949,590.82,-0.977,-60.059,567.383
1741690161.953,999.512,0.488,-61.523,999.512
1741690161.957,-316.406,-38.086,-102.051,-207.031
1741690161.961,-1000.0,-96.68,-107.422,-1000.0
1741690161.964,-883.789,-110.352,-111.816,-940.918
1741690161.968,434.57,-15.137,-52.246,339.355
1741690161.972,999.512,9.277,-21.973,999.512
1741690161.976,54.199,-79.102,-111.328,169.922
1741690161.98,-1000.0,-61.035,-127.93,-1000.0
1741690161.98,-866.211,10.742,-65.43,-906.738
1741690161.984,526.855,14.16,-9.766,494.141
1741690161.988,999.512,-32.715,17.578,999.512
1741690161.992,242.188,-86.914,-49.805,334.473
1741690161.996,-1000.0,-58.105,-77.637,-975.586
1741690162.0,-887.207,24.414,-41.992,-952.148
1741690162.004,514.16,34.668,-60.547,449.707
1741690162.007,999.512,-33.203,-93.262,999.512
1741690162.011,622.559,-42.969,-102.539,646.973
1741690162.015,-835.449,-35.156,-114.746,-767.09
1741690162.019,-1000.0,-7.324,-65.43,-1000.0
1741690162.023,470.215,46.387,-40.527,384.766
1741690162.029,999.512,14.16,-62.012,999.512
1741690162.033,746.094,-45.898,-73.242,743.652
1741690162.037,-631.348,-47.363,-88.867,-609.863
1741690162.041,-1000.0,-37.598,-103.516,-1000.0
1741690162.045,104.98,14.648,-35.156,-75.684
1741690162.049,999.512,47.852,85.449,999.512
1741690162.053,794.922,-53.711,45.41,822.266
1741690162.056,-543.945,-66.406,-47.363,-560.547
1741690162.06,-1000.0,-54.199,-36.133,-1000.0
1741690162.064,-438.965,-83.984,-22.461,-494.141
1741690162.068,931.152,-36.621,-4.395,858.887
1741690162.072,930.664,-10.742,41.992,978.027
1741690162.029,999.512,14.16,-62.012,999.512
1741690162.033,746.094,-45.898,-73.242,743.652
1741690162.037,-631.348,-47.363,-88.867,-609.863
1741690162.041,-1000.0,-37.598,-103.516,-1000.0
1741690162.045,104.98,14.648,-35.156,-75.684
1741690162.049,999.512,47.852,85.449,999.512
1741690162.053,794.922,-53.711,45.41,822.266
1741690162.056,-543.945,-66.406,-47.363,-560.547
1741690162.06,-1000.0,-54.199,-36.133,-1000.0
1741690162.064,-438.965,-83.984,-22.461,-494.141
1741690162.068,931.152,-36.621,-4.395,858.887
1741690162.072,930.664,-10.742,41.992,978.027
1741690162.029,999.512,14.16,-62.012,999.512
1741690162.033,746.094,-45.898,-73.242,743.652
1741690162.037,-631.348,-47.363,-88.867,-609.863
1741690162.041,-1000.0,-37.598,-103.516,-1000.0
1741690162.045,104.98,14.648,-35.156,-75.684
1741690162.049,999.512,47.852,85.449,999.512
1741690162.053,794.922,-53.711,45.41,822.266
1741690162.056,-543.945,-66.406,-47.363,-560.547
1741690162.06,-1000.0,-54.199,-36.133,-1000.0
1741690162.064,-438.965,-83.984,-22.461,-494.141
1741690162.068,931.152,-36.621,-4.395,858.887
1741690162.072,930.664,-10.742,41.992,978.027
1741690162.086,-539.551,-45.898,5.371,-459.473
1741690162.09,-1000.0,-28.809,5.859,-1000.0
1741690162.094,-140.137,27.344,92.285,-304.688
1741690162.098,999.512,-0.488,74.219,979.004
1741690162.102,823.73,-87.402,12.207,883.301
1741690162.106,-559.57,-94.727,-0.488,-522.949
1741690162.11,-1000.0,-38.086,-28.32,-1000.0
1741690162.113,-813.965,-19.531,-32.227,-815.43
1741690162.117,649.902,12.207,25.879,624.023
1741690162.121,995.605,-4.395,20.996,999.512
1741690162.125,-529.785,-107.422,-33.203,-451.66
1741690162.129,-1000.0,-105.957,-30.273,-1000.0
1741690162.086,-539.551,-45.898,5.371,-459.473
1741690162.09,-1000.0,-28.809,5.859,-1000.0
1741690162.094,-140.137,27.344,92.285,-304.688
1741690162.098,999.512,-0.488,74.219,979.004
1741690162.102,823.73,-87.402,12.207,883.301
1741690162.106,-559.57,-94.727,-0.488,-522.949
1741690162.11,-1000.0,-38.086,-28.32,-1000.0
1741690162.113,-813.965,-19.531,-32.227,-815.43
1741690162.117,649.902,12.207,25.879,624.023
1741690162.121,995.605,-4.395,20.996,999.512
1741690162.125,-529.785,-107.422,-33.203,-451.66
1741690162.129,-1000.0,-105.957,-30.273,-1000.0
1741690162.117,-780.273,-49.805,-10.742,-780.762
1741690162.121,533.691,-30.762,31.738,531.25
1741690162.125,999.512,2.93,59.082,999.512
1741690162.129,268.555,-35.645,25.391,361.816
1741690162.133,-1000.0,-113.281,-16.113,-986.328
1741690162.137,-906.25,-69.824,10.254,-907.227
1741690162.141,576.172,-17.578,35.645,582.031
1741690162.144,999.512,-74.707,31.738,999.512
1741690162.148,-44.434,-113.281,-9.277,124.512
1741690162.152,-1000.0,-72.266,-72.754,-1000.0
1741690162.156,-837.402,-51.758,-58.594,-892.09
1741690162.16,506.836,-21.973,22.461,484.863
1741690162.117,-780.273,-49.805,-10.742,-780.762
1741690162.121,533.691,-30.762,31.738,531.25
1741690162.125,999.512,2.93,59.082,999.512
1741690162.129,268.555,-35.645,25.391,361.816
1741690162.133,-1000.0,-113.281,-16.113,-986.328
1741690162.137,-906.25,-69.824,10.254,-907.227
1741690162.141,576.172,-17.578,35.645,582.031
1741690162.144,999.512,-74.707,31.738,999.512
1741690162.148,-44.434,-113.281,-9.277,124.512
1741690162.152,-1000.0,-72.266,-72.754,-1000.0
1741690162.156,-837.402,-51.758,-58.594,-892.09
1741690162.16,506.836,-21.973,22.461,484.863
1741690162.176,999.512,-64.941,23.926,999.512
1741690162.18,624.512,-87.891,-17.578,653.809
1741690162.184,-796.387,-63.965,-21.484,-725.098
1741690162.188,-1000.0,-45.898,-6.836,-1000.0
1741690162.192,324.219,-14.648,35.645,200.684
1741690162.196,999.512,-24.414,82.52,999.512
1741690162.2,707.031,-60.547,13.184,735.84
1741690162.203,-638.184,-94.238,-48.828,-614.258
1741690162.207,-1000.0,-108.398,-46.875,-1000.0
1741690162.211,-205.078,-99.121,-39.551,-325.684
1741690162.215,999.512,-10.254,28.32,966.797
1741690162.219,851.562,-41.992,6.836,883.301
1741690162.176,999.512,-64.941,23.926,999.512
1741690162.18,624.512,-87.891,-17.578,653.809
1741690162.184,-796.387,-63.965,-21.484,-725.098
1741690162.188,-1000.0,-45.898,-6.836,-1000.0
1741690162.192,324.219,-14.648,35.645,200.684
1741690162.196,999.512,-24.414,82.52,999.512
1741690162.2,707.031,-60.547,13.184,735.84
1741690162.203,-638.184,-94.238,-48.828,-614.258
1741690162.207,-1000.0,-108.398,-46.875,-1000.0
1741690162.211,-205.078,-99.121,-39.551,-325.684
1741690162.215,999.512,-10.254,28.32,966.797
1741690162.219,851.562,-41.992,6.836,883.301
1741690162.222,-573.242,-117.188,-73.242,-562.5
1741690162.226,-1000.0,-81.543,-63.965,-1000.0
1741690162.23,-209.961,-68.359,-41.016,-317.871
1741690162.234,999.512,-33.691,-14.648,939.453
1741690162.238,880.859,-52.246,5.371,950.195
1741690162.242,-483.887,-84.473,-41.992,-405.762
1741690162.246,-1000.0,-74.707,-75.684,-1000.0
1741690162.249,-580.566,-44.922,-46.875,-615.723
1741690162.253,855.469,8.789,20.508,788.086
1741690162.257,954.59,-40.527,-5.859,999.512
1741690162.261,-491.211,-123.047,-125.488,-413.574
1741690162.265,-1000.0,-100.586,-113.281,-1000.0
1741690162.222,-573.242,-117.188,-73.242,-562.5
1741690162.226,-1000.0,-81.543,-63.965,-1000.0
1741690162.23,-209.961,-68.359,-41.016,-317.871
1741690162.234,999.512,-33.691,-14.648,939.453
1741690162.238,880.859,-52.246,5.371,950.195
1741690162.242,-483.887,-84.473,-41.992,-405.762
1741690162.246,-1000.0,-74.707,-75.684,-1000.0
1741690162.249,-580.566,-44.922,-46.875,-615.723
1741690162.253,855.469,8.789,20.508,788.086
1741690162.257,954.59,-40.527,-5.859,999.512
1741690162.261,-491.211,-123.047,-125.488,-413.574
1741690162.265,-1000.0,-100.586,-113.281,-1000.0
1741690162.266,-661.621,-53.711,-48.828,-687.988
1741690162.27,724.121,-20.508,-34.668,660.156
1741690162.274,999.512,-26.367,-30.273,999.512
1741690162.278,-161.133,-73.73,-69.336,-10.742
1741690162.282,-1000.0,-102.539,-69.824,-1000.0
1741690162.286,-741.699,-75.684,-17.578,-784.18
1741690162.29,738.281,-16.602,26.855,685.547
1741690162.293,999.512,-66.895,-31.25,999.512
1741690162.297,-402.832,-160.645,-68.848,-283.691
1741690162.301,-1000.0,-104.004,-25.391,-1000.0
1741690162.305,-791.992,-44.434,-7.812,-796.875
1741690162.309,535.156,-26.367,27.344,538.086
1741690162.266,-661.621,-53.711,-48.828,-687.988
1741690162.27,724.121,-20.508,-34.668,660.156
1741690162.274,999.512,-26.367,-30.273,999.512
1741690162.278,-161.133,-73.73,-69.336,-10.742
1741690162.282,-1000.0,-102.539,-69.824,-1000.0
1741690162.286,-741.699,-75.684,-17.578,-784.18
1741690162.29,738.281,-16.602,26.855,685.547
1741690162.293,999.512,-66.895,-31.25,999.512
1741690162.297,-402.832,-160.645,-68.848,-283.691
1741690162.301,-1000.0,-104.004,-25.391,-1000.0
1741690162.305,-791.992,-44.434,-7.812,-796.875
1741690162.309,535.156,-26.367,27.344,538.086
1741690162.314,999.512,-52.246,59.57,999.512
1741690162.318,203.125,-111.328,22.461,319.336
1741690162.322,-1000.0,-105.957,-29.297,-965.82
1741690162.326,-912.598,-61.523,-13.184,-980.957
1741690162.33,465.332,-21.484,37.598,390.625
1741690162.334,999.512,-16.113,72.754,999.512
1741690162.338,517.578,-86.426,15.625,550.781
1741690162.341,-904.297,-129.395,-53.223,-836.426
1741690162.345,-989.258,-79.59,-28.32,-1000.0
1741690162.349,443.359,-48.34,30.762,336.914
1741690162.353,999.512,-88.867,54.199,999.512
1741690162.357,623.047,-111.328,34.18,645.996
1741690162.314,999.512,-52.246,59.57,999.512
1741690162.318,203.125,-111.328,22.461,319.336
1741690162.322,-1000.0,-105.957,-29.297,-965.82
1741690162.326,-912.598,-61.523,-13.184,-980.957
1741690162.33,465.332,-21.484,37.598,390.625
1741690162.334,999.512,-16.113,72.754,999.512
1741690162.338,517.578,-86.426,15.625,550.781
1741690162.341,-904.297,-129.395,-53.223,-836.426
1741690162.345,-989.258,-79.59,-28.32,-1000.0
1741690162.349,443.359,-48.34,30.762,336.914
1741690162.353,999.512,-88.867,54.199,999.512
1741690162.357,623.047,-111.328,34.18,645.996
1741690162.356,-729.492,-81.055,-17.09,-675.781
1741690162.36,-1000.0,-50.293,-45.898,-1000.0
1741690162.364,-55.176,-19.531,-22.949,-246.582
1741690162.368,999.512,-8.301,10.742,995.117
1741690162.372,807.129,-62.988,-10.742,814.453
1741690162.376,-582.52,-81.055,-63.965,-614.746
1741690162.38,-1000.0,-80.078,-84.473,-1000.0
1741690162.383,-629.395,-74.219,-83.496,-689.453
1741690162.387,845.703,4.883,-46.387,777.344
1741690162.391,905.273,-43.457,-80.566,907.715
1741690162.395,-595.703,-83.008,-133.301,-616.211
1741690162.399,-1000.0,-52.734,-150.879,-1000.0
1741690162.402,-527.832,-47.852,-134.277,-630.371
1741690162.406,895.02,-25.391,-69.824,787.109
1741690162.41,913.086,-42.969,-69.336,974.609
1741690162.414,-541.016,-145.02,-122.07,-486.328
1741690162.418,-1000.0,-129.395,-145.996,-1000.0
1741690162.422,-660.156,-46.875,-144.043,-715.332
1741690162.426,820.312,-11.719,-115.234,736.328
1741690162.429,920.898,-75.195,-132.324,967.773
1741690162.433,-580.078,-139.16,-171.387,-534.18
1741690162.437,-1000.0,-86.426,-176.758,-1000.0
1741690162.441,-736.816,-79.102,-120.605,-773.926
1741690162.445,713.379,-71.777,-66.895,640.625
1741690162.402,-527.832,-47.852,-134.277,-630.371
1741690162.406,895.02,-25.391,-69.824,787.109
1741690162.41,913.086,-42.969,-69.336,974.609
1741690162.414,-541.016,-145.02,-122.07,-486.328
1741690162.418,-1000.0,-129.395,-145.996,-1000.0
1741690162.422,-660.156,-46.875,-144.043,-715.332
1741690162.426,820.312,-11.719,-115.234,736.328
1741690162.429,920.898,-75.195,-132.324,967.773
1741690162.433,-580.078,-139.16,-171.387,-534.18
1741690162.437,-1000.0,-86.426,-176.758,-1000.0
1741690162.441,-736.816,-79.102,-120.605,-773.926
1741690162.445,713.379,-71.777,-66.895,640.625
1741690162.446,999.512,-59.082,-111.816,999.512
1741690162.45,-448.73,-119.629,-164.551,-355.957
1741690162.454,-1000.0,-95.703,-150.391,-1000.0
1741690162.458,-816.406,-43.945,-121.582,-828.125
1741690162.462,501.465,-35.156,-98.145,492.676
1741690162.466,999.512,-35.156,-60.059,999.512
1741690162.47,202.637,-66.406,-103.027,260.254
1741690162.473,-1000.0,-127.441,-170.41,-972.168
1741690162.477,-933.105,-107.91,-133.789,-994.141
1741690162.481,425.293,-46.387,-96.68,338.379
1741690162.485,999.512,-31.25,-98.145,999.512
1741690162.489,576.172,-17.578,-66.406,574.707
1741690162.446,999.512,-59.082,-111.816,999.512
1741690162.45,-448.73,-119.629,-164.551,-355.957
1741690162.454,-1000.0,-95.703,-150.391,-1000.0
1741690162.458,-816.406,-43.945,-121.582,-828.125
1741690162.462,501.465,-35.156,-98.145,492.676
1741690162.466,999.512,-35.156,-60.059,999.512
1741690162.47,202.637,-66.406,-103.027,260.254
1741690162.473,-1000.0,-127.441,-170.41,-972.168
1741690162.477,-933.105,-107.91,-133.789,-994.141
1741690162.481,425.293,-46.387,-96.68,338.379
1741690162.485,999.512,-31.25,-98.145,999.512
1741690162.489,576.172,-17.578,-66.406,574.707
1741690162.492,-835.938,-64.941,-64.453,-784.668
1741690162.496,-1000.0,-91.797,-79.102,-1000.0
1741690162.5,319.336,-12.207,-8.301,171.875
1741690162.504,999.512,-7.812,28.809,999.512
1741690162.508,560.547,-81.543,-12.695,585.449
1741690162.512,-864.746,-99.121,-31.25,-806.152
1741690162.516,-1000.0,-37.598,-9.277,-1000.0
1741690162.519,368.164,-1.953,-27.832,203.613
1741690162.523,999.512,-25.879,-10.254,999.512
1741690162.527,708.008,-76.66,-20.02,728.027
1741690162.531,-673.34,-82.52,-70.312,-643.555
1741690162.535,-1000.0,-76.66,-76.172,-1000.0
1741690162.492,-835.938,-64.941,-64.453,-784.668
1741690162.496,-1000.0,-91.797,-79.102,-1000.0
1741690162.5,319.336,-12.207,-8.301,171.875
1741690162.504,999.512,-7.812,28.809,999.512
1741690162.508,560.547,-81.543,-12.695,585.449
1741690162.512,-864.746,-99.121,-31.25,-806.152
1741690162.516,-1000.0,-37.598,-9.277,-1000.0
1741690162.519,368.164,-1.953,-27.832,203.613
1741690162.523,999.512,-25.879,-10.254,999.512
1741690162.527,708.008,-76.66,-20.02,728.027
1741690162.531,-673.34,-82.52,-70.312,-643.555
1741690162.535,-1000.0,-76.66,-76.172,-1000.0
1741690162.492,-835.938,-64.941,-64.453,-784.668
1741690162.496,-1000.0,-91.797,-79.102,-1000.0
1741690162.5,319.336,-12.207,-8.301,171.875
1741690162.504,999.512,-7.812,28.809,999.512
1741690162.508,560.547,-81.543,-12.695,585.449
1741690162.512,-864.746,-99.121,-31.25,-806.152
1741690162.516,-1000.0,-37.598,-9.277,-1000.0
1741690162.519,368.164,-1.953,-27.832,203.613
1741690162.523,999.512,-25.879,-10.254,999.512
1741690162.527,708.008,-76.66,-20.02,728.027
1741690162.531,-673.34,-82.52,-70.312,-643.555
1741690162.535,-1000.0,-76.66,-76.172,-1000.0
1741690162.551,64.453,-51.758,-58.105,-106.445
1741690162.555,999.512,12.695,3.418,999.512
1741690162.559,816.406,-11.719,16.113,847.656
1741690162.563,-555.664,-65.918,-76.172,-549.316
1741690162.567,-1000.0,-63.965,-96.68,-1000.0
1741690162.571,-192.871,-69.336,-51.27,-325.684
1741690162.575,999.512,-43.945,-28.809,967.285
1741690162.578,841.309,-47.363,-9.766,880.859
1741690162.582,-561.035,-94.238,-45.41,-545.41
1741690162.586,-1000.0,-58.105,-53.223,-1000.0
1741690162.59,-396.484,4.395,13.184,-487.305
1741690162.594,958.008,33.691,58.594,874.512
1741690162.551,64.453,-51.758,-58.105,-106.445
1741690162.555,999.512,12.695,3.418,999.512
1741690162.559,816.406,-11.719,16.113,847.656
1741690162.563,-555.664,-65.918,-76.172,-549.316
1741690162.567,-1000.0,-63.965,-96.68,-1000.0
1741690162.571,-192.871,-69.336,-51.27,-325.684
1741690162.575,999.512,-43.945,-28.809,967.285
1741690162.578,841.309,-47.363,-9.766,880.859
1741690162.582,-561.035,-94.238,-45.41,-545.41
1741690162.586,-1000.0,-58.105,-53.223,-1000.0
1741690162.59,-396.484,4.395,13.184,-487.305
1741690162.594,958.008,33.691,58.594,874.512
1741690162.596,890.137,-18.555,24.902,955.566
1741690162.6,-530.762,-119.141,-82.52,-462.402
1741690162.604,-1000.0,-94.238,-84.473,-1000.0
1741690162.608,-673.828,-34.668,-3.906,-708.008
1741690162.612,777.344,-7.812,11.719,700.195
1741690162.616,996.094,-10.254,16.113,999.512
1741690162.62,-468.262,-61.523,-2.93,-358.887
1741690162.623,-1000.0,-49.805,-53.711,-1000.0
1741690162.627,-826.66,-34.668,-80.078,-815.43
1741690162.631,524.414,-48.828,-62.5,530.762
1741690162.635,999.512,-20.996,-9.766,999.512
1741690162.639,-39.062,-38.574,-41.016,110.352
1741690162.596,890.137,-18.555,24.902,955.566
1741690162.6,-530.762,-119.141,-82.52,-462.402
1741690162.604,-1000.0,-94.238,-84.473,-1000.0
1741690162.608,-673.828,-34.668,-3.906,-708.008
1741690162.612,777.344,-7.812,11.719,700.195
1741690162.616,996.094,-10.254,16.113,999.512
1741690162.62,-468.262,-61.523,-2.93,-358.887
1741690162.623,-1000.0,-49.805,-53.711,-1000.0
1741690162.627,-826.66,-34.668,-80.078,-815.43
1741690162.631,524.414,-48.828,-62.5,530.762
1741690162.635,999.512,-20.996,-9.766,999.512
1741690162.639,-39.062,-38.574,-41.016,110.352
1741690162.641,-1000.0,-63.965,-72.266,-1000.0
1741690162.645,-759.766,-7.812,-26.367,-765.137
1741690162.649,588.867,41.016,27.344,596.68
1741690162.653,999.512,8.301,21.973,999.512
1741690162.657,-18.066,-45.898,-75.684,162.109
1741690162.661,-1000.0,-39.062,-84.961,-1000.0
1741690162.665,-846.191,-41.992,-55.176,-876.465
1741690162.668,512.695,6.836,-28.32,522.949
1741690162.672,999.512,48.828,8.789,999.512
1741690162.676,413.574,-6.348,-23.438,493.652
1741690162.68,-977.539,-51.758,-43.945,-901.367
1741690162.684,-906.738,-23.438,-8.301,-949.707
1741690162.641,-1000.0,-63.965,-72.266,-1000.0
1741690162.645,-759.766,-7.812,-26.367,-765.137
1741690162.649,588.867,41.016,27.344,596.68
1741690162.653,999.512,8.301,21.973,999.512
1741690162.657,-18.066,-45.898,-75.684,162.109
1741690162.661,-1000.0,-39.062,-84.961,-1000.0
1741690162.665,-846.191,-41.992,-55.176,-876.465
1741690162.668,512.695,6.836,-28.32,522.949
1741690162.672,999.512,48.828,8.789,999.512
1741690162.676,413.574,-6.348,-23.438,493.652
1741690162.68,-977.539,-51.758,-43.945,-901.367
1741690162.684,-906.738,-23.438,-8.301,-949.707
1741690162.686,541.992,32.227,0.0,515.137
1741690162.69,999.512,20.508,3.906,999.512
1741690162.694,634.766,-31.25,-5.371,650.879
1741690162.698,-768.066,-28.809,-6.836,-700.684
1741690162.702,-903.32,0.977,-27.344,-998.535
1741690162.706,359.863,13.672,-18.066,183.105
1741690162.71,999.512,59.082,49.805,999.512
1741690162.713,744.141,39.062,-19.043,766.113
1741690162.717,-629.395,-44.434,-85.449,-612.305
1741690162.721,-1000.0,1.953,-52.246,-1000.0
1741690162.725,-154.297,28.809,-20.996,-277.832
1741690162.729,999.512,21.973,34.18,982.422
1741690163.196,-1000.0,-84.473,36.133,-1000.0
1741690163.2,266.113,-20.996,52.734,114.258
1741690163.204,999.512,7.812,92.773,999.512
1741690163.208,814.941,-11.23,75.684,821.777
1741690163.212,-578.125,-88.379,25.391,-582.031
1741690163.216,-1000.0,-65.918,40.527,-1000.0
1741690163.22,165.039,-6.348,62.012,5.859
1741690163.223,999.512,-6.836,60.059,999.512
1741690163.227,788.574,-83.008,62.5,807.129
1741690163.231,-539.551,-113.77,33.691,-560.059
1741690163.235,-1000.0,-46.875,3.418,-1000.0
1741690163.239,-443.359,-32.715,13.184,-498.535
1741690162.731,846.191,35.156,9.277,895.996
1741690162.735,-571.777,-21.973,-66.895,-528.32
1741690162.739,-1000.0,-28.32,-43.945,-1000.0
1741690162.743,-181.152,7.812,-20.508,-295.41
1741690162.747,999.512,37.109,-3.418,945.312
1741690162.751,881.836,49.805,25.879,952.637
1741690162.755,-484.375,7.324,-48.828,-405.273
1741690162.758,-1000.0,-9.277,-69.824,-1000.0
1741690162.762,-456.055,-11.719,-13.672,-489.746
1741690162.766,886.719,14.16,36.133,819.824
1741690162.77,999.512,25.391,56.152,999.512
1741690162.774,-344.238,0.0,5.859,-202.637
1741690162.731,846.191,35.156,9.277,895.996
1741690162.735,-571.777,-21.973,-66.895,-528.32
1741690162.739,-1000.0,-28.32,-43.945,-1000.0
1741690162.743,-181.152,7.812,-20.508,-295.41
1741690162.747,999.512,37.109,-3.418,945.312
1741690162.751,881.836,49.805,25.879,952.637
1741690162.755,-484.375,7.324,-48.828,-405.273
1741690162.758,-1000.0,-9.277,-69.824,-1000.0
1741690162.762,-456.055,-11.719,-13.672,-489.746
1741690162.766,886.719,14.16,36.133,819.824
1741690162.77,999.512,25.391,56.152,999.512
1741690162.774,-344.238,0.0,5.859,-202.637
1741690162.777,-1000.0,-28.809,-48.828,-1000.0
1741690162.781,-775.879,-14.648,-58.594,-779.785
1741690162.785,608.887,57.129,-2.93,600.586
1741690162.789,999.512,43.457,32.227,999.512
1741690162.793,-136.719,-20.02,-39.062,12.695
1741690162.797,-1000.0,-31.25,-12.207,-1000.0
1741690162.801,-837.402,-14.16,16.113,-846.68
1741690162.804,523.926,33.691,-12.695,538.574
1741690162.808,999.512,-4.883,4.395,999.512
1741690162.812,175.293,0.488,-19.043,299.316
1741690162.816,-1000.0,48.34,-32.227,-989.746
1741690162.82,-873.047,36.621,-23.438,-937.012
1741690162.777,-1000.0,-28.809,-48.828,-1000.0
1741690162.781,-775.879,-14.648,-58.594,-779.785
1741690162.785,608.887,57.129,-2.93,600.586
1741690162.789,999.512,43.457,32.227,999.512
1741690162.793,-136.719,-20.02,-39.062,12.695
1741690162.797,-1000.0,-31.25,-12.207,-1000.0
1741690162.801,-837.402,-14.16,16.113,-846.68
1741690162.804,523.926,33.691,-12.695,538.574
1741690162.808,999.512,-4.883,4.395,999.512
1741690162.812,175.293,0.488,-19.043,299.316
1741690162.816,-1000.0,48.34,-32.227,-989.746
1741690162.82,-873.047,36.621,-23.438,-937.012
1741690162.836,517.578,61.035,4.395,465.332
1741690162.84,999.512,62.988,33.691,999.512
1741690162.844,563.965,-14.16,1.465,597.168
1741690162.848,-883.301,-48.828,-61.035,-813.477
1741690162.852,-974.609,-8.301,-35.156,-1000.0
1741690162.856,499.023,48.828,34.18,413.574
1741690162.86,999.512,68.848,45.898,999.512
1741690162.863,425.293,23.926,7.324,450.684
1741690162.867,-879.883,-54.688,-12.695,-817.871
1741690162.871,-1000.0,-52.246,-10.742,-1000.0
1741690162.875,71.289,0.488,12.695,-165.039
1741690162.879,999.512,49.316,45.898,999.512
1741690162.836,517.578,61.035,4.395,465.332
1741690162.84,999.512,62.988,33.691,999.512
1741690162.844,563.965,-14.16,1.465,597.168
1741690162.848,-883.301,-48.828,-61.035,-813.477
1741690162.852,-974.609,-8.301,-35.156,-1000.0
1741690162.856,499.023,48.828,34.18,413.574
1741690162.86,999.512,68.848,45.898,999.512
1741690162.863,425.293,23.926,7.324,450.684
1741690162.867,-879.883,-54.688,-12.695,-817.871
1741690162.871,-1000.0,-52.246,-10.742,-1000.0
1741690162.875,71.289,0.488,12.695,-165.039
1741690162.879,999.512,49.316,45.898,999.512
1741690162.869,736.328,20.02,-25.879,757.324
1741690162.873,-717.285,-40.039,-54.199,-695.312
1741690162.877,-1000.0,-58.594,-23.438,-1000.0
1741690162.881,233.398,42.969,4.395,14.16
1741690162.885,999.512,59.082,34.668,999.512
1741690162.889,775.879,-33.203,-4.883,795.898
1741690162.893,-533.691,-53.223,-77.637,-565.43
1741690162.896,-1000.0,-47.852,-122.559,-1000.0
1741690162.9,-539.551,-3.906,-96.68,-596.191
1741690162.904,887.695,24.414,-24.414,805.176
1741690162.908,921.875,-32.227,-24.414,976.562
1741690162.912,-531.25,-42.48,-54.688,-469.238
1741690162.869,736.328,20.02,-25.879,757.324
1741690162.873,-717.285,-40.039,-54.199,-695.312
1741690162.877,-1000.0,-58.594,-23.438,-1000.0
1741690162.881,233.398,42.969,4.395,14.16
1741690162.885,999.512,59.082,34.668,999.512
1741690162.889,775.879,-33.203,-4.883,795.898
1741690162.893,-533.691,-53.223,-77.637,-565.43
1741690162.896,-1000.0,-47.852,-122.559,-1000.0
1741690162.9,-539.551,-3.906,-96.68,-596.191
1741690162.904,887.695,24.414,-24.414,805.176
1741690162.908,921.875,-32.227,-24.414,976.562
1741690162.912,-531.25,-42.48,-54.688,-469.238
1741690162.926,-1000.0,-23.438,-55.664,-1000.0
1741690162.93,-663.086,-20.02,-48.828,-689.941
1741690162.934,745.117,5.859,-6.836,675.781
1741690162.938,999.512,12.207,8.789,999.512
1741690162.942,-301.758,-40.039,-53.223,-171.875
1741690162.946,-1000.0,-75.195,-101.562,-1000.0
1741690162.95,-768.066,-19.531,-104.492,-779.297
1741690162.953,630.371,-13.672,-75.195,609.375
1741690162.957,999.512,-17.09,-62.988,999.512
1741690162.961,-157.715,-33.203,-87.402,11.23
1741690162.965,-1000.0,-66.406,-117.676,-1000.0
1741690162.969,-813.965,-37.598,-109.375,-823.73
1741690162.926,-1000.0,-23.438,-55.664,-1000.0
1741690162.93,-663.086,-20.02,-48.828,-689.941
1741690162.934,745.117,5.859,-6.836,675.781
1741690162.938,999.512,12.207,8.789,999.512
1741690162.942,-301.758,-40.039,-53.223,-171.875
1741690162.946,-1000.0,-75.195,-101.562,-1000.0
1741690162.95,-768.066,-19.531,-104.492,-779.297
1741690162.953,630.371,-13.672,-75.195,609.375
1741690162.957,999.512,-17.09,-62.988,999.512
1741690162.961,-157.715,-33.203,-87.402,11.23
1741690162.965,-1000.0,-66.406,-117.676,-1000.0
1741690162.969,-813.965,-37.598,-109.375,-823.73
1741690162.971,650.391,17.09,-32.227,637.695
1741690162.975,999.512,37.109,12.207,999.512
1741690162.979,-359.375,-62.988,-69.824,-191.406
1741690162.983,-1000.0,-72.754,-65.918,-1000.0
1741690162.987,-771.973,-17.578,-26.855,-770.508
1741690162.991,554.688,23.926,-12.695,569.824
1741690162.995,999.512,39.551,23.926,999.512
1741690162.998,263.184,2.93,-4.883,360.84
1741690163.002,-996.094,-63.477,-74.219,-919.434
1741690163.006,-985.352,-83.984,-89.844,-1000.0
1741690163.01,349.609,-21.973,-25.879,255.371
1741690163.014,999.512,-3.418,26.855,999.512
1741690162.971,650.391,17.09,-32.227,637.695
1741690162.975,999.512,37.109,12.207,999.512
1741690162.979,-359.375,-62.988,-69.824,-191.406
1741690162.983,-1000.0,-72.754,-65.918,-1000.0
1741690162.987,-771.973,-17.578,-26.855,-770.508
1741690162.991,554.688,23.926,-12.695,569.824
1741690162.995,999.512,39.551,23.926,999.512
1741690162.998,263.184,2.93,-4.883,360.84
1741690163.002,-996.094,-63.477,-74.219,-919.434
1741690163.006,-985.352,-83.984,-89.844,-1000.0
1741690163.01,349.609,-21.973,-25.879,255.371
1741690163.014,999.512,-3.418,26.855,999.512
1741690163.016,730.957,-35.156,-18.555,751.953
1741690163.02,-772.461,-44.434,-85.938,-741.699
1741690163.024,-968.75,20.02,-41.992,-982.91
1741690163.028,573.73,50.293,-17.578,552.246
1741690163.032,999.512,-2.93,-32.715,999.512
1741690163.036,804.688,-7.812,-25.391,793.945
1741690163.04,-625.0,-72.754,-88.379,-614.258
1741690163.043,-1000.0,-82.52,-78.125,-1000.0
1741690163.047,395.996,16.602,-11.719,299.316
1741690163.051,999.512,50.293,-27.832,999.512
1741690163.055,778.809,20.508,-42.969,794.922
1741690163.059,-523.926,-49.805,-47.363,-519.043
1741690163.061,-1000.0,-60.547,-71.777,-1000.0
1741690163.065,-381.836,-23.438,-72.754,-425.293
1741690163.069,963.379,7.324,1.465,900.391
1741690163.073,896.973,-11.23,10.742,953.613
1741690163.077,-539.062,-82.52,-24.414,-460.449
1741690163.081,-1000.0,-20.996,-8.301,-1000.0
1741690163.085,-361.816,22.949,-20.02,-435.059
1741690163.088,959.961,-18.066,-18.555,887.207
1741690163.092,929.688,-44.922,-10.254,989.746
1741690163.096,-501.465,-67.383,-27.344,-410.156
1741690163.1,-1000.0,-27.832,-11.23,-1000.0
1741690163.104,-205.078,21.973,-4.883,-306.641
1741690163.106,999.512,-5.371,-2.93,960.449
1741690163.11,836.426,-43.945,-38.086,908.203
1741690163.114,-554.199,-69.336,-57.129,-484.375
1741690163.118,-1000.0,-104.98,-61.035,-1000.0
1741690163.122,-744.141,-59.082,-45.898,-766.602
1741690163.126,702.148,38.086,9.277,643.066
1741690163.13,999.512,8.789,-23.438,999.512
1741690163.133,-427.734,-83.984,-99.121,-330.566
1741690163.137,-1000.0,-85.449,-62.988,-1000.0
1741690163.141,-670.41,-44.922,6.836,-696.777
1741690163.145,674.805,-41.504,-9.766,624.512
1741690163.149,999.512,-23.926,-23.926,999.512
1741690163.106,999.512,-5.371,-2.93,960.449
1741690163.11,836.426,-43.945,-38.086,908.203
1741690163.114,-554.199,-69.336,-57.129,-484.375
1741690163.118,-1000.0,-104.98,-61.035,-1000.0
1741690163.122,-744.141,-59.082,-45.898,-766.602
1741690163.126,702.148,38.086,9.277,643.066
1741690163.13,999.512,8.789,-23.438,999.512
1741690163.133,-427.734,-83.984,-99.121,-330.566
1741690163.137,-1000.0,-85.449,-62.988,-1000.0
1741690163.141,-670.41,-44.922,6.836,-696.777
1741690163.145,674.805,-41.504,-9.766,624.512
1741690163.149,999.512,-23.926,-23.926,999.512
1741690163.154,136.23,-39.062,2.441,281.738
1741690163.158,-1000.0,-53.711,13.184,-1000.0
1741690163.162,-861.328,-18.066,-4.883,-888.184
1741690163.166,519.531,-25.391,47.363,537.109
1741690163.17,999.512,-51.758,91.797,999.512
1741690163.174,637.207,-51.758,42.48,665.039
1741690163.178,-803.711,-84.473,-30.273,-729.004
1741690163.181,-1000.0,-86.426,-19.043,-1000.0
1741690163.185,389.648,-36.621,57.617,289.062
1741690163.189,999.512,-16.113,69.824,999.512
1741690163.193,593.262,-56.641,8.301,640.625
1741690163.197,-813.477,-99.121,9.277,-736.328
1741690163.154,136.23,-39.062,2.441,281.738
1741690163.158,-1000.0,-53.711,13.184,-1000.0
1741690163.162,-861.328,-18.066,-4.883,-888.184
1741690163.166,519.531,-25.391,47.363,537.109
1741690163.17,999.512,-51.758,91.797,999.512
1741690163.174,637.207,-51.758,42.48,665.039
1741690163.178,-803.711,-84.473,-30.273,-729.004
1741690163.181,-1000.0,-86.426,-19.043,-1000.0
1741690163.185,389.648,-36.621,57.617,289.062
1741690163.189,999.512,-16.113,69.824,999.512
1741690163.193,593.262,-56.641,8.301,640.625
1741690163.197,-813.477,-99.121,9.277,-736.328
1741690163.242,944.824,-34.18,54.688,875.0
1741690163.246,883.789,-26.367,43.945,934.57
1741690163.25,-578.125,-80.078,-0.977,-520.996
1741690163.254,-1000.0,-89.844,8.789,-1000.0
1741690163.258,-376.953,-23.926,63.477,-475.098
1741690163.262,957.031,-0.977,98.633,869.629
1741690163.266,907.715,-42.48,59.57,974.609
1741690163.269,-498.047,-105.957,-7.324,-418.945
1741690163.273,-1000.0,-115.234,-20.508,-1000.0
1741690163.277,-753.906,-46.875,-16.113,-757.324
1741690163.281,628.906,-20.508,28.32,596.191
1741690163.285,999.512,-25.391,73.242,999.512
1741690163.242,944.824,-34.18,54.688,875.0
1741690163.246,883.789,-26.367,43.945,934.57
1741690163.25,-578.125,-80.078,-0.977,-520.996
1741690163.254,-1000.0,-89.844,8.789,-1000.0
1741690163.258,-376.953,-23.926,63.477,-475.098
1741690163.262,957.031,-0.977,98.633,869.629
1741690163.266,907.715,-42.48,59.57,974.609
1741690163.269,-498.047,-105.957,-7.324,-418.945
1741690163.273,-1000.0,-115.234,-20.508,-1000.0
1741690163.277,-753.906,-46.875,-16.113,-757.324
1741690163.281,628.906,-20.508,28.32,596.191
1741690163.285,999.512,-25.391,73.242,999.512
1741690163.242,944.824,-34.18,54.688,875.0
1741690163.246,883.789,-26.367,43.945,934.57
1741690163.25,-578.125,-80.078,-0.977,-520.996
1741690163.254,-1000.0,-89.844,8.789,-1000.0
1741690163.258,-376.953,-23.926,63.477,-475.098
1741690163.262,957.031,-0.977,98.633,869.629
1741690163.266,907.715,-42.48,59.57,974.609
1741690163.269,-498.047,-105.957,-7.324,-418.945
1741690163.273,-1000.0,-115.234,-20.508,-1000.0
1741690163.277,-753.906,-46.875,-16.113,-757.324
1741690163.281,628.906,-20.508,28.32,596.191
1741690163.285,999.512,-25.391,73.242,999.512
1741690163.301,-149.902,-62.012,15.137,13.672
1741690163.305,-1000.0,-73.73,-21.484,-1000.0
1741690163.309,-699.707,-4.883,9.766,-751.953
1741690163.313,648.926,23.438,52.734,618.164
1741690163.317,999.512,-40.527,49.316,999.512
1741690163.321,464.355,-68.848,22.461,521.484
1741690163.325,-954.59,-80.078,-13.672,-889.16
1741690163.328,-931.641,-32.715,-5.859,-970.703
1741690163.332,559.082,24.902,65.43,509.766
1741690163.336,999.512,-10.742,80.078,999.512
1741690163.34,220.215,-62.012,25.879,351.074
1741690163.344,-1000.0,-87.891,-22.461,-965.332
1741690163.301,-149.902,-62.012,15.137,13.672
1741690163.305,-1000.0,-73.73,-21.484,-1000.0
1741690163.309,-699.707,-4.883,9.766,-751.953
1741690163.313,648.926,23.438,52.734,618.164
1741690163.317,999.512,-40.527,49.316,999.512
1741690163.321,464.355,-68.848,22.461,521.484
1741690163.325,-954.59,-80.078,-13.672,-889.16
1741690163.328,-931.641,-32.715,-5.859,-970.703
1741690163.332,559.082,24.902,65.43,509.766
1741690163.336,999.512,-10.742,80.078,999.512
1741690163.34,220.215,-62.012,25.879,351.074
1741690163.344,-1000.0,-87.891,-22.461,-965.332
1741690163.346,-880.371,-61.523,-27.832,-947.266
1741690163.35,521.484,-5.859,25.391,469.238
1741690163.354,999.512,-11.719,47.852,999.512
1741690163.358,546.387,-41.016,8.789,579.59
1741690163.362,-889.648,-79.102,-33.691,-820.312
1741690163.366,-980.957,-11.23,-22.461,-1000.0
1741690163.37,471.191,82.031,22.949,383.301
1741690163.373,999.512,28.32,31.738,999.512
1741690163.377,645.02,14.648,-6.348,664.551
1741690163.381,-751.465,-58.594,-57.129,-690.43
1741690163.385,-1000.0,-46.387,-32.227,-1000.0
1741690163.389,188.965,56.152,-6.836,-3.418
1741690163.346,-880.371,-61.523,-27.832,-947.266
1741690163.35,521.484,-5.859,25.391,469.238
1741690163.354,999.512,-11.719,47.852,999.512
1741690163.358,546.387,-41.016,8.789,579.59
1741690163.362,-889.648,-79.102,-33.691,-820.312
1741690163.366,-980.957,-11.23,-22.461,-1000.0
1741690163.37,471.191,82.031,22.949,383.301
1741690163.373,999.512,28.32,31.738,999.512
1741690163.377,645.02,14.648,-6.348,664.551
1741690163.381,-751.465,-58.594,-57.129,-690.43
1741690163.385,-1000.0,-46.387,-32.227,-1000.0
1741690163.389,188.965,56.152,-6.836,-3.418
1741690163.391,999.512,49.805,-6.836,999.512
1741690163.395,748.047,26.367,7.324,760.254
1741690163.399,-569.824,16.113,-2.441,-600.098
1741690163.403,-1000.0,21.484,-22.949,-1000.0
1741690163.407,-682.129,8.301,-13.672,-731.445
1741690163.411,807.617,13.184,20.02,736.328
1741690163.415,916.992,19.043,-23.926,943.359
1741690163.418,-592.285,-17.09,-92.285,-581.543
1741690163.422,-1000.0,-33.691,-106.445,-1000.0
1741690163.426,-659.668,-20.02,-105.957,-701.172
1741690163.43,796.875,-12.207,-85.449,713.379
1741690163.434,971.191,-40.039,-79.59,999.512
1741690163.437,-503.418,-66.895,-130.859,-429.199
1741690163.441,-1000.0,-42.969,-124.023,-1000.0
1741690163.445,-788.574,-23.438,-95.703,-791.016
1741690163.449,589.844,16.113,-95.703,575.195
1741690163.453,999.512,-18.066,-66.895,999.512
1741690163.457,-159.668,-56.152,-61.035,-47.852
1741690163.461,-1000.0,-42.48,-112.305,-1000.0
1741690163.464,-849.121,-50.293,-132.324,-896.484
1741690163.468,525.391,-3.418,-58.594,474.121
1741690163.472,999.512,-28.32,-6.836,999.512
1741690163.476,62.5,-108.398,-59.57,172.852
1741690163.48,-1000.0,-83.496,-111.328,-1000.0
1741690163.437,-503.418,-66.895,-130.859,-429.199
1741690163.441,-1000.0,-42.969,-124.023,-1000.0
1741690163.445,-788.574,-23.438,-95.703,-791.016
1741690163.449,589.844,16.113,-95.703,575.195
1741690163.453,999.512,-18.066,-66.895,999.512
1741690163.457,-159.668,-56.152,-61.035,-47.852
1741690163.461,-1000.0,-42.48,-112.305,-1000.0
1741690163.464,-849.121,-50.293,-132.324,-896.484
1741690163.468,525.391,-3.418,-58.594,474.121
1741690163.472,999.512,-28.32,-6.836,999.512
1741690163.476,62.5,-108.398,-59.57,172.852
1741690163.48,-1000.0,-83.496,-111.328,-1000.0
1741690163.481,-861.328,-36.621,-103.516,-913.574
1741690163.485,519.531,-12.207,-54.688,477.539
1741690163.489,999.512,8.301,-20.508,999.512
1741690163.493,372.07,-54.688,-70.312,432.617
1741690163.497,-998.047,-80.566,-92.285,-943.359
1741690163.501,-904.785,-33.203,-37.109,-935.547
1741690163.505,544.434,-50.781,-18.555,522.949
1741690163.508,999.512,-25.879,-28.809,999.512
1741690163.512,401.367,-25.879,-68.848,449.707
1741690163.516,-961.426,-89.355,-97.168,-891.113
1741690163.52,-960.938,-59.57,-81.055,-1000.0
1741690163.524,449.707,7.324,-45.41,361.328
1741690163.481,-861.328,-36.621,-103.516,-913.574
1741690163.485,519.531,-12.207,-54.688,477.539
1741690163.489,999.512,8.301,-20.508,999.512
1741690163.493,372.07,-54.688,-70.312,432.617
1741690163.497,-998.047,-80.566,-92.285,-943.359
1741690163.501,-904.785,-33.203,-37.109,-935.547
1741690163.505,544.434,-50.781,-18.555,522.949
1741690163.508,999.512,-25.879,-28.809,999.512
1741690163.512,401.367,-25.879,-68.848,449.707
1741690163.516,-961.426,-89.355,-97.168,-891.113
1741690163.52,-960.938,-59.57,-81.055,-1000.0
1741690163.524,449.707,7.324,-45.41,361.328
1741690163.527,999.512,-54.199,-48.828,999.512
1741690163.531,687.988,-125.977,-66.406,684.57
1741690163.535,-744.629,-126.953,-63.477,-696.777
1741690163.539,-1000.0,-69.336,-37.109,-1000.0
1741690163.543,334.473,14.16,20.996,187.5
1741690163.547,999.512,-0.488,57.617,999.512
1741690163.551,782.227,-66.895,4.883,778.32
1741690163.554,-569.336,-111.816,-82.031,-581.543
1741690163.558,-1000.0,-99.121,-83.984,-1000.0
1741690163.562,-70.801,-54.199,-41.016,-243.164
1741690163.566,999.512,-19.043,4.395,993.164
1741690163.57,827.148,-48.828,6.348,880.371
1741690163.527,999.512,-54.199,-48.828,999.512
1741690163.531,687.988,-125.977,-66.406,684.57
1741690163.535,-744.629,-126.953,-63.477,-696.777
1741690163.539,-1000.0,-69.336,-37.109,-1000.0
1741690163.543,334.473,14.16,20.996,187.5
1741690163.547,999.512,-0.488,57.617,999.512
1741690163.551,782.227,-66.895,4.883,778.32
1741690163.554,-569.336,-111.816,-82.031,-581.543
1741690163.558,-1000.0,-99.121,-83.984,-1000.0
1741690163.562,-70.801,-54.199,-41.016,-243.164
1741690163.566,999.512,-19.043,4.395,993.164
1741690163.57,827.148,-48.828,6.348,880.371
1741690163.571,-555.664,-67.871,-42.969,-527.344
1741690163.575,-1000.0,-42.969,-27.344,-1000.0
1741690163.579,-317.383,-59.082,-4.883,-399.414
1741690163.583,947.754,-35.645,-9.277,874.512
1741690163.587,972.168,-56.152,-9.277,999.512
1741690163.591,-343.262,-104.004,-31.25,-220.215
1741690163.595,-1000.0,-88.379,-60.547,-1000.0
1741690163.598,-721.191,-77.637,-50.293,-740.723
1741690163.602,750.488,-63.965,-1.465,702.148
1741690163.606,999.512,-39.062,58.105,999.512
1741690163.61,-466.309,-130.859,-22.949,-366.699
1741690163.614,-1000.0,-145.996,-80.566,-1000.0
1741690163.571,-555.664,-67.871,-42.969,-527.344
1741690163.575,-1000.0,-42.969,-27.344,-1000.0
1741690163.579,-317.383,-59.082,-4.883,-399.414
1741690163.583,947.754,-35.645,-9.277,874.512
1741690163.587,972.168,-56.152,-9.277,999.512
1741690163.591,-343.262,-104.004,-31.25,-220.215
1741690163.595,-1000.0,-88.379,-60.547,-1000.0
1741690163.598,-721.191,-77.637,-50.293,-740.723
1741690163.602,750.488,-63.965,-1.465,702.148
1741690163.606,999.512,-39.062,58.105,999.512
1741690163.61,-466.309,-130.859,-22.949,-366.699
1741690163.614,-1000.0,-145.996,-80.566,-1000.0
1741690163.617,-572.754,-71.777,-30.273,-592.773
1741690163.621,742.676,-34.668,-11.719,691.895
1741690163.625,999.512,-46.875,-16.602,999.512
1741690163.629,199.219,-91.797,-25.879,360.352
1741690163.633,-1000.0,-86.914,-44.922,-1000.0
1741690163.637,-605.469,-59.082,-18.066,-616.699
1741690163.641,737.793,-47.852,12.207,728.027
1741690163.644,999.512,-67.383,17.578,999.512
1741690163.648,74.219,-103.027,-21.484,261.719
1741690163.652,-1000.0,-109.863,-66.895,-1000.0
1741690163.656,-836.914,-87.891,-32.715,-850.098
1741690163.66,547.852,-31.25,38.086,577.148
1741690163.617,-572.754,-71.777,-30.273,-592.773
1741690163.621,742.676,-34.668,-11.719,691.895
1741690163.625,999.512,-46.875,-16.602,999.512
1741690163.629,199.219,-91.797,-25.879,360.352
1741690163.633,-1000.0,-86.914,-44.922,-1000.0
1741690163.637,-605.469,-59.082,-18.066,-616.699
1741690163.641,737.793,-47.852,12.207,728.027
1741690163.644,999.512,-67.383,17.578,999.512
1741690163.648,74.219,-103.027,-21.484,261.719
1741690163.652,-1000.0,-109.863,-66.895,-1000.0
1741690163.656,-836.914,-87.891,-32.715,-850.098
1741690163.66,547.852,-31.25,38.086,577.148
1741690163.676,999.512,-67.383,20.02,999.512
1741690163.68,361.816,-125.977,-27.344,456.055
1741690163.684,-968.75,-53.711,-23.926,-880.859
1741690163.688,-978.516,-34.18,-43.457,-1000.0
1741690163.692,408.203,-35.645,-31.25,321.289
1741690163.696,999.512,-29.785,25.879,999.512
1741690163.7,791.504,-60.059,17.578,791.992
1741690163.703,-640.137,-100.098,-53.223,-627.93
1741690163.707,-1000.0,-104.492,-54.688,-1000.0
1741690163.711,367.676,-41.504,31.738,270.02
1741690163.715,999.512,16.602,50.293,999.512
1741690163.719,794.922,-5.859,9.277,791.504
1741690163.676,999.512,-67.383,20.02,999.512
1741690163.68,361.816,-125.977,-27.344,456.055
1741690163.684,-968.75,-53.711,-23.926,-880.859
1741690163.688,-978.516,-34.18,-43.457,-1000.0
1741690163.692,408.203,-35.645,-31.25,321.289
1741690163.696,999.512,-29.785,25.879,999.512
1741690163.7,791.504,-60.059,17.578,791.992
1741690163.703,-640.137,-100.098,-53.223,-627.93
1741690163.707,-1000.0,-104.492,-54.688,-1000.0
1741690163.711,367.676,-41.504,31.738,270.02
1741690163.715,999.512,16.602,50.293,999.512
1741690163.719,794.922,-5.859,9.277,791.504
1741690163.721,-566.406,-84.473,-64.941,-571.289
1741690163.725,-1000.0,-121.582,-79.59,-1000.0
1741690163.729,27.344,-44.922,-29.297,-104.492
1741690163.733,999.512,-19.043,10.254,999.512
1741690163.737,841.309,-46.875,11.23,897.461
1741690163.741,-556.641,-82.031,-54.199,-487.793
1741690163.745,-1000.0,-83.984,-62.5,-1000.0
1741690163.748,-24.902,-7.324,10.254,-170.898
1741690163.752,999.512,-10.254,-3.418,999.512
1741690163.756,817.383,-74.219,-51.27,885.742
1741690163.76,-548.828,-83.008,-63.477,-490.723
1741690163.764,-1000.0,-67.383,-43.457,-1000.0
1741690163.721,-566.406,-84.473,-64.941,-571.289
1741690163.725,-1000.0,-121.582,-79.59,-1000.0
1741690163.729,27.344,-44.922,-29.297,-104.492
1741690163.733,999.512,-19.043,10.254,999.512
1741690163.737,841.309,-46.875,11.23,897.461
1741690163.741,-556.641,-82.031,-54.199,-487.793
1741690163.745,-1000.0,-83.984,-62.5,-1000.0
1741690163.748,-24.902,-7.324,10.254,-170.898
1741690163.752,999.512,-10.254,-3.418,999.512
1741690163.756,817.383,-74.219,-51.27,885.742
1741690163.76,-548.828,-83.008,-63.477,-490.723
1741690163.764,-1000.0,-67.383,-43.457,-1000.0
1741690163.766,-368.652,-11.719,-9.766,-429.688
1741690163.77,900.391,24.902,23.926,831.543
1741690163.774,999.512,-20.02,48.828,999.512
1741690163.778,-202.148,-76.172,17.578,-72.754
1741690163.782,-1000.0,-64.453,-12.207,-1000.0
1741690163.786,-785.645,-43.945,11.719,-786.133
1741690163.79,661.621,0.488,49.805,646.973
1741690163.793,999.512,-22.949,53.223,999.512
1741690163.797,-333.496,-98.633,14.16,-187.5
1741690163.801,-1000.0,-49.805,-7.812,-1000.0
1741690163.805,-766.602,-18.555,17.578,-779.297
1741690163.809,591.797,-30.273,61.035,583.008
1741690163.826,999.512,-38.086,44.922,999.512
1741690163.83,70.801,-84.473,-0.977,225.586
1741690163.834,-1000.0,-90.332,1.465,-1000.0
1741690163.838,-845.703,-43.457,32.227,-854.492
1741690163.842,534.668,-15.137,42.48,566.895
1741690163.846,999.512,1.465,70.801,999.512
1741690163.85,434.082,-62.012,51.758,506.836
1741690163.853,-968.262,-141.602,-2.441,-892.578
1741690163.857,-913.086,-80.078,-14.648,-960.449
1741690163.861,541.992,-6.348,30.273,501.953
1741690163.865,999.512,-35.645,31.25,999.512
1741690163.869,517.578,-82.52,-21.973,573.242
1741690163.856,-865.723,-98.633,-29.297,-788.574
1741690163.86,-951.66,-54.199,-21.973,-1000.0
1741690163.864,359.375,-15.625,12.695,266.602
1741690163.868,999.512,-78.613,37.109,999.512
1741690163.872,679.199,-117.188,-39.062,702.637
1741690163.876,-732.91,-65.918,-72.266,-678.223
1741690163.88,-1000.0,-47.363,-44.922,-1000.0
1741690163.883,146.484,-16.602,-1.953,-15.625
1741690163.887,999.512,5.859,58.105,999.512
1741690163.891,811.035,-47.852,-3.418,822.266
1741690163.895,-577.148,-112.793,-88.867,-585.938
1741690163.899,-1000.0,-127.93,-76.172,-1000.0
1741690163.902,20.02,-68.848,-30.762,-139.648
1741690163.906,999.512,-1.953,26.855,999.512
1741690163.91,857.91,-26.855,33.203,924.316
1741690163.914,-472.656,-77.148,-46.387,-405.762
1741690163.918,-1000.0,-83.984,-106.445,-1000.0
1741690163.922,-373.535,-61.523,-61.523,-439.941
1741690163.926,935.059,-51.758,-40.527,866.211
1741690163.929,969.238,-64.941,-39.551,999.512
1741690163.933,-376.953,-66.895,-48.34,-276.855
1741690163.937,-1000.0,-89.355,-87.891,-1000.0
1741690163.941,-621.094,-76.66,-38.574,-641.113
1741690163.945,826.66,-32.227,34.668,770.02
1741690163.902,20.02,-68.848,-30.762,-139.648
1741690163.906,999.512,-1.953,26.855,999.512
1741690163.91,857.91,-26.855,33.203,924.316
1741690163.914,-472.656,-77.148,-46.387,-405.762
1741690163.918,-1000.0,-83.984,-106.445,-1000.0
1741690163.922,-373.535,-61.523,-61.523,-439.941
1741690163.926,935.059,-51.758,-40.527,866.211
1741690163.929,969.238,-64.941,-39.551,999.512
1741690163.933,-376.953,-66.895,-48.34,-276.855
1741690163.937,-1000.0,-89.355,-87.891,-1000.0
1741690163.941,-621.094,-76.66,-38.574,-641.113
1741690163.945,826.66,-32.227,34.668,770.02
1741690163.947,981.934,-94.238,21.973,999.512
1741690163.951,-465.82,-148.438,-54.688,-356.445
1741690163.955,-1000.0,-71.777,-34.18,-1000.0
1741690163.959,-802.246,-55.664,-0.977,-792.969
1741690163.963,547.363,-49.805,20.996,549.805
1741690163.967,999.512,-29.785,64.453,999.512
1741690163.971,13.184,-90.82,7.324,175.293
1741690163.974,-1000.0,-134.277,-36.621,-1000.0
1741690163.978,-849.609,-83.496,-11.23,-861.816
1741690163.982,529.785,-28.809,14.16,558.105
1741690163.986,999.512,-44.434,29.297,999.512
1741690163.99,301.27,-56.641,0.0,387.207
1741690163.947,981.934,-94.238,21.973,999.512
1741690163.951,-465.82,-148.438,-54.688,-356.445
1741690163.955,-1000.0,-71.777,-34.18,-1000.0
1741690163.959,-802.246,-55.664,-0.977,-792.969
1741690163.963,547.363,-49.805,20.996,549.805
1741690163.967,999.512,-29.785,64.453,999.512
1741690163.971,13.184,-90.82,7.324,175.293
1741690163.974,-1000.0,-134.277,-36.621,-1000.0
1741690163.978,-849.609,-83.496,-11.23,-861.816
1741690163.982,529.785,-28.809,14.16,558.105
1741690163.986,999.512,-44.434,29.297,999.512
1741690163.99,301.27,-56.641,0.0,387.207
1741690163.994,-1000.0,-64.453,-53.711,-921.387
1741690163.998,-943.359,-60.547,-52.246,-1000.0
1741690164.002,442.383,-3.418,19.531,366.211
1741690164.006,999.512,16.113,66.406,999.512
1741690164.01,652.344,-17.09,20.02,666.504
1741690164.014,-722.168,-34.668,-20.02,-670.41
1741690164.018,-1000.0,-41.992,-21.484,-1000.0
1741690164.021,32.227,-34.668,-19.531,-150.879
1741690164.025,999.512,-33.691,9.277,999.512
1741690164.029,730.469,-90.82,-20.02,759.277
1741690164.033,-726.074,-126.465,-59.082,-693.359
1741690164.037,-1000.0,-81.055,-11.23,-1000.0
1741690163.994,-1000.0,-64.453,-53.711,-921.387
1741690163.998,-943.359,-60.547,-52.246,-1000.0
1741690164.002,442.383,-3.418,19.531,366.211
1741690164.006,999.512,16.113,66.406,999.512
1741690164.01,652.344,-17.09,20.02,666.504
1741690164.014,-722.168,-34.668,-20.02,-670.41
1741690164.018,-1000.0,-41.992,-21.484,-1000.0
1741690164.021,32.227,-34.668,-19.531,-150.879
1741690164.025,999.512,-33.691,9.277,999.512
1741690164.029,730.469,-90.82,-20.02,759.277
1741690164.033,-726.074,-126.465,-59.082,-693.359
1741690164.037,-1000.0,-81.055,-11.23,-1000.0
1741690164.051,185.059,-17.578,5.371,-12.695
1741690164.055,999.512,-20.02,-2.441,999.512
1741690164.059,814.941,-55.176,4.883,828.125
1741690164.063,-568.359,-89.355,-62.988,-579.102
1741690164.067,-1000.0,-99.609,-73.242,-1000.0
1741690164.071,26.855,-81.543,-13.184,-139.648
1741690164.075,999.512,-16.113,-12.695,999.512
1741690164.078,809.082,-40.527,-46.875,833.496
1741690164.082,-550.293,-134.277,-115.234,-563.477
1741690164.086,-1000.0,-72.266,-114.746,-1000.0
1741690164.09,-371.094,-20.02,-62.988,-450.684
1741690164.094,964.844,-42.969,-24.902,890.625
1741690164.051,185.059,-17.578,5.371,-12.695
1741690164.055,999.512,-20.02,-2.441,999.512
1741690164.059,814.941,-55.176,4.883,828.125
1741690164.063,-568.359,-89.355,-62.988,-579.102
1741690164.067,-1000.0,-99.609,-73.242,-1000.0
1741690164.071,26.855,-81.543,-13.184,-139.648
1741690164.075,999.512,-16.113,-12.695,999.512
1741690164.078,809.082,-40.527,-46.875,833.496
1741690164.082,-550.293,-134.277,-115.234,-563.477
1741690164.086,-1000.0,-72.266,-114.746,-1000.0
1741690164.09,-371.094,-20.02,-62.988,-450.684
1741690164.094,964.844,-42.969,-24.902,890.625
1741690164.096,894.043,-53.711,-24.414,954.59
1741690164.1,-514.648,-57.617,-90.82,-451.172
1741690164.104,-1000.0,-70.312,-99.609,-1000.0
1741690164.108,-632.324,-66.895,-54.688,-662.598
1741690164.112,783.691,-14.648,-2.93,709.961
1741690164.116,999.512,-18.066,45.41,999.512
1741690164.12,-355.957,-89.844,-42.48,-244.629
1741690164.123,-1000.0,-99.609,-115.723,-1000.0
1741690164.127,-827.148,-65.43,-114.258,-838.379
1741690164.131,507.324,-43.945,-104.004,502.441
1741690164.135,999.512,-46.387,-36.133,999.512
1741690164.139,125.488,-67.871,-61.523,231.445
1741690164.096,894.043,-53.711,-24.414,954.59
1741690164.1,-514.648,-57.617,-90.82,-451.172
1741690164.104,-1000.0,-70.312,-99.609,-1000.0
1741690164.108,-632.324,-66.895,-54.688,-662.598
1741690164.112,783.691,-14.648,-2.93,709.961
1741690164.116,999.512,-18.066,45.41,999.512
1741690164.12,-355.957,-89.844,-42.48,-244.629
1741690164.123,-1000.0,-99.609,-115.723,-1000.0
1741690164.127,-827.148,-65.43,-114.258,-838.379
1741690164.131,507.324,-43.945,-104.004,502.441
1741690164.135,999.512,-46.387,-36.133,999.512
1741690164.139,125.488,-67.871,-61.523,231.445
1741690164.096,894.043,-53.711,-24.414,954.59
1741690164.1,-514.648,-57.617,-90.82,-451.172
1741690164.104,-1000.0,-70.312,-99.609,-1000.0
1741690164.108,-632.324,-66.895,-54.688,-662.598
1741690164.112,783.691,-14.648,-2.93,709.961
1741690164.116,999.512,-18.066,45.41,999.512
1741690164.12,-355.957,-89.844,-42.48,-244.629
1741690164.123,-1000.0,-99.609,-115.723,-1000.0
1741690164.127,-827.148,-65.43,-114.258,-838.379
1741690164.131,507.324,-43.945,-104.004,502.441
1741690164.135,999.512,-46.387,-36.133,999.512
1741690164.139,125.488,-67.871,-61.523,231.445
1741690164.141,-1000.0,-129.883,-128.906,-1000.0
1741690164.145,-903.809,-116.211,-109.863,-955.078
1741690164.149,521.973,13.672,-49.805,455.566
1741690164.153,999.512,37.598,-47.363,999.512
1741690164.157,41.992,-43.457,-103.027,179.688
1741690164.161,-1000.0,-66.406,-101.562,-1000.0
1741690164.165,-847.168,-55.664,-61.035,-883.789
1741690164.168,515.625,-53.223,-56.641,514.648
1741690164.172,999.512,-59.082,-55.664,999.512
1741690164.176,583.496,-46.387,-48.34,587.402
1741690164.18,-839.844,-86.914,-102.539,-776.855
1741690164.184,-1000.0,-70.801,-102.539,-1000.0
1741690164.186,367.188,-32.227,-47.852,244.629
1741690164.19,999.512,-55.664,-14.648,999.512
1741690164.194,672.363,-97.656,-34.668,689.941
1741690164.198,-743.652,-89.355,-77.148,-693.359
1741690164.202,-1000.0,-70.801,-82.031,-1000.0
1741690164.206,228.027,-46.875,-27.344,66.895
1741690164.21,999.512,-20.508,8.789,999.512
1741690164.213,671.387,-86.914,-23.926,698.73
1741690164.217,-708.496,-109.863,-61.035,-669.922
1741690164.221,-1000.0,-116.211,-83.984,-1000.0
1741690164.225,-65.43,-82.031,-85.449,-240.723
1741690164.229,999.512,-44.434,-35.156,999.512
1741690164.186,367.188,-32.227,-47.852,244.629
1741690164.19,999.512,-55.664,-14.648,999.512
1741690164.194,672.363,-97.656,-34.668,689.941
1741690164.198,-743.652,-89.355,-77.148,-693.359
1741690164.202,-1000.0,-70.801,-82.031,-1000.0
1741690164.206,228.027,-46.875,-27.344,66.895
1741690164.21,999.512,-20.508,8.789,999.512
1741690164.213,671.387,-86.914,-23.926,698.73
1741690164.217,-708.496,-109.863,-61.035,-669.922
1741690164.221,-1000.0,-116.211,-83.984,-1000.0
1741690164.225,-65.43,-82.031,-85.449,-240.723
1741690164.229,999.512,-44.434,-35.156,999.512
1741690164.231,868.652,-114.258,-44.434,881.836
1741690164.235,-650.879,-157.227,-98.145,-659.668
1741690164.239,-1000.0,-76.66,-48.828,-1000.0
1741690164.243,437.988,-18.066,-16.113,343.75
1741690164.247,999.512,-81.543,-59.57,999.512
1741690164.251,771.484,-108.887,-65.918,784.18
1741690164.255,-516.602,-156.738,-120.605,-516.602
1741690164.258,-1000.0,-151.367,-138.672,-1000.0
1741690164.262,-525.391,-74.707,-63.965,-585.449
1741690164.266,885.254,-83.496,4.395,798.828
1741690164.27,939.941,-117.676,-2.441,993.164
1741690164.274,-497.07,-119.629,-72.754,-429.199
1741690164.279,-1000.0,-107.422,-101.074,-1000.0
1741690164.283,-744.629,-83.496,-33.691,-771.973
1741690164.287,711.914,-25.879,14.16,653.32
1741690164.291,999.512,-65.43,-4.883,999.512
1741690164.295,-468.75,-140.625,-48.828,-396.973
1741690164.299,-1000.0,-92.773,-33.203,-1000.0
1741690164.303,-829.102,-59.57,-44.922,-872.559
1741690164.306,497.559,-49.316,-54.199,425.293
1741690164.31,999.512,-92.285,-45.41,999.512
1741690164.314,106.445,-113.77,-78.125,189.453
1741690164.318,-1000.0,-75.684,-85.449,-1000.0
1741690164.322,-882.812,-21.973,-29.297,-901.367
1741690164.279,-1000.0,-107.422,-101.074,-1000.0
1741690164.283,-744.629,-83.496,-33.691,-771.973
1741690164.287,711.914,-25.879,14.16,653.32
1741690164.291,999.512,-65.43,-4.883,999.512
1741690164.295,-468.75,-140.625,-48.828,-396.973
1741690164.299,-1000.0,-92.773,-33.203,-1000.0
1741690164.303,-829.102,-59.57,-44.922,-872.559
1741690164.306,497.559,-49.316,-54.199,425.293
1741690164.31,999.512,-92.285,-45.41,999.512
1741690164.314,106.445,-113.77,-78.125,189.453
1741690164.318,-1000.0,-75.684,-85.449,-1000.0
1741690164.322,-882.812,-21.973,-29.297,-901.367
1741690164.321,549.805,-23.926,26.367,542.48
1741690164.325,999.512,-69.824,0.488,999.512
1741690164.329,32.715,-75.684,-70.801,148.438
1741690164.333,-1000.0,-111.816,-126.465,-1000.0
1741690164.337,-882.324,-124.023,-62.5,-897.461
1741690164.341,560.059,3.418,25.391,556.641
1741690164.345,999.512,-14.16,-0.977,999.512
1741690164.348,-136.23,-118.164,-64.941,12.207
1741690164.352,-1000.0,-55.664,-69.824,-1000.0
1741690164.356,-916.992,-21.973,-36.621,-983.398
1741690164.36,344.727,-31.25,-28.809,234.863
1741690164.364,999.512,-12.207,-31.25,999.512
1741690164.321,549.805,-23.926,26.367,542.48
1741690164.325,999.512,-69.824,0.488,999.512
1741690164.329,32.715,-75.684,-70.801,148.438
1741690164.333,-1000.0,-111.816,-126.465,-1000.0
1741690164.337,-882.324,-124.023,-62.5,-897.461
1741690164.341,560.059,3.418,25.391,556.641
1741690164.345,999.512,-14.16,-0.977,999.512
1741690164.348,-136.23,-118.164,-64.941,12.207
1741690164.352,-1000.0,-55.664,-69.824,-1000.0
1741690164.356,-916.992,-21.973,-36.621,-983.398
1741690164.36,344.727,-31.25,-28.809,234.863
1741690164.364,999.512,-12.207,-31.25,999.512
1741690164.367,709.961,-62.012,-41.992,723.145
1741690164.371,-727.539,-106.445,-52.734,-684.57
1741690164.375,-1000.0,-40.527,-71.777,-1000.0
1741690164.379,343.262,24.902,-40.527,205.078
1741690164.383,999.512,12.695,40.039,999.512
1741690164.387,769.043,-30.762,3.906,780.273
1741690164.391,-521.973,-71.289,-88.867,-543.945
1741690164.394,-1000.0,-109.863,-114.746,-1000.0
1741690164.398,-668.457,-107.422,-106.445,-710.449
1741690164.402,809.57,-45.898,-48.34,729.004
1741690164.406,942.871,-39.062,-34.18,987.305
1741690164.41,-575.195,-114.746,-99.121,-514.16
1741690164.367,709.961,-62.012,-41.992,723.145
1741690164.371,-727.539,-106.445,-52.734,-684.57
1741690164.375,-1000.0,-40.527,-71.777,-1000.0
1741690164.379,343.262,24.902,-40.527,205.078
1741690164.383,999.512,12.695,40.039,999.512
1741690164.387,769.043,-30.762,3.906,780.273
1741690164.391,-521.973,-71.289,-88.867,-543.945
1741690164.394,-1000.0,-109.863,-114.746,-1000.0
1741690164.398,-668.457,-107.422,-106.445,-710.449
1741690164.402,809.57,-45.898,-48.34,729.004
1741690164.406,942.871,-39.062,-34.18,987.305
1741690164.41,-575.195,-114.746,-99.121,-514.16
1741690164.426,-1000.0,-92.773,-106.934,-1000.0
1741690164.43,-340.332,-31.738,-43.945,-437.012
1741690164.434,969.727,-20.02,36.133,887.695
1741690164.438,909.18,-36.133,25.879,976.074
1741690164.442,-493.164,-95.215,-27.344,-410.645
1741690164.446,-1000.0,-93.75,-31.738,-1000.0
1741690164.45,-427.246,-56.152,-23.926,-472.168
1741690164.453,884.766,-67.383,-15.625,820.312
1741690164.457,999.512,-73.242,-28.809,999.512
1741690164.461,-254.395,-92.285,-66.406,-82.52
1741690164.465,-1000.0,-95.703,-79.59,-1000.0
1741690164.469,-822.754,-57.129,-37.598,-825.684
1741690164.471,562.5,-6.348,19.043,570.801
1741690164.475,999.512,-21.973,-4.883,999.512
1741690164.479,-88.379,-57.617,-27.344,104.98
1741690164.483,-1000.0,-44.922,-35.156,-1000.0
1741690164.487,-833.984,9.766,-41.504,-839.844
1741690164.491,574.707,37.598,33.691,585.938
1741690164.495,999.512,9.277,68.848,999.512
1741690164.498,-27.344,-25.391,-18.555,196.289
1741690164.502,-1000.0,-18.555,-56.641,-1000.0
1741690164.506,-838.867,-19.043,-32.227,-873.535
1741690164.51,513.184,13.184,15.137,529.297
1741690164.514,999.512,43.945,74.707,999.512
1741690164.471,562.5,-6.348,19.043,570.801
1741690164.475,999.512,-21.973,-4.883,999.512
1741690164.479,-88.379,-57.617,-27.344,104.98
1741690164.483,-1000.0,-44.922,-35.156,-1000.0
1741690164.487,-833.984,9.766,-41.504,-839.844
1741690164.491,574.707,37.598,33.691,585.938
1741690164.495,999.512,9.277,68.848,999.512
1741690164.498,-27.344,-25.391,-18.555,196.289
1741690164.502,-1000.0,-18.555,-56.641,-1000.0
1741690164.506,-838.867,-19.043,-32.227,-873.535
1741690164.51,513.184,13.184,15.137,529.297
1741690164.514,999.512,43.945,74.707,999.512
1741690164.516,750.977,-30.762,36.133,783.691
1741690164.52,-741.699,-72.266,-11.719,-707.031
1741690164.524,-970.215,27.344,43.457,-957.031
1741690164.528,580.078,96.191,62.988,604.004
1741690164.532,999.512,62.988,50.293,999.512
1741690164.536,797.363,49.316,37.598,793.457
1741690164.54,-609.863,-21.484,-12.207,-593.262
1741690164.543,-1000.0,-81.543,-30.273,-1000.0
1741690164.547,309.082,-1.465,26.855,188.965
1741690164.551,999.512,27.344,68.848,999.512
1741690164.555,812.988,-5.371,43.457,820.312
1741690164.559,-583.008,-6.348,8.789,-577.637
1741690164.516,750.977,-30.762,36.133,783.691
1741690164.52,-741.699,-72.266,-11.719,-707.031
1741690164.524,-970.215,27.344,43.457,-957.031
1741690164.528,580.078,96.191,62.988,604.004
1741690164.532,999.512,62.988,50.293,999.512
1741690164.536,797.363,49.316,37.598,793.457
1741690164.54,-609.863,-21.484,-12.207,-593.262
1741690164.543,-1000.0,-81.543,-30.273,-1000.0
1741690164.547,309.082,-1.465,26.855,188.965
1741690164.551,999.512,27.344,68.848,999.512
1741690164.555,812.988,-5.371,43.457,820.312
1741690164.559,-583.008,-6.348,8.789,-577.637
1741690164.561,-1000.0,1.953,15.625,-1000.0
1741690164.565,192.871,53.711,47.363,48.34
1741690164.569,999.512,65.918,61.035,999.512
1741690164.573,822.266,-18.555,0.977,835.449
1741690164.577,-648.926,-68.359,-45.898,-645.02
1741690164.581,-1000.0,26.367,45.898,-1000.0
1741690164.585,425.293,84.473,94.238,332.031
1741690164.588,999.512,7.812,23.926,999.512
1741690164.592,770.996,-48.828,-11.23,809.082
1741690164.596,-516.602,-48.828,-26.855,-476.562
1741690164.6,-1000.0,-26.367,-32.715,-1000.0
1741690164.604,-541.992,25.391,-18.066,-580.078
1741690164.561,-1000.0,1.953,15.625,-1000.0
1741690164.565,192.871,53.711,47.363,48.34
1741690164.569,999.512,65.918,61.035,999.512
1741690164.573,822.266,-18.555,0.977,835.449
1741690164.577,-648.926,-68.359,-45.898,-645.02
1741690164.581,-1000.0,26.367,45.898,-1000.0
1741690164.585,425.293,84.473,94.238,332.031
1741690164.588,999.512,7.812,23.926,999.512
1741690164.592,770.996,-48.828,-11.23,809.082
1741690164.596,-516.602,-48.828,-26.855,-476.562
1741690164.6,-1000.0,-26.367,-32.715,-1000.0
1741690164.604,-541.992,25.391,-18.066,-580.078
1741690164.606,855.957,47.852,7.812,778.809
1741690164.61,989.746,41.992,32.715,999.512
1741690164.614,-415.527,-0.977,10.254,-299.316
1741690164.618,-1000.0,-61.035,-37.109,-1000.0
1741690164.622,-795.41,-13.184,-29.297,-797.852
1741690164.626,592.773,36.133,43.945,583.984
1741690164.63,999.512,-7.324,32.227,999.512
1741690164.633,-189.941,-38.574,-40.039,-64.453
1741690164.637,-1000.0,-20.02,-27.832,-1000.0
1741690164.641,-846.68,-14.16,-30.273,-904.785
1741690164.645,462.891,-1.953,-38.574,401.855
1741690164.649,999.512,3.418,-3.906,999.512
1741690164.606,855.957,47.852,7.812,778.809
1741690164.61,989.746,41.992,32.715,999.512
1741690164.614,-415.527,-0.977,10.254,-299.316
1741690164.618,-1000.0,-61.035,-37.109,-1000.0
1741690164.622,-795.41,-13.184,-29.297,-797.852
1741690164.626,592.773,36.133,43.945,583.984
1741690164.63,999.512,-7.324,32.227,999.512
1741690164.633,-189.941,-38.574,-40.039,-64.453
1741690164.637,-1000.0,-20.02,-27.832,-1000.0
1741690164.641,-846.68,-14.16,-30.273,-904.785
1741690164.645,462.891,-1.953,-38.574,401.855
1741690164.649,999.512,3.418,-3.906,999.512
1741690164.652,479.492,-46.875,-19.043,515.137
1741690164.656,-949.219,-64.941,-40.527,-907.227
1741690164.66,-919.922,18.555,-11.23,-931.152
1741690164.664,545.41,50.293,14.16,551.758
1741690164.668,999.512,-9.766,0.0,999.512
1741690164.672,569.336,-17.09,-16.113,589.355
1741690164.676,-895.02,-67.871,-41.016,-841.797
1741690164.679,-938.477,-66.895,-16.113,-965.82
1741690164.683,552.246,-9.277,26.367,524.902
1741690164.687,999.512,-2.93,45.41,999.512
1741690164.691,494.141,-19.531,20.996,525.879
1741690164.695,-876.953,-55.664,-22.461,-804.688
1741690164.652,479.492,-46.875,-19.043,515.137
1741690164.656,-949.219,-64.941,-40.527,-907.227
1741690164.66,-919.922,18.555,-11.23,-931.152
1741690164.664,545.41,50.293,14.16,551.758
1741690164.668,999.512,-9.766,0.0,999.512
1741690164.672,569.336,-17.09,-16.113,589.355
1741690164.676,-895.02,-67.871,-41.016,-841.797
1741690164.679,-938.477,-66.895,-16.113,-965.82
1741690164.683,552.246,-9.277,26.367,524.902
1741690164.687,999.512,-2.93,45.41,999.512
1741690164.691,494.141,-19.531,20.996,525.879
1741690164.695,-876.953,-55.664,-22.461,-804.688
1741690164.726,-1000.0,-55.176,0.977,-1000.0
1741690164.73,281.25,-26.855,1.465,115.234
1741690164.734,999.512,-31.738,5.371,999.512
1741690164.738,732.91,-58.105,-4.395,744.629
1741690164.742,-705.566,-79.102,-28.809,-680.176
1741690164.746,-1000.0,-62.012,-6.836,-1000.0
1741690164.75,309.082,1.953,28.809,144.043
1741690164.753,999.512,-11.719,32.715,999.512
1741690164.757,710.938,-71.289,-10.254,721.191
1741690164.761,-600.586,-86.426,-25.879,-611.328
1741690164.765,-1000.0,-94.238,-17.578,-1000.0
1741690164.769,-524.414,-59.082,-45.41,-608.398
1741690164.726,-1000.0,-55.176,0.977,-1000.0
1741690164.73,281.25,-26.855,1.465,115.234
1741690164.734,999.512,-31.738,5.371,999.512
1741690164.738,732.91,-58.105,-4.395,744.629
1741690164.742,-705.566,-79.102,-28.809,-680.176
1741690164.746,-1000.0,-62.012,-6.836,-1000.0
1741690164.75,309.082,1.953,28.809,144.043
1741690164.753,999.512,-11.719,32.715,999.512
1741690164.757,710.938,-71.289,-10.254,721.191
1741690164.761,-600.586,-86.426,-25.879,-611.328
1741690164.765,-1000.0,-94.238,-17.578,-1000.0
1741690164.769,-524.414,-59.082,-45.41,-608.398
1741690164.759,908.203,22.949,-20.02,834.473
1741690164.763,888.184,-16.602,-22.949,897.949
1741690164.767,-585.449,-92.773,-72.754,-605.469
1741690164.771,-1000.0,-66.406,-60.059,-1000.0
1741690164.775,-503.906,-17.578,-9.766,-601.562
1741690164.779,916.504,13.672,40.527,828.125
1741690164.783,882.812,-62.012,-5.371,916.016
1741690164.786,-579.59,-137.207,-102.051,-574.707
1741690164.79,-1000.0,-77.148,-75.195,-1000.0
1741690164.794,-670.898,-27.832,-1.465,-724.121
1741690164.798,753.418,-22.461,56.641,666.992
1741690164.802,930.176,-42.48,60.059,988.281
1741690164.759,908.203,22.949,-20.02,834.473
1741690164.763,888.184,-16.602,-22.949,897.949
1741690164.767,-585.449,-92.773,-72.754,-605.469
1741690164.771,-1000.0,-66.406,-60.059,-1000.0
1741690164.775,-503.906,-17.578,-9.766,-601.562
1741690164.779,916.504,13.672,40.527,828.125
1741690164.783,882.812,-62.012,-5.371,916.016
1741690164.786,-579.59,-137.207,-102.051,-574.707
1741690164.79,-1000.0,-77.148,-75.195,-1000.0
1741690164.794,-670.898,-27.832,-1.465,-724.121
1741690164.798,753.418,-22.461,56.641,666.992
1741690164.802,930.176,-42.48,60.059,988.281
1741690164.759,908.203,22.949,-20.02,834.473
1741690164.763,888.184,-16.602,-22.949,897.949
1741690164.767,-585.449,-92.773,-72.754,-605.469
1741690164.771,-1000.0,-66.406,-60.059,-1000.0
1741690164.775,-503.906,-17.578,-9.766,-601.562
1741690164.779,916.504,13.672,40.527,828.125
1741690164.783,882.812,-62.012,-5.371,916.016
1741690164.786,-579.59,-137.207,-102.051,-574.707
1741690164.79,-1000.0,-77.148,-75.195,-1000.0
1741690164.794,-670.898,-27.832,-1.465,-724.121
1741690164.798,753.418,-22.461,56.641,666.992
1741690164.802,930.176,-42.48,60.059,988.281
1741690164.801,-430.176,-69.336,32.715,-337.891
1741690164.805,-1000.0,-101.562,0.977,-1000.0
1741690164.809,-758.789,-83.008,13.184,-786.133
1741690164.813,636.23,-59.082,52.734,595.215
1741690164.817,999.512,-74.707,43.457,999.512
1741690164.821,-128.418,-71.777,21.484,-5.371
1741690164.825,-1000.0,-78.613,-32.715,-1000.0
1741690164.828,-892.578,-72.754,-53.711,-957.031
1741690164.832,502.441,-21.973,17.09,410.645
1741690164.836,999.512,-64.453,26.855,999.512
1741690164.84,-131.348,-184.57,-31.25,-18.066
1741690164.844,-1000.0,-150.879,-12.207,-1000.0
1741690164.801,-430.176,-69.336,32.715,-337.891
1741690164.805,-1000.0,-101.562,0.977,-1000.0
1741690164.809,-758.789,-83.008,13.184,-786.133
1741690164.813,636.23,-59.082,52.734,595.215
1741690164.817,999.512,-74.707,43.457,999.512
1741690164.821,-128.418,-71.777,21.484,-5.371
1741690164.825,-1000.0,-78.613,-32.715,-1000.0
1741690164.828,-892.578,-72.754,-53.711,-957.031
1741690164.832,502.441,-21.973,17.09,410.645
1741690164.836,999.512,-64.453,26.855,999.512
1741690164.84,-131.348,-184.57,-31.25,-18.066
1741690164.844,-1000.0,-150.879,-12.207,-1000.0
1741690164.846,-829.59,-43.457,21.973,-899.902
1741690164.85,496.582,1.953,41.992,427.246
1741690164.854,999.512,-28.809,45.41,999.512
1741690164.858,576.66,-59.082,14.648,579.102
1741690164.862,-749.023,-83.008,-18.555,-708.008
1741690164.866,-1000.0,-99.121,-0.488,-1000.0
1741690164.87,-218.262,-73.242,10.254,-362.305
1741690164.873,999.512,0.977,36.621,985.84
1741690164.877,775.391,-54.688,24.414,786.133
1741690164.881,-758.789,-127.441,-31.25,-729.492
1741690164.885,-1000.0,-72.266,-17.09,-1000.0
1741690164.889,304.688,36.133,13.184,127.441
1741690164.846,-829.59,-43.457,21.973,-899.902
1741690164.85,496.582,1.953,41.992,427.246
1741690164.854,999.512,-28.809,45.41,999.512
1741690164.858,576.66,-59.082,14.648,579.102
1741690164.862,-749.023,-83.008,-18.555,-708.008
1741690164.866,-1000.0,-99.121,-0.488,-1000.0
1741690164.87,-218.262,-73.242,10.254,-362.305
1741690164.873,999.512,0.977,36.621,985.84
1741690164.877,775.391,-54.688,24.414,786.133
1741690164.881,-758.789,-127.441,-31.25,-729.492
1741690164.885,-1000.0,-72.266,-17.09,-1000.0
1741690164.889,304.688,36.133,13.184,127.441
1741690164.891,999.512,10.742,25.391,999.512
1741690164.895,623.047,-83.496,-24.902,638.672
1741690164.899,-708.496,-103.027,-98.145,-688.965
1741690164.903,-1000.0,-81.543,-93.75,-1000.0
1741690164.907,-351.562,-69.824,-60.059,-469.727
1741690164.911,977.539,-29.785,4.395,893.555
1741690164.915,869.141,-38.574,12.207,893.066
1741690164.918,-577.148,-104.492,-109.375,-576.172
1741690164.922,-1000.0,-117.676,-110.352,-1000.0
1741690164.926,-321.289,-73.242,-39.062,-455.566
1741690164.93,987.305,-38.086,-87.402,893.555
1741690164.934,871.094,-58.594,-104.004,936.523
1741690164.891,999.512,10.742,25.391,999.512
1741690164.895,623.047,-83.496,-24.902,638.672
1741690164.899,-708.496,-103.027,-98.145,-688.965
1741690164.903,-1000.0,-81.543,-93.75,-1000.0
1741690164.907,-351.562,-69.824,-60.059,-469.727
1741690164.911,977.539,-29.785,4.395,893.555
1741690164.915,869.141,-38.574,12.207,893.066
1741690164.918,-577.148,-104.492,-109.375,-576.172
1741690164.922,-1000.0,-117.676,-110.352,-1000.0
1741690164.926,-321.289,-73.242,-39.062,-455.566
1741690164.93,987.305,-38.086,-87.402,893.555
1741690164.934,871.094,-58.594,-104.004,936.523
1741690164.937,-535.645,-111.328,-122.07,-485.84
1741690164.941,-1000.0,-110.352,-125.977,-1000.0
1741690164.945,-649.902,-68.848,-82.031,-691.895
1741690164.949,763.672,-21.484,-37.598,682.129
1741690164.953,999.512,-38.574,-34.18,999.512
1741690164.957,-335.449,-85.938,-88.379,-198.73
1741690164.961,-1000.0,-108.398,-128.418,-1000.0
1741690164.964,-824.707,-70.312,-109.375,-829.102
1741690164.968,558.594,0.488,-73.242,563.477
1741690164.972,999.512,-14.648,-53.223,999.512
1741690164.976,-142.09,-78.125,-90.332,-13.184
1741690164.98,-1000.0,-68.359,-122.559,-1000.0
1741690164.981,-865.234,-48.828,-87.402,-938.965
1741690164.985,485.352,-12.207,-41.504,388.672
1741690164.989,999.512,-34.668,-12.207,999.512
1741690164.993,169.922,-101.074,-63.965,245.117
1741690164.997,-1000.0,-68.359,-107.91,-994.141
1741690165.001,-921.875,-22.461,-51.27,-989.746
1741690165.005,460.449,-10.742,-20.02,364.258
1741690165.008,999.512,-57.617,-33.691,999.512
1741690165.012,321.777,-108.887,-46.875,357.422
1741690165.016,-1000.0,-125.977,-58.105,-979.98
1741690165.02,-890.137,-95.703,-43.457,-919.434
1741690165.024,538.574,4.395,-16.113,515.625
1741690164.981,-865.234,-48.828,-87.402,-938.965
1741690164.985,485.352,-12.207,-41.504,388.672
1741690164.989,999.512,-34.668,-12.207,999.512
1741690164.993,169.922,-101.074,-63.965,245.117
1741690164.997,-1000.0,-68.359,-107.91,-994.141
1741690165.001,-921.875,-22.461,-51.27,-989.746
1741690165.005,460.449,-10.742,-20.02,364.258
1741690165.008,999.512,-57.617,-33.691,999.512
1741690165.012,321.777,-108.887,-46.875,357.422
1741690165.016,-1000.0,-125.977,-58.105,-979.98
1741690165.02,-890.137,-95.703,-43.457,-919.434
1741690165.024,538.574,4.395,-16.113,515.625
1741690165.028,999.512,25.391,-15.137,999.512
1741690165.032,509.766,-27.832,-55.176,533.691
1741690165.036,-874.023,-73.242,-67.383,-803.711
1741690165.04,-1000.0,-42.969,-71.289,-1000.0
1741690165.044,320.801,-12.695,-76.66,157.227
1741690165.048,999.512,-77.637,-29.785,999.512
1741690165.052,792.48,-37.109,-28.809,789.062
1741690165.055,-604.492,-49.805,-116.211,-608.398
1741690165.059,-1000.0,-59.082,-108.887,-1000.0
1741690165.063,188.965,62.012,-28.809,-4.883
1741690165.067,999.512,42.48,-4.395,999.512
1741690165.071,790.039,-39.551,-40.039,801.27
1741690165.028,999.512,25.391,-15.137,999.512
1741690165.032,509.766,-27.832,-55.176,533.691
1741690165.036,-874.023,-73.242,-67.383,-803.711
1741690165.04,-1000.0,-42.969,-71.289,-1000.0
1741690165.044,320.801,-12.695,-76.66,157.227
1741690165.048,999.512,-77.637,-29.785,999.512
1741690165.052,792.48,-37.109,-28.809,789.062
1741690165.055,-604.492,-49.805,-116.211,-608.398
1741690165.059,-1000.0,-59.082,-108.887,-1000.0
1741690165.063,188.965,62.012,-28.809,-4.883
1741690165.067,999.512,42.48,-4.395,999.512
1741690165.071,790.039,-39.551,-40.039,801.27
1741690165.072,-551.758,-60.547,-72.266,-577.148
1741690165.076,-1000.0,-76.66,-94.727,-1000.0
1741690165.08,-286.133,-49.316,-62.988,-398.438
1741690165.084,999.512,23.438,-17.578,934.082
1741690165.088,845.703,-9.766,-45.898,902.832
1741690165.092,-570.801,-37.109,-49.805,-521.973
1741690165.096,-1000.0,9.766,-55.176,-1000.0
1741690165.099,-812.012,-12.695,-84.473,-795.898
1741690165.103,644.043,-57.617,-42.48,630.371
1741690165.107,999.512,-42.48,-4.395,999.512
1741690165.111,-495.117,-53.711,-58.594,-412.598
1741690165.115,-1000.0,-60.059,-106.445,-1000.0
1741690165.072,-551.758,-60.547,-72.266,-577.148
1741690165.076,-1000.0,-76.66,-94.727,-1000.0
1741690165.08,-286.133,-49.316,-62.988,-398.438
1741690165.084,999.512,23.438,-17.578,934.082
1741690165.088,845.703,-9.766,-45.898,902.832
1741690165.092,-570.801,-37.109,-49.805,-521.973
1741690165.096,-1000.0,9.766,-55.176,-1000.0
1741690165.099,-812.012,-12.695,-84.473,-795.898
1741690165.103,644.043,-57.617,-42.48,630.371
1741690165.107,999.512,-42.48,-4.395,999.512
1741690165.111,-495.117,-53.711,-58.594,-412.598
1741690165.115,-1000.0,-60.059,-106.445,-1000.0
1741690165.117,-642.09,-25.391,-87.402,-664.551
1741690165.121,684.57,6.836,-47.852,637.207
1741690165.125,999.512,-10.742,-22.461,999.512
1741690165.129,241.211,-41.504,-19.043,353.516
1741690165.133,-1000.0,-36.621,-56.152,-1000.0
1741690165.137,-837.891,-2.441,-39.062,-833.984
1741690165.141,650.879,7.812,-4.883,645.508
1741690165.144,999.512,-48.828,-39.551,999.512
1741690165.148,-63.477,-70.312,-69.824,138.184
1741690165.152,-1000.0,-47.852,-95.703,-1000.0
1741690165.156,-833.496,-40.039,-91.309,-851.074
1741690165.16,523.438,-25.391,-32.715,555.176
1741690165.117,-642.09,-25.391,-87.402,-664.551
1741690165.121,684.57,6.836,-47.852,637.207
1741690165.125,999.512,-10.742,-22.461,999.512
1741690165.129,241.211,-41.504,-19.043,353.516
1741690165.133,-1000.0,-36.621,-56.152,-1000.0
1741690165.137,-837.891,-2.441,-39.062,-833.984
1741690165.141,650.879,7.812,-4.883,645.508
1741690165.144,999.512,-48.828,-39.551,999.512
1741690165.148,-63.477,-70.312,-69.824,138.184
1741690165.152,-1000.0,-47.852,-95.703,-1000.0
1741690165.156,-833.496,-40.039,-91.309,-851.074
1741690165.16,523.438,-25.391,-32.715,555.176
1741690165.176,999.512,-11.23,-54.199,999.512
1741690165.18,377.441,-11.23,-74.219,447.754
1741690165.184,-971.68,-22.461,-36.133,-891.113
1741690165.188,-957.52,-62.012,-34.18,-1000.0
1741690165.192,445.312,-35.156,-47.363,365.723
1741690165.196,999.512,27.832,-25.391,999.512
1741690165.2,621.582,-4.395,-42.48,641.602
1741690165.203,-801.758,-73.73,-91.797,-736.816
1741690165.207,-1000.0,-46.387,-81.543,-1000.0
1741690165.211,330.078,30.273,-43.945,196.777
1741690165.215,999.512,8.789,-12.207,999.512
1741690165.219,794.434,-32.227,-19.531,790.039
1741690165.176,999.512,-11.23,-54.199,999.512
1741690165.18,377.441,-11.23,-74.219,447.754
1741690165.184,-971.68,-22.461,-36.133,-891.113
1741690165.188,-957.52,-62.012,-34.18,-1000.0
1741690165.192,445.312,-35.156,-47.363,365.723
1741690165.196,999.512,27.832,-25.391,999.512
1741690165.2,621.582,-4.395,-42.48,641.602
1741690165.203,-801.758,-73.73,-91.797,-736.816
1741690165.207,-1000.0,-46.387,-81.543,-1000.0
1741690165.211,330.078,30.273,-43.945,196.777
1741690165.215,999.512,8.789,-12.207,999.512
1741690165.219,794.434,-32.227,-19.531,790.039
1741690165.221,-600.098,-82.031,-60.547,-604.492
1741690165.225,-1000.0,-87.402,-68.848,-1000.0
1741690165.229,184.57,22.461,-15.625,20.996
1741690165.233,999.512,54.688,61.035,999.512
1741690165.237,788.086,2.441,35.156,806.641
1741690165.241,-540.527,-15.625,-13.672,-559.082
1741690165.245,-1000.0,-34.668,-39.551,-1000.0
1741690165.248,-394.043,-33.203,-32.715,-464.355
1741690165.252,968.75,-5.859,-5.371,904.785
1741690165.256,866.211,-32.715,-36.133,897.949
1741690165.26,-570.801,-37.598,-44.922,-561.523
1741690165.264,-1000.0,-20.02,-46.875,-1000.0
1741690165.221,-600.098,-82.031,-60.547,-604.492
1741690165.225,-1000.0,-87.402,-68.848,-1000.0
1741690165.229,184.57,22.461,-15.625,20.996
1741690165.233,999.512,54.688,61.035,999.512
1741690165.237,788.086,2.441,35.156,806.641
1741690165.241,-540.527,-15.625,-13.672,-559.082
1741690165.245,-1000.0,-34.668,-39.551,-1000.0
1741690165.248,-394.043,-33.203,-32.715,-464.355
1741690165.252,968.75,-5.859,-5.371,904.785
1741690165.256,866.211,-32.715,-36.133,897.949
1741690165.26,-570.801,-37.598,-44.922,-561.523
1741690165.264,-1000.0,-20.02,-46.875,-1000.0
1741690165.266,-544.434,-3.906,-60.547,-585.938
1741690165.27,815.918,15.137,-42.969,737.793
1741690165.274,999.512,-20.508,-16.113,999.512
1741690165.278,-236.816,-68.848,-26.367,-126.953
1741690165.282,-1000.0,-86.914,-66.895,-1000.0
1741690165.286,-660.156,-52.246,-52.246,-690.918
1741690165.29,830.566,-15.625,0.0,767.578
1741690165.293,947.266,-51.27,-15.137,997.07
1741690165.297,-531.25,-111.328,-55.176,-448.73
1741690165.301,-1000.0,-67.871,-33.203,-1000.0
1741690165.305,-693.359,-12.207,-2.93,-717.285
1741690165.309,677.246,-4.883,13.184,621.582
1741690165.266,-544.434,-3.906,-60.547,-585.938
1741690165.27,815.918,15.137,-42.969,737.793
1741690165.274,999.512,-20.508,-16.113,999.512
1741690165.278,-236.816,-68.848,-26.367,-126.953
1741690165.282,-1000.0,-86.914,-66.895,-1000.0
1741690165.286,-660.156,-52.246,-52.246,-690.918
1741690165.29,830.566,-15.625,0.0,767.578
1741690165.293,947.266,-51.27,-15.137,997.07
1741690165.297,-531.25,-111.328,-55.176,-448.73
1741690165.301,-1000.0,-67.871,-33.203,-1000.0
1741690165.305,-693.359,-12.207,-2.93,-717.285
1741690165.309,677.246,-4.883,13.184,621.582
1741690165.311,999.512,-15.137,15.137,999.512
1741690165.315,-58.594,-50.781,-18.066,105.469
1741690165.319,-1000.0,-63.477,-47.852,-1000.0
1741690165.323,-835.938,-35.645,-67.871,-858.398
1741690165.327,505.859,-9.277,-36.133,527.832
1741690165.331,999.512,17.09,40.527,999.512
1741690165.335,550.781,-23.438,9.277,578.125
1741690165.338,-905.273,-74.707,-70.312,-844.238
1741690165.342,-939.941,-32.227,-50.781,-988.281
1741690165.346,538.574,-16.602,5.371,481.934
1741690165.35,999.512,-29.297,17.578,999.512
1741690165.354,627.93,-41.504,-5.371,645.996
1741690165.372,-771.973,-74.219,-40.039,-709.961
1741690165.376,-1000.0,-66.895,-25.879,-1000.0
1741690165.38,228.027,-0.488,-18.066,96.68
1741690165.384,999.512,6.836,-15.137,999.512
1741690165.388,736.816,-60.059,-22.949,749.512
1741690165.392,-698.73,-98.145,-42.969,-673.34
1741690165.396,-1000.0,-105.469,-43.945,-1000.0
1741690165.399,274.414,-57.129,-19.531,122.07
1741690165.403,999.512,-46.387,-6.836,999.512
1741690165.407,794.434,-78.125,-22.949,788.574
1741690165.411,-599.121,-68.359,-35.156,-611.816
1741690165.415,-1000.0,-39.062,-41.016,-1000.0
1741690165.372,-771.973,-74.219,-40.039,-709.961
1741690165.376,-1000.0,-66.895,-25.879,-1000.0
1741690165.38,228.027,-0.488,-18.066,96.68
1741690165.384,999.512,6.836,-15.137,999.512
1741690165.388,736.816,-60.059,-22.949,749.512
1741690165.392,-698.73,-98.145,-42.969,-673.34
1741690165.396,-1000.0,-105.469,-43.945,-1000.0
1741690165.399,274.414,-57.129,-19.531,122.07
1741690165.403,999.512,-46.387,-6.836,999.512
1741690165.407,794.434,-78.125,-22.949,788.574
1741690165.411,-599.121,-68.359,-35.156,-611.816
1741690165.415,-1000.0,-39.062,-41.016,-1000.0
1741690165.403,145.508,-14.16,-3.906,-17.09
1741690165.407,999.512,-34.668,14.648,999.512
1741690165.411,811.523,-68.848,-18.555,863.77
1741690165.415,-556.641,-84.961,-39.551,-505.859
1741690165.419,-1000.0,-60.059,-27.832,-1000.0
1741690165.423,-113.281,-7.324,19.531,-258.301
1741690165.427,999.512,-33.203,28.32,994.629
1741690165.43,820.801,-101.074,-21.973,872.559
1741690165.434,-549.316,-95.215,-41.016,-524.902
1741690165.438,-1000.0,-72.266,-55.664,-1000.0
1741690165.442,-619.141,-57.129,-73.73,-658.203
1741690165.446,791.504,-29.297,-27.344,715.82
1741690165.403,145.508,-14.16,-3.906,-17.09
1741690165.407,999.512,-34.668,14.648,999.512
1741690165.411,811.523,-68.848,-18.555,863.77
1741690165.415,-556.641,-84.961,-39.551,-505.859
1741690165.419,-1000.0,-60.059,-27.832,-1000.0
1741690165.423,-113.281,-7.324,19.531,-258.301
1741690165.427,999.512,-33.203,28.32,994.629
1741690165.43,820.801,-101.074,-21.973,872.559
1741690165.434,-549.316,-95.215,-41.016,-524.902
1741690165.438,-1000.0,-72.266,-55.664,-1000.0
1741690165.442,-619.141,-57.129,-73.73,-658.203
1741690165.446,791.504,-29.297,-27.344,715.82
1741690165.403,145.508,-14.16,-3.906,-17.09
1741690165.407,999.512,-34.668,14.648,999.512
1741690165.411,811.523,-68.848,-18.555,863.77
1741690165.415,-556.641,-84.961,-39.551,-505.859
1741690165.419,-1000.0,-60.059,-27.832,-1000.0
1741690165.423,-113.281,-7.324,19.531,-258.301
1741690165.427,999.512,-33.203,28.32,994.629
1741690165.43,820.801,-101.074,-21.973,872.559
1741690165.434,-549.316,-95.215,-41.016,-524.902
1741690165.438,-1000.0,-72.266,-55.664,-1000.0
1741690165.442,-619.141,-57.129,-73.73,-658.203
1741690165.446,791.504,-29.297,-27.344,715.82
1741690165.446,999.512,-18.066,-4.883,999.512
1741690165.45,-351.562,-65.918,-67.871,-279.785
1741690165.454,-1000.0,-53.223,-48.828,-1000.0
1741690165.458,-462.891,-11.719,-15.137,-502.93
1741690165.462,859.863,-37.598,-35.156,791.016
1741690165.466,999.512,-44.922,-20.996,999.512
1741690165.47,-178.223,-44.922,-65.43,-2.93
1741690165.473,-1000.0,-75.195,-107.422,-1000.0
1741690165.477,-834.961,-70.801,-109.375,-896.973
1741690165.481,496.094,2.441,-95.703,448.73
1741690165.485,999.512,-25.879,-92.773,999.512
1741690165.489,325.684,-78.125,-119.629,394.531
1741690165.446,999.512,-18.066,-4.883,999.512
1741690165.45,-351.562,-65.918,-67.871,-279.785
1741690165.454,-1000.0,-53.223,-48.828,-1000.0
1741690165.458,-462.891,-11.719,-15.137,-502.93
1741690165.462,859.863,-37.598,-35.156,791.016
1741690165.466,999.512,-44.922,-20.996,999.512
1741690165.47,-178.223,-44.922,-65.43,-2.93
1741690165.473,-1000.0,-75.195,-107.422,-1000.0
1741690165.477,-834.961,-70.801,-109.375,-896.973
1741690165.481,496.094,2.441,-95.703,448.73
1741690165.485,999.512,-25.879,-92.773,999.512
1741690165.489,325.684,-78.125,-119.629,394.531
1741690165.971,695.312,18.066,54.688,665.039
1741690165.975,999.512,6.836,67.383,999.512
1741690165.979,-277.344,-39.551,59.57,-129.883
1741690165.983,-1000.0,-16.602,47.852,-1000.0
1741690165.987,-749.512,-15.137,34.18,-771.484
1741690165.991,669.922,3.906,66.895,637.695
1741690165.995,999.512,17.09,69.336,999.512
1741690165.998,-229.492,-62.5,-6.836,-76.66
1741690166.002,-1000.0,-100.586,-61.035,-1000.0
1741690166.006,-812.5,-42.48,-3.418,-834.473
1741690166.01,498.535,-16.602,42.48,515.137
1741690166.014,999.512,-28.32,42.969,999.512
1741690165.493,-1000.0,-61.035,-119.629,-956.055
1741690165.497,-908.203,5.371,-87.402,-943.359
1741690165.501,548.34,55.664,-26.855,513.184
1741690165.505,999.512,-0.977,2.441,999.512
1741690165.509,221.191,-58.105,-55.176,324.219
1741690165.513,-1000.0,-40.527,-67.383,-957.52
1741690165.517,-914.062,-41.504,-50.293,-986.816
1741690165.52,464.844,-18.555,-39.062,379.395
1741690165.524,999.512,-21.484,-1.953,999.512
1741690165.528,616.699,-35.645,-27.832,624.512
1741690165.532,-850.098,-58.594,-72.754,-792.969
1741690165.536,-983.398,-32.227,-11.719,-1000.0
1741690165.493,-1000.0,-61.035,-119.629,-956.055
1741690165.497,-908.203,5.371,-87.402,-943.359
1741690165.501,548.34,55.664,-26.855,513.184
1741690165.505,999.512,-0.977,2.441,999.512
1741690165.509,221.191,-58.105,-55.176,324.219
1741690165.513,-1000.0,-40.527,-67.383,-957.52
1741690165.517,-914.062,-41.504,-50.293,-986.816
1741690165.52,464.844,-18.555,-39.062,379.395
1741690165.524,999.512,-21.484,-1.953,999.512
1741690165.528,616.699,-35.645,-27.832,624.512
1741690165.532,-850.098,-58.594,-72.754,-792.969
1741690165.536,-983.398,-32.227,-11.719,-1000.0
1741690165.551,507.324,19.531,28.32,409.668
1741690165.555,999.512,8.789,15.625,999.512
1741690165.559,804.199,-1.953,7.812,784.668
1741690165.563,-583.984,-73.73,-43.457,-586.426
1741690165.567,-1000.0,-88.867,-60.547,-1000.0
1741690165.571,223.633,8.789,-26.367,56.152
1741690165.575,999.512,40.527,-15.625,999.512
1741690165.578,770.508,-13.672,-35.645,780.762
1741690165.582,-571.289,-84.473,-78.613,-585.449
1741690165.586,-1000.0,-78.125,-71.289,-1000.0
1741690165.59,-263.672,-4.883,-40.527,-392.578
1741690165.594,999.512,50.293,7.324,935.547
1741690165.551,507.324,19.531,28.32,409.668
1741690165.555,999.512,8.789,15.625,999.512
1741690165.559,804.199,-1.953,7.812,784.668
1741690165.563,-583.984,-73.73,-43.457,-586.426
1741690165.567,-1000.0,-88.867,-60.547,-1000.0
1741690165.571,223.633,8.789,-26.367,56.152
1741690165.575,999.512,40.527,-15.625,999.512
1741690165.578,770.508,-13.672,-35.645,780.762
1741690165.582,-571.289,-84.473,-78.613,-585.449
1741690165.586,-1000.0,-78.125,-71.289,-1000.0
1741690165.59,-263.672,-4.883,-40.527,-392.578
1741690165.594,999.512,50.293,7.324,935.547
1741690165.596,854.492,-28.809,15.625,910.156
1741690165.6,-569.824,-95.703,-51.758,-527.832
1741690165.604,-1000.0,-45.898,-57.129,-1000.0
1741690165.608,-338.867,6.348,-23.438,-414.062
1741690165.612,972.656,10.742,-29.785,897.461
1741690165.616,897.461,-25.391,-22.949,959.961
1741690165.62,-498.535,-92.285,-53.223,-425.781
1741690165.623,-1000.0,-76.172,-66.406,-1000.0
1741690165.627,-659.668,-1.465,-33.203,-685.547
1741690165.631,696.289,-23.926,-1.465,634.766
1741690165.635,999.512,-38.086,13.184,999.512
1741690165.639,5.371,-23.926,-5.859,158.691
1741690165.596,854.492,-28.809,15.625,910.156
1741690165.6,-569.824,-95.703,-51.758,-527.832
1741690165.604,-1000.0,-45.898,-57.129,-1000.0
1741690165.608,-338.867,6.348,-23.438,-414.062
1741690165.612,972.656,10.742,-29.785,897.461
1741690165.616,897.461,-25.391,-22.949,959.961
1741690165.62,-498.535,-92.285,-53.223,-425.781
1741690165.623,-1000.0,-76.172,-66.406,-1000.0
1741690165.627,-659.668,-1.465,-33.203,-685.547
1741690165.631,696.289,-23.926,-1.465,634.766
1741690165.635,999.512,-38.086,13.184,999.512
1741690165.639,5.371,-23.926,-5.859,158.691
1741690165.642,-1000.0,-22.949,-29.785,-1000.0
1741690165.646,-822.266,1.953,-16.113,-828.613
1741690165.65,639.648,6.348,1.465,636.719
1741690165.654,999.512,-51.758,-12.207,999.512
1741690165.658,-210.449,-95.215,-20.996,-47.363
1741690165.662,-1000.0,-57.617,-20.02,-1000.0
1741690165.666,-792.969,-2.93,0.488,-808.594
1741690165.669,571.289,37.109,22.461,574.219
1741690165.673,999.512,-15.137,0.977,999.512
1741690165.677,133.789,-89.844,-43.945,284.668
1741690165.681,-1000.0,-87.402,-44.922,-998.535
1741690165.685,-862.305,-59.082,-6.836,-927.734
1741690165.686,519.531,-32.715,6.836,478.516
1741690165.69,999.512,-17.578,12.207,999.512
1741690165.694,618.164,-54.199,-9.766,636.719
1741690165.698,-814.941,-59.082,-45.898,-744.629
1741690165.702,-1000.0,4.883,-48.34,-1000.0
1741690165.706,381.348,77.637,7.324,294.434
1741690165.71,999.512,34.18,16.602,999.512
1741690165.713,556.641,-62.988,-55.176,597.656
1741690165.717,-819.336,-65.43,-94.727,-746.582
1741690165.721,-1000.0,-39.551,-83.984,-1000.0
1741690165.725,165.527,18.555,-57.129,-4.395
1741690165.729,999.512,39.062,-31.738,999.512
1741690165.686,519.531,-32.715,6.836,478.516
1741690165.69,999.512,-17.578,12.207,999.512
1741690165.694,618.164,-54.199,-9.766,636.719
1741690165.698,-814.941,-59.082,-45.898,-744.629
1741690165.702,-1000.0,4.883,-48.34,-1000.0
1741690165.706,381.348,77.637,7.324,294.434
1741690165.71,999.512,34.18,16.602,999.512
1741690165.713,556.641,-62.988,-55.176,597.656
1741690165.717,-819.336,-65.43,-94.727,-746.582
1741690165.721,-1000.0,-39.551,-83.984,-1000.0
1741690165.725,165.527,18.555,-57.129,-4.395
1741690165.729,999.512,39.062,-31.738,999.512
1741690165.731,847.656,2.93,-41.016,868.652
1741690165.735,-627.93,-50.293,-82.52,-617.676
1741690165.739,-1000.0,-23.926,-52.734,-1000.0
1741690165.743,453.125,34.18,-9.766,360.352
1741690165.747,999.512,19.043,-13.672,999.512
1741690165.751,772.949,20.02,0.977,792.48
1741690165.755,-517.578,-2.93,-31.25,-505.859
1741690165.758,-1000.0,-25.391,-80.078,-1000.0
1741690165.762,-462.891,-22.949,-57.617,-496.582
1741690165.766,880.371,20.02,-20.508,815.43
1741690165.77,999.512,35.156,-1.465,999.512
1741690165.774,-328.613,-10.742,-13.672,-203.613
1741690165.777,-1000.0,-20.02,-17.09,-1000.0
1741690165.781,-619.629,23.926,-4.883,-640.625
1741690165.785,746.094,3.418,-3.418,694.824
1741690165.789,999.512,-27.832,13.184,999.512
1741690165.793,-18.066,-17.09,9.766,148.926
1741690165.797,-1000.0,-21.973,15.137,-1000.0
1741690165.801,-820.312,-19.531,9.766,-824.219
1741690165.804,555.176,3.906,-1.953,581.543
1741690165.808,999.512,5.371,46.875,999.512
1741690165.812,299.805,-10.254,9.766,409.668
1741690165.816,-1000.0,-47.852,-79.59,-964.844
1741690165.82,-885.742,-34.668,-73.242,-901.367
1741690165.777,-1000.0,-20.02,-17.09,-1000.0
1741690165.781,-619.629,23.926,-4.883,-640.625
1741690165.785,746.094,3.418,-3.418,694.824
1741690165.789,999.512,-27.832,13.184,999.512
1741690165.793,-18.066,-17.09,9.766,148.926
1741690165.797,-1000.0,-21.973,15.137,-1000.0
1741690165.801,-820.312,-19.531,9.766,-824.219
1741690165.804,555.176,3.906,-1.953,581.543
1741690165.808,999.512,5.371,46.875,999.512
1741690165.812,299.805,-10.254,9.766,409.668
1741690165.816,-1000.0,-47.852,-79.59,-964.844
1741690165.82,-885.742,-34.668,-73.242,-901.367
1741690165.821,539.062,1.953,-45.41,555.664
1741690165.825,999.512,31.738,1.465,999.512
1741690165.829,746.582,57.617,24.414,750.488
1741690165.833,-714.355,-31.25,-22.461,-681.152
1741690165.837,-1000.0,-44.434,-45.898,-1000.0
1741690165.841,461.426,34.18,-27.832,409.18
1741690165.845,999.512,16.113,-27.344,999.512
1741690165.848,619.141,-25.879,-63.965,702.148
1741690165.852,-856.934,-53.223,-67.871,-759.766
1741690165.856,-963.379,-92.773,-30.273,-1000.0
1741690165.86,537.598,-34.18,35.645,505.371
1741690165.864,999.512,65.918,93.262,999.512
1741690165.821,539.062,1.953,-45.41,555.664
1741690165.825,999.512,31.738,1.465,999.512
1741690165.829,746.582,57.617,24.414,750.488
1741690165.833,-714.355,-31.25,-22.461,-681.152
1741690165.837,-1000.0,-44.434,-45.898,-1000.0
1741690165.841,461.426,34.18,-27.832,409.18
1741690165.845,999.512,16.113,-27.344,999.512
1741690165.848,619.141,-25.879,-63.965,702.148
1741690165.852,-856.934,-53.223,-67.871,-759.766
1741690165.856,-963.379,-92.773,-30.273,-1000.0
1741690165.86,537.598,-34.18,35.645,505.371
1741690165.864,999.512,65.918,93.262,999.512
1741690165.869,792.48,4.395,46.875,810.059
1741690165.873,-676.27,-58.105,-10.254,-641.602
1741690165.877,-1000.0,-24.902,0.0,-1000.0
1741690165.881,520.996,27.344,46.875,464.844
1741690165.885,999.512,21.973,80.566,999.512
1741690165.889,790.527,-36.621,75.684,799.805
1741690165.893,-538.086,-91.309,41.992,-518.555
1741690165.896,-1000.0,-82.52,-12.695,-1000.0
1741690165.9,-115.234,-8.789,-11.719,-211.426
1741690165.904,999.512,16.113,20.02,986.328
1741690165.908,871.094,-70.312,5.371,932.617
1741690165.912,-566.895,-87.891,-2.93,-484.375
1741690165.869,792.48,4.395,46.875,810.059
1741690165.873,-676.27,-58.105,-10.254,-641.602
1741690165.877,-1000.0,-24.902,0.0,-1000.0
1741690165.881,520.996,27.344,46.875,464.844
1741690165.885,999.512,21.973,80.566,999.512
1741690165.889,790.527,-36.621,75.684,799.805
1741690165.893,-538.086,-91.309,41.992,-518.555
1741690165.896,-1000.0,-82.52,-12.695,-1000.0
1741690165.9,-115.234,-8.789,-11.719,-211.426
1741690165.904,999.512,16.113,20.02,986.328
1741690165.908,871.094,-70.312,5.371,932.617
1741690165.912,-566.895,-87.891,-2.93,-484.375
1741690165.941,-1000.0,-59.082,35.645,-1000.0
1741690165.945,62.012,22.461,115.723,-41.504
1741690165.949,999.512,37.109,106.934,999.512
1741690165.953,800.293,-53.223,32.715,856.934
1741690165.957,-537.109,-78.613,38.086,-491.699
1741690165.961,-1000.0,-6.836,58.105,-1000.0
1741690165.965,-512.695,-7.812,43.457,-520.996
1741690165.968,838.867,-27.832,79.59,779.297
1741690165.972,999.512,11.23,118.652,999.512
1741690165.976,-246.094,-22.949,75.684,-81.055
1741690165.98,-1000.0,-58.594,44.922,-1000.0
1741690165.984,-739.258,-28.32,41.992,-752.441
1741690165.941,-1000.0,-59.082,35.645,-1000.0
1741690165.945,62.012,22.461,115.723,-41.504
1741690165.949,999.512,37.109,106.934,999.512
1741690165.953,800.293,-53.223,32.715,856.934
1741690165.957,-537.109,-78.613,38.086,-491.699
1741690165.961,-1000.0,-6.836,58.105,-1000.0
1741690165.965,-512.695,-7.812,43.457,-520.996
1741690165.968,838.867,-27.832,79.59,779.297
1741690165.972,999.512,11.23,118.652,999.512
1741690165.976,-246.094,-22.949,75.684,-81.055
1741690165.98,-1000.0,-58.594,44.922,-1000.0
1741690165.984,-739.258,-28.32,41.992,-752.441
1741690166.016,603.027,-43.945,17.578,622.559
1741690166.02,-875.488,-81.543,-22.949,-828.613
1741690166.024,-937.5,-1.465,12.695,-938.965
1741690166.028,562.5,30.273,39.551,576.172
1741690166.032,999.512,-45.898,27.832,999.512
1741690166.036,647.949,-61.035,14.648,657.227
1741690166.04,-679.688,-80.078,-16.602,-633.301
1741690166.043,-1000.0,-106.445,-41.992,-1000.0
1741690166.047,-265.625,-68.359,-47.363,-400.879
1741690166.051,999.512,-50.781,5.371,953.125
1741690166.055,856.445,-57.129,12.207,854.492
1741690166.059,-603.027,-64.453,-22.461,-624.023
1741690166.016,603.027,-43.945,17.578,622.559
1741690166.02,-875.488,-81.543,-22.949,-828.613
1741690166.024,-937.5,-1.465,12.695,-938.965
1741690166.028,562.5,30.273,39.551,576.172
1741690166.032,999.512,-45.898,27.832,999.512
1741690166.036,647.949,-61.035,14.648,657.227
1741690166.04,-679.688,-80.078,-16.602,-633.301
1741690166.043,-1000.0,-106.445,-41.992,-1000.0
1741690166.047,-265.625,-68.359,-47.363,-400.879
1741690166.051,999.512,-50.781,5.371,953.125
1741690166.055,856.445,-57.129,12.207,854.492
1741690166.059,-603.027,-64.453,-22.461,-624.023
1741690166.527,999.512,1.465,-96.191,999.512
1741690166.531,702.148,-52.246,-70.312,699.707
1741690166.535,-704.59,-38.086,-104.004,-664.551
1741690166.539,-1000.0,-15.625,-118.164,-1000.0
1741690166.543,230.957,2.93,-60.059,51.27
1741690166.547,999.512,-2.93,-27.344,999.512
1741690166.551,789.551,-37.109,-63.477,796.875
1741690166.554,-672.852,-49.316,-131.836,-670.41
1741690166.558,-1000.0,-59.082,-111.328,-1000.0
1741690166.562,395.996,-33.691,-46.387,277.832
1741690166.566,999.512,20.508,-39.062,999.512
1741690166.57,765.625,-12.695,-64.941,754.395
1741690166.061,-1000.0,-92.285,-38.086,-1000.0
1741690166.065,-83.984,-62.988,-9.277,-265.137
1741690166.069,999.512,-64.941,51.758,999.512
1741690166.073,823.73,-88.867,41.016,840.332
1741690166.077,-558.105,-101.562,-39.551,-584.473
1741690166.081,-1000.0,-71.777,-35.645,-1000.0
1741690166.085,-373.535,-23.926,0.488,-473.145
1741690166.088,968.75,-40.527,11.23,888.184
1741690166.092,884.277,-56.152,49.316,942.383
1741690166.096,-534.18,-102.051,-22.461,-481.445
1741690166.1,-1000.0,-122.559,-65.43,-1000.0
1741690166.104,-614.746,-95.215,-4.883,-665.039
1741690166.106,848.145,-45.41,25.391,765.137
1741690166.11,917.48,-18.066,34.18,969.727
1741690166.114,-571.289,-61.035,-6.348,-508.301
1741690166.118,-1000.0,-82.031,-68.359,-1000.0
1741690166.122,-764.16,-50.293,-40.039,-785.645
1741690166.126,671.387,-7.324,21.484,622.559
1741690166.13,999.512,-68.359,5.371,999.512
1741690166.133,-407.227,-143.555,-57.617,-315.918
1741690166.137,-1000.0,-135.254,-106.445,-1000.0
1741690166.141,-823.73,-72.754,-90.332,-822.754
1741690166.145,532.715,-34.18,-71.289,530.273
1741690166.149,999.512,-78.613,-61.523,999.512
1741690166.106,848.145,-45.41,25.391,765.137
1741690166.11,917.48,-18.066,34.18,969.727
1741690166.114,-571.289,-61.035,-6.348,-508.301
1741690166.118,-1000.0,-82.031,-68.359,-1000.0
1741690166.122,-764.16,-50.293,-40.039,-785.645
1741690166.126,671.387,-7.324,21.484,622.559
1741690166.13,999.512,-68.359,5.371,999.512
1741690166.133,-407.227,-143.555,-57.617,-315.918
1741690166.137,-1000.0,-135.254,-106.445,-1000.0
1741690166.141,-823.73,-72.754,-90.332,-822.754
1741690166.145,532.715,-34.18,-71.289,530.273
1741690166.149,999.512,-78.613,-61.523,999.512
1741690166.153,-32.227,-128.906,-81.543,91.797
1741690166.157,-1000.0,-99.121,-104.492,-1000.0
1741690166.161,-841.309,-58.105,-88.379,-874.512
1741690166.165,508.789,-48.828,-47.363,504.395
1741690166.169,999.512,-58.594,-25.391,999.512
1741690166.173,482.422,-64.453,-64.453,486.816
1741690166.177,-870.117,-107.422,-117.676,-811.523
1741690166.18,-1000.0,-126.465,-120.117,-1000.0
1741690166.184,204.102,-63.477,-71.289,12.695
1741690166.188,999.512,-37.109,-52.734,999.512
1741690166.192,505.859,-64.453,-67.871,503.906
1741690166.196,-874.512,-48.828,-65.918,-838.379
1741690166.153,-32.227,-128.906,-81.543,91.797
1741690166.157,-1000.0,-99.121,-104.492,-1000.0
1741690166.161,-841.309,-58.105,-88.379,-874.512
1741690166.165,508.789,-48.828,-47.363,504.395
1741690166.169,999.512,-58.594,-25.391,999.512
1741690166.173,482.422,-64.453,-64.453,486.816
1741690166.177,-870.117,-107.422,-117.676,-811.523
1741690166.18,-1000.0,-126.465,-120.117,-1000.0
1741690166.184,204.102,-63.477,-71.289,12.695
1741690166.188,999.512,-37.109,-52.734,999.512
1741690166.192,505.859,-64.453,-67.871,503.906
1741690166.196,-874.512,-48.828,-65.918,-838.379
1741690166.197,-1000.0,-58.594,-92.285,-1000.0
1741690166.201,194.336,-54.199,-124.512,-2.93
1741690166.205,999.512,-36.621,-82.031,999.512
1741690166.209,714.355,-73.242,-68.359,735.84
1741690166.213,-693.359,-152.832,-131.836,-669.922
1741690166.217,-1000.0,-145.508,-136.23,-1000.0
1741690166.221,89.844,-90.82,-99.609,-115.234
1741690166.224,999.512,-80.566,-51.27,999.512
1741690166.228,777.832,-82.031,-52.734,794.922
1741690166.232,-569.336,-100.098,-117.676,-599.121
1741690166.236,-1000.0,-106.445,-131.348,-1000.0
1741690166.24,-422.363,-90.82,-103.027,-525.391
1741690166.197,-1000.0,-58.594,-92.285,-1000.0
1741690166.201,194.336,-54.199,-124.512,-2.93
1741690166.205,999.512,-36.621,-82.031,999.512
1741690166.209,714.355,-73.242,-68.359,735.84
1741690166.213,-693.359,-152.832,-131.836,-669.922
1741690166.217,-1000.0,-145.508,-136.23,-1000.0
1741690166.221,89.844,-90.82,-99.609,-115.234
1741690166.224,999.512,-80.566,-51.27,999.512
1741690166.228,777.832,-82.031,-52.734,794.922
1741690166.232,-569.336,-100.098,-117.676,-599.121
1741690166.236,-1000.0,-106.445,-131.348,-1000.0
1741690166.24,-422.363,-90.82,-103.027,-525.391
1741690166.243,956.543,-30.762,-32.227,881.348
1741690166.247,874.512,-53.711,-39.551,881.836
1741690166.251,-590.332,-135.742,-90.332,-608.398
1741690166.255,-1000.0,-102.051,-40.039,-1000.0
1741690166.259,-322.754,-43.945,-23.926,-450.195
1741690166.263,990.234,-13.184,-16.602,909.18
1741690166.267,854.98,-61.523,-19.531,897.461
1741690166.27,-565.918,-147.461,-76.66,-558.594
1741690166.274,-1000.0,-131.348,-60.547,-1000.0
1741690166.278,-631.836,-77.637,-24.902,-684.57
1741690166.282,819.336,-36.621,-26.367,726.562
1741690166.286,962.402,-37.109,-60.547,999.512
1741690166.243,956.543,-30.762,-32.227,881.348
1741690166.247,874.512,-53.711,-39.551,881.836
1741690166.251,-590.332,-135.742,-90.332,-608.398
1741690166.255,-1000.0,-102.051,-40.039,-1000.0
1741690166.259,-322.754,-43.945,-23.926,-450.195
1741690166.263,990.234,-13.184,-16.602,909.18
1741690166.267,854.98,-61.523,-19.531,897.461
1741690166.27,-565.918,-147.461,-76.66,-558.594
1741690166.274,-1000.0,-131.348,-60.547,-1000.0
1741690166.278,-631.836,-77.637,-24.902,-684.57
1741690166.282,819.336,-36.621,-26.367,726.562
1741690166.286,962.402,-37.109,-60.547,999.512
1741690166.301,-504.883,-99.609,-100.098,-436.523
1741690166.305,-1000.0,-101.074,-73.73,-1000.0
1741690166.309,-536.621,-42.969,-17.09,-609.375
1741690166.313,846.68,3.906,9.766,755.859
1741690166.317,999.512,-29.785,19.043,999.512
1741690166.321,-353.516,-117.676,-18.066,-223.145
1741690166.325,-1000.0,-105.469,-41.504,-1000.0
1741690166.328,-814.941,-33.691,-14.648,-807.129
1741690166.332,545.898,-21.484,-3.906,558.105
1741690166.336,999.512,-23.438,2.93,999.512
1741690166.34,-18.066,-44.922,-22.461,144.531
1741690166.344,-1000.0,-104.004,-42.48,-1000.0
1741690166.301,-504.883,-99.609,-100.098,-436.523
1741690166.305,-1000.0,-101.074,-73.73,-1000.0
1741690166.309,-536.621,-42.969,-17.09,-609.375
1741690166.313,846.68,3.906,9.766,755.859
1741690166.317,999.512,-29.785,19.043,999.512
1741690166.321,-353.516,-117.676,-18.066,-223.145
1741690166.325,-1000.0,-105.469,-41.504,-1000.0
1741690166.328,-814.941,-33.691,-14.648,-807.129
1741690166.332,545.898,-21.484,-3.906,558.105
1741690166.336,999.512,-23.438,2.93,999.512
1741690166.34,-18.066,-44.922,-22.461,144.531
1741690166.344,-1000.0,-104.004,-42.48,-1000.0
1741690166.346,-840.82,-43.457,-22.949,-872.07
1741690166.35,508.789,14.648,-27.832,520.508
1741690166.354,999.512,-37.598,-29.297,999.512
1741690166.358,637.207,-36.133,-10.254,659.18
1741690166.362,-798.828,-61.523,-61.523,-730.957
1741690166.366,-1000.0,-48.34,-72.754,-1000.0
1741690166.37,371.582,13.672,-12.695,273.438
