timestamps,TP9,AF7,AF8,TP10
1741692798.238,218.75,-675.781,-32.227,181.152
1741692798.242,-1000.0,-1000.0,-46.875,-1000.0
1741692798.246,-901.367,313.477,16.113,-856.445
1741692798.25,440.918,999.512,62.988,521.484
1741692798.254,999.512,122.07,3.906,999.512
1741692798.258,-55.664,-1000.0,-35.645,-246.582
1741692798.262,-1000.0,-484.863,-31.738,-1000.0
1741692798.265,-1000.0,294.434,-17.578,-1000.0
1741692798.269,-221.68,730.957,17.578,-143.555
1741692798.273,999.512,478.516,6.348,999.512
1741692798.277,179.688,-987.305,-43.457,137.695
1741692798.281,-1000.0,-761.719,-45.41,-1000.0
1741692798.238,218.75,-675.781,-32.227,181.152
1741692798.242,-1000.0,-1000.0,-46.875,-1000.0
1741692798.246,-901.367,313.477,16.113,-856.445
1741692798.25,440.918,999.512,62.988,521.484
1741692798.254,999.512,122.07,3.906,999.512
1741692798.258,-55.664,-1000.0,-35.645,-246.582
1741692798.262,-1000.0,-484.863,-31.738,-1000.0
1741692798.265,-1000.0,294.434,-17.578,-1000.0
1741692798.269,-221.68,730.957,17.578,-143.555
1741692798.273,999.512,478.516,6.348,999.512
1741692798.277,179.688,-987.305,-43.457,137.695
1741692798.281,-1000.0,-761.719,-45.41,-1000.0
1741692798.283,-1000.0,468.75,-24.414,-1000.0
1741692798.287,-5.859,999.512,-10.254,82.031
1741692798.291,999.512,271.973,-28.32,999.512
1741692798.295,203.613,-1000.0,-57.617,183.105
1741692798.299,-1000.0,-807.129,-60.547,-1000.0
1741692798.303,-1000.0,510.742,-32.227,-1000.0
1741692798.307,-36.621,999.512,-4.883,45.41
1741692798.31,999.512,260.254,-32.715,999.512
1741692798.314,233.398,-953.613,-63.965,199.219
1741692798.318,-986.328,-1000.0,-60.547,-999.512
1741692798.322,-1000.0,-126.953,-53.711,-1000.0
1741692798.326,-260.742,999.512,-5.859,-210.938
1741692798.283,-1000.0,468.75,-24.414,-1000.0
1741692798.287,-5.859,999.512,-10.254,82.031
1741692798.291,999.512,271.973,-28.32,999.512
1741692798.295,203.613,-1000.0,-57.617,183.105
1741692798.299,-1000.0,-807.129,-60.547,-1000.0
1741692798.303,-1000.0,510.742,-32.227,-1000.0
1741692798.307,-36.621,999.512,-4.883,45.41
1741692798.31,999.512,260.254,-32.715,999.512
1741692798.314,233.398,-953.613,-63.965,199.219
1741692798.318,-986.328,-1000.0,-60.547,-999.512
1741692798.322,-1000.0,-126.953,-53.711,-1000.0
1741692798.326,-260.742,999.512,-5.859,-210.938
1741692798.329,999.512,687.5,3.418,999.512
1741692798.333,504.883,-583.496,-40.039,398.438
1741692798.337,-926.758,-1000.0,-63.477,-952.637
1741692798.341,-1000.0,128.906,-45.898,-1000.0
1741692798.345,-1000.0,464.355,-18.555,-998.535
1741692798.349,-19.043,459.473,-6.348,185.547
1741692798.353,999.512,292.48,-34.668,999.512
1741692798.356,-10.742,-1000.0,-81.543,-220.703
1741692798.36,-1000.0,-808.594,-67.383,-1000.0
1741692798.364,-308.105,651.855,-9.766,-311.035
1741692798.368,999.512,782.715,9.766,999.512
1741692798.372,831.543,-605.469,-41.992,674.805
1741692798.329,999.512,687.5,3.418,999.512
1741692798.333,504.883,-583.496,-40.039,398.438
1741692798.337,-926.758,-1000.0,-63.477,-952.637
1741692798.341,-1000.0,128.906,-45.898,-1000.0
1741692798.345,-1000.0,464.355,-18.555,-998.535
1741692798.349,-19.043,459.473,-6.348,185.547
1741692798.353,999.512,292.48,-34.668,999.512
1741692798.356,-10.742,-1000.0,-81.543,-220.703
1741692798.36,-1000.0,-808.594,-67.383,-1000.0
1741692798.364,-308.105,651.855,-9.766,-311.035
1741692798.368,999.512,782.715,9.766,999.512
1741692798.372,831.543,-605.469,-41.992,674.805
1741692798.375,-496.582,-1000.0,-66.406,-664.551
1741692798.379,-1000.0,-291.992,-49.316,-1000.0
1741692798.383,-472.656,904.785,-23.926,-432.617
1741692798.387,855.957,999.512,5.371,919.922
1741692798.391,999.512,106.934,-9.277,966.797
1741692798.395,-77.148,-1000.0,-46.875,-272.461
1741692798.399,-1000.0,-456.543,-34.668,-1000.0
1741692798.402,-857.91,488.77,-26.367,-762.207
1741692798.406,414.551,984.863,4.395,531.25
1741692798.41,999.512,201.172,-9.277,999.512
1741692798.414,175.781,-1000.0,-67.871,87.891
1741692798.418,-1000.0,-462.891,-55.176,-1000.0
1741692798.375,-496.582,-1000.0,-66.406,-664.551
1741692798.379,-1000.0,-291.992,-49.316,-1000.0
1741692798.383,-472.656,904.785,-23.926,-432.617
1741692798.387,855.957,999.512,5.371,919.922
1741692798.391,999.512,106.934,-9.277,966.797
1741692798.395,-77.148,-1000.0,-46.875,-272.461
1741692798.399,-1000.0,-456.543,-34.668,-1000.0
1741692798.402,-857.91,488.77,-26.367,-762.207
1741692798.406,414.551,984.863,4.395,531.25
1741692798.41,999.512,201.172,-9.277,999.512
1741692798.414,175.781,-1000.0,-67.871,87.891
1741692798.418,-1000.0,-462.891,-55.176,-1000.0
1741692798.419,-826.66,824.707,-17.09,-748.535
1741692798.423,528.32,999.512,11.23,616.211
1741692798.427,999.512,194.824,-16.602,999.512
1741692798.431,186.035,-1000.0,-49.316,26.855
1741692798.435,-1000.0,-1000.0,-62.988,-1000.0
1741692798.439,-631.836,22.949,-28.809,-562.988
1741692798.443,781.738,999.512,21.973,818.848
1741692798.446,999.512,277.344,-10.742,999.512
1741692798.45,4.395,-990.723,-70.312,-86.426
1741692798.454,-1000.0,-989.258,-80.078,-1000.0
1741692798.458,-1000.0,133.789,-42.48,-996.582
1741692798.462,36.133,999.512,-9.766,138.672
1741692798.419,-826.66,824.707,-17.09,-748.535
1741692798.423,528.32,999.512,11.23,616.211
1741692798.427,999.512,194.824,-16.602,999.512
1741692798.431,186.035,-1000.0,-49.316,26.855
1741692798.435,-1000.0,-1000.0,-62.988,-1000.0
1741692798.439,-631.836,22.949,-28.809,-562.988
1741692798.443,781.738,999.512,21.973,818.848
1741692798.446,999.512,277.344,-10.742,999.512
1741692798.45,4.395,-990.723,-70.312,-86.426
1741692798.454,-1000.0,-989.258,-80.078,-1000.0
1741692798.458,-1000.0,133.789,-42.48,-996.582
1741692798.462,36.133,999.512,-9.766,138.672
1741692798.419,-826.66,824.707,-17.09,-748.535
1741692798.423,528.32,999.512,11.23,616.211
1741692798.427,999.512,194.824,-16.602,999.512
1741692798.431,186.035,-1000.0,-49.316,26.855
1741692798.435,-1000.0,-1000.0,-62.988,-1000.0
1741692798.439,-631.836,22.949,-28.809,-562.988
1741692798.443,781.738,999.512,21.973,818.848
1741692798.446,999.512,277.344,-10.742,999.512
1741692798.45,4.395,-990.723,-70.312,-86.426
1741692798.454,-1000.0,-989.258,-80.078,-1000.0
1741692798.458,-1000.0,133.789,-42.48,-996.582
1741692798.462,36.133,999.512,-9.766,138.672
1741692798.465,999.512,408.691,-24.902,999.512
1741692798.469,144.531,-943.359,-72.754,128.418
1741692798.473,-1000.0,-1000.0,-69.824,-1000.0
1741692798.477,-1000.0,196.777,-22.461,-1000.0
1741692798.481,-75.195,999.512,3.906,18.066
1741692798.485,999.512,925.293,0.488,999.512
1741692798.489,412.598,-149.414,-49.316,367.676
1741692798.492,-950.195,-1000.0,-85.938,-986.816
1741692798.496,-1000.0,-108.887,-58.594,-1000.0
1741692798.5,66.406,999.512,-15.137,185.059
1741692798.504,999.512,223.145,-21.973,999.512
1741692798.508,690.43,-996.582,-72.266,556.152
1741692798.508,-624.512,-1000.0,-80.566,-727.539
1741692798.512,-1000.0,-346.191,-77.148,-1000.0
1741692798.516,-230.469,968.262,-35.156,-180.176
1741692798.52,999.512,976.074,-17.578,999.512
1741692798.524,427.734,-388.184,-61.035,336.914
1741692798.528,-931.152,-1000.0,-67.383,-958.008
1741692798.532,-1000.0,-585.449,-55.176,-1000.0
1741692798.535,-871.094,-398.438,-40.039,-824.219
1741692798.539,519.043,904.785,-18.555,631.348
1741692798.543,999.512,265.137,-45.41,870.117
1741692798.547,-478.516,-1000.0,-79.102,-660.645
1741692798.551,-1000.0,35.645,-69.336,-1000.0
1741692798.508,-624.512,-1000.0,-80.566,-727.539
1741692798.512,-1000.0,-346.191,-77.148,-1000.0
1741692798.516,-230.469,968.262,-35.156,-180.176
1741692798.52,999.512,976.074,-17.578,999.512
1741692798.524,427.734,-388.184,-61.035,336.914
1741692798.528,-931.152,-1000.0,-67.383,-958.008
1741692798.532,-1000.0,-585.449,-55.176,-1000.0
1741692798.535,-871.094,-398.438,-40.039,-824.219
1741692798.539,519.043,904.785,-18.555,631.348
1741692798.543,999.512,265.137,-45.41,870.117
1741692798.547,-478.516,-1000.0,-79.102,-660.645
1741692798.551,-1000.0,35.645,-69.336,-1000.0
1741692798.556,-1000.0,554.688,-42.969,-1000.0
1741692798.56,-291.016,332.031,-40.039,-235.84
1741692798.564,999.512,381.348,-61.523,999.512
1741692798.568,244.141,-1000.0,-77.148,109.375
1741692798.572,-1000.0,-658.691,-69.336,-1000.0
1741692798.576,-447.266,959.473,-26.855,-400.879
1741692798.58,903.809,566.895,-16.113,934.082
1741692798.583,999.512,-847.168,-81.055,999.512
1741692798.587,157.715,-1000.0,-93.262,2.93
1741692798.591,-1000.0,-657.715,-74.219,-1000.0
1741692798.595,-612.793,544.434,-50.293,-536.133
1741692798.599,769.043,999.512,-22.461,804.688
1741692798.556,-1000.0,554.688,-42.969,-1000.0
1741692798.56,-291.016,332.031,-40.039,-235.84
1741692798.564,999.512,381.348,-61.523,999.512
1741692798.568,244.141,-1000.0,-77.148,109.375
1741692798.572,-1000.0,-658.691,-69.336,-1000.0
1741692798.576,-447.266,959.473,-26.855,-400.879
1741692798.58,903.809,566.895,-16.113,934.082
1741692798.583,999.512,-847.168,-81.055,999.512
1741692798.587,157.715,-1000.0,-93.262,2.93
1741692798.591,-1000.0,-657.715,-74.219,-1000.0
1741692798.595,-612.793,544.434,-50.293,-536.133
1741692798.599,769.043,999.512,-22.461,804.688
1741692798.614,999.512,74.707,-54.688,999.512
1741692798.618,200.684,-1000.0,-79.59,148.926
1741692798.622,-1000.0,-1000.0,-50.293,-1000.0
1741692798.626,-408.203,24.902,-9.277,-341.309
1741692798.63,904.785,999.512,19.531,928.711
1741692798.634,999.512,518.555,12.207,999.512
1741692798.638,414.551,-768.066,-25.879,395.508
1741692798.641,-987.793,-1000.0,-37.109,-1000.0
1741692798.645,-979.492,-91.797,-6.836,-845.703
1741692798.649,440.918,999.512,8.301,580.078
1741692798.653,999.512,517.09,-15.625,999.512
1741692798.657,999.512,-714.355,-33.691,994.629
1741692798.614,999.512,74.707,-54.688,999.512
1741692798.618,200.684,-1000.0,-79.59,148.926
1741692798.622,-1000.0,-1000.0,-50.293,-1000.0
1741692798.626,-408.203,24.902,-9.277,-341.309
1741692798.63,904.785,999.512,19.531,928.711
1741692798.634,999.512,518.555,12.207,999.512
1741692798.638,414.551,-768.066,-25.879,395.508
1741692798.641,-987.793,-1000.0,-37.109,-1000.0
1741692798.645,-979.492,-91.797,-6.836,-845.703
1741692798.649,440.918,999.512,8.301,580.078
1741692798.653,999.512,517.09,-15.625,999.512
1741692798.657,999.512,-714.355,-33.691,994.629
1741692798.673,251.465,-1000.0,-36.133,69.336
1741692798.677,-1000.0,-410.645,-47.852,-1000.0
1741692798.681,-203.613,850.586,-5.371,-64.453
1741692798.685,999.512,999.512,2.441,999.512
1741692798.689,627.93,-54.688,-43.457,582.52
1741692798.693,-713.867,-1000.0,-58.105,-723.145
1741692798.697,-1000.0,-341.309,-59.57,-1000.0
1741692798.7,-493.164,654.297,-38.574,-418.457
1741692798.704,890.625,882.324,-22.949,979.492
1741692798.708,999.512,-249.512,-29.785,814.941
1741692798.712,-303.711,-1000.0,-52.734,-522.949
1741692798.716,-1000.0,-233.398,-61.523,-1000.0
1741692798.673,251.465,-1000.0,-36.133,69.336
1741692798.677,-1000.0,-410.645,-47.852,-1000.0
1741692798.681,-203.613,850.586,-5.371,-64.453
1741692798.685,999.512,999.512,2.441,999.512
1741692798.689,627.93,-54.688,-43.457,582.52
1741692798.693,-713.867,-1000.0,-58.105,-723.145
1741692798.697,-1000.0,-341.309,-59.57,-1000.0
1741692798.7,-493.164,654.297,-38.574,-418.457
1741692798.704,890.625,882.324,-22.949,979.492
1741692798.708,999.512,-249.512,-29.785,814.941
1741692798.712,-303.711,-1000.0,-52.734,-522.949
1741692798.716,-1000.0,-233.398,-61.523,-1000.0
1741692798.704,-230.957,999.512,-8.301,-218.262
1741692798.708,999.512,841.797,2.93,999.512
1741692798.712,515.625,-578.613,-49.316,418.457
1741692798.716,-870.117,-828.125,-67.871,-907.715
1741692798.72,-1000.0,-281.738,-55.176,-1000.0
1741692798.724,-246.094,197.754,-24.414,-288.086
1741692798.728,999.512,999.512,-0.977,999.512
1741692798.731,880.859,116.699,-43.457,725.098
1741692798.735,-442.383,-1000.0,-88.379,-622.559
1741692798.739,-1000.0,-624.023,-82.52,-1000.0
1741692798.743,-153.32,684.082,-45.898,-175.293
1741692798.747,965.332,999.512,-11.23,971.191
1741692798.704,-230.957,999.512,-8.301,-218.262
1741692798.708,999.512,841.797,2.93,999.512
1741692798.712,515.625,-578.613,-49.316,418.457
1741692798.716,-870.117,-828.125,-67.871,-907.715
1741692798.72,-1000.0,-281.738,-55.176,-1000.0
1741692798.724,-246.094,197.754,-24.414,-288.086
1741692798.728,999.512,999.512,-0.977,999.512
1741692798.731,880.859,116.699,-43.457,725.098
1741692798.735,-442.383,-1000.0,-88.379,-622.559
1741692798.739,-1000.0,-624.023,-82.52,-1000.0
1741692798.743,-153.32,684.082,-45.898,-175.293
1741692798.747,965.332,999.512,-11.23,971.191
1741692798.704,-230.957,999.512,-8.301,-218.262
1741692798.708,999.512,841.797,2.93,999.512
1741692798.712,515.625,-578.613,-49.316,418.457
1741692798.716,-870.117,-828.125,-67.871,-907.715
1741692798.72,-1000.0,-281.738,-55.176,-1000.0
1741692798.724,-246.094,197.754,-24.414,-288.086
1741692798.728,999.512,999.512,-0.977,999.512
1741692798.731,880.859,116.699,-43.457,725.098
1741692798.735,-442.383,-1000.0,-88.379,-622.559
1741692798.739,-1000.0,-624.023,-82.52,-1000.0
1741692798.743,-153.32,684.082,-45.898,-175.293
1741692798.747,965.332,999.512,-11.23,971.191
1741692798.751,999.512,-98.633,-40.039,999.512
1741692798.755,231.445,-1000.0,-64.453,141.113
1741692798.759,-1000.0,-1000.0,-79.102,-1000.0
1741692798.763,-383.789,-11.23,-43.457,-365.234
1741692798.767,932.129,999.512,10.742,937.988
1741692798.771,999.512,453.613,-16.113,999.512
1741692798.775,192.871,-798.828,-74.219,117.188
1741692798.778,-1000.0,-1000.0,-95.703,-1000.0
1741692798.782,-933.105,-67.383,-52.246,-900.879
1741692798.786,475.586,999.512,-4.883,542.48
1741692798.79,999.512,76.66,-45.898,953.613
1741692798.794,-343.75,-1000.0,-81.055,-549.805
1741692798.793,-1000.0,-574.707,-62.988,-1000.0
1741692798.797,-1000.0,674.316,-42.969,-1000.0
1741692798.801,-267.578,999.512,-7.324,-194.336
1741692798.805,999.512,635.742,-11.23,999.512
1741692798.809,26.367,-903.809,-56.152,-107.91
1741692798.813,-1000.0,-510.254,-53.711,-1000.0
1741692798.817,-899.414,252.93,-47.363,-897.461
1741692798.82,-1000.0,-773.926,-38.086,-1000.0
1741692798.824,-1.953,437.012,3.906,85.449
1741692798.828,965.82,334.473,-23.438,776.367
1741692798.832,-493.164,-1000.0,-83.008,-700.195
1741692798.836,-1000.0,-242.188,-62.5,-1000.0
1741692798.793,-1000.0,-574.707,-62.988,-1000.0
1741692798.797,-1000.0,674.316,-42.969,-1000.0
1741692798.801,-267.578,999.512,-7.324,-194.336
1741692798.805,999.512,635.742,-11.23,999.512
1741692798.809,26.367,-903.809,-56.152,-107.91
1741692798.813,-1000.0,-510.254,-53.711,-1000.0
1741692798.817,-899.414,252.93,-47.363,-897.461
1741692798.82,-1000.0,-773.926,-38.086,-1000.0
1741692798.824,-1.953,437.012,3.906,85.449
1741692798.828,965.82,334.473,-23.438,776.367
1741692798.832,-493.164,-1000.0,-83.008,-700.195
1741692798.836,-1000.0,-242.188,-62.5,-1000.0
1741692798.841,-335.449,999.512,-12.695,-325.684
1741692798.845,999.512,585.449,-27.344,999.512
1741692798.849,190.43,-747.559,-74.707,153.32
1741692798.853,-1000.0,-1000.0,-79.59,-1000.0
1741692798.857,-1000.0,-117.676,-68.359,-1000.0
1741692798.861,-268.066,999.512,-16.602,-231.445
1741692798.865,999.512,313.965,-12.207,999.512
1741692798.868,493.164,-986.328,-88.867,404.297
1741692798.872,-888.672,-1000.0,-88.867,-919.922
1741692798.876,-1000.0,-100.586,-87.402,-1000.0
1741692798.88,-220.703,999.512,-65.918,-213.867
1741692798.884,999.512,999.512,-35.645,999.512
1741692798.841,-335.449,999.512,-12.695,-325.684
1741692798.845,999.512,585.449,-27.344,999.512
1741692798.849,190.43,-747.559,-74.707,153.32
1741692798.853,-1000.0,-1000.0,-79.59,-1000.0
1741692798.857,-1000.0,-117.676,-68.359,-1000.0
1741692798.861,-268.066,999.512,-16.602,-231.445
1741692798.865,999.512,313.965,-12.207,999.512
1741692798.868,493.164,-986.328,-88.867,404.297
1741692798.872,-888.672,-1000.0,-88.867,-919.922
1741692798.876,-1000.0,-100.586,-87.402,-1000.0
1741692798.88,-220.703,999.512,-65.918,-213.867
1741692798.884,999.512,999.512,-35.645,999.512
1741692798.929,812.012,-224.609,-89.355,689.941
1741692798.933,-525.391,-936.035,-120.117,-629.883
1741692798.937,-1000.0,-413.086,-114.746,-1000.0
1741692798.941,-187.5,249.512,-84.961,-189.453
1741692798.945,948.73,763.184,-61.035,952.148
1741692798.949,999.512,-370.605,-94.727,999.512
1741692798.953,765.137,-774.414,-101.562,735.84
1741692798.956,-707.52,-1000.0,-104.492,-756.348
1741692798.96,-998.047,-332.031,-88.379,-870.605
1741692798.964,471.68,999.512,-44.434,627.441
1741692798.968,999.512,175.293,-43.945,999.512
1741692798.972,192.871,-1000.0,-74.219,104.492
1741692798.929,812.012,-224.609,-89.355,689.941
1741692798.933,-525.391,-936.035,-120.117,-629.883
1741692798.937,-1000.0,-413.086,-114.746,-1000.0
1741692798.941,-187.5,249.512,-84.961,-189.453
1741692798.945,948.73,763.184,-61.035,952.148
1741692798.949,999.512,-370.605,-94.727,999.512
1741692798.953,765.137,-774.414,-101.562,735.84
1741692798.956,-707.52,-1000.0,-104.492,-756.348
1741692798.96,-998.047,-332.031,-88.379,-870.605
1741692798.964,471.68,999.512,-44.434,627.441
1741692798.968,999.512,175.293,-43.945,999.512
1741692798.972,192.871,-1000.0,-74.219,104.492
1741692798.935,-1000.0,-786.621,-81.543,-1000.0
1741692798.939,-419.434,549.316,-41.504,-345.703
1741692798.943,978.027,999.512,-3.906,979.492
1741692798.947,995.117,-459.473,-34.668,999.512
1741692798.951,860.84,-573.73,-55.664,547.852
1741692798.955,999.512,999.512,-33.203,590.82
1741692798.959,751.465,143.555,-54.199,807.129
1741692798.962,-671.387,-1000.0,-68.359,-576.66
1741692798.966,-1000.0,-780.273,-66.895,-1000.0
1741692798.97,-861.328,166.992,-67.871,-863.77
1741692798.974,-1000.0,-373.535,-74.219,-1000.0
1741692798.978,-498.047,-357.422,-61.035,-490.234
1741692798.935,-1000.0,-786.621,-81.543,-1000.0
1741692798.939,-419.434,549.316,-41.504,-345.703
1741692798.943,978.027,999.512,-3.906,979.492
1741692798.947,995.117,-459.473,-34.668,999.512
1741692798.951,860.84,-573.73,-55.664,547.852
1741692798.955,999.512,999.512,-33.203,590.82
1741692798.959,751.465,143.555,-54.199,807.129
1741692798.962,-671.387,-1000.0,-68.359,-576.66
1741692798.966,-1000.0,-780.273,-66.895,-1000.0
1741692798.97,-861.328,166.992,-67.871,-863.77
1741692798.974,-1000.0,-373.535,-74.219,-1000.0
1741692798.978,-498.047,-357.422,-61.035,-490.234
1741692798.935,-1000.0,-786.621,-81.543,-1000.0
1741692798.939,-419.434,549.316,-41.504,-345.703
1741692798.943,978.027,999.512,-3.906,979.492
1741692798.947,995.117,-459.473,-34.668,999.512
1741692798.951,860.84,-573.73,-55.664,547.852
1741692798.955,999.512,999.512,-33.203,590.82
1741692798.959,751.465,143.555,-54.199,807.129
1741692798.962,-671.387,-1000.0,-68.359,-576.66
1741692798.966,-1000.0,-780.273,-66.895,-1000.0
1741692798.97,-861.328,166.992,-67.871,-863.77
1741692798.974,-1000.0,-373.535,-74.219,-1000.0
1741692798.978,-498.047,-357.422,-61.035,-490.234
1741692798.988,854.98,999.512,-6.836,862.305
1741692798.992,999.512,304.688,-30.273,999.512
1741692798.996,136.23,-1000.0,-81.543,83.984
1741692799.0,-994.629,-149.414,-52.734,-1000.0
1741692799.004,-1000.0,533.203,-27.832,-1000.0
1741692799.008,-260.254,504.395,-19.043,-216.797
1741692799.012,999.512,366.211,-32.715,999.512
1741692799.015,668.945,-933.594,-63.477,511.23
1741692799.019,-733.887,-1000.0,-63.965,-845.215
1741692799.023,-1000.0,-357.91,-54.688,-1000.0
1741692799.027,-132.812,960.938,-5.371,-76.66
1741692799.031,999.512,925.781,14.648,999.512
1741692798.988,854.98,999.512,-6.836,862.305
1741692798.992,999.512,304.688,-30.273,999.512
1741692798.996,136.23,-1000.0,-81.543,83.984
1741692799.0,-994.629,-149.414,-52.734,-1000.0
1741692799.004,-1000.0,533.203,-27.832,-1000.0
1741692799.008,-260.254,504.395,-19.043,-216.797
1741692799.012,999.512,366.211,-32.715,999.512
1741692799.015,668.945,-933.594,-63.477,511.23
1741692799.019,-733.887,-1000.0,-63.965,-845.215
1741692799.023,-1000.0,-357.91,-54.688,-1000.0
1741692799.027,-132.812,960.938,-5.371,-76.66
1741692799.031,999.512,925.781,14.648,999.512
1741692799.035,310.547,-359.863,-35.645,265.625
1741692799.039,-970.703,-1000.0,-66.406,-988.281
1741692799.043,-1000.0,-61.523,-42.48,-1000.0
1741692799.047,-245.605,999.512,-6.348,-182.617
1741692799.051,999.512,596.68,-17.09,999.512
1741692799.055,635.254,-725.586,-27.344,498.047
1741692799.059,-738.77,-1000.0,-38.574,-814.453
1741692799.062,-1000.0,-1000.0,-77.637,-1000.0
1741692799.066,-370.605,78.613,-30.273,-354.98
1741692799.07,999.512,999.512,27.344,999.512
1741692799.074,409.668,-387.695,-16.602,334.961
1741692799.078,-941.406,-1000.0,-33.203,-973.633
1741692799.035,310.547,-359.863,-35.645,265.625
1741692799.039,-970.703,-1000.0,-66.406,-988.281
1741692799.043,-1000.0,-61.523,-42.48,-1000.0
1741692799.047,-245.605,999.512,-6.348,-182.617
1741692799.051,999.512,596.68,-17.09,999.512
1741692799.055,635.254,-725.586,-27.344,498.047
1741692799.059,-738.77,-1000.0,-38.574,-814.453
1741692799.062,-1000.0,-1000.0,-77.637,-1000.0
1741692799.066,-370.605,78.613,-30.273,-354.98
1741692799.07,999.512,999.512,27.344,999.512
1741692799.074,409.668,-387.695,-16.602,334.961
1741692799.078,-941.406,-1000.0,-33.203,-973.633
1741692799.078,-1000.0,-135.742,-21.484,-1000.0
1741692799.082,-553.711,999.512,-11.23,-510.742
1741692799.086,789.551,814.453,5.859,824.219
1741692799.09,999.512,-41.016,-24.414,999.512
1741692799.094,-17.09,-1000.0,-68.848,-113.281
1741692799.098,-1000.0,-259.277,-52.246,-1000.0
1741692799.102,-963.867,915.039,-24.902,-957.52
1741692799.105,-984.375,-482.91,-38.086,-989.746
1741692799.109,-1000.0,-996.094,-50.293,-1000.0
1741692799.113,-937.5,63.965,-56.152,-937.5
1741692799.117,-1000.0,-359.375,-57.617,-1000.0
1741692799.121,-214.355,-160.645,-10.254,-219.238
1741692799.078,-1000.0,-135.742,-21.484,-1000.0
1741692799.082,-553.711,999.512,-11.23,-510.742
1741692799.086,789.551,814.453,5.859,824.219
1741692799.09,999.512,-41.016,-24.414,999.512
1741692799.094,-17.09,-1000.0,-68.848,-113.281
1741692799.098,-1000.0,-259.277,-52.246,-1000.0
1741692799.102,-963.867,915.039,-24.902,-957.52
1741692799.105,-984.375,-482.91,-38.086,-989.746
1741692799.109,-1000.0,-996.094,-50.293,-1000.0
1741692799.113,-937.5,63.965,-56.152,-937.5
1741692799.117,-1000.0,-359.375,-57.617,-1000.0
1741692799.121,-214.355,-160.645,-10.254,-219.238
1741692799.124,968.262,999.512,18.555,975.586
1741692799.128,999.512,-129.883,-48.828,999.512
1741692799.132,339.355,-1000.0,-65.918,248.047
1741692799.136,-1000.0,-998.047,-55.176,-1000.0
1741692799.14,-743.164,8.789,-34.668,-682.129
1741692799.144,693.359,999.512,26.855,748.535
1741692799.148,999.512,241.211,-5.371,999.512
1741692799.151,6.836,-1000.0,-79.59,-132.324
1741692799.155,-1000.0,-699.707,-59.57,-1000.0
1741692799.159,-979.492,535.156,-27.832,-884.277
1741692799.163,238.77,999.512,-9.277,363.77
1741692799.167,999.512,290.039,-17.578,999.512
1741692799.169,130.371,-1000.0,-52.734,47.363
1741692799.173,-1000.0,-899.902,-70.312,-1000.0
1741692799.177,-1000.0,339.844,-51.758,-1000.0
1741692799.181,-65.43,999.512,-7.812,-41.504
1741692799.185,999.512,51.27,-28.32,999.512
1741692799.189,999.512,-662.598,-57.129,822.266
1741692799.193,-29.297,-624.023,-62.5,-347.168
1741692799.196,-1000.0,-777.832,-66.895,-1000.0
1741692799.2,-246.094,648.438,-23.926,-224.609
1741692799.204,999.512,955.078,-7.812,999.512
1741692799.208,478.027,-412.109,-34.18,379.395
1741692799.212,-901.367,-1000.0,-55.176,-957.031
1741692799.169,130.371,-1000.0,-52.734,47.363
1741692799.173,-1000.0,-899.902,-70.312,-1000.0
1741692799.177,-1000.0,339.844,-51.758,-1000.0
1741692799.181,-65.43,999.512,-7.812,-41.504
1741692799.185,999.512,51.27,-28.32,999.512
1741692799.189,999.512,-662.598,-57.129,822.266
1741692799.193,-29.297,-624.023,-62.5,-347.168
1741692799.196,-1000.0,-777.832,-66.895,-1000.0
1741692799.2,-246.094,648.438,-23.926,-224.609
1741692799.204,999.512,955.078,-7.812,999.512
1741692799.208,478.027,-412.109,-34.18,379.395
1741692799.212,-901.367,-1000.0,-55.176,-957.031
1741692799.23,-1000.0,-149.414,-49.805,-1000.0
1741692799.234,-135.254,999.512,-13.672,-79.102
1741692799.238,977.539,339.844,-12.695,999.512
1741692799.242,999.512,-954.102,-43.457,953.613
1741692799.246,131.836,-1000.0,-35.156,-115.723
1741692799.25,-1000.0,-196.289,-17.09,-1000.0
1741692799.254,-191.406,999.512,8.301,-151.367
1741692799.257,999.512,330.078,-6.348,999.512
1741692799.261,882.324,-967.773,-42.969,889.648
1741692799.265,999.512,28.809,-37.109,999.512
1741692799.269,255.859,-272.461,-45.898,157.227
1741692799.273,-1000.0,-675.293,-52.246,-1000.0
1741692799.23,-1000.0,-149.414,-49.805,-1000.0
1741692799.234,-135.254,999.512,-13.672,-79.102
1741692799.238,977.539,339.844,-12.695,999.512
1741692799.242,999.512,-954.102,-43.457,953.613
1741692799.246,131.836,-1000.0,-35.156,-115.723
1741692799.25,-1000.0,-196.289,-17.09,-1000.0
1741692799.254,-191.406,999.512,8.301,-151.367
1741692799.257,999.512,330.078,-6.348,999.512
1741692799.261,882.324,-967.773,-42.969,889.648
1741692799.265,999.512,28.809,-37.109,999.512
1741692799.269,255.859,-272.461,-45.898,157.227
1741692799.273,-1000.0,-675.293,-52.246,-1000.0
1741692799.23,-1000.0,-149.414,-49.805,-1000.0
1741692799.234,-135.254,999.512,-13.672,-79.102
1741692799.238,977.539,339.844,-12.695,999.512
1741692799.242,999.512,-954.102,-43.457,953.613
1741692799.246,131.836,-1000.0,-35.156,-115.723
1741692799.25,-1000.0,-196.289,-17.09,-1000.0
1741692799.254,-191.406,999.512,8.301,-151.367
1741692799.257,999.512,330.078,-6.348,999.512
1741692799.261,882.324,-967.773,-42.969,889.648
1741692799.265,999.512,28.809,-37.109,999.512
1741692799.269,255.859,-272.461,-45.898,157.227
1741692799.273,-1000.0,-675.293,-52.246,-1000.0
1741692799.259,-255.371,992.676,-11.23,-119.629
1741692799.263,999.512,555.176,-20.02,999.512
1741692799.267,143.066,-1000.0,-59.082,11.719
1741692799.271,-1000.0,-94.727,-43.945,-1000.0
1741692799.275,-1000.0,542.48,-32.227,-1000.0
1741692799.279,-257.812,364.258,-20.508,-236.328
1741692799.283,999.512,350.586,-13.672,999.512
1741692799.286,215.332,-937.988,-78.125,67.383
1741692799.29,-1000.0,-1000.0,-104.98,-1000.0
1741692799.294,-936.523,-135.742,-63.477,-887.207
1741692799.298,413.086,999.512,-27.832,488.281
1741692799.302,999.512,15.137,-40.527,999.512
1741692799.259,-255.371,992.676,-11.23,-119.629
1741692799.263,999.512,555.176,-20.02,999.512
1741692799.267,143.066,-1000.0,-59.082,11.719
1741692799.271,-1000.0,-94.727,-43.945,-1000.0
1741692799.275,-1000.0,542.48,-32.227,-1000.0
1741692799.279,-257.812,364.258,-20.508,-236.328
1741692799.283,999.512,350.586,-13.672,999.512
1741692799.286,215.332,-937.988,-78.125,67.383
1741692799.29,-1000.0,-1000.0,-104.98,-1000.0
1741692799.294,-936.523,-135.742,-63.477,-887.207
1741692799.298,413.086,999.512,-27.832,488.281
1741692799.302,999.512,15.137,-40.527,999.512
1741692799.318,-170.41,-1000.0,-53.711,-376.465
1741692799.322,-1000.0,-640.137,-59.57,-1000.0
1741692799.326,-1000.0,434.57,-60.547,-1000.0
1741692799.33,-203.613,985.352,-21.973,-126.465
1741692799.334,999.512,450.195,-21.484,999.512
1741692799.338,500.488,-755.371,-46.875,387.207
1741692799.342,-886.23,-1000.0,-49.316,-935.547
1741692799.345,-1000.0,-641.113,-47.852,-1000.0
1741692799.349,-103.027,690.43,-18.555,-64.453
1741692799.353,999.512,999.512,20.996,999.512
1741692799.357,183.105,-239.258,-31.25,192.871
1741692799.361,-1000.0,-1000.0,-74.707,-1000.0
1741692799.318,-170.41,-1000.0,-53.711,-376.465
1741692799.322,-1000.0,-640.137,-59.57,-1000.0
1741692799.326,-1000.0,434.57,-60.547,-1000.0
1741692799.33,-203.613,985.352,-21.973,-126.465
1741692799.334,999.512,450.195,-21.484,999.512
1741692799.338,500.488,-755.371,-46.875,387.207
1741692799.342,-886.23,-1000.0,-49.316,-935.547
1741692799.345,-1000.0,-641.113,-47.852,-1000.0
1741692799.349,-103.027,690.43,-18.555,-64.453
1741692799.353,999.512,999.512,20.996,999.512
1741692799.357,183.105,-239.258,-31.25,192.871
1741692799.361,-1000.0,-1000.0,-74.707,-1000.0
1741692799.364,-1000.0,-32.227,-27.344,-1000.0
1741692799.368,-92.773,999.512,20.508,13.184
1741692799.372,999.512,312.988,14.648,999.512
1741692799.376,682.129,-826.172,-1.465,478.027
1741692799.38,-666.992,-1000.0,-21.484,-821.777
1741692799.384,-1000.0,-109.863,-9.277,-1000.0
1741692799.388,-187.012,999.512,26.855,-83.008
1741692799.391,999.512,205.566,-7.812,999.512
1741692799.395,406.738,-1000.0,-40.039,338.867
1741692799.399,-955.078,-1000.0,-57.617,-976.562
1741692799.403,-1000.0,-551.27,-49.805,-1000.0
1741692799.407,-146.973,825.195,9.277,-81.543
1741692799.364,-1000.0,-32.227,-27.344,-1000.0
1741692799.368,-92.773,999.512,20.508,13.184
1741692799.372,999.512,312.988,14.648,999.512
1741692799.376,682.129,-826.172,-1.465,478.027
1741692799.38,-666.992,-1000.0,-21.484,-821.777
1741692799.384,-1000.0,-109.863,-9.277,-1000.0
1741692799.388,-187.012,999.512,26.855,-83.008
1741692799.391,999.512,205.566,-7.812,999.512
1741692799.395,406.738,-1000.0,-40.039,338.867
1741692799.399,-955.078,-1000.0,-57.617,-976.562
1741692799.403,-1000.0,-551.27,-49.805,-1000.0
1741692799.407,-146.973,825.195,9.277,-81.543
1741692799.409,999.512,803.711,25.879,999.512
1741692799.413,504.395,-580.078,-29.297,425.293
1741692799.417,-877.441,-1000.0,-52.246,-896.973
1741692799.421,-1000.0,-275.391,-34.18,-1000.0
1741692799.425,-236.328,940.43,-1.465,-191.895
1741692799.429,999.512,999.512,30.273,999.512
1741692799.433,612.793,-56.641,-21.973,528.809
1741692799.436,-779.785,-1000.0,-73.73,-816.895
1741692799.44,-1000.0,-549.805,-46.875,-1000.0
1741692799.444,-159.668,863.77,-5.371,-165.039
1741692799.448,958.984,741.211,8.789,974.121
1741692799.452,999.512,-590.82,-17.09,999.512
1741692799.409,999.512,803.711,25.879,999.512
1741692799.413,504.395,-580.078,-29.297,425.293
1741692799.417,-877.441,-1000.0,-52.246,-896.973
1741692799.421,-1000.0,-275.391,-34.18,-1000.0
1741692799.425,-236.328,940.43,-1.465,-191.895
1741692799.429,999.512,999.512,30.273,999.512
1741692799.433,612.793,-56.641,-21.973,528.809
1741692799.436,-779.785,-1000.0,-73.73,-816.895
1741692799.44,-1000.0,-549.805,-46.875,-1000.0
1741692799.444,-159.668,863.77,-5.371,-165.039
1741692799.448,958.984,741.211,8.789,974.121
1741692799.452,999.512,-590.82,-17.09,999.512
1741692799.454,233.398,-1000.0,-16.602,149.414
1741692799.458,-1000.0,-772.949,-35.156,-1000.0
1741692799.462,-485.352,417.969,-11.719,-431.641
1741692799.466,984.375,999.512,49.316,999.512
1741692799.47,938.965,-49.316,-6.348,782.227
1741692799.474,-384.766,-1000.0,-49.805,-551.758
1741692799.478,-1000.0,-1000.0,-45.41,-1000.0
1741692799.481,-675.293,-346.68,-33.203,-656.738
1741692799.485,628.418,999.512,19.531,677.246
1741692799.489,999.512,267.578,11.719,999.512
1741692799.493,120.605,-1000.0,-39.551,-53.223
1741692799.497,-1000.0,-651.367,-39.551,-1000.0
1741692799.5,-1000.0,611.816,-15.625,-939.453
1741692799.504,165.527,999.512,8.789,288.086
1741692799.508,999.512,151.367,-0.977,999.512
1741692799.512,158.203,-1000.0,-38.574,60.547
1741692799.516,-1000.0,-763.672,-42.48,-1000.0
1741692799.52,-1000.0,596.68,-28.32,-932.617
1741692799.524,227.539,999.512,-15.137,313.965
1741692799.527,999.512,-107.91,-55.176,999.512
1741692799.531,140.625,-1000.0,-84.473,108.887
1741692799.535,-1000.0,-934.082,-69.824,-1000.0
1741692799.539,-1000.0,173.34,-47.363,-1000.0
1741692799.543,27.832,999.512,-11.23,135.254
1741692799.543,999.512,343.262,-12.695,999.512
1741692799.547,155.762,-992.676,-67.383,139.648
1741692799.551,-1000.0,-1000.0,-83.008,-1000.0
1741692799.555,-1000.0,265.137,-40.527,-975.586
1741692799.559,58.105,999.512,-30.762,204.59
1741692799.563,999.512,812.012,-36.133,999.512
1741692799.567,208.008,-351.074,-57.129,200.195
1741692799.57,-986.328,-1000.0,-77.637,-989.258
1741692799.574,-1000.0,-612.305,-63.477,-1000.0
1741692799.578,-224.121,828.125,-31.738,-188.965
1741692799.582,999.512,431.641,-18.066,999.512
1741692799.586,948.242,-959.961,-40.039,769.043
1741692799.543,999.512,343.262,-12.695,999.512
1741692799.547,155.762,-992.676,-67.383,139.648
1741692799.551,-1000.0,-1000.0,-83.008,-1000.0
1741692799.555,-1000.0,265.137,-40.527,-975.586
1741692799.559,58.105,999.512,-30.762,204.59
1741692799.563,999.512,812.012,-36.133,999.512
1741692799.567,208.008,-351.074,-57.129,200.195
1741692799.57,-986.328,-1000.0,-77.637,-989.258
1741692799.574,-1000.0,-612.305,-63.477,-1000.0
1741692799.578,-224.121,828.125,-31.738,-188.965
1741692799.582,999.512,431.641,-18.066,999.512
1741692799.586,948.242,-959.961,-40.039,769.043
1741692800.055,33.691,999.512,8.789,130.371
1741692800.059,999.512,454.59,0.0,999.512
1741692800.063,147.949,-1000.0,-42.969,46.875
1741692800.067,-1000.0,-756.836,-49.316,-1000.0
1741692800.071,-1000.0,559.082,-25.879,-1000.0
1741692800.075,7.324,999.512,17.578,78.613
1741692800.079,999.512,563.965,9.277,999.512
1741692800.082,207.52,-705.078,-56.152,196.289
1741692800.086,-1000.0,-1000.0,-87.402,-1000.0
1741692800.09,-1000.0,-159.668,-66.406,-1000.0
1741692800.094,-93.262,999.512,-19.043,-21.973
1741692800.098,999.512,662.598,-32.715,999.512
1741692800.113,577.637,-689.941,-62.012,446.289
1741692800.117,-780.273,-1000.0,-54.199,-852.539
1741692800.121,-1000.0,-537.598,-58.105,-1000.0
1741692800.125,-196.289,687.012,4.395,-178.223
1741692800.129,999.512,627.441,16.602,999.512
1741692800.133,916.504,-711.426,-40.039,743.652
1741692800.137,-368.164,-1000.0,-69.824,-558.594
1741692800.14,-1000.0,-541.504,-81.543,-1000.0
1741692800.144,-228.516,838.867,-31.25,-202.637
1741692800.148,999.512,792.969,-26.367,999.512
1741692800.152,526.855,-583.496,-75.195,440.43
1741692800.156,-848.145,-1000.0,-113.77,-882.324
1741692800.113,577.637,-689.941,-62.012,446.289
1741692800.117,-780.273,-1000.0,-54.199,-852.539
1741692800.121,-1000.0,-537.598,-58.105,-1000.0
1741692800.125,-196.289,687.012,4.395,-178.223
1741692800.129,999.512,627.441,16.602,999.512
1741692800.133,916.504,-711.426,-40.039,743.652
1741692800.137,-368.164,-1000.0,-69.824,-558.594
1741692800.14,-1000.0,-541.504,-81.543,-1000.0
1741692800.144,-228.516,838.867,-31.25,-202.637
1741692800.148,999.512,792.969,-26.367,999.512
1741692800.152,526.855,-583.496,-75.195,440.43
1741692800.156,-848.145,-1000.0,-113.77,-882.324
1741692800.159,-1000.0,-213.379,-100.586,-1000.0
1741692800.163,-305.176,999.512,-49.316,-302.734
1741692800.167,915.039,580.078,-37.109,960.938
1741692800.171,999.512,-680.664,-73.242,999.512
1741692800.175,117.676,-1000.0,-96.191,-101.074
1741692800.179,-1000.0,-182.617,-86.914,-1000.0
1741692800.183,-924.316,999.512,-54.688,-822.754
1741692800.186,444.336,996.582,-47.363,577.637
1741692800.19,999.512,-107.91,-76.172,979.98
1741692800.194,-199.219,-1000.0,-90.82,-397.461
1741692800.198,-1000.0,-457.52,-88.867,-1000.0
1741692800.202,-708.984,691.895,-64.941,-636.719
1741692800.159,-1000.0,-213.379,-100.586,-1000.0
1741692800.163,-305.176,999.512,-49.316,-302.734
1741692800.167,915.039,580.078,-37.109,960.938
1741692800.171,999.512,-680.664,-73.242,999.512
1741692800.175,117.676,-1000.0,-96.191,-101.074
1741692800.179,-1000.0,-182.617,-86.914,-1000.0
1741692800.183,-924.316,999.512,-54.688,-822.754
1741692800.186,444.336,996.582,-47.363,577.637
1741692800.19,999.512,-107.91,-76.172,979.98
1741692800.194,-199.219,-1000.0,-90.82,-397.461
1741692800.198,-1000.0,-457.52,-88.867,-1000.0
1741692800.202,-708.984,691.895,-64.941,-636.719
1741692800.203,625.488,999.512,-22.949,714.355
1741692800.207,999.512,128.906,-40.039,999.512
1741692800.211,-40.527,-1000.0,-89.844,-202.148
1741692800.215,-1000.0,59.57,-71.289,-1000.0
1741692800.219,-1000.0,162.598,-56.152,-1000.0
1741692800.223,-271.973,-89.355,-31.738,-265.625
1741692800.227,999.512,595.215,-15.625,999.512
1741692800.23,266.113,-835.938,-76.66,226.562
1741692800.234,-1000.0,-1000.0,-86.914,-1000.0
1741692800.238,-978.516,-29.297,-44.434,-885.254
1741692800.242,296.875,999.512,-19.043,420.41
1741692800.246,999.512,400.391,-43.457,999.512
1741692800.203,625.488,999.512,-22.949,714.355
1741692800.207,999.512,128.906,-40.039,999.512
1741692800.211,-40.527,-1000.0,-89.844,-202.148
1741692800.215,-1000.0,59.57,-71.289,-1000.0
1741692800.219,-1000.0,162.598,-56.152,-1000.0
1741692800.223,-271.973,-89.355,-31.738,-265.625
1741692800.227,999.512,595.215,-15.625,999.512
1741692800.23,266.113,-835.938,-76.66,226.562
1741692800.234,-1000.0,-1000.0,-86.914,-1000.0
1741692800.238,-978.516,-29.297,-44.434,-885.254
1741692800.242,296.875,999.512,-19.043,420.41
1741692800.246,999.512,400.391,-43.457,999.512
1741692800.251,120.605,-1000.0,-46.387,42.48
1741692800.255,-1000.0,-678.711,-35.156,-1000.0
1741692800.259,-1000.0,-361.328,-43.945,-1000.0
1741692800.263,-261.719,280.273,-10.742,-249.512
1741692800.267,999.512,809.57,-1.953,999.512
1741692800.271,643.555,-512.695,-47.852,490.234
1741692800.275,-750.0,-1000.0,-69.824,-857.422
1741692800.278,-1000.0,-462.891,-67.383,-1000.0
1741692800.282,-204.59,984.863,-12.207,-147.949
1741692800.286,999.512,612.305,-9.277,999.512
1741692800.29,279.785,-852.051,-63.477,227.051
1741692800.294,-992.676,-1000.0,-64.941,-1000.0
1741692800.251,120.605,-1000.0,-46.387,42.48
1741692800.255,-1000.0,-678.711,-35.156,-1000.0
1741692800.259,-1000.0,-361.328,-43.945,-1000.0
1741692800.263,-261.719,280.273,-10.742,-249.512
1741692800.267,999.512,809.57,-1.953,999.512
1741692800.271,643.555,-512.695,-47.852,490.234
1741692800.275,-750.0,-1000.0,-69.824,-857.422
1741692800.278,-1000.0,-462.891,-67.383,-1000.0
1741692800.282,-204.59,984.863,-12.207,-147.949
1741692800.286,999.512,612.305,-9.277,999.512
1741692800.29,279.785,-852.051,-63.477,227.051
1741692800.294,-992.676,-1000.0,-64.941,-1000.0
1741692800.294,-1000.0,168.945,-37.109,-1000.0
1741692800.298,-239.746,999.512,4.395,-193.848
1741692800.302,999.512,807.617,6.348,999.512
1741692800.306,792.969,-330.078,-29.297,621.582
1741692800.31,-549.316,-1000.0,-59.57,-697.266
1741692800.314,-1000.0,-160.156,-49.805,-1000.0
1741692800.318,-307.129,999.512,-18.066,-311.523
1741692800.321,999.512,585.449,-30.762,999.512
1741692800.325,647.461,-746.582,-55.664,520.02
1741692800.329,-763.184,-1000.0,-59.082,-839.355
1741692800.333,-1000.0,-581.055,-50.781,-1000.0
1741692800.337,-213.867,531.738,-14.16,-253.418
1741692800.294,-1000.0,168.945,-37.109,-1000.0
1741692800.298,-239.746,999.512,4.395,-193.848
1741692800.302,999.512,807.617,6.348,999.512
1741692800.306,792.969,-330.078,-29.297,621.582
1741692800.31,-549.316,-1000.0,-59.57,-697.266
1741692800.314,-1000.0,-160.156,-49.805,-1000.0
1741692800.318,-307.129,999.512,-18.066,-311.523
1741692800.321,999.512,585.449,-30.762,999.512
1741692800.325,647.461,-746.582,-55.664,520.02
1741692800.329,-763.184,-1000.0,-59.082,-839.355
1741692800.333,-1000.0,-581.055,-50.781,-1000.0
1741692800.337,-213.867,531.738,-14.16,-253.418
1741692800.34,999.512,999.512,16.602,999.512
1741692800.344,946.289,-76.172,-18.066,784.18
1741692800.348,-294.922,-1000.0,-58.594,-510.254
1741692800.352,-1000.0,-457.031,-55.664,-1000.0
1741692800.356,-440.918,826.172,-8.301,-418.457
1741692800.36,979.004,999.512,24.414,999.512
1741692800.364,866.211,106.934,-25.391,720.215
1741692800.367,-505.371,-1000.0,-71.777,-661.133
1741692800.371,-1000.0,-797.363,-59.57,-1000.0
1741692800.375,-647.461,490.234,-20.996,-645.996
1741692800.379,719.238,999.512,5.371,755.371
1741692800.383,999.512,-176.758,-24.414,963.379
1741692800.34,999.512,999.512,16.602,999.512
1741692800.344,946.289,-76.172,-18.066,784.18
1741692800.348,-294.922,-1000.0,-58.594,-510.254
1741692800.352,-1000.0,-457.031,-55.664,-1000.0
1741692800.356,-440.918,826.172,-8.301,-418.457
1741692800.36,979.004,999.512,24.414,999.512
1741692800.364,866.211,106.934,-25.391,720.215
1741692800.367,-505.371,-1000.0,-71.777,-661.133
1741692800.371,-1000.0,-797.363,-59.57,-1000.0
1741692800.375,-647.461,490.234,-20.996,-645.996
1741692800.379,719.238,999.512,5.371,755.371
1741692800.383,999.512,-176.758,-24.414,963.379
1741692800.384,-194.824,-1000.0,-43.457,-419.434
1741692800.388,-1000.0,-586.914,-33.691,-1000.0
1741692800.392,-956.055,670.41,-16.113,-915.039
1741692800.396,232.91,999.512,27.832,306.152
1741692800.4,999.512,64.453,6.836,999.512
1741692800.404,128.418,-1000.0,-27.832,-49.316
1741692800.408,-1000.0,-1000.0,-31.738,-1000.0
1741692800.411,-1000.0,-616.211,-32.715,-1000.0
1741692800.415,49.805,916.504,34.668,86.914
1741692800.419,999.512,249.512,18.066,999.512
1741692800.423,148.926,-1000.0,-38.574,74.707
1741692800.427,-1000.0,-969.238,-14.648,-1000.0
1741692800.384,-194.824,-1000.0,-43.457,-419.434
1741692800.388,-1000.0,-586.914,-33.691,-1000.0
1741692800.392,-956.055,670.41,-16.113,-915.039
1741692800.396,232.91,999.512,27.832,306.152
1741692800.4,999.512,64.453,6.836,999.512
1741692800.404,128.418,-1000.0,-27.832,-49.316
1741692800.408,-1000.0,-1000.0,-31.738,-1000.0
1741692800.411,-1000.0,-616.211,-32.715,-1000.0
1741692800.415,49.805,916.504,34.668,86.914
1741692800.419,999.512,249.512,18.066,999.512
1741692800.423,148.926,-1000.0,-38.574,74.707
1741692800.427,-1000.0,-969.238,-14.648,-1000.0
1741692800.43,-1000.0,101.074,5.371,-1000.0
1741692800.434,-6.348,999.512,55.664,50.781
1741692800.438,999.512,249.023,34.18,999.512
1741692800.442,312.012,-1000.0,-21.484,239.258
1741692800.446,-954.59,-927.246,-7.324,-990.234
1741692800.45,-1000.0,337.402,15.625,-1000.0
1741692800.454,-204.59,999.512,44.434,-129.883
1741692800.457,999.512,105.469,28.32,999.512
1741692800.461,475.098,-1000.0,-15.625,374.023
1741692800.465,-897.461,-1000.0,-36.621,-950.195
1741692800.469,-1000.0,-213.379,-23.438,-1000.0
1741692800.473,-189.453,999.512,33.691,-98.145
1741692800.43,-1000.0,101.074,5.371,-1000.0
1741692800.434,-6.348,999.512,55.664,50.781
1741692800.438,999.512,249.023,34.18,999.512
1741692800.442,312.012,-1000.0,-21.484,239.258
1741692800.446,-954.59,-927.246,-7.324,-990.234
1741692800.45,-1000.0,337.402,15.625,-1000.0
1741692800.454,-204.59,999.512,44.434,-129.883
1741692800.457,999.512,105.469,28.32,999.512
1741692800.461,475.098,-1000.0,-15.625,374.023
1741692800.465,-897.461,-1000.0,-36.621,-950.195
1741692800.469,-1000.0,-213.379,-23.438,-1000.0
1741692800.473,-189.453,999.512,33.691,-98.145
1741692800.503,999.512,476.562,26.855,999.512
1741692800.507,611.328,-866.699,-6.348,502.93
1741692800.511,-770.508,-1000.0,-10.254,-817.871
1741692800.515,-1000.0,30.273,20.996,-1000.0
1741692800.519,-234.863,999.512,58.105,-210.449
1741692800.523,999.512,917.969,65.43,999.512
1741692800.527,483.398,-163.574,-0.488,420.41
1741692800.53,-895.996,-1000.0,-59.57,-934.57
1741692800.534,-1000.0,-219.727,-28.32,-1000.0
1741692800.538,-156.25,999.512,36.621,-56.641
1741692800.542,962.891,458.496,48.828,998.047
1741692800.546,999.512,-825.195,-9.277,999.512
1741692800.503,999.512,476.562,26.855,999.512
1741692800.507,611.328,-866.699,-6.348,502.93
1741692800.511,-770.508,-1000.0,-10.254,-817.871
1741692800.515,-1000.0,30.273,20.996,-1000.0
1741692800.519,-234.863,999.512,58.105,-210.449
1741692800.523,999.512,917.969,65.43,999.512
1741692800.527,483.398,-163.574,-0.488,420.41
1741692800.53,-895.996,-1000.0,-59.57,-934.57
1741692800.534,-1000.0,-219.727,-28.32,-1000.0
1741692800.538,-156.25,999.512,36.621,-56.641
1741692800.542,962.891,458.496,48.828,998.047
1741692800.546,999.512,-825.195,-9.277,999.512
1741692800.534,159.668,-1000.0,-20.508,44.922
1741692800.538,-1000.0,-135.254,-11.719,-1000.0
1741692800.542,-1000.0,137.695,-19.043,-1000.0
1741692800.546,-178.223,-20.02,-11.23,-166.504
1741692800.55,961.426,734.863,-28.32,971.68
1741692800.554,999.512,165.527,-38.574,999.512
1741692800.558,684.57,-384.766,-32.715,597.656
1741692800.561,-879.395,-1000.0,-41.504,-936.523
1741692800.565,-819.336,-87.891,-27.344,-687.988
1741692800.569,912.109,999.512,-20.02,983.398
1741692800.573,751.953,-239.258,-31.738,662.109
1741692800.577,-830.078,-1000.0,-42.969,-895.508
1741692800.534,159.668,-1000.0,-20.508,44.922
1741692800.538,-1000.0,-135.254,-11.719,-1000.0
1741692800.542,-1000.0,137.695,-19.043,-1000.0
1741692800.546,-178.223,-20.02,-11.23,-166.504
1741692800.55,961.426,734.863,-28.32,971.68
1741692800.554,999.512,165.527,-38.574,999.512
1741692800.558,684.57,-384.766,-32.715,597.656
1741692800.561,-879.395,-1000.0,-41.504,-936.523
1741692800.565,-819.336,-87.891,-27.344,-687.988
1741692800.569,912.109,999.512,-20.02,983.398
1741692800.573,751.953,-239.258,-31.738,662.109
1741692800.577,-830.078,-1000.0,-42.969,-895.508
1741692800.534,159.668,-1000.0,-20.508,44.922
1741692800.538,-1000.0,-135.254,-11.719,-1000.0
1741692800.542,-1000.0,137.695,-19.043,-1000.0
1741692800.546,-178.223,-20.02,-11.23,-166.504
1741692800.55,961.426,734.863,-28.32,971.68
1741692800.554,999.512,165.527,-38.574,999.512
1741692800.558,684.57,-384.766,-32.715,597.656
1741692800.561,-879.395,-1000.0,-41.504,-936.523
1741692800.565,-819.336,-87.891,-27.344,-687.988
1741692800.569,912.109,999.512,-20.02,983.398
1741692800.573,751.953,-239.258,-31.738,662.109
1741692800.577,-830.078,-1000.0,-42.969,-895.508
1741692800.579,-1000.0,-128.906,-31.25,-983.887
1741692800.583,238.77,999.512,24.414,419.922
1741692800.587,999.512,256.348,2.441,999.512
1741692800.591,139.648,-1000.0,-53.711,-26.367
1741692800.595,-1000.0,-563.965,-48.34,-1000.0
1741692800.599,-859.375,855.469,-18.555,-740.234
1741692800.603,462.402,876.465,2.441,568.359
1741692800.606,999.512,-450.195,-29.297,999.512
1741692800.61,177.246,-1000.0,-59.57,169.434
1741692800.614,-997.07,-785.645,-65.918,-1000.0
1741692800.618,-1000.0,317.871,-45.898,-1000.0
1741692800.622,-92.773,999.512,-13.184,0.488
1741692800.625,999.512,524.902,-26.367,999.512
1741692800.629,237.305,-762.207,-70.312,208.008
1741692800.633,-1000.0,-1000.0,-79.59,-1000.0
1741692800.637,-1000.0,-58.105,-56.641,-1000.0
1741692800.641,-121.582,999.512,-30.273,-51.758
1741692800.645,999.512,827.148,-18.066,999.512
1741692800.649,454.59,-387.207,-52.734,359.863
1741692800.652,-892.578,-1000.0,-79.102,-939.453
1741692800.656,-1000.0,-479.492,-54.199,-1000.0
1741692800.66,-216.309,909.18,-7.324,-155.273
1741692800.664,999.512,800.781,-3.418,999.512
1741692800.668,413.086,-572.266,-45.41,317.383
1741692800.668,-927.246,-1000.0,-58.105,-957.52
1741692800.672,-1000.0,-30.762,-54.199,-1000.0
1741692800.676,-290.527,999.512,-16.602,-305.176
1741692800.68,999.512,999.512,2.441,999.512
1741692800.684,435.059,-198.242,-55.664,338.867
1741692800.688,-916.504,-919.922,-69.824,-963.379
1741692800.692,-1000.0,-665.039,-68.359,-1000.0
1741692800.695,-666.016,-346.68,-58.105,-686.523
1741692800.699,727.539,999.512,10.254,772.461
1741692800.703,999.512,97.656,-13.184,886.23
1741692800.707,-201.172,-1000.0,-52.246,-492.188
1741692800.711,-1000.0,-558.105,-34.668,-1000.0
1741692800.715,-413.086,726.074,-3.418,-418.457
1741692800.719,913.086,999.512,20.02,955.078
1741692800.723,999.512,-5.859,-5.859,924.316
1741692800.727,-109.375,-1000.0,-35.645,-360.352
1741692800.731,-1000.0,-572.754,-51.27,-1000.0
1741692800.735,-222.168,926.27,-15.137,-244.629
1741692800.739,959.961,632.324,2.441,961.914
1741692800.742,999.512,-783.203,-54.688,999.512
1741692800.746,225.586,-1000.0,-63.965,85.449
1741692800.75,-1000.0,-677.734,-50.293,-1000.0
1741692800.754,-633.301,531.25,-13.184,-577.637
1741692800.758,752.93,999.512,34.18,764.16
1741692800.715,-413.086,726.074,-3.418,-418.457
1741692800.719,913.086,999.512,20.02,955.078
1741692800.723,999.512,-5.859,-5.859,924.316
1741692800.727,-109.375,-1000.0,-35.645,-360.352
1741692800.731,-1000.0,-572.754,-51.27,-1000.0
1741692800.735,-222.168,926.27,-15.137,-244.629
1741692800.739,959.961,632.324,2.441,961.914
1741692800.742,999.512,-783.203,-54.688,999.512
1741692800.746,225.586,-1000.0,-63.965,85.449
1741692800.75,-1000.0,-677.734,-50.293,-1000.0
1741692800.754,-633.301,531.25,-13.184,-577.637
1741692800.758,752.93,999.512,34.18,764.16
1741692800.759,999.512,-15.625,-12.207,999.512
1741692800.763,258.301,-1000.0,-49.805,215.82
1741692800.767,-1000.0,-982.422,-50.293,-1000.0
1741692800.771,-541.016,226.562,-18.555,-471.191
1741692800.775,856.445,999.512,15.137,877.93
1741692800.779,999.512,325.684,-18.555,999.512
1741692800.783,132.324,-758.789,-54.688,110.84
1741692800.786,-993.164,-1000.0,-62.988,-1000.0
1741692800.79,-1000.0,-81.543,-47.852,-1000.0
1741692800.794,-255.371,999.512,-19.043,-210.449
1741692800.798,999.512,508.789,-20.02,999.512
1741692800.802,157.227,-866.699,-62.988,47.363
1741692800.759,999.512,-15.625,-12.207,999.512
1741692800.763,258.301,-1000.0,-49.805,215.82
1741692800.767,-1000.0,-982.422,-50.293,-1000.0
1741692800.771,-541.016,226.562,-18.555,-471.191
1741692800.775,856.445,999.512,15.137,877.93
1741692800.779,999.512,325.684,-18.555,999.512
1741692800.783,132.324,-758.789,-54.688,110.84
1741692800.786,-993.164,-1000.0,-62.988,-1000.0
1741692800.79,-1000.0,-81.543,-47.852,-1000.0
1741692800.794,-255.371,999.512,-19.043,-210.449
1741692800.798,999.512,508.789,-20.02,999.512
1741692800.802,157.227,-866.699,-62.988,47.363
1741692800.807,-1000.0,-1000.0,-73.242,-1000.0
1741692800.811,-975.586,375.977,-31.738,-963.867
1741692800.815,-978.516,296.875,-13.184,-988.77
1741692800.819,-939.941,-867.188,-34.668,-935.547
1741692800.823,-1000.0,113.281,-49.316,-1000.0
1741692800.827,-290.039,902.832,-29.297,-368.652
1741692800.831,999.512,942.871,-22.461,976.074
1741692800.834,898.926,-457.031,-30.273,915.527
1741692800.838,999.512,-460.449,-33.691,999.512
1741692800.842,191.895,-130.371,-58.105,178.223
1741692800.846,-1000.0,-1000.0,-71.289,-1000.0
1741692800.85,-1000.0,-168.945,-57.129,-1000.0
1741692800.807,-1000.0,-1000.0,-73.242,-1000.0
1741692800.811,-975.586,375.977,-31.738,-963.867
1741692800.815,-978.516,296.875,-13.184,-988.77
1741692800.819,-939.941,-867.188,-34.668,-935.547
1741692800.823,-1000.0,113.281,-49.316,-1000.0
1741692800.827,-290.039,902.832,-29.297,-368.652
1741692800.831,999.512,942.871,-22.461,976.074
1741692800.834,898.926,-457.031,-30.273,915.527
1741692800.838,999.512,-460.449,-33.691,999.512
1741692800.842,191.895,-130.371,-58.105,178.223
1741692800.846,-1000.0,-1000.0,-71.289,-1000.0
1741692800.85,-1000.0,-168.945,-57.129,-1000.0
1741692800.864,-316.895,999.512,-4.395,-315.918
1741692800.868,999.512,997.559,21.973,999.512
1741692800.872,667.48,-187.012,-21.973,555.664
1741692800.876,-750.0,-995.605,-31.25,-817.383
1741692800.88,-1000.0,265.625,-24.414,-1000.0
1741692800.884,-157.227,999.512,-9.277,-188.965
1741692800.888,959.473,397.461,5.371,979.004
1741692800.891,999.512,-865.723,-27.344,999.512
1741692800.895,218.75,-1000.0,-41.016,59.57
1741692800.899,-1000.0,-552.734,-43.945,-1000.0
1741692800.903,-411.133,687.5,-10.254,-333.008
1741692800.907,918.457,999.512,27.832,955.566
1741692800.864,-316.895,999.512,-4.395,-315.918
1741692800.868,999.512,997.559,21.973,999.512
1741692800.872,667.48,-187.012,-21.973,555.664
1741692800.876,-750.0,-995.605,-31.25,-817.383
1741692800.88,-1000.0,265.625,-24.414,-1000.0
1741692800.884,-157.227,999.512,-9.277,-188.965
1741692800.888,959.473,397.461,5.371,979.004
1741692800.891,999.512,-865.723,-27.344,999.512
1741692800.895,218.75,-1000.0,-41.016,59.57
1741692800.899,-1000.0,-552.734,-43.945,-1000.0
1741692800.903,-411.133,687.5,-10.254,-333.008
1741692800.907,918.457,999.512,27.832,955.566
1741692800.923,999.512,77.637,3.418,999.512
1741692800.927,199.219,-1000.0,-30.762,78.613
1741692800.931,-1000.0,-730.957,-38.574,-1000.0
1741692800.935,-673.34,463.867,-2.93,-564.453
1741692800.939,718.262,999.512,30.762,781.25
1741692800.943,999.512,791.016,12.207,999.512
1741692800.947,141.113,-520.996,-46.387,113.281
1741692800.95,-1000.0,-895.508,-48.34,-1000.0
1741692800.954,-1000.0,279.297,-5.371,-1000.0
1741692800.958,57.617,999.512,18.066,248.047
1741692800.962,999.512,194.824,-15.137,995.605
1741692800.966,-268.555,-1000.0,-58.594,-439.941
1741692800.923,999.512,77.637,3.418,999.512
1741692800.927,199.219,-1000.0,-30.762,78.613
1741692800.931,-1000.0,-730.957,-38.574,-1000.0
1741692800.935,-673.34,463.867,-2.93,-564.453
1741692800.939,718.262,999.512,30.762,781.25
1741692800.943,999.512,791.016,12.207,999.512
1741692800.947,141.113,-520.996,-46.387,113.281
1741692800.95,-1000.0,-895.508,-48.34,-1000.0
1741692800.954,-1000.0,279.297,-5.371,-1000.0
1741692800.958,57.617,999.512,18.066,248.047
1741692800.962,999.512,194.824,-15.137,995.605
1741692800.966,-268.555,-1000.0,-58.594,-439.941
1741692800.953,-1000.0,-626.465,-42.969,-1000.0
1741692800.957,-933.594,597.656,-21.484,-885.742
1741692800.961,177.734,999.512,13.184,280.273
1741692800.965,999.512,681.152,5.371,999.512
1741692800.969,105.957,-846.191,-50.293,12.207
1741692800.973,-1000.0,-567.871,-50.781,-1000.0
1741692800.977,-1000.0,228.027,-38.574,-1000.0
1741692800.98,-854.492,-509.277,-27.344,-780.762
1741692800.984,443.359,679.199,-6.348,562.012
1741692800.988,999.512,572.754,-13.184,999.512
1741692800.992,161.621,-1000.0,-51.27,11.719
1741692800.996,-1000.0,-694.336,-56.641,-1000.0
1741692800.953,-1000.0,-626.465,-42.969,-1000.0
1741692800.957,-933.594,597.656,-21.484,-885.742
1741692800.961,177.734,999.512,13.184,280.273
1741692800.965,999.512,681.152,5.371,999.512
1741692800.969,105.957,-846.191,-50.293,12.207
1741692800.973,-1000.0,-567.871,-50.781,-1000.0
1741692800.977,-1000.0,228.027,-38.574,-1000.0
1741692800.98,-854.492,-509.277,-27.344,-780.762
1741692800.984,443.359,679.199,-6.348,562.012
1741692800.988,999.512,572.754,-13.184,999.512
1741692800.992,161.621,-1000.0,-51.27,11.719
1741692800.996,-1000.0,-694.336,-56.641,-1000.0
1741692800.999,-269.531,812.012,-14.648,-222.656
1741692801.003,999.512,791.992,-4.883,999.512
1741692801.007,255.371,-632.812,-42.969,226.562
1741692801.011,-1000.0,-1000.0,-62.988,-1000.0
1741692801.015,-1000.0,-37.598,-48.34,-1000.0
1741692801.019,-219.238,999.512,3.418,-151.855
1741692801.023,999.512,395.508,-4.395,999.512
1741692801.026,374.512,-907.227,-61.523,294.434
1741692801.03,-948.242,-1000.0,-76.172,-976.562
1741692801.034,-1000.0,-233.398,-63.965,-1000.0
1741692801.038,-250.977,992.188,-18.066,-217.285
1741692801.042,999.512,979.98,7.812,999.512
1741692801.043,505.859,-187.012,-42.969,417.48
1741692801.047,-883.789,-1000.0,-88.379,-919.922
1741692801.051,-1000.0,-454.102,-74.707,-1000.0
1741692801.055,-158.691,872.07,-13.184,-125.0
1741692801.059,985.84,758.789,-5.859,999.512
1741692801.063,999.512,-498.535,-44.434,931.641
1741692801.067,18.555,-1000.0,-72.266,-191.406
1741692801.07,-1000.0,-889.648,-90.332,-1000.0
1741692801.074,-364.746,233.398,-50.781,-339.844
1741692801.078,919.922,999.512,-16.113,949.707
1741692801.082,999.512,44.922,-41.016,999.512
1741692801.086,153.809,-1000.0,-72.754,-30.762
1741692801.555,999.512,974.121,0.0,999.512
1741692801.559,817.871,-314.941,-55.664,645.996
1741692801.563,-523.438,-1000.0,-62.988,-684.57
1741692801.567,-1000.0,-339.844,-56.641,-1000.0
1741692801.571,-224.609,588.867,-30.762,-256.836
1741692801.575,999.512,999.512,10.254,999.512
1741692801.579,603.516,-79.102,-43.945,505.859
1741692801.582,-770.508,-1000.0,-84.961,-840.332
1741692801.586,-1000.0,-459.961,-64.453,-1000.0
1741692801.59,-376.953,954.102,-32.227,-369.141
1741692801.594,927.734,723.633,-16.113,989.258
1741692801.598,999.512,-626.465,-29.297,869.629
1741692801.091,-1000.0,-665.039,-81.055,-1000.0
1741692801.095,-562.988,767.09,-37.598,-531.25
1741692801.099,827.637,804.688,0.977,841.309
1741692801.103,999.512,-549.805,-47.852,999.512
1741692801.107,33.691,-1000.0,-84.961,-126.465
1741692801.111,-1000.0,112.305,-54.688,-1000.0
1741692801.115,-1000.0,424.805,-43.945,-1000.0
1741692801.118,-661.133,-545.898,-52.246,-594.727
1741692801.122,724.609,795.41,-33.203,826.172
1741692801.126,999.512,-13.672,-39.551,999.512
1741692801.13,-12.207,-1000.0,-70.801,-254.395
1741692801.134,-1000.0,-191.406,-57.617,-1000.0
1741692801.091,-1000.0,-665.039,-81.055,-1000.0
1741692801.095,-562.988,767.09,-37.598,-531.25
1741692801.099,827.637,804.688,0.977,841.309
1741692801.103,999.512,-549.805,-47.852,999.512
1741692801.107,33.691,-1000.0,-84.961,-126.465
1741692801.111,-1000.0,112.305,-54.688,-1000.0
1741692801.115,-1000.0,424.805,-43.945,-1000.0
1741692801.118,-661.133,-545.898,-52.246,-594.727
1741692801.122,724.609,795.41,-33.203,826.172
1741692801.126,999.512,-13.672,-39.551,999.512
1741692801.13,-12.207,-1000.0,-70.801,-254.395
1741692801.134,-1000.0,-191.406,-57.617,-1000.0
1741692801.134,-89.844,999.512,-4.883,29.297
1741692801.138,999.512,370.605,-24.902,999.512
1741692801.142,57.617,-1000.0,-79.59,-70.801
1741692801.146,-1000.0,-128.418,-74.707,-1000.0
1741692801.15,-1000.0,846.191,-34.668,-1000.0
1741692801.154,-261.23,844.727,-2.441,-203.125
1741692801.158,999.512,265.625,-42.48,999.512
1741692801.161,146.484,-1000.0,-98.145,21.973
1741692801.165,-1000.0,-1000.0,-83.008,-1000.0
1741692801.169,-1000.0,-49.316,-52.246,-1000.0
1741692801.173,-262.695,999.512,-3.906,-226.074
1741692801.177,999.512,877.441,16.602,999.512
1741692801.134,-89.844,999.512,-4.883,29.297
1741692801.138,999.512,370.605,-24.902,999.512
1741692801.142,57.617,-1000.0,-79.59,-70.801
1741692801.146,-1000.0,-128.418,-74.707,-1000.0
1741692801.15,-1000.0,846.191,-34.668,-1000.0
1741692801.154,-261.23,844.727,-2.441,-203.125
1741692801.158,999.512,265.625,-42.48,999.512
1741692801.161,146.484,-1000.0,-98.145,21.973
1741692801.165,-1000.0,-1000.0,-83.008,-1000.0
1741692801.169,-1000.0,-49.316,-52.246,-1000.0
1741692801.173,-262.695,999.512,-3.906,-226.074
1741692801.177,999.512,877.441,16.602,999.512
1741692801.18,244.141,-375.0,-11.23,225.586
1741692801.184,-1000.0,-1000.0,-36.133,-1000.0
1741692801.188,-1000.0,88.379,-42.48,-1000.0
1741692801.192,-196.289,999.512,11.719,-156.738
1741692801.196,979.492,704.102,30.273,999.512
1741692801.2,999.512,-210.449,15.625,992.676
1741692801.204,82.031,-969.238,-0.488,-74.707
1741692801.207,-1000.0,-673.34,-23.926,-1000.0
1741692801.211,-408.691,675.293,29.785,-353.516
1741692801.215,999.512,974.121,52.246,999.512
1741692801.219,496.582,-351.074,25.879,418.945
1741692801.223,-906.25,-1000.0,20.996,-931.152
1741692801.18,244.141,-375.0,-11.23,225.586
1741692801.184,-1000.0,-1000.0,-36.133,-1000.0
1741692801.188,-1000.0,88.379,-42.48,-1000.0
1741692801.192,-196.289,999.512,11.719,-156.738
1741692801.196,979.492,704.102,30.273,999.512
1741692801.2,999.512,-210.449,15.625,992.676
1741692801.204,82.031,-969.238,-0.488,-74.707
1741692801.207,-1000.0,-673.34,-23.926,-1000.0
1741692801.211,-408.691,675.293,29.785,-353.516
1741692801.215,999.512,974.121,52.246,999.512
1741692801.219,496.582,-351.074,25.879,418.945
1741692801.223,-906.25,-1000.0,20.996,-931.152
1741692801.238,-1000.0,-11.23,40.039,-1000.0
1741692801.242,-229.004,999.512,88.379,-239.746
1741692801.246,938.965,707.031,102.051,948.242
1741692801.25,999.512,-114.258,62.988,999.512
1741692801.254,140.137,-885.742,47.852,73.242
1741692801.258,-988.281,-30.273,76.172,-1000.0
1741692801.262,-1000.0,247.559,93.262,-1000.0
1741692801.265,-543.945,-467.285,86.914,-469.238
1741692801.269,842.285,999.512,83.496,904.297
1741692801.273,999.512,625.0,72.266,999.512
1741692801.277,-101.074,-1000.0,24.902,-224.121
1741692801.281,-1000.0,-516.113,12.695,-1000.0
1741692801.238,-1000.0,-11.23,40.039,-1000.0
1741692801.242,-229.004,999.512,88.379,-239.746
1741692801.246,938.965,707.031,102.051,948.242
1741692801.25,999.512,-114.258,62.988,999.512
1741692801.254,140.137,-885.742,47.852,73.242
1741692801.258,-988.281,-30.273,76.172,-1000.0
1741692801.262,-1000.0,247.559,93.262,-1000.0
1741692801.265,-543.945,-467.285,86.914,-469.238
1741692801.269,842.285,999.512,83.496,904.297
1741692801.273,999.512,625.0,72.266,999.512
1741692801.277,-101.074,-1000.0,24.902,-224.121
1741692801.281,-1000.0,-516.113,12.695,-1000.0
1741692801.283,-52.246,999.512,55.664,92.285
1741692801.287,999.512,298.828,26.855,999.512
1741692801.291,166.016,-1000.0,-14.16,7.324
1741692801.295,-1000.0,-710.449,-32.227,-1000.0
1741692801.299,-787.109,535.156,-27.832,-712.891
1741692801.303,593.75,999.512,10.742,665.039
1741692801.307,999.512,267.09,-24.414,999.512
1741692801.31,26.367,-1000.0,-94.727,-102.051
1741692801.314,-1000.0,-923.34,-99.121,-1000.0
1741692801.318,-763.672,290.039,-60.547,-685.059
1741692801.322,571.777,999.512,-32.227,624.023
1741692801.326,999.512,584.473,-47.363,999.512
1741692801.283,-52.246,999.512,55.664,92.285
1741692801.287,999.512,298.828,26.855,999.512
1741692801.291,166.016,-1000.0,-14.16,7.324
1741692801.295,-1000.0,-710.449,-32.227,-1000.0
1741692801.299,-787.109,535.156,-27.832,-712.891
1741692801.303,593.75,999.512,10.742,665.039
1741692801.307,999.512,267.09,-24.414,999.512
1741692801.31,26.367,-1000.0,-94.727,-102.051
1741692801.314,-1000.0,-923.34,-99.121,-1000.0
1741692801.318,-763.672,290.039,-60.547,-685.059
1741692801.322,571.777,999.512,-32.227,624.023
1741692801.326,999.512,584.473,-47.363,999.512
1741692801.344,132.324,-594.727,-92.285,121.582
1741692801.348,-1000.0,-1000.0,-113.281,-1000.0
1741692801.352,-1000.0,-141.602,-95.703,-1000.0
1741692801.356,6.348,999.512,-43.457,55.176
1741692801.36,999.512,71.777,-61.035,999.512
1741692801.364,995.605,-531.25,-98.633,999.512
1741692801.368,751.953,263.184,-96.191,714.844
1741692801.371,-779.297,-1000.0,-127.93,-844.727
1741692801.375,-967.285,-243.652,-99.609,-797.852
1741692801.379,798.828,999.512,-71.289,941.895
1741692801.383,586.426,-82.52,-84.961,491.699
1741692801.387,-930.176,-1000.0,-91.309,-945.312
1741692801.344,132.324,-594.727,-92.285,121.582
1741692801.348,-1000.0,-1000.0,-113.281,-1000.0
1741692801.352,-1000.0,-141.602,-95.703,-1000.0
1741692801.356,6.348,999.512,-43.457,55.176
1741692801.36,999.512,71.777,-61.035,999.512
1741692801.364,995.605,-531.25,-98.633,999.512
1741692801.368,751.953,263.184,-96.191,714.844
1741692801.371,-779.297,-1000.0,-127.93,-844.727
1741692801.375,-967.285,-243.652,-99.609,-797.852
1741692801.379,798.828,999.512,-71.289,941.895
1741692801.383,586.426,-82.52,-84.961,491.699
1741692801.387,-930.176,-1000.0,-91.309,-945.312
1741692801.376,-1000.0,-265.137,-84.473,-1000.0
1741692801.38,-242.188,999.512,-46.875,-213.379
1741692801.384,999.512,671.875,-39.062,999.512
1741692801.388,437.012,-729.492,-93.75,350.098
1741692801.392,-919.434,-1000.0,-117.676,-950.684
1741692801.396,-1000.0,50.781,-94.727,-1000.0
1741692801.4,-276.367,999.512,-62.988,-285.156
1741692801.403,999.512,585.938,-59.082,999.512
1741692801.407,612.305,-675.293,-83.496,498.047
1741692801.411,-787.598,-1000.0,-88.867,-854.004
1741692801.415,-1000.0,-448.73,-81.543,-1000.0
1741692801.419,-220.215,775.879,-49.805,-251.465
1741692801.376,-1000.0,-265.137,-84.473,-1000.0
1741692801.38,-242.188,999.512,-46.875,-213.379
1741692801.384,999.512,671.875,-39.062,999.512
1741692801.388,437.012,-729.492,-93.75,350.098
1741692801.392,-919.434,-1000.0,-117.676,-950.684
1741692801.396,-1000.0,50.781,-94.727,-1000.0
1741692801.4,-276.367,999.512,-62.988,-285.156
1741692801.403,999.512,585.938,-59.082,999.512
1741692801.407,612.305,-675.293,-83.496,498.047
1741692801.411,-787.598,-1000.0,-88.867,-854.004
1741692801.415,-1000.0,-448.73,-81.543,-1000.0
1741692801.419,-220.215,775.879,-49.805,-251.465
1741692801.376,-1000.0,-265.137,-84.473,-1000.0
1741692801.38,-242.188,999.512,-46.875,-213.379
1741692801.384,999.512,671.875,-39.062,999.512
1741692801.388,437.012,-729.492,-93.75,350.098
1741692801.392,-919.434,-1000.0,-117.676,-950.684
1741692801.396,-1000.0,50.781,-94.727,-1000.0
1741692801.4,-276.367,999.512,-62.988,-285.156
1741692801.403,999.512,585.938,-59.082,999.512
1741692801.407,612.305,-675.293,-83.496,498.047
1741692801.411,-787.598,-1000.0,-88.867,-854.004
1741692801.415,-1000.0,-448.73,-81.543,-1000.0
1741692801.419,-220.215,775.879,-49.805,-251.465
1741692801.419,999.512,999.512,-22.461,999.512
1741692801.423,814.453,-216.309,-61.035,672.363
1741692801.427,-498.535,-1000.0,-87.891,-648.926
1741692801.431,-1000.0,59.57,-46.387,-1000.0
1741692801.435,-517.578,924.316,-15.137,-489.746
1741692801.439,839.844,999.512,13.184,892.09
1741692801.443,999.512,144.531,-8.301,969.238
1741692801.446,-121.582,-1000.0,-61.035,-315.918
1741692801.45,-1000.0,-725.098,-52.246,-1000.0
1741692801.454,-276.367,682.129,-8.789,-255.859
1741692801.458,999.512,871.094,13.672,999.512
1741692801.462,902.344,-700.195,-11.719,900.391
1741692801.419,999.512,999.512,-22.461,999.512
1741692801.423,814.453,-216.309,-61.035,672.363
1741692801.427,-498.535,-1000.0,-87.891,-648.926
1741692801.431,-1000.0,59.57,-46.387,-1000.0
1741692801.435,-517.578,924.316,-15.137,-489.746
1741692801.439,839.844,999.512,13.184,892.09
1741692801.443,999.512,144.531,-8.301,969.238
1741692801.446,-121.582,-1000.0,-61.035,-315.918
1741692801.45,-1000.0,-725.098,-52.246,-1000.0
1741692801.454,-276.367,682.129,-8.789,-255.859
1741692801.458,999.512,871.094,13.672,999.512
1741692801.462,902.344,-700.195,-11.719,900.391
1741692801.465,999.512,-417.48,-26.855,999.512
1741692801.469,784.668,274.414,-21.484,689.941
1741692801.473,-862.793,-1000.0,-24.902,-928.711
1741692801.477,-602.539,29.785,5.859,-470.703
1741692801.481,884.766,953.125,6.348,937.012
1741692801.485,999.512,220.703,-1.465,999.512
1741692801.489,519.043,-100.098,-5.859,517.578
1741692801.492,-831.543,-1000.0,-33.203,-874.512
1741692801.496,-1000.0,-396.484,-18.555,-1000.0
1741692801.5,232.91,999.512,-10.742,451.66
1741692801.504,763.672,89.844,-24.414,699.707
1741692801.508,-786.133,-1000.0,-34.18,-825.195
1741692801.465,999.512,-417.48,-26.855,999.512
1741692801.469,784.668,274.414,-21.484,689.941
1741692801.473,-862.793,-1000.0,-24.902,-928.711
1741692801.477,-602.539,29.785,5.859,-470.703
1741692801.481,884.766,953.125,6.348,937.012
1741692801.485,999.512,220.703,-1.465,999.512
1741692801.489,519.043,-100.098,-5.859,517.578
1741692801.492,-831.543,-1000.0,-33.203,-874.512
1741692801.496,-1000.0,-396.484,-18.555,-1000.0
1741692801.5,232.91,999.512,-10.742,451.66
1741692801.504,763.672,89.844,-24.414,699.707
1741692801.508,-786.133,-1000.0,-34.18,-825.195
1741692801.509,-1000.0,-178.223,-19.531,-1000.0
1741692801.513,-211.914,999.512,16.602,-113.281
1741692801.517,999.512,395.02,-10.254,999.512
1741692801.521,398.438,-919.922,-42.48,317.871
1741692801.525,-979.492,-1000.0,-71.777,-1000.0
1741692801.529,-1000.0,-126.465,-78.125,-999.023
1741692801.533,42.48,999.512,-31.738,202.637
1741692801.536,999.512,150.391,-46.875,999.512
1741692801.54,473.145,-1000.0,-74.219,398.438
1741692801.544,-856.934,-733.887,-67.871,-868.652
1741692801.548,-1000.0,-407.227,-65.43,-1000.0
1741692801.552,-219.238,160.156,-21.973,-244.141
1741692801.509,-1000.0,-178.223,-19.531,-1000.0
1741692801.513,-211.914,999.512,16.602,-113.281
1741692801.517,999.512,395.02,-10.254,999.512
1741692801.521,398.438,-919.922,-42.48,317.871
1741692801.525,-979.492,-1000.0,-71.777,-1000.0
1741692801.529,-1000.0,-126.465,-78.125,-999.023
1741692801.533,42.48,999.512,-31.738,202.637
1741692801.536,999.512,150.391,-46.875,999.512
1741692801.54,473.145,-1000.0,-74.219,398.438
1741692801.544,-856.934,-733.887,-67.871,-868.652
1741692801.548,-1000.0,-407.227,-65.43,-1000.0
1741692801.552,-219.238,160.156,-21.973,-244.141
1741692801.613,-200.195,-1000.0,-45.898,-443.359
1741692801.617,-1000.0,-797.852,-66.895,-1000.0
1741692801.621,-982.422,298.34,-47.363,-931.152
1741692801.625,351.074,999.512,-16.602,456.055
1741692801.629,999.512,11.23,-51.27,828.613
1741692801.633,-464.844,-1000.0,-78.613,-661.621
1741692801.637,-1000.0,-1000.0,-92.773,-1000.0
1741692801.64,-821.777,-303.711,-88.379,-811.035
1741692801.644,492.188,999.512,-55.664,548.828
1741692801.648,999.512,234.375,-79.59,999.512
1741692801.652,-184.082,-1000.0,-115.234,-373.535
1741692801.656,-1000.0,-451.66,-113.77,-1000.0
1741692801.613,-200.195,-1000.0,-45.898,-443.359
1741692801.617,-1000.0,-797.852,-66.895,-1000.0
1741692801.621,-982.422,298.34,-47.363,-931.152
1741692801.625,351.074,999.512,-16.602,456.055
1741692801.629,999.512,11.23,-51.27,828.613
1741692801.633,-464.844,-1000.0,-78.613,-661.621
1741692801.637,-1000.0,-1000.0,-92.773,-1000.0
1741692801.64,-821.777,-303.711,-88.379,-811.035
1741692801.644,492.188,999.512,-55.664,548.828
1741692801.648,999.512,234.375,-79.59,999.512
1741692801.652,-184.082,-1000.0,-115.234,-373.535
1741692801.656,-1000.0,-451.66,-113.77,-1000.0
1741692801.674,-1000.0,827.637,-83.008,-967.285
1741692801.678,112.793,999.512,-46.387,240.234
1741692801.682,999.512,358.887,-62.012,999.512
1741692801.686,-62.5,-1000.0,-105.469,-215.332
1741692801.69,-1000.0,-626.953,-89.844,-1000.0
1741692801.694,-1000.0,840.332,-48.34,-997.559
1741692801.698,31.25,927.734,-39.062,116.699
1741692801.701,999.512,-375.977,-67.871,999.512
1741692801.705,139.648,-1000.0,-83.984,64.941
1741692801.709,-1000.0,-998.535,-76.66,-1000.0
1741692801.713,-1000.0,-37.598,-49.805,-1000.0
1741692801.717,-142.09,999.512,-20.508,-78.613
1741692801.674,-1000.0,827.637,-83.008,-967.285
1741692801.678,112.793,999.512,-46.387,240.234
1741692801.682,999.512,358.887,-62.012,999.512
1741692801.686,-62.5,-1000.0,-105.469,-215.332
1741692801.69,-1000.0,-626.953,-89.844,-1000.0
1741692801.694,-1000.0,840.332,-48.34,-997.559
1741692801.698,31.25,927.734,-39.062,116.699
1741692801.701,999.512,-375.977,-67.871,999.512
1741692801.705,139.648,-1000.0,-83.984,64.941
1741692801.709,-1000.0,-998.535,-76.66,-1000.0
1741692801.713,-1000.0,-37.598,-49.805,-1000.0
1741692801.717,-142.09,999.512,-20.508,-78.613
1741692801.703,999.512,324.219,-29.297,999.512
1741692801.707,152.832,-984.375,-50.293,105.957
1741692801.711,-1000.0,-1000.0,-52.246,-1000.0
1741692801.715,-1000.0,55.176,-43.457,-1000.0
1741692801.719,-291.992,999.512,-17.09,-282.227
1741692801.723,999.512,821.289,-8.789,999.512
1741692801.727,493.652,-296.875,-46.387,395.02
1741692801.73,-894.043,-1000.0,-79.102,-948.242
1741692801.734,-1000.0,-405.762,-65.918,-1000.0
1741692801.738,-206.543,997.07,-22.949,-154.297
1741692801.742,999.512,688.477,-16.602,999.512
1741692801.746,840.82,-671.387,-42.969,675.293
1741692801.703,999.512,324.219,-29.297,999.512
1741692801.707,152.832,-984.375,-50.293,105.957
1741692801.711,-1000.0,-1000.0,-52.246,-1000.0
1741692801.715,-1000.0,55.176,-43.457,-1000.0
1741692801.719,-291.992,999.512,-17.09,-282.227
1741692801.723,999.512,821.289,-8.789,999.512
1741692801.727,493.652,-296.875,-46.387,395.02
1741692801.73,-894.043,-1000.0,-79.102,-948.242
1741692801.734,-1000.0,-405.762,-65.918,-1000.0
1741692801.738,-206.543,997.07,-22.949,-154.297
1741692801.742,999.512,688.477,-16.602,999.512
1741692801.746,840.82,-671.387,-42.969,675.293
1741692801.703,999.512,324.219,-29.297,999.512
1741692801.707,152.832,-984.375,-50.293,105.957
1741692801.711,-1000.0,-1000.0,-52.246,-1000.0
1741692801.715,-1000.0,55.176,-43.457,-1000.0
1741692801.719,-291.992,999.512,-17.09,-282.227
1741692801.723,999.512,821.289,-8.789,999.512
1741692801.727,493.652,-296.875,-46.387,395.02
1741692801.73,-894.043,-1000.0,-79.102,-948.242
1741692801.734,-1000.0,-405.762,-65.918,-1000.0
1741692801.738,-206.543,997.07,-22.949,-154.297
1741692801.742,999.512,688.477,-16.602,999.512
1741692801.746,840.82,-671.387,-42.969,675.293
1741692801.75,-486.328,-1000.0,-49.316,-632.324
1741692801.754,-1000.0,-93.262,-56.152,-1000.0
1741692801.758,-197.266,999.512,-22.949,-178.223
1741692801.762,999.512,979.492,-10.742,999.512
1741692801.766,897.461,-188.477,-57.617,741.699
1741692801.77,-384.277,-1000.0,-61.035,-541.016
1741692801.774,-1000.0,64.453,-53.711,-1000.0
1741692801.777,-300.293,999.512,-37.598,-290.039
1741692801.781,969.727,870.117,-18.066,999.512
1741692801.785,999.512,-307.129,-40.039,868.652
1741692801.789,-173.828,-1000.0,-65.43,-381.348
1741692801.793,-1000.0,-247.07,-66.406,-1000.0
1741692801.793,-515.137,976.562,-30.273,-450.684
1741692801.797,942.871,999.512,-16.113,999.512
1741692801.801,897.949,-67.871,-54.199,746.582
1741692801.805,-499.023,-1000.0,-65.918,-632.812
1741692801.809,-1000.0,-749.512,-61.523,-1000.0
1741692801.813,-243.652,666.992,-10.742,-239.746
1741692801.817,995.117,807.617,17.578,998.535
1741692801.82,979.98,-849.609,-37.109,976.562
1741692801.824,860.352,-551.27,-49.316,863.77
1741692801.828,999.512,999.512,-22.461,999.512
1741692801.832,594.238,250.488,-19.531,624.023
1741692801.836,-848.633,-1000.0,-23.438,-788.086
1741692801.793,-515.137,976.562,-30.273,-450.684
1741692801.797,942.871,999.512,-16.113,999.512
1741692801.801,897.949,-67.871,-54.199,746.582
1741692801.805,-499.023,-1000.0,-65.918,-632.812
1741692801.809,-1000.0,-749.512,-61.523,-1000.0
1741692801.813,-243.652,666.992,-10.742,-239.746
1741692801.817,995.117,807.617,17.578,998.535
1741692801.82,979.98,-849.609,-37.109,976.562
1741692801.824,860.352,-551.27,-49.316,863.77
1741692801.828,999.512,999.512,-22.461,999.512
1741692801.832,594.238,250.488,-19.531,624.023
1741692801.836,-848.633,-1000.0,-23.438,-788.086
1741692801.84,-1000.0,124.023,-23.438,-1000.0
1741692801.844,-879.883,460.449,-35.156,-885.742
1741692801.848,-1000.0,-983.398,-51.758,-1000.0
1741692801.852,-202.637,6.348,-20.996,-151.367
1741692801.856,999.512,999.512,15.625,999.512
1741692801.86,935.547,705.078,-16.113,968.75
1741692801.864,999.512,-452.148,-31.738,854.492
1741692801.867,-203.125,-1000.0,-49.805,-422.852
1741692801.871,-1000.0,-458.008,-51.27,-1000.0
1741692801.875,67.871,999.512,1.953,147.461
1741692801.879,999.512,284.18,-6.348,999.512
1741692801.883,847.168,-986.328,-42.969,842.773
1741692801.84,-1000.0,124.023,-23.438,-1000.0
1741692801.844,-879.883,460.449,-35.156,-885.742
1741692801.848,-1000.0,-983.398,-51.758,-1000.0
1741692801.852,-202.637,6.348,-20.996,-151.367
1741692801.856,999.512,999.512,15.625,999.512
1741692801.86,935.547,705.078,-16.113,968.75
1741692801.864,999.512,-452.148,-31.738,854.492
1741692801.867,-203.125,-1000.0,-49.805,-422.852
1741692801.871,-1000.0,-458.008,-51.27,-1000.0
1741692801.875,67.871,999.512,1.953,147.461
1741692801.879,999.512,284.18,-6.348,999.512
1741692801.883,847.168,-986.328,-42.969,842.773
1741692801.899,999.512,582.031,-25.879,999.512
1741692801.903,387.695,36.133,-35.156,367.676
1741692801.907,-1000.0,-914.062,-23.438,-1000.0
1741692801.911,-32.227,938.965,23.438,83.008
1741692801.915,999.512,10.742,-10.742,999.512
1741692801.919,937.012,-222.168,-16.113,932.617
1741692801.923,928.223,475.098,-5.859,917.969
1741692801.926,-595.703,-1000.0,-20.996,-600.098
1741692801.93,-815.918,-89.355,-21.484,-667.48
1741692801.934,883.789,999.512,-27.832,997.07
1741692801.938,999.512,-47.363,-35.645,871.094
1741692801.942,-685.547,-1000.0,-52.246,-774.414
1741692801.899,999.512,582.031,-25.879,999.512
1741692801.903,387.695,36.133,-35.156,367.676
1741692801.907,-1000.0,-914.062,-23.438,-1000.0
1741692801.911,-32.227,938.965,23.438,83.008
1741692801.915,999.512,10.742,-10.742,999.512
1741692801.919,937.012,-222.168,-16.113,932.617
1741692801.923,928.223,475.098,-5.859,917.969
1741692801.926,-595.703,-1000.0,-20.996,-600.098
1741692801.93,-815.918,-89.355,-21.484,-667.48
1741692801.934,883.789,999.512,-27.832,997.07
1741692801.938,999.512,-47.363,-35.645,871.094
1741692801.942,-685.547,-1000.0,-52.246,-774.414
1741692801.93,-502.441,-9.277,-18.066,-444.824
1741692801.934,971.191,999.512,8.789,999.512
1741692801.938,999.512,-3.906,-16.113,999.512
1741692801.942,207.52,-1000.0,-50.293,42.969
1741692801.946,-1000.0,-876.953,-74.707,-1000.0
1741692801.95,-213.379,598.633,-24.414,-222.168
1741692801.954,999.512,636.23,-10.254,999.512
1741692801.957,999.512,-841.797,-48.828,967.773
1741692801.961,73.242,-1000.0,-72.266,-142.09
1741692801.965,-1000.0,-457.52,-93.262,-1000.0
1741692801.969,-284.18,801.27,-65.918,-268.066
1741692801.973,952.148,999.512,-41.992,951.172
1741692801.93,-502.441,-9.277,-18.066,-444.824
1741692801.934,971.191,999.512,8.789,999.512
1741692801.938,999.512,-3.906,-16.113,999.512
1741692801.942,207.52,-1000.0,-50.293,42.969
1741692801.946,-1000.0,-876.953,-74.707,-1000.0
1741692801.95,-213.379,598.633,-24.414,-222.168
1741692801.954,999.512,636.23,-10.254,999.512
1741692801.957,999.512,-841.797,-48.828,967.773
1741692801.961,73.242,-1000.0,-72.266,-142.09
1741692801.965,-1000.0,-457.52,-93.262,-1000.0
1741692801.969,-284.18,801.27,-65.918,-268.066
1741692801.973,952.148,999.512,-41.992,951.172
1741692802.004,999.512,22.461,-72.266,999.512
1741692802.008,242.188,-1000.0,-109.375,191.406
1741692802.012,-1000.0,-646.973,-114.258,-1000.0
1741692802.016,-598.145,613.281,-78.125,-556.641
1741692802.02,837.891,999.512,-56.152,869.141
1741692802.024,999.512,361.328,-68.359,999.512
1741692802.028,-95.703,-854.004,-104.492,-223.633
1741692802.031,-1000.0,-1000.0,-121.582,-1000.0
1741692802.035,-1000.0,-160.645,-80.566,-1000.0
1741692802.039,30.762,999.512,-33.203,120.605
1741692802.043,999.512,260.254,-42.969,999.512
1741692802.047,-65.918,-1000.0,-88.379,-263.672
1741692802.004,999.512,22.461,-72.266,999.512
1741692802.008,242.188,-1000.0,-109.375,191.406
1741692802.012,-1000.0,-646.973,-114.258,-1000.0
1741692802.016,-598.145,613.281,-78.125,-556.641
1741692802.02,837.891,999.512,-56.152,869.141
1741692802.024,999.512,361.328,-68.359,999.512
1741692802.028,-95.703,-854.004,-104.492,-223.633
1741692802.031,-1000.0,-1000.0,-121.582,-1000.0
1741692802.035,-1000.0,-160.645,-80.566,-1000.0
1741692802.039,30.762,999.512,-33.203,120.605
1741692802.043,999.512,260.254,-42.969,999.512
1741692802.047,-65.918,-1000.0,-88.379,-263.672
1741692802.034,-1000.0,-849.121,-99.121,-1000.0
1741692802.038,-1000.0,322.266,-76.172,-1000.0
1741692802.042,-322.266,999.512,-64.941,-333.496
1741692802.046,999.512,845.215,-65.918,999.512
1741692802.05,172.363,-626.953,-87.891,117.188
1741692802.054,-1000.0,-548.828,-88.867,-1000.0
1741692802.058,-948.73,308.105,-70.312,-957.52
1741692802.061,-1000.0,-344.727,-61.035,-1000.0
1741692802.065,306.152,709.473,-54.199,360.84
1741692802.069,521.484,78.125,-70.312,410.645
1741692802.073,-970.215,-1000.0,-89.844,-1000.0
1741692802.077,-1000.0,-154.297,-66.895,-1000.0
1741692802.034,-1000.0,-849.121,-99.121,-1000.0
1741692802.038,-1000.0,322.266,-76.172,-1000.0
1741692802.042,-322.266,999.512,-64.941,-333.496
1741692802.046,999.512,845.215,-65.918,999.512
1741692802.05,172.363,-626.953,-87.891,117.188
1741692802.054,-1000.0,-548.828,-88.867,-1000.0
1741692802.058,-948.73,308.105,-70.312,-957.52
1741692802.061,-1000.0,-344.727,-61.035,-1000.0
1741692802.065,306.152,709.473,-54.199,360.84
1741692802.069,521.484,78.125,-70.312,410.645
1741692802.073,-970.215,-1000.0,-89.844,-1000.0
1741692802.077,-1000.0,-154.297,-66.895,-1000.0
1741692802.034,-1000.0,-849.121,-99.121,-1000.0
1741692802.038,-1000.0,322.266,-76.172,-1000.0
1741692802.042,-322.266,999.512,-64.941,-333.496
1741692802.046,999.512,845.215,-65.918,999.512
1741692802.05,172.363,-626.953,-87.891,117.188
1741692802.054,-1000.0,-548.828,-88.867,-1000.0
1741692802.058,-948.73,308.105,-70.312,-957.52
1741692802.061,-1000.0,-344.727,-61.035,-1000.0
1741692802.065,306.152,709.473,-54.199,360.84
1741692802.069,521.484,78.125,-70.312,410.645
1741692802.073,-970.215,-1000.0,-89.844,-1000.0
1741692802.077,-1000.0,-154.297,-66.895,-1000.0
1741692802.094,-567.383,999.512,-23.926,-546.387
1741692802.098,999.512,938.965,-7.812,999.512
1741692802.102,222.656,-585.449,-48.828,198.242
1741692802.106,-1000.0,-472.168,-68.848,-1000.0
1741692802.11,-959.473,360.84,-52.246,-978.516
1741692802.114,-1000.0,-55.664,-41.504,-1000.0
1741692802.118,370.117,895.996,-32.715,458.496
1741692802.121,356.445,-83.984,-74.219,323.242
1741692802.125,-1000.0,-1000.0,-102.051,-1000.0
1741692802.129,-1000.0,-347.168,-70.801,-1000.0
1741692802.133,-949.219,908.691,-26.855,-831.543
1741692802.137,594.727,999.512,-15.625,694.824
1741692802.124,521.973,-151.367,-51.758,419.434
1741692802.128,-1000.0,-1000.0,-79.102,-1000.0
1741692802.132,-992.676,-770.508,-77.637,-1000.0
1741692802.136,-1000.0,288.574,-57.129,-937.988
1741692802.14,97.656,999.512,-30.762,269.531
1741692802.144,999.512,709.961,-16.602,999.512
1741692802.148,-18.066,-560.059,-31.738,-95.215
1741692802.151,-1000.0,-1000.0,-57.617,-1000.0
1741692802.155,-1000.0,-10.254,-34.668,-1000.0
1741692802.159,41.016,999.512,0.977,233.887
1741692802.163,979.492,232.91,-20.508,885.742
1741692802.167,-572.266,-1000.0,-61.035,-670.898
1741692802.169,-1000.0,-43.945,-51.758,-1000.0
1741692802.173,-1000.0,475.586,-33.691,-1000.0
1741692802.177,-761.23,-192.871,-21.973,-645.996
1741692802.181,905.762,839.844,-12.695,983.887
1741692802.185,416.016,-326.66,-46.387,354.492
1741692802.189,-1000.0,-1000.0,-66.406,-1000.0
1741692802.193,-995.117,472.168,-40.039,-990.723
1741692802.196,-960.449,-119.629,-27.832,-963.379
1741692802.2,-1000.0,-671.387,-43.945,-1000.0
1741692802.204,-925.781,472.656,-44.922,-929.199
1741692802.208,-1000.0,-775.391,-62.5,-1000.0
1741692802.212,-559.57,-363.77,-57.617,-598.145
1741692802.244,836.426,999.512,-24.414,817.871
1741692802.248,999.512,269.043,-57.617,999.512
1741692802.252,-9.766,-1000.0,-115.723,-145.996
1741692802.256,-1000.0,-451.172,-122.07,-1000.0
1741692802.26,-1000.0,740.234,-90.332,-1000.0
1741692802.264,-207.52,999.512,-48.828,-119.141
1741692802.268,999.512,270.508,-77.637,999.512
1741692802.271,156.25,-1000.0,-133.301,52.734
1741692802.275,-1000.0,-974.121,-127.93,-1000.0
1741692802.279,-1000.0,167.48,-94.238,-1000.0
1741692802.283,-259.766,999.512,-50.293,-186.035
1741692802.287,999.512,667.48,-48.828,999.512
1741692802.244,836.426,999.512,-24.414,817.871
1741692802.248,999.512,269.043,-57.617,999.512
1741692802.252,-9.766,-1000.0,-115.723,-145.996
1741692802.256,-1000.0,-451.172,-122.07,-1000.0
1741692802.26,-1000.0,740.234,-90.332,-1000.0
1741692802.264,-207.52,999.512,-48.828,-119.141
1741692802.268,999.512,270.508,-77.637,999.512
1741692802.271,156.25,-1000.0,-133.301,52.734
1741692802.275,-1000.0,-974.121,-127.93,-1000.0
1741692802.279,-1000.0,167.48,-94.238,-1000.0
1741692802.283,-259.766,999.512,-50.293,-186.035
1741692802.287,999.512,667.48,-48.828,999.512
1741692802.258,461.914,-614.258,-74.707,369.141
1741692802.262,-922.852,-1000.0,-85.449,-961.914
1741692802.266,-1000.0,-211.914,-79.102,-1000.0
1741692802.27,-31.25,999.512,-19.043,18.066
1741692802.274,999.512,428.223,-16.113,999.512
1741692802.278,893.555,-709.473,-59.082,907.715
1741692802.282,999.512,70.312,-55.176,999.512
1741692802.285,-116.699,-641.113,-69.336,-259.766
1741692802.289,-1000.0,-548.34,-49.805,-1000.0
1741692802.293,297.363,999.512,-12.695,484.863
1741692802.297,999.512,221.68,-29.785,999.512
1741692802.301,901.367,-884.277,-51.758,903.32
1741692802.258,461.914,-614.258,-74.707,369.141
1741692802.262,-922.852,-1000.0,-85.449,-961.914
1741692802.266,-1000.0,-211.914,-79.102,-1000.0
1741692802.27,-31.25,999.512,-19.043,18.066
1741692802.274,999.512,428.223,-16.113,999.512
1741692802.278,893.555,-709.473,-59.082,907.715
1741692802.282,999.512,70.312,-55.176,999.512
1741692802.285,-116.699,-641.113,-69.336,-259.766
1741692802.289,-1000.0,-548.34,-49.805,-1000.0
1741692802.293,297.363,999.512,-12.695,484.863
1741692802.297,999.512,221.68,-29.785,999.512
1741692802.301,901.367,-884.277,-51.758,903.32
1741692802.258,461.914,-614.258,-74.707,369.141
1741692802.262,-922.852,-1000.0,-85.449,-961.914
1741692802.266,-1000.0,-211.914,-79.102,-1000.0
1741692802.27,-31.25,999.512,-19.043,18.066
1741692802.274,999.512,428.223,-16.113,999.512
1741692802.278,893.555,-709.473,-59.082,907.715
1741692802.282,999.512,70.312,-55.176,999.512
1741692802.285,-116.699,-641.113,-69.336,-259.766
1741692802.289,-1000.0,-548.34,-49.805,-1000.0
1741692802.293,297.363,999.512,-12.695,484.863
1741692802.297,999.512,221.68,-29.785,999.512
1741692802.301,901.367,-884.277,-51.758,903.32
1741692802.305,969.727,471.191,-43.945,973.633
1741692802.309,903.809,978.516,-5.371,906.738
1741692802.313,999.512,-219.238,-11.719,999.512
1741692802.317,190.43,-1000.0,-48.34,183.105
1741692802.321,-1000.0,-574.707,-41.992,-1000.0
1741692802.325,-1000.0,742.188,-13.184,-1000.0
1741692802.329,-134.766,999.512,9.766,69.824
1741692802.332,999.512,885.254,27.832,999.512
1741692802.336,999.512,-63.965,4.395,979.004
1741692802.34,65.43,-1000.0,-38.086,-33.691
1741692802.344,-1000.0,-637.207,-44.434,-1000.0
1741692802.348,-269.043,671.875,0.977,-245.605
1741692802.305,969.727,471.191,-43.945,973.633
1741692802.309,903.809,978.516,-5.371,906.738
1741692802.313,999.512,-219.238,-11.719,999.512
1741692802.317,190.43,-1000.0,-48.34,183.105
1741692802.321,-1000.0,-574.707,-41.992,-1000.0
1741692802.325,-1000.0,742.188,-13.184,-1000.0
1741692802.329,-134.766,999.512,9.766,69.824
1741692802.332,999.512,885.254,27.832,999.512
1741692802.336,999.512,-63.965,4.395,979.004
1741692802.34,65.43,-1000.0,-38.086,-33.691
1741692802.344,-1000.0,-637.207,-44.434,-1000.0
1741692802.348,-269.043,671.875,0.977,-245.605
1741692802.363,958.496,999.512,21.484,971.191
1741692802.367,999.512,-42.48,-21.484,999.512
1741692802.371,152.344,-1000.0,-51.27,94.727
1741692802.375,-999.512,-31.738,-37.598,-1000.0
1741692802.379,-1000.0,366.699,-20.996,-1000.0
1741692802.383,-254.883,250.0,8.301,-180.664
1741692802.387,999.512,641.602,8.301,999.512
1741692802.39,257.812,-775.391,-38.086,213.867
1741692802.394,-1000.0,-1000.0,-58.594,-1000.0
1741692802.398,-905.762,-32.227,-38.574,-833.008
1741692802.402,414.551,999.512,-3.418,497.07
1741692802.406,999.512,226.562,-14.648,999.512
1741692802.363,958.496,999.512,21.484,971.191
1741692802.367,999.512,-42.48,-21.484,999.512
1741692802.371,152.344,-1000.0,-51.27,94.727
1741692802.375,-999.512,-31.738,-37.598,-1000.0
1741692802.379,-1000.0,366.699,-20.996,-1000.0
1741692802.383,-254.883,250.0,8.301,-180.664
1741692802.387,999.512,641.602,8.301,999.512
1741692802.39,257.812,-775.391,-38.086,213.867
1741692802.394,-1000.0,-1000.0,-58.594,-1000.0
1741692802.398,-905.762,-32.227,-38.574,-833.008
1741692802.402,414.551,999.512,-3.418,497.07
1741692802.406,999.512,226.562,-14.648,999.512
1741692802.411,129.395,-1000.0,-32.715,54.199
1741692802.415,-1000.0,-858.398,-17.578,-1000.0
1741692802.419,-1000.0,317.383,6.348,-1000.0
1741692802.423,-94.238,999.512,28.32,3.906
1741692802.427,999.512,308.105,18.555,999.512
1741692802.431,195.312,-938.477,-3.418,163.574
1741692802.435,-1000.0,-1000.0,-21.484,-1000.0
1741692802.438,-1000.0,-825.684,-30.273,-1000.0
1741692802.442,-264.16,481.934,11.719,-221.68
1741692802.446,999.512,874.512,33.691,999.512
1741692802.45,472.168,-541.016,-15.137,376.465
1741692802.454,-914.551,-1000.0,-45.898,-964.355
1741692802.411,129.395,-1000.0,-32.715,54.199
1741692802.415,-1000.0,-858.398,-17.578,-1000.0
1741692802.419,-1000.0,317.383,6.348,-1000.0
1741692802.423,-94.238,999.512,28.32,3.906
1741692802.427,999.512,308.105,18.555,999.512
1741692802.431,195.312,-938.477,-3.418,163.574
1741692802.435,-1000.0,-1000.0,-21.484,-1000.0
1741692802.438,-1000.0,-825.684,-30.273,-1000.0
1741692802.442,-264.16,481.934,11.719,-221.68
1741692802.446,999.512,874.512,33.691,999.512
1741692802.45,472.168,-541.016,-15.137,376.465
1741692802.454,-914.551,-1000.0,-45.898,-964.355
1741692802.411,129.395,-1000.0,-32.715,54.199
1741692802.415,-1000.0,-858.398,-17.578,-1000.0
1741692802.419,-1000.0,317.383,6.348,-1000.0
1741692802.423,-94.238,999.512,28.32,3.906
1741692802.427,999.512,308.105,18.555,999.512
1741692802.431,195.312,-938.477,-3.418,163.574
1741692802.435,-1000.0,-1000.0,-21.484,-1000.0
1741692802.438,-1000.0,-825.684,-30.273,-1000.0
1741692802.442,-264.16,481.934,11.719,-221.68
1741692802.446,999.512,874.512,33.691,999.512
1741692802.45,472.168,-541.016,-15.137,376.465
1741692802.454,-914.551,-1000.0,-45.898,-964.355
1741692802.454,-1000.0,-26.367,-10.254,-1000.0
1741692802.458,-63.477,999.512,33.691,-5.371
1741692802.462,986.328,243.164,19.531,999.512
1741692802.466,999.512,-486.816,-5.371,999.512
1741692802.47,174.805,-367.676,-32.227,123.535
1741692802.474,-1000.0,-737.305,-49.316,-1000.0
1741692802.478,-1000.0,349.609,-39.062,-1000.0
1741692802.481,-90.332,983.398,-43.945,162.598
1741692802.485,999.512,135.254,-56.641,999.512
1741692802.489,-91.309,-1000.0,-75.195,-326.172
1741692802.493,-1000.0,-650.391,-81.055,-1000.0
1741692802.497,-353.027,624.023,-54.688,-342.285
1741692802.5,999.023,999.512,-41.504,999.512
1741692802.504,943.848,64.453,-76.172,799.805
1741692802.508,-341.309,-1000.0,-99.609,-520.508
1741692802.512,-1000.0,-129.395,-88.379,-1000.0
1741692802.516,-516.602,931.641,-66.895,-481.934
1741692802.52,793.945,999.512,-30.762,814.453
1741692802.524,999.512,171.387,-46.387,999.512
1741692802.527,202.148,-1000.0,-86.914,94.727
1741692802.531,-1000.0,-933.594,-79.102,-1000.0
1741692802.535,-378.418,315.43,-30.762,-341.797
1741692802.539,998.047,999.512,0.0,999.512
1741692802.543,976.074,-383.789,-23.926,972.168
1741692802.5,999.023,999.512,-41.504,999.512
1741692802.504,943.848,64.453,-76.172,799.805
1741692802.508,-341.309,-1000.0,-99.609,-520.508
1741692802.512,-1000.0,-129.395,-88.379,-1000.0
1741692802.516,-516.602,931.641,-66.895,-481.934
1741692802.52,793.945,999.512,-30.762,814.453
1741692802.524,999.512,171.387,-46.387,999.512
1741692802.527,202.148,-1000.0,-86.914,94.727
1741692802.531,-1000.0,-933.594,-79.102,-1000.0
1741692802.535,-378.418,315.43,-30.762,-341.797
1741692802.539,998.047,999.512,0.0,999.512
1741692802.543,976.074,-383.789,-23.926,972.168
1741692802.544,859.375,-733.398,-37.109,864.746
1741692802.548,999.512,546.875,-44.434,999.512
1741692802.552,232.91,-430.664,-35.156,204.102
1741692802.556,-1000.0,-371.094,-16.602,-1000.0
1741692802.56,-925.293,395.996,-33.691,-729.492
1741692802.564,-1000.0,-836.426,-45.898,-985.84
1741692802.568,-288.086,125.0,-49.316,-356.445
1741692802.571,999.512,999.512,-39.551,999.512
1741692802.575,901.367,-270.508,-28.32,902.832
1741692802.579,996.094,-714.355,-38.574,999.512
1741692802.583,807.129,-323.242,-51.27,682.617
1741692802.587,-590.332,-1000.0,-58.105,-718.75
1741692802.544,859.375,-733.398,-37.109,864.746
1741692802.548,999.512,546.875,-44.434,999.512
1741692802.552,232.91,-430.664,-35.156,204.102
1741692802.556,-1000.0,-371.094,-16.602,-1000.0
1741692802.56,-925.293,395.996,-33.691,-729.492
1741692802.564,-1000.0,-836.426,-45.898,-985.84
1741692802.568,-288.086,125.0,-49.316,-356.445
1741692802.571,999.512,999.512,-39.551,999.512
1741692802.575,901.367,-270.508,-28.32,902.832
1741692802.579,996.094,-714.355,-38.574,999.512
1741692802.583,807.129,-323.242,-51.27,682.617
1741692802.587,-590.332,-1000.0,-58.105,-718.75
1741692803.055,375.977,999.512,-70.801,524.414
1741692803.059,365.234,-186.035,-84.961,338.379
1741692803.063,-1000.0,-1000.0,-110.352,-1000.0
1741692803.067,-1000.0,-138.672,-78.125,-1000.0
1741692803.071,-5.371,999.512,-34.18,150.391
1741692803.075,999.512,633.789,-47.852,999.512
1741692803.079,-41.992,-739.258,-108.398,-100.586
1741692803.082,-1000.0,-1000.0,-130.371,-1000.0
1741692803.086,-1000.0,94.727,-91.797,-996.094
1741692803.09,-49.805,999.512,-64.941,146.973
1741692803.094,999.512,292.969,-83.008,999.512
1741692803.098,27.344,-1000.0,-110.352,-46.387
1741692802.59,-1000.0,-238.281,-40.527,-1000.0
1741692802.594,63.477,999.512,-1.465,153.32
1741692802.598,999.512,292.48,-8.301,999.512
1741692802.602,935.547,-930.176,-25.391,930.664
1741692802.606,896.484,211.914,-21.973,907.227
1741692802.61,999.512,999.512,0.977,999.512
1741692802.614,774.902,257.812,9.766,796.875
1741692802.617,-641.602,-1000.0,-41.992,-580.566
1741692802.621,-1000.0,-133.789,-42.48,-1000.0
1741692802.625,-883.789,309.082,-21.973,-889.648
1741692802.629,-1000.0,-880.371,-40.039,-1000.0
1741692802.633,-164.062,498.047,-3.906,-144.531
1741692802.59,-1000.0,-238.281,-40.527,-1000.0
1741692802.594,63.477,999.512,-1.465,153.32
1741692802.598,999.512,292.48,-8.301,999.512
1741692802.602,935.547,-930.176,-25.391,930.664
1741692802.606,896.484,211.914,-21.973,907.227
1741692802.61,999.512,999.512,0.977,999.512
1741692802.614,774.902,257.812,9.766,796.875
1741692802.617,-641.602,-1000.0,-41.992,-580.566
1741692802.621,-1000.0,-133.789,-42.48,-1000.0
1741692802.625,-883.789,309.082,-21.973,-889.648
1741692802.629,-1000.0,-880.371,-40.039,-1000.0
1741692802.633,-164.062,498.047,-3.906,-144.531
1741692802.59,-1000.0,-238.281,-40.527,-1000.0
1741692802.594,63.477,999.512,-1.465,153.32
1741692802.598,999.512,292.48,-8.301,999.512
1741692802.602,935.547,-930.176,-25.391,930.664
1741692802.606,896.484,211.914,-21.973,907.227
1741692802.61,999.512,999.512,0.977,999.512
1741692802.614,774.902,257.812,9.766,796.875
1741692802.617,-641.602,-1000.0,-41.992,-580.566
1741692802.621,-1000.0,-133.789,-42.48,-1000.0
1741692802.625,-883.789,309.082,-21.973,-889.648
1741692802.629,-1000.0,-880.371,-40.039,-1000.0
1741692802.633,-164.062,498.047,-3.906,-144.531
1741692802.633,999.512,989.746,8.789,999.512
1741692802.637,480.957,-491.699,-39.551,360.84
1741692802.641,-938.965,-1000.0,-61.523,-997.07
1741692802.645,-977.539,340.82,-27.832,-951.172
1741692802.649,-1000.0,28.809,-14.16,-1000.0
1741692802.653,-298.828,-163.086,-12.695,-291.992
1741692802.657,999.512,513.184,-8.301,999.512
1741692802.66,241.699,-983.887,-45.41,66.406
1741692802.664,-1000.0,-1000.0,-53.711,-1000.0
1741692802.668,-353.027,183.105,-11.719,-345.215
1741692802.672,999.512,999.512,25.879,986.328
1741692802.676,969.238,124.512,-11.719,975.586
1741692802.633,999.512,989.746,8.789,999.512
1741692802.637,480.957,-491.699,-39.551,360.84
1741692802.641,-938.965,-1000.0,-61.523,-997.07
1741692802.645,-977.539,340.82,-27.832,-951.172
1741692802.649,-1000.0,28.809,-14.16,-1000.0
1741692802.653,-298.828,-163.086,-12.695,-291.992
1741692802.657,999.512,513.184,-8.301,999.512
1741692802.66,241.699,-983.887,-45.41,66.406
1741692802.664,-1000.0,-1000.0,-53.711,-1000.0
1741692802.668,-353.027,183.105,-11.719,-345.215
1741692802.672,999.512,999.512,25.879,986.328
1741692802.676,969.238,124.512,-11.719,975.586
1741692802.68,926.27,-982.91,-40.527,926.27
1741692802.684,977.539,552.246,-19.531,978.027
1741692802.688,966.309,477.051,-2.441,966.797
1741692802.692,966.309,104.98,7.812,966.797
1741692802.696,966.309,543.457,-16.113,966.797
1741692802.7,966.309,383.789,-18.066,966.797
1741692802.704,966.309,829.102,-17.09,966.797
1741692802.707,966.309,-424.805,-15.625,966.797
1741692802.711,966.309,312.5,-3.906,966.797
1741692802.715,966.309,472.656,-38.086,966.797
1741692802.719,966.309,-1000.0,-54.688,966.797
1741692802.723,966.309,91.309,-51.27,967.285
1741692802.68,926.27,-982.91,-40.527,926.27
1741692802.684,977.539,552.246,-19.531,978.027
1741692802.688,966.309,477.051,-2.441,966.797
1741692802.692,966.309,104.98,7.812,966.797
1741692802.696,966.309,543.457,-16.113,966.797
1741692802.7,966.309,383.789,-18.066,966.797
1741692802.704,966.309,829.102,-17.09,966.797
1741692802.707,966.309,-424.805,-15.625,966.797
1741692802.711,966.309,312.5,-3.906,966.797
1741692802.715,966.309,472.656,-38.086,966.797
1741692802.719,966.309,-1000.0,-54.688,966.797
1741692802.723,966.309,91.309,-51.27,967.285
1741692802.738,966.309,999.512,-29.785,966.797
1741692802.742,966.309,902.344,-11.719,966.797
1741692802.746,966.309,-491.211,-67.871,966.797
1741692802.75,966.309,6.836,-62.012,966.797
1741692802.754,966.309,323.73,-34.668,966.797
1741692802.758,966.309,-196.777,-31.738,966.797
1741692802.762,966.309,999.512,0.0,966.797
1741692802.765,966.309,2.93,-35.156,967.285
1741692802.769,966.309,-1000.0,-78.613,966.797
1741692802.773,966.309,481.445,-58.594,967.285
1741692802.777,966.797,230.957,-26.367,965.82
1741692802.781,903.32,-316.895,3.418,906.738
1741692802.738,966.309,999.512,-29.785,966.797
1741692802.742,966.309,902.344,-11.719,966.797
1741692802.746,966.309,-491.211,-67.871,966.797
1741692802.75,966.309,6.836,-62.012,966.797
1741692802.754,966.309,323.73,-34.668,966.797
1741692802.758,966.309,-196.777,-31.738,966.797
1741692802.762,966.309,999.512,0.0,966.797
1741692802.765,966.309,2.93,-35.156,967.285
1741692802.769,966.309,-1000.0,-78.613,966.797
1741692802.773,966.309,481.445,-58.594,967.285
1741692802.777,966.797,230.957,-26.367,965.82
1741692802.781,903.32,-316.895,3.418,906.738
1741692802.783,999.512,816.895,-2.441,999.512
1741692802.787,260.254,-461.426,-48.34,229.98
1741692802.791,-1000.0,-1000.0,-71.777,-1000.0
1741692802.795,-424.805,25.879,-33.203,-397.949
1741692802.799,896.973,999.512,0.488,906.25
1741692802.803,999.512,628.906,-21.484,999.512
1741692802.807,354.004,-663.086,-69.336,273.926
1741692802.81,-909.18,-1000.0,-82.031,-945.312
1741692802.814,-1000.0,-142.578,-41.016,-1000.0
1741692802.818,-241.211,999.512,-2.441,-227.051
1741692802.822,999.512,399.414,-3.418,999.512
1741692802.826,197.754,-905.762,-42.969,159.668
1741692802.783,999.512,816.895,-2.441,999.512
1741692802.787,260.254,-461.426,-48.34,229.98
1741692802.791,-1000.0,-1000.0,-71.777,-1000.0
1741692802.795,-424.805,25.879,-33.203,-397.949
1741692802.799,896.973,999.512,0.488,906.25
1741692802.803,999.512,628.906,-21.484,999.512
1741692802.807,354.004,-663.086,-69.336,273.926
1741692802.81,-909.18,-1000.0,-82.031,-945.312
1741692802.814,-1000.0,-142.578,-41.016,-1000.0
1741692802.818,-241.211,999.512,-2.441,-227.051
1741692802.822,999.512,399.414,-3.418,999.512
1741692802.826,197.754,-905.762,-42.969,159.668
1741692802.828,-1000.0,-1000.0,-63.477,-1000.0
1741692802.832,-936.035,-472.168,-63.965,-935.547
1741692802.836,-1000.0,808.105,-37.598,-1000.0
1741692802.84,176.758,999.512,-14.16,139.648
1741692802.844,535.156,-143.555,-47.363,386.719
1741692802.848,-1000.0,-1000.0,-77.637,-1000.0
1741692802.852,-1000.0,-295.41,-63.477,-1000.0
1741692802.855,-953.613,405.762,-48.828,-962.891
1741692802.859,-1000.0,-842.285,-75.195,-1000.0
1741692802.863,-1000.0,-1000.0,-76.172,-1000.0
1741692802.867,-1000.0,-939.941,-62.988,-1000.0
1741692802.871,-1000.0,-108.887,-48.828,-1000.0
1741692802.828,-1000.0,-1000.0,-63.477,-1000.0
1741692802.832,-936.035,-472.168,-63.965,-935.547
1741692802.836,-1000.0,808.105,-37.598,-1000.0
1741692802.84,176.758,999.512,-14.16,139.648
1741692802.844,535.156,-143.555,-47.363,386.719
1741692802.848,-1000.0,-1000.0,-77.637,-1000.0
1741692802.852,-1000.0,-295.41,-63.477,-1000.0
1741692802.855,-953.613,405.762,-48.828,-962.891
1741692802.859,-1000.0,-842.285,-75.195,-1000.0
1741692802.863,-1000.0,-1000.0,-76.172,-1000.0
1741692802.867,-1000.0,-939.941,-62.988,-1000.0
1741692802.871,-1000.0,-108.887,-48.828,-1000.0
1741692802.875,-1000.0,574.219,-32.227,-1000.0
1741692802.879,-1000.0,-459.473,-36.621,-1000.0
1741692802.883,-1000.0,-1000.0,-68.359,-1000.0
1741692802.887,-932.617,-272.461,-54.688,-929.199
1741692802.891,-1000.0,745.117,-21.484,-1000.0
1741692802.895,-306.641,805.664,2.93,-392.578
1741692802.899,999.512,829.102,24.902,968.262
1741692802.902,964.355,-734.863,-18.066,980.957
1741692802.906,932.129,-144.043,-1.953,925.781
1741692802.91,975.098,512.695,29.785,978.027
1741692802.914,966.309,-268.555,56.152,966.797
1741692802.918,966.309,991.699,108.887,967.285
1741692802.875,-1000.0,574.219,-32.227,-1000.0
1741692802.879,-1000.0,-459.473,-36.621,-1000.0
1741692802.883,-1000.0,-1000.0,-68.359,-1000.0
1741692802.887,-932.617,-272.461,-54.688,-929.199
1741692802.891,-1000.0,745.117,-21.484,-1000.0
1741692802.895,-306.641,805.664,2.93,-392.578
1741692802.899,999.512,829.102,24.902,968.262
1741692802.902,964.355,-734.863,-18.066,980.957
1741692802.906,932.129,-144.043,-1.953,925.781
1741692802.91,975.098,512.695,29.785,978.027
1741692802.914,966.309,-268.555,56.152,966.797
1741692802.918,966.309,991.699,108.887,967.285
1741692802.919,966.309,707.52,92.773,966.797
1741692802.923,966.309,-437.5,77.148,966.797
1741692802.927,966.309,364.258,90.82,966.797
1741692802.931,975.586,999.512,121.582,977.539
1741692802.935,894.531,298.828,115.723,895.02
1741692802.939,999.512,-26.855,87.402,999.512
1741692802.943,364.746,-180.664,63.477,411.133
1741692802.946,-1000.0,-1000.0,27.344,-975.098
1741692802.95,-1000.0,-669.434,2.93,-1000.0
1741692802.954,-958.496,591.309,21.973,-955.078
1741692802.958,-1000.0,-267.09,-3.906,-1000.0
1741692802.962,-1000.0,-1000.0,-47.363,-1000.0
1741692802.919,966.309,707.52,92.773,966.797
1741692802.923,966.309,-437.5,77.148,966.797
1741692802.927,966.309,364.258,90.82,966.797
1741692802.931,975.586,999.512,121.582,977.539
1741692802.935,894.531,298.828,115.723,895.02
1741692802.939,999.512,-26.855,87.402,999.512
1741692802.943,364.746,-180.664,63.477,411.133
1741692802.946,-1000.0,-1000.0,27.344,-975.098
1741692802.95,-1000.0,-669.434,2.93,-1000.0
1741692802.954,-958.496,591.309,21.973,-955.078
1741692802.958,-1000.0,-267.09,-3.906,-1000.0
1741692802.962,-1000.0,-1000.0,-47.363,-1000.0
1741692802.965,-1000.0,-1000.0,-61.035,-1000.0
1741692802.969,-1000.0,-404.297,-72.754,-1000.0
1741692802.973,-1000.0,416.992,-67.383,-1000.0
1741692802.977,-1000.0,-705.078,-92.773,-1000.0
1741692802.981,-1000.0,-965.332,-116.211,-1000.0
1741692802.985,-1000.0,689.941,-90.82,-1000.0
1741692802.989,-935.547,183.594,-103.027,-933.594
1741692802.992,-1000.0,-642.09,-111.328,-1000.0
1741692802.996,-265.625,988.77,-78.613,-246.094
1741692803.0,999.512,651.367,-89.844,999.512
1741692803.004,9.766,-1000.0,-116.699,-111.816
1741692803.008,-1000.0,-383.301,-110.352,-1000.0
1741692802.965,-1000.0,-1000.0,-61.035,-1000.0
1741692802.969,-1000.0,-404.297,-72.754,-1000.0
1741692802.973,-1000.0,416.992,-67.383,-1000.0
1741692802.977,-1000.0,-705.078,-92.773,-1000.0
1741692802.981,-1000.0,-965.332,-116.211,-1000.0
1741692802.985,-1000.0,689.941,-90.82,-1000.0
1741692802.989,-935.547,183.594,-103.027,-933.594
1741692802.992,-1000.0,-642.09,-111.328,-1000.0
1741692802.996,-265.625,988.77,-78.613,-246.094
1741692803.0,999.512,651.367,-89.844,999.512
1741692803.004,9.766,-1000.0,-116.699,-111.816
1741692803.008,-1000.0,-383.301,-110.352,-1000.0
1741692803.01,-1000.0,981.445,-77.148,-956.055
1741692803.014,339.844,999.512,-62.988,491.211
1741692803.018,630.859,28.32,-99.121,545.898
1741692803.022,-908.691,-1000.0,-123.535,-936.523
1741692803.026,-1000.0,-1000.0,-128.418,-1000.0
1741692803.03,-563.477,97.168,-76.66,-524.902
1741692803.034,999.512,956.055,-23.438,999.512
1741692803.037,231.445,-552.246,-94.727,208.496
1741692803.041,-1000.0,-1000.0,-108.398,-1000.0
1741692803.045,-937.012,-561.035,-82.031,-928.711
1741692803.049,-965.332,-291.992,-73.242,-998.535
1741692803.053,-1000.0,540.039,-65.918,-959.473
1741692803.01,-1000.0,981.445,-77.148,-956.055
1741692803.014,339.844,999.512,-62.988,491.211
1741692803.018,630.859,28.32,-99.121,545.898
1741692803.022,-908.691,-1000.0,-123.535,-936.523
1741692803.026,-1000.0,-1000.0,-128.418,-1000.0
1741692803.03,-563.477,97.168,-76.66,-524.902
1741692803.034,999.512,956.055,-23.438,999.512
1741692803.037,231.445,-552.246,-94.727,208.496
1741692803.041,-1000.0,-1000.0,-108.398,-1000.0
1741692803.045,-937.012,-561.035,-82.031,-928.711
1741692803.049,-965.332,-291.992,-73.242,-998.535
1741692803.053,-1000.0,540.039,-65.918,-959.473
1741692803.01,-1000.0,981.445,-77.148,-956.055
1741692803.014,339.844,999.512,-62.988,491.211
1741692803.018,630.859,28.32,-99.121,545.898
1741692803.022,-908.691,-1000.0,-123.535,-936.523
1741692803.026,-1000.0,-1000.0,-128.418,-1000.0
1741692803.03,-563.477,97.168,-76.66,-524.902
1741692803.034,999.512,956.055,-23.438,999.512
1741692803.037,231.445,-552.246,-94.727,208.496
1741692803.041,-1000.0,-1000.0,-108.398,-1000.0
1741692803.045,-937.012,-561.035,-82.031,-928.711
1741692803.049,-965.332,-291.992,-73.242,-998.535
1741692803.053,-1000.0,540.039,-65.918,-959.473
1741692803.114,-1000.0,-701.172,-101.562,-1000.0
1741692803.118,-949.707,581.543,-71.777,-859.863
1741692803.122,239.746,999.512,-40.039,396.973
1741692803.126,999.512,731.934,-66.406,999.512
1741692803.13,106.445,-694.824,-105.469,56.641
1741692803.134,-1000.0,-825.684,-91.309,-1000.0
1741692803.138,-979.98,402.832,-62.988,-974.121
1741692803.141,-974.609,141.113,-35.156,-978.027
1741692803.145,-1000.0,-753.418,-48.828,-1000.0
1741692803.149,-989.746,-858.887,-72.754,-987.305
1741692803.153,-954.102,-182.617,-69.824,-959.473
1741692803.157,-1000.0,191.406,-56.641,-1000.0
1741692803.114,-1000.0,-701.172,-101.562,-1000.0
1741692803.118,-949.707,581.543,-71.777,-859.863
1741692803.122,239.746,999.512,-40.039,396.973
1741692803.126,999.512,731.934,-66.406,999.512
1741692803.13,106.445,-694.824,-105.469,56.641
1741692803.134,-1000.0,-825.684,-91.309,-1000.0
1741692803.138,-979.98,402.832,-62.988,-974.121
1741692803.141,-974.609,141.113,-35.156,-978.027
1741692803.145,-1000.0,-753.418,-48.828,-1000.0
1741692803.149,-989.746,-858.887,-72.754,-987.305
1741692803.153,-954.102,-182.617,-69.824,-959.473
1741692803.157,-1000.0,191.406,-56.641,-1000.0
1741692803.16,-104.004,864.746,-21.484,-65.43
1741692803.164,999.512,523.926,-28.809,999.512
1741692803.168,142.578,-929.199,-83.496,62.988
1741692803.172,-1000.0,-992.188,-98.145,-1000.0
1741692803.176,-1000.0,187.5,-67.871,-1000.0
1741692803.18,-322.754,999.512,-23.438,-318.359
1741692803.184,999.512,527.832,-32.715,999.512
1741692803.187,202.148,-1000.0,-85.938,210.938
1741692803.191,-1000.0,-614.746,-72.266,-1000.0
1741692803.195,-1000.0,352.051,-47.363,-1000.0
1741692803.199,-618.164,93.75,-30.273,-485.84
1741692803.203,791.016,965.332,10.254,875.977
1741692803.16,-104.004,864.746,-21.484,-65.43
1741692803.164,999.512,523.926,-28.809,999.512
1741692803.168,142.578,-929.199,-83.496,62.988
1741692803.172,-1000.0,-992.188,-98.145,-1000.0
1741692803.176,-1000.0,187.5,-67.871,-1000.0
1741692803.18,-322.754,999.512,-23.438,-318.359
1741692803.184,999.512,527.832,-32.715,999.512
1741692803.187,202.148,-1000.0,-85.938,210.938
1741692803.191,-1000.0,-614.746,-72.266,-1000.0
1741692803.195,-1000.0,352.051,-47.363,-1000.0
1741692803.199,-618.164,93.75,-30.273,-485.84
1741692803.203,791.016,965.332,10.254,875.977
1741692803.203,999.512,167.48,-12.207,999.512
1741692803.207,906.25,-910.156,-29.785,916.992
1741692803.211,981.934,-56.152,-10.254,980.469
1741692803.215,968.262,852.051,22.461,968.75
1741692803.219,954.59,167.969,16.113,958.496
1741692803.223,910.645,-604.492,-11.719,904.785
1741692803.227,999.512,685.059,-13.184,999.512
1741692803.23,-36.621,-421.875,-27.832,-18.066
1741692803.234,-1000.0,-573.73,-14.16,-885.742
1741692803.238,464.355,999.512,26.367,650.391
1741692803.242,999.512,166.016,17.09,999.512
1741692803.246,896.973,-119.141,12.695,899.902
1741692803.203,999.512,167.48,-12.207,999.512
1741692803.207,906.25,-910.156,-29.785,916.992
1741692803.211,981.934,-56.152,-10.254,980.469
1741692803.215,968.262,852.051,22.461,968.75
1741692803.219,954.59,167.969,16.113,958.496
1741692803.223,910.645,-604.492,-11.719,904.785
1741692803.227,999.512,685.059,-13.184,999.512
1741692803.23,-36.621,-421.875,-27.832,-18.066
1741692803.234,-1000.0,-573.73,-14.16,-885.742
1741692803.238,464.355,999.512,26.367,650.391
1741692803.242,999.512,166.016,17.09,999.512
1741692803.246,896.973,-119.141,12.695,899.902
1741692803.248,975.098,724.121,8.301,979.004
1741692803.252,966.309,329.59,14.16,966.797
1741692803.256,966.309,999.512,53.223,966.797
1741692803.26,966.309,561.523,46.387,966.797
1741692803.264,966.309,43.945,25.879,967.285
1741692803.268,966.309,910.645,62.012,967.285
1741692803.272,966.309,974.609,82.031,966.797
1741692803.275,966.309,853.516,81.055,966.797
1741692803.279,966.309,978.516,84.473,966.797
1741692803.283,966.309,971.68,78.613,967.285
1741692803.287,966.309,937.5,86.914,966.797
1741692803.291,966.309,949.707,132.324,966.797
1741692803.248,975.098,724.121,8.301,979.004
1741692803.252,966.309,329.59,14.16,966.797
1741692803.256,966.309,999.512,53.223,966.797
1741692803.26,966.309,561.523,46.387,966.797
1741692803.264,966.309,43.945,25.879,967.285
1741692803.268,966.309,910.645,62.012,967.285
1741692803.272,966.309,974.609,82.031,966.797
1741692803.275,966.309,853.516,81.055,966.797
1741692803.279,966.309,978.516,84.473,966.797
1741692803.283,966.309,971.68,78.613,967.285
1741692803.287,966.309,937.5,86.914,966.797
1741692803.291,966.309,949.707,132.324,966.797
1741692803.295,966.309,968.75,176.758,966.797
1741692803.299,966.309,985.352,161.621,966.797
1741692803.303,966.309,846.191,138.184,966.797
1741692803.307,966.309,861.816,135.254,966.797
1741692803.311,966.309,979.492,128.906,966.797
1741692803.315,966.309,943.359,155.273,966.797
1741692803.319,966.309,999.512,145.02,966.797
1741692803.322,966.309,248.535,99.609,966.797
1741692803.326,966.309,204.59,100.586,966.797
1741692803.33,966.309,999.512,109.863,966.797
1741692803.334,966.309,622.07,122.07,967.285
1741692803.338,966.309,710.449,115.234,967.285
1741692803.295,966.309,968.75,176.758,966.797
1741692803.299,966.309,985.352,161.621,966.797
1741692803.303,966.309,846.191,138.184,966.797
1741692803.307,966.309,861.816,135.254,966.797
1741692803.311,966.309,979.492,128.906,966.797
1741692803.315,966.309,943.359,155.273,966.797
1741692803.319,966.309,999.512,145.02,966.797
1741692803.322,966.309,248.535,99.609,966.797
1741692803.326,966.309,204.59,100.586,966.797
1741692803.33,966.309,999.512,109.863,966.797
1741692803.334,966.309,622.07,122.07,967.285
1741692803.338,966.309,710.449,115.234,967.285
1741692803.34,966.309,327.637,93.262,966.797
1741692803.344,966.309,-535.645,87.891,966.797
1741692803.348,966.309,554.199,81.543,966.797
1741692803.352,966.309,999.512,99.121,966.797
1741692803.356,966.309,624.512,107.91,966.797
1741692803.36,966.309,-765.625,74.219,966.797
1741692803.364,966.309,-295.41,70.801,966.797
1741692803.367,966.309,916.504,93.75,966.797
1741692803.371,966.309,935.059,135.742,967.285
1741692803.375,981.445,984.863,150.391,970.703
1741692803.379,897.949,-119.629,74.707,900.391
1741692803.383,999.512,-1000.0,3.906,999.512
1741692803.34,966.309,327.637,93.262,966.797
1741692803.344,966.309,-535.645,87.891,966.797
1741692803.348,966.309,554.199,81.543,966.797
1741692803.352,966.309,999.512,99.121,966.797
1741692803.356,966.309,624.512,107.91,966.797
1741692803.36,966.309,-765.625,74.219,966.797
1741692803.364,966.309,-295.41,70.801,966.797
1741692803.367,966.309,916.504,93.75,966.797
1741692803.371,966.309,935.059,135.742,967.285
1741692803.375,981.445,984.863,150.391,970.703
1741692803.379,897.949,-119.629,74.707,900.391
1741692803.383,999.512,-1000.0,3.906,999.512
1741692803.34,966.309,327.637,93.262,966.797
1741692803.344,966.309,-535.645,87.891,966.797
1741692803.348,966.309,554.199,81.543,966.797
1741692803.352,966.309,999.512,99.121,966.797
1741692803.356,966.309,624.512,107.91,966.797
1741692803.36,966.309,-765.625,74.219,966.797
1741692803.364,966.309,-295.41,70.801,966.797
1741692803.367,966.309,916.504,93.75,966.797
1741692803.371,966.309,935.059,135.742,967.285
1741692803.375,981.445,984.863,150.391,970.703
1741692803.379,897.949,-119.629,74.707,900.391
1741692803.383,999.512,-1000.0,3.906,999.512
1741692803.384,636.23,-955.078,-4.395,254.395
1741692803.388,-800.781,-981.934,-16.113,-1000.0
1741692803.392,-1000.0,-1000.0,-27.344,-995.117
1741692803.396,-940.43,-714.355,-36.621,-967.773
1741692803.4,-1000.0,-735.352,-76.172,-1000.0
1741692803.404,-1000.0,-1000.0,-98.633,-1000.0
1741692803.408,-1000.0,-987.305,-92.285,-1000.0
1741692803.411,-1000.0,-999.023,-118.164,-1000.0
1741692803.415,-1000.0,-1000.0,-191.895,-1000.0
1741692803.419,-1000.0,-1000.0,-223.633,-1000.0
1741692803.423,-1000.0,-1000.0,-233.398,-1000.0
1741692803.427,-1000.0,-1000.0,-235.352,-1000.0
1741692803.384,636.23,-955.078,-4.395,254.395
1741692803.388,-800.781,-981.934,-16.113,-1000.0
1741692803.392,-1000.0,-1000.0,-27.344,-995.117
1741692803.396,-940.43,-714.355,-36.621,-967.773
1741692803.4,-1000.0,-735.352,-76.172,-1000.0
1741692803.404,-1000.0,-1000.0,-98.633,-1000.0
1741692803.408,-1000.0,-987.305,-92.285,-1000.0
1741692803.411,-1000.0,-999.023,-118.164,-1000.0
1741692803.415,-1000.0,-1000.0,-191.895,-1000.0
1741692803.419,-1000.0,-1000.0,-223.633,-1000.0
1741692803.423,-1000.0,-1000.0,-233.398,-1000.0
1741692803.427,-1000.0,-1000.0,-235.352,-1000.0
1741692803.384,636.23,-955.078,-4.395,254.395
1741692803.388,-800.781,-981.934,-16.113,-1000.0
1741692803.392,-1000.0,-1000.0,-27.344,-995.117
1741692803.396,-940.43,-714.355,-36.621,-967.773
1741692803.4,-1000.0,-735.352,-76.172,-1000.0
1741692803.404,-1000.0,-1000.0,-98.633,-1000.0
1741692803.408,-1000.0,-987.305,-92.285,-1000.0
1741692803.411,-1000.0,-999.023,-118.164,-1000.0
1741692803.415,-1000.0,-1000.0,-191.895,-1000.0
1741692803.419,-1000.0,-1000.0,-223.633,-1000.0
1741692803.423,-1000.0,-1000.0,-233.398,-1000.0
1741692803.427,-1000.0,-1000.0,-235.352,-1000.0
1741692803.445,-1000.0,-1000.0,-231.934,-1000.0
1741692803.449,-1000.0,-1000.0,-275.879,-1000.0
1741692803.453,-1000.0,-995.605,-299.316,-1000.0
1741692803.457,-1000.0,-1000.0,-303.711,-1000.0
1741692803.461,-1000.0,-1000.0,-288.574,-1000.0
1741692803.465,-1000.0,-832.52,-238.77,-1000.0
1741692803.469,-1000.0,-887.207,-271.484,-1000.0
1741692803.472,-1000.0,-1000.0,-318.848,-1000.0
1741692803.476,-1000.0,-989.258,-289.062,-1000.0
1741692803.48,-1000.0,-1000.0,-260.254,-1000.0
1741692803.484,-1000.0,-1000.0,-250.488,-1000.0
1741692803.488,-1000.0,-1000.0,-262.207,-1000.0
1741692803.445,-1000.0,-1000.0,-231.934,-1000.0
1741692803.449,-1000.0,-1000.0,-275.879,-1000.0
1741692803.453,-1000.0,-995.605,-299.316,-1000.0
1741692803.457,-1000.0,-1000.0,-303.711,-1000.0
1741692803.461,-1000.0,-1000.0,-288.574,-1000.0
1741692803.465,-1000.0,-832.52,-238.77,-1000.0
1741692803.469,-1000.0,-887.207,-271.484,-1000.0
1741692803.472,-1000.0,-1000.0,-318.848,-1000.0
1741692803.476,-1000.0,-989.258,-289.062,-1000.0
1741692803.48,-1000.0,-1000.0,-260.254,-1000.0
1741692803.484,-1000.0,-1000.0,-250.488,-1000.0
1741692803.488,-1000.0,-1000.0,-262.207,-1000.0
1741692803.445,-1000.0,-1000.0,-231.934,-1000.0
1741692803.449,-1000.0,-1000.0,-275.879,-1000.0
1741692803.453,-1000.0,-995.605,-299.316,-1000.0
1741692803.457,-1000.0,-1000.0,-303.711,-1000.0
1741692803.461,-1000.0,-1000.0,-288.574,-1000.0
1741692803.465,-1000.0,-832.52,-238.77,-1000.0
1741692803.469,-1000.0,-887.207,-271.484,-1000.0
1741692803.472,-1000.0,-1000.0,-318.848,-1000.0
1741692803.476,-1000.0,-989.258,-289.062,-1000.0
1741692803.48,-1000.0,-1000.0,-260.254,-1000.0
1741692803.484,-1000.0,-1000.0,-250.488,-1000.0
1741692803.488,-1000.0,-1000.0,-262.207,-1000.0
1741692803.489,-1000.0,-977.051,-288.086,-1000.0
1741692803.493,-1000.0,-989.746,-292.48,-1000.0
1741692803.497,-1000.0,-1000.0,-268.555,-1000.0
1741692803.501,-1000.0,205.566,-225.098,-1000.0
1741692803.505,-1000.0,44.434,-226.074,-1000.0
1741692803.509,-1000.0,-933.594,-229.98,-1000.0
1741692803.513,-1000.0,-737.793,-209.961,-1000.0
1741692803.516,-1000.0,-688.477,-187.012,-1000.0
1741692803.52,-1000.0,839.844,-125.0,-1000.0
1741692803.524,-1000.0,391.113,-110.352,-1000.0
1741692803.528,-1000.0,-1000.0,-139.16,-1000.0
1741692803.532,-1000.0,296.875,-120.117,-985.352
1741692803.489,-1000.0,-977.051,-288.086,-1000.0
1741692803.493,-1000.0,-989.746,-292.48,-1000.0
1741692803.497,-1000.0,-1000.0,-268.555,-1000.0
1741692803.501,-1000.0,205.566,-225.098,-1000.0
1741692803.505,-1000.0,44.434,-226.074,-1000.0
1741692803.509,-1000.0,-933.594,-229.98,-1000.0
1741692803.513,-1000.0,-737.793,-209.961,-1000.0
1741692803.516,-1000.0,-688.477,-187.012,-1000.0
1741692803.52,-1000.0,839.844,-125.0,-1000.0
1741692803.524,-1000.0,391.113,-110.352,-1000.0
1741692803.528,-1000.0,-1000.0,-139.16,-1000.0
1741692803.532,-1000.0,296.875,-120.117,-985.352
1741692803.489,-1000.0,-977.051,-288.086,-1000.0
1741692803.493,-1000.0,-989.746,-292.48,-1000.0
1741692803.497,-1000.0,-1000.0,-268.555,-1000.0
1741692803.501,-1000.0,205.566,-225.098,-1000.0
1741692803.505,-1000.0,44.434,-226.074,-1000.0
1741692803.509,-1000.0,-933.594,-229.98,-1000.0
1741692803.513,-1000.0,-737.793,-209.961,-1000.0
1741692803.516,-1000.0,-688.477,-187.012,-1000.0
1741692803.52,-1000.0,839.844,-125.0,-1000.0
1741692803.524,-1000.0,391.113,-110.352,-1000.0
1741692803.528,-1000.0,-1000.0,-139.16,-1000.0
1741692803.532,-1000.0,296.875,-120.117,-985.352
1741692803.534,-922.852,583.984,-85.938,-955.078
1741692803.538,-1000.0,-192.383,-57.129,-1000.0
1741692803.542,-110.84,980.469,-38.574,29.785
1741692803.546,640.137,709.961,-56.152,999.512
1741692803.55,-795.898,-905.762,-87.891,-356.445
1741692803.554,-1000.0,-33.203,-74.707,-1000.0
1741692803.558,-603.027,999.512,-23.926,-311.523
1741692803.561,960.938,959.473,-11.23,999.512
1741692803.565,241.211,-193.848,-65.43,290.527
1741692803.569,-1000.0,-1000.0,-89.355,-1000.0
1741692803.573,-1000.0,214.355,-57.129,-1000.0
1741692803.577,-256.348,999.512,-13.672,-92.773
1741692803.534,-922.852,583.984,-85.938,-955.078
1741692803.538,-1000.0,-192.383,-57.129,-1000.0
1741692803.542,-110.84,980.469,-38.574,29.785
1741692803.546,640.137,709.961,-56.152,999.512
1741692803.55,-795.898,-905.762,-87.891,-356.445
1741692803.554,-1000.0,-33.203,-74.707,-1000.0
1741692803.558,-603.027,999.512,-23.926,-311.523
1741692803.561,960.938,959.473,-11.23,999.512
1741692803.565,241.211,-193.848,-65.43,290.527
1741692803.569,-1000.0,-1000.0,-89.355,-1000.0
1741692803.573,-1000.0,214.355,-57.129,-1000.0
1741692803.577,-256.348,999.512,-13.672,-92.773
1741692803.579,999.512,943.359,-5.371,999.512
1741692803.583,170.41,-157.715,-68.359,245.605
1741692803.587,-1000.0,-1000.0,-113.281,-1000.0
1741692803.591,-977.051,-212.402,-104.98,-995.605
1741692803.595,-973.145,-443.359,-114.746,-965.82
1741692803.599,-1000.0,-112.305,-112.793,-1000.0
1741692803.603,-1000.0,214.844,-118.652,-1000.0
1741692803.606,-1000.0,-1000.0,-132.324,-1000.0
1741692803.61,-928.223,-828.613,-104.004,-935.059
1741692803.614,-1000.0,450.684,-69.824,-1000.0
1741692803.618,-453.613,999.512,-39.062,-325.195
1741692803.622,999.512,870.605,-49.805,999.512
1741692803.579,999.512,943.359,-5.371,999.512
1741692803.583,170.41,-157.715,-68.359,245.605
1741692803.587,-1000.0,-1000.0,-113.281,-1000.0
1741692803.591,-977.051,-212.402,-104.98,-995.605
1741692803.595,-973.145,-443.359,-114.746,-965.82
1741692803.599,-1000.0,-112.305,-112.793,-1000.0
1741692803.603,-1000.0,214.844,-118.652,-1000.0
1741692803.606,-1000.0,-1000.0,-132.324,-1000.0
1741692803.61,-928.223,-828.613,-104.004,-935.059
1741692803.614,-1000.0,450.684,-69.824,-1000.0
1741692803.618,-453.613,999.512,-39.062,-325.195
1741692803.622,999.512,870.605,-49.805,999.512
1741692803.625,178.223,-382.812,-97.168,138.184
1741692803.629,-1000.0,-909.668,-104.98,-1000.0
1741692803.633,-1000.0,515.137,-51.27,-1000.0
1741692803.637,-263.184,999.512,4.883,-199.707
1741692803.641,999.512,990.723,-0.488,999.512
1741692803.645,255.371,42.969,-28.32,335.449
1741692803.649,-1000.0,-1000.0,-47.363,-959.473
1741692803.652,-1000.0,-755.371,-43.457,-1000.0
1741692803.656,-307.617,533.203,-3.418,-247.559
1741692803.66,999.512,927.246,-10.742,999.512
1741692803.664,156.738,-515.625,-69.824,141.602
1741692803.668,-1000.0,-1000.0,-83.496,-1000.0
1741692803.625,178.223,-382.812,-97.168,138.184
1741692803.629,-1000.0,-909.668,-104.98,-1000.0
1741692803.633,-1000.0,515.137,-51.27,-1000.0
1741692803.637,-263.184,999.512,4.883,-199.707
1741692803.641,999.512,990.723,-0.488,999.512
1741692803.645,255.371,42.969,-28.32,335.449
1741692803.649,-1000.0,-1000.0,-47.363,-959.473
1741692803.652,-1000.0,-755.371,-43.457,-1000.0
1741692803.656,-307.617,533.203,-3.418,-247.559
1741692803.66,999.512,927.246,-10.742,999.512
1741692803.664,156.738,-515.625,-69.824,141.602
1741692803.668,-1000.0,-1000.0,-83.496,-1000.0
1741692803.668,-972.168,291.504,-41.992,-978.516
1741692803.672,-974.609,999.512,-8.301,-963.867
1741692803.676,-1000.0,201.66,-18.066,-977.051
1741692803.68,-925.781,289.551,-24.414,-925.293
1741692803.684,-1000.0,-199.219,-51.27,-1000.0
1741692803.688,-536.133,-348.633,-40.527,-436.035
1741692803.692,832.031,999.512,5.371,879.883
1741692803.695,999.512,376.953,-18.066,999.512
1741692803.699,133.301,-996.094,-59.57,143.555
1741692803.703,-993.652,-1000.0,-70.312,-997.559
1741692803.707,-1000.0,127.441,-48.828,-1000.0
1741692803.711,-226.562,999.512,4.395,-195.312
1741692803.668,-972.168,291.504,-41.992,-978.516
1741692803.672,-974.609,999.512,-8.301,-963.867
1741692803.676,-1000.0,201.66,-18.066,-977.051
1741692803.68,-925.781,289.551,-24.414,-925.293
1741692803.684,-1000.0,-199.219,-51.27,-1000.0
1741692803.688,-536.133,-348.633,-40.527,-436.035
1741692803.692,832.031,999.512,5.371,879.883
1741692803.695,999.512,376.953,-18.066,999.512
1741692803.699,133.301,-996.094,-59.57,143.555
1741692803.703,-993.652,-1000.0,-70.312,-997.559
1741692803.707,-1000.0,127.441,-48.828,-1000.0
1741692803.711,-226.562,999.512,4.395,-195.312
1741692803.729,999.512,936.035,4.395,999.512
1741692803.733,997.07,-133.301,-53.711,974.609
1741692803.737,-295.898,-1000.0,-65.43,-334.473
