timestamps,TP9,AF7,AF8,TP10
1741775342.866,918.457,-1000.0,-62.012,912.598
1741775342.87,979.98,-419.922,-38.574,981.934
1741775342.874,966.309,838.379,36.133,966.797
1741775342.878,979.004,934.57,40.527,979.004
1741775342.882,916.504,-359.375,-34.18,917.48
1741775342.886,999.512,-128.906,21.484,999.512
1741775342.89,865.723,614.258,62.012,854.492
1741775342.893,-515.625,-938.477,47.852,-517.578
1741775342.897,-1000.0,-1000.0,81.055,-1000.0
1741775342.901,-933.594,-895.508,167.969,-935.059
1741775342.905,-1000.0,-1000.0,160.156,-1000.0
1741775342.909,-1000.0,-144.043,154.785,-1000.0
1741775345.417,414.551,999.512,-66.406,614.746
1741775345.421,999.512,788.574,-152.344,999.512
1741775345.425,899.414,-767.09,-164.062,907.227
1741775345.429,989.258,72.266,-50.293,991.211
1741775345.433,908.691,465.82,-27.344,912.598
1741775345.437,999.512,-1000.0,-101.074,999.512
1741775345.441,790.527,-568.848,-159.18,816.406
1741775345.444,-625.0,-765.625,-183.594,-580.078
1741775345.448,-1000.0,-1000.0,-44.922,-1000.0
1741775345.452,-934.082,185.547,53.223,-934.57
1741775345.456,-1000.0,375.0,-98.633,-1000.0
1741775345.46,-1000.0,-1000.0,-194.824,-1000.0
1741775345.552,-953.613,-316.406,14.648,-952.148
1741775345.556,-1000.0,999.512,44.922,-1000.0
1741775345.56,-47.363,999.512,50.781,-76.172
1741775345.564,999.512,708.984,-33.203,999.512
1741775345.568,926.758,-826.66,-94.238,919.922
1741775345.572,967.285,-42.969,-13.184,948.242
1741775345.576,903.32,999.512,33.203,908.691
1741775345.579,999.512,-349.609,-0.488,999.512
1741775345.583,691.895,-1000.0,-71.777,662.109
1741775345.587,-746.582,-885.742,-125.488,-758.301
1741775345.591,-1000.0,-1000.0,-108.887,-1000.0
1741775345.595,-937.012,93.75,-63.477,-939.941
1741775345.971,-1000.0,185.059,-0.488,-1000.0
1741775345.975,-220.703,-294.922,54.688,-220.703
1741775345.979,999.512,999.512,-35.156,999.512
1741775345.983,949.707,-34.18,-157.715,950.684
1741775345.987,938.965,-1000.0,-96.68,939.453
1741775345.991,973.145,492.188,40.527,973.633
1741775345.995,976.074,999.512,41.504,978.027
1741775345.998,894.043,-747.559,-42.969,894.043
1741775346.002,999.512,-196.777,-48.828,999.512
1741775346.006,377.441,374.512,-57.129,414.062
1741775346.01,-996.582,-1000.0,-26.855,-976.074
1741775346.014,-1000.0,-370.605,62.012,-1000.0
1741775346.107,-424.316,-431.641,-22.949,-520.508
1741775346.111,956.055,999.512,4.883,903.809
1741775346.115,985.352,325.684,-117.188,999.512
1741775346.119,922.363,-1000.0,-145.508,915.039
1741775346.123,990.723,-1000.0,-118.164,994.141
1741775346.127,916.992,350.098,-35.156,913.574
1741775346.131,999.512,999.512,-19.531,999.512
1741775346.134,868.652,-382.324,-88.867,796.387
1741775346.138,-510.254,-1000.0,-128.906,-588.867
1741775346.142,-1000.0,-1000.0,-143.555,-1000.0
1741775346.146,-933.594,-245.605,-73.73,-936.523
1741775346.15,-1000.0,999.512,5.371,-1000.0
1741775346.526,-220.703,880.371,43.945,-256.836
1741775346.53,999.512,999.512,26.855,999.512
1741775346.534,950.195,218.75,-52.246,956.543
1741775346.538,943.359,-1000.0,-97.168,941.895
1741775346.542,953.125,-271.973,-53.223,952.637
1741775346.546,936.035,999.512,61.523,943.848
1741775346.55,999.512,474.609,0.488,999.512
1741775346.553,-120.605,-1000.0,-138.184,-150.391
1741775346.557,-1000.0,-853.516,-106.445,-1000.0
1741775346.561,-946.289,699.707,-43.457,-947.266
1741775346.565,-995.117,709.473,-1.953,-995.605
1741775346.569,-1000.0,-706.055,-41.504,-1000.0
1741775346.933,-514.648,-1000.0,-111.816,-485.352
1741775346.937,-1000.0,-1000.0,-27.344,-1000.0
1741775346.941,-925.781,401.367,79.59,-926.27
1741775346.945,-1000.0,999.512,84.961,-1000.0
1741775346.949,-1000.0,-691.406,11.719,-1000.0
1741775346.953,-1000.0,100.586,-0.488,-1000.0
1741775346.957,-934.57,999.512,-20.02,-936.035
1741775346.96,-1000.0,-762.695,-18.066,-1000.0
1741775346.964,-803.223,-681.641,75.195,-813.965
1741775346.968,673.828,987.793,90.332,657.227
1741775346.972,999.512,930.664,-26.855,999.512
1741775346.976,895.02,-730.957,-113.281,895.508
1741775347.081,-941.895,-1000.0,-143.066,-940.43
1741775347.085,-1000.0,246.582,-101.562,-1000.0
1741775347.089,-881.836,999.512,-15.137,-868.652
1741775347.093,576.172,856.934,47.852,591.797
1741775347.097,999.512,999.512,-30.273,999.512
1741775347.101,892.09,409.18,-92.773,893.066
1741775347.105,982.422,-820.312,-55.664,983.398
1741775347.108,982.422,-1000.0,-16.602,983.398
1741775347.112,908.691,-530.762,9.277,908.691
1741775347.116,999.512,792.48,-18.555,999.512
1741775347.12,840.82,-270.02,-86.426,831.055
1741775347.124,-540.527,-1000.0,-98.145,-551.758
1741775347.366,-603.516,-1000.0,-161.621,-622.559
1741775347.37,-1000.0,-757.812,-68.359,-1000.0
1741775347.374,-925.781,671.387,-0.488,-926.758
1741775347.378,-1000.0,999.512,-55.664,-1000.0
1741775347.382,-1000.0,-725.586,-108.887,-1000.0
1741775347.386,-1000.0,-787.598,-98.633,-1000.0
1741775347.39,-1000.0,775.879,-63.477,-1000.0
1741775347.393,-1000.0,-543.457,-30.273,-1000.0
1741775347.397,-1000.0,-1000.0,-19.531,-1000.0
1741775347.401,-954.102,788.574,-52.246,-963.867
1741775347.405,-1000.0,42.969,-83.496,-1000.0
1741775347.409,-973.145,-999.023,-56.152,-1000.0
1741775347.683,-560.547,-171.875,9.277,-634.766
1741775347.687,872.07,999.512,-10.254,820.801
1741775347.691,999.512,756.836,-85.449,999.512
1741775347.695,911.621,-826.66,-107.422,907.715
1741775347.699,994.629,-749.023,-34.668,991.211
1741775347.703,894.531,943.359,74.219,903.32
1741775347.707,999.512,873.047,16.602,999.512
1741775347.71,497.559,-610.352,-99.609,414.062
1741775347.714,-919.922,-1000.0,-144.531,-938.965
1741775347.718,-1000.0,-870.117,-77.637,-1000.0
1741775347.722,-947.754,615.723,34.18,-954.102
1741775347.726,-1000.0,956.055,-7.812,-1000.0
1741775348.297,658.203,-1000.0,-63.477,592.773
1741775348.301,-736.328,-1000.0,-21.484,-783.691
1741775348.305,-1000.0,-246.094,79.59,-1000.0
1741775348.309,-416.504,946.777,69.824,-165.527
1741775348.313,889.16,968.75,-29.785,966.309
1741775348.317,999.512,931.641,-58.594,964.355
1741775348.321,917.48,-209.473,-41.504,937.012
1741775348.324,996.582,-1000.0,2.441,992.676
1741775348.328,894.531,-820.312,0.488,898.438
1741775348.332,999.512,600.586,-40.039,999.512
1741775348.336,636.23,-99.609,-101.562,697.266
1741775348.34,-829.59,-1000.0,-111.816,-771.973
1741775348.956,-1000.0,-395.02,-106.934,-1000.0
1741775348.96,-933.105,389.648,-143.066,-937.012
1741775348.964,-1000.0,-771.484,-119.629,-1000.0
1741775348.968,-779.785,264.648,-59.57,-814.941
1741775348.972,696.777,999.512,-113.281,650.879
1741775348.976,999.512,848.633,-217.285,999.512
1741775348.98,896.484,-332.031,-239.746,895.996
1741775348.983,999.023,-1000.0,-226.074,996.094
1741775348.987,893.555,-716.309,-168.457,897.949
1741775348.991,999.512,652.832,-163.086,999.512
1741775348.995,579.59,-207.031,-254.883,532.227
1741775348.999,-872.07,-1000.0,-265.137,-884.766
1741775349.093,891.602,-743.164,-136.719,892.578
1741775349.097,982.422,-255.859,-88.379,982.91
1741775349.101,966.309,999.512,-27.832,966.797
1741775349.105,966.309,830.078,-13.672,966.797
1741775349.109,966.309,-718.75,-47.363,966.797
1741775349.113,966.309,314.453,-45.41,966.797
1741775349.117,966.309,912.109,-87.891,966.797
1741775349.12,966.309,-585.449,-62.5,966.797
1741775349.124,966.309,465.82,20.996,966.797
1741775349.128,966.309,-181.641,-18.555,966.797
1741775349.132,966.309,-1000.0,-100.098,966.797
1741775349.136,966.309,-312.5,-125.0,966.797
1741775349.183,794.922,971.191,-53.223,930.664
1741775349.187,999.512,794.922,-128.906,985.352
1741775349.191,903.809,-807.129,-161.621,926.27
1741775349.195,983.398,-794.922,-116.211,978.516
1741775349.199,974.121,828.613,-36.133,967.285
1741775349.203,938.477,999.512,-18.555,982.422
1741775349.207,944.336,-296.387,-101.562,889.648
1741775349.21,999.512,-1000.0,-169.922,999.512
1741775349.214,-207.52,-998.047,-172.363,690.43
1741775349.218,-1000.0,-913.086,-90.332,-692.871
1741775349.222,348.633,746.582,-21.973,347.656
1741775349.226,999.512,870.605,-108.398,999.512
1741775350.277,-622.07,-923.34,-144.531,-669.434
1741775350.281,-1000.0,-1000.0,-110.84,-1000.0
1741775350.285,-926.27,371.094,0.977,-929.199
1741775350.289,-1000.0,999.512,3.906,-1000.0
1741775350.293,-1000.0,-767.09,-113.77,-1000.0
1741775350.297,-1000.0,77.148,-105.469,-1000.0
1741775350.301,-1000.0,999.512,-76.66,-1000.0
1741775350.304,-1000.0,-791.504,-44.922,-1000.0
1741775350.308,-1000.0,-966.309,-31.25,-1000.0
1741775350.312,-1000.0,603.516,-110.84,-1000.0
1741775350.316,-940.918,-570.312,-186.523,-942.383
1741775350.32,-1000.0,-937.5,-145.508,-1000.0
1741775351.357,-961.426,549.805,-48.34,-953.613
1741775351.361,-1000.0,616.699,-22.461,-1000.0
1741775351.365,-1000.0,-1000.0,-73.73,-1000.0
1741775351.369,-1000.0,-495.117,-106.445,-1000.0
1741775351.373,-927.246,999.512,-95.215,-928.223
1741775351.377,-1000.0,237.793,-69.336,-1000.0
1741775351.381,-425.293,-434.57,-10.254,-415.527
1741775351.384,956.543,999.512,-28.32,958.984
1741775351.388,985.352,504.395,-141.602,984.863
1741775351.392,922.363,-1000.0,-161.621,924.316
1741775351.396,978.516,-300.293,-92.773,979.004
1741775351.4,966.309,999.512,-66.895,966.797
1741775352.241,-992.188,-738.77,-89.355,-993.164
1741775352.245,-950.195,471.191,-83.008,-949.219
1741775352.249,-1000.0,-526.855,-17.09,-1000.0
1741775352.253,-79.59,131.348,52.734,-93.75
1741775352.257,999.512,999.512,2.93,999.512
1741775352.261,930.176,534.668,-60.547,933.594
1741775352.265,949.707,-546.387,-47.852,949.219
1741775352.268,969.727,699.707,16.602,970.703
1741775352.272,966.309,423.34,3.418,966.797
1741775352.276,966.309,-1000.0,-59.082,966.797
1741775352.28,966.309,-485.84,-38.086,966.797
1741775352.284,966.309,999.512,7.324,966.797
1741775352.886,-1000.0,-218.262,-45.41,-1000.0
1741775352.89,-927.246,-1000.0,-62.012,-930.176
1741775352.894,-1000.0,-3.418,-22.461,-1000.0
1741775352.898,-605.957,999.512,47.852,-614.746
1741775352.902,839.844,857.422,57.129,815.43
1741775352.906,999.512,999.512,24.902,999.512
1741775352.91,908.691,45.41,-32.227,910.156
1741775352.913,981.934,-672.363,-40.527,981.445
1741775352.917,978.027,799.805,0.488,978.027
1741775352.921,919.434,-541.016,-56.641,921.387
1741775352.925,998.047,-419.434,-58.594,997.559
1741775352.929,895.02,714.844,-60.547,894.043
1741775353.022,-1000.0,-58.105,-23.438,-1000.0
1741775353.026,-925.781,-973.633,-31.738,-928.711
1741775353.03,-1000.0,571.777,16.113,-1000.0
1741775353.034,-538.086,999.512,110.352,-578.125
1741775353.038,894.043,999.512,69.336,851.074
1741775353.042,999.512,314.941,-50.781,999.512
1741775353.046,913.086,-1000.0,-47.852,912.109
1741775353.049,990.234,-1000.0,-12.695,990.723
1741775353.053,931.641,224.609,54.199,930.664
1741775353.057,968.262,999.512,48.34,975.586
1741775353.061,984.375,-35.156,-26.855,952.637
1741775353.065,-316.406,-1000.0,-54.199,-341.309
1741775355.166,-117.676,660.645,3.906,-127.93
1741775355.17,999.512,999.512,-33.203,999.512
1741775355.174,935.547,134.277,-110.352,938.477
1741775355.178,946.777,-1000.0,-112.793,946.777
1741775355.182,985.84,70.312,-66.406,986.328
1741775355.186,893.066,999.512,15.137,897.461
1741775355.19,999.512,209.473,-25.879,999.512
1741775355.193,563.965,-980.469,-150.391,594.727
1741775355.197,-880.859,-1000.0,-170.41,-835.938
1741775355.201,-1000.0,-326.66,-91.309,-1000.0
1741775355.205,-943.359,999.512,-30.273,-942.871
1741775355.209,-1000.0,158.691,-65.43,-1000.0
1741775355.406,-1000.0,-1000.0,-30.273,-1000.0
1741775355.41,-987.305,-258.789,34.668,-993.652
1741775355.414,-971.68,999.512,35.156,-968.262
1741775355.418,-1000.0,259.766,-17.09,-1000.0
1741775355.422,-925.781,-1000.0,-62.5,-927.246
1741775355.426,-1000.0,-96.68,-38.086,-1000.0
1741775355.43,-497.559,999.512,37.598,-492.676
1741775355.433,918.457,122.559,12.207,916.016
1741775355.437,999.512,-124.512,-91.797,999.512
1741775355.441,916.504,256.348,-130.859,917.969
1741775355.445,980.469,-1000.0,-102.539,980.957
1741775355.449,966.797,-74.707,-41.504,967.285
1741775356.022,-1000.0,-744.141,-99.121,-1000.0
1741775356.026,-1000.0,-299.805,-118.164,-1000.0
1741775356.03,-925.781,999.512,-125.0,-928.711
1741775356.034,-1000.0,-136.719,-90.82,-1000.0
1741775356.038,-568.848,-507.812,-60.547,-602.539
1741775356.042,875.488,999.512,-81.543,833.984
1741775356.046,999.512,789.551,-157.715,999.512
1741775356.049,911.133,-935.547,-158.203,910.156
1741775356.053,997.559,-273.438,-63.477,996.094
1741775356.057,895.996,999.512,-29.785,899.414
1741775356.061,999.512,-426.27,-77.148,999.512
1741775356.065,622.559,-1000.0,-129.883,610.84
1741775356.622,-1000.0,-553.223,-29.297,-1000.0
1741775356.626,-961.914,999.512,22.461,-944.336
1741775356.63,-1000.0,543.945,-60.547,-1000.0
1741775356.634,-964.844,-1000.0,-123.047,-965.82
1741775356.638,-1000.0,-246.582,-55.664,-1000.0
1741775356.642,-1000.0,999.512,45.898,-1000.0
1741775356.646,294.922,999.512,66.406,280.762
1741775356.649,999.512,171.875,22.949,999.512
1741775356.653,901.367,-927.246,-43.457,905.273
1741775356.657,970.703,-1000.0,-101.074,969.727
1741775356.661,979.004,-430.176,-30.762,979.98
1741775356.665,916.016,999.512,80.078,911.621
1741775356.771,-1000.0,999.512,57.129,-1000.0
1741775356.775,-217.285,899.414,102.539,-220.215
1741775356.779,999.512,999.512,20.508,999.512
1741775356.783,949.707,-28.32,-112.305,950.684
1741775356.787,939.453,-470.215,-68.359,940.43
1741775356.791,973.145,999.512,35.156,970.215
1741775356.795,904.297,896.484,31.738,910.645
1741775356.798,999.512,-523.438,-57.617,999.512
1741775356.802,181.641,-1000.0,-91.797,125.0
1741775356.806,-1000.0,-1000.0,-43.457,-1000.0
1741775356.81,-983.398,-483.887,17.578,-976.562
1741775356.814,-973.633,999.512,105.957,-977.539
1741775358.466,-1000.0,-608.887,-115.234,-1000.0
1741775358.47,-1000.0,-327.637,-76.172,-1000.0
1741775358.474,-1000.0,999.512,-80.566,-1000.0
1741775358.478,-1000.0,-183.105,-129.395,-1000.0
1741775358.482,-937.5,-436.035,-110.352,-934.082
1741775358.486,-1000.0,975.098,-49.316,-1000.0
1741775358.49,-220.703,999.512,1.953,-283.203
1741775358.493,999.512,614.746,-13.672,999.512
1741775358.497,949.707,-703.125,-110.352,960.938
1741775358.501,938.965,-1000.0,-140.625,934.57
1741775358.505,977.051,-93.262,-120.117,980.957
1741775358.509,947.266,999.512,-44.922,943.359
1741775359.051,966.309,50.293,-119.629,966.797
1741775359.055,979.492,413.086,-136.23,974.609
1741775359.059,909.18,-904.785,-63.965,935.547
1741775359.063,999.512,638.184,-14.648,963.379
1741775359.067,775.879,432.617,-96.191,995.117
1741775359.071,-628.418,-1000.0,-183.105,-276.855
1741775359.075,-1000.0,-583.984,-206.543,-1000.0
1741775359.078,-936.035,999.512,-162.109,-938.965
1741775359.082,-1000.0,541.504,-117.676,-1000.0
1741775359.086,-1000.0,-1000.0,-123.535,-1000.0
1741775359.09,-991.699,190.43,-88.867,-988.281
1741775359.094,-951.172,329.59,-72.754,-957.031
1741775359.891,-1000.0,-1000.0,-136.23,-1000.0
1741775359.895,-954.59,-155.762,-40.527,-962.891
1741775359.899,-990.234,999.512,-3.906,-986.328
1741775359.903,-999.023,-217.773,-39.062,-998.047
1741775359.907,-942.871,-1000.0,-63.477,-946.777
1741775359.911,-1000.0,321.777,-63.965,-1000.0
1741775359.915,-158.203,999.512,-38.086,-122.559
1741775359.918,999.512,924.316,-134.766,999.512
1741775359.922,940.918,-257.812,-133.789,937.5
1741775359.926,943.848,-1000.0,-57.129,946.777
1741775359.93,971.68,345.215,-46.387,971.68
1741775359.934,976.562,693.848,-62.5,978.027
1741775360.131,908.691,-1000.0,-11.23,966.797
1741775360.135,999.512,-894.531,-64.453,864.258
1741775360.139,-112.793,-1000.0,-12.207,-430.176
1741775360.143,-1000.0,-411.133,95.703,-1000.0
1741775360.147,-947.266,969.727,13.672,-944.336
1741775360.151,-994.629,-551.27,-106.934,-1000.0
1741775360.155,-1000.0,-240.723,-68.848,-1000.0
1741775360.158,-1000.0,741.699,20.02,-1000.0
1741775360.162,-1000.0,-800.293,51.27,-1000.0
1741775360.166,-1000.0,-1000.0,89.844,-1000.0
1741775360.17,-1000.0,189.453,211.426,-1000.0
1741775360.174,-939.453,715.332,279.297,-938.477
1741775360.371,-1000.0,238.281,-88.379,-1000.0
1741775360.375,-931.641,-1000.0,-139.648,-934.082
1741775360.379,-1000.0,-126.953,-114.746,-1000.0
1741775360.383,-683.594,999.512,-41.992,-682.617
1741775360.387,762.207,999.023,12.207,744.141
1741775360.391,999.512,751.953,-33.691,999.512
1741775360.395,904.785,-583.008,-72.754,907.227
1741775360.398,981.934,-1000.0,-71.289,980.957
1741775360.402,966.309,256.348,-66.406,966.797
1741775360.406,966.309,151.855,-35.156,966.797
1741775360.41,966.309,-136.23,-41.016,966.797
1741775360.414,966.309,302.734,-83.008,966.797
1741775362.936,965.82,607.91,-39.062,966.797
1741775362.94,966.309,485.84,-44.922,966.797
1741775362.944,966.309,-1000.0,-110.84,966.797
1741775362.948,966.309,431.641,-102.539,966.797
1741775362.952,966.309,999.512,-41.504,966.797
1741775362.956,966.309,908.203,4.883,966.797
1741775362.96,966.309,965.82,61.523,966.797
1741775362.963,966.309,-565.43,73.242,966.797
1741775362.967,966.309,-1000.0,76.66,966.797
1741775362.971,966.309,671.387,140.137,966.797
1741775362.975,966.309,999.512,210.938,966.797
1741775362.979,966.309,-660.645,218.75,966.797
1741775364.032,966.309,-458.984,-164.062,966.797
1741775364.036,966.309,-1000.0,-204.102,966.797
1741775364.04,966.309,-215.332,-223.633,966.797
1741775364.044,974.121,682.129,-200.684,971.191
1741775364.048,937.012,555.664,-154.785,952.637
1741775364.052,955.566,-539.551,-135.254,931.152
1741775364.056,999.512,246.582,-140.625,999.512
1741775364.059,-245.605,-328.125,-196.289,-12.695
1741775364.063,-1000.0,-1000.0,-180.176,-1000.0
1741775364.067,-937.5,-32.227,-115.723,-966.309
1741775364.071,-1000.0,893.555,-106.934,-982.422
1741775364.075,-1000.0,771.484,-122.559,-1000.0
1741775364.631,856.934,769.043,24.902,857.91
1741775364.635,-597.656,-554.688,-61.035,-597.656
1741775364.639,-1000.0,-1000.0,-48.34,-1000.0
1741775364.643,-925.781,-566.895,-87.891,-925.781
1741775364.647,-1000.0,700.684,-97.656,-1000.0
1741775364.651,-1000.0,999.512,-65.918,-1000.0
1741775364.655,-1000.0,758.789,-77.148,-1000.0
1741775364.658,-1000.0,-723.145,-89.844,-1000.0
1741775364.662,-1000.0,-1000.0,-141.602,-1000.0
1741775364.666,-975.098,816.895,-240.723,-976.074
1741775364.67,-981.445,613.281,-352.051,-980.469
1741775364.674,-1000.0,-797.852,-442.871,-1000.0
1741775365.576,-855.469,590.82,53.711,-821.777
1741775365.58,609.375,999.512,65.43,637.207
1741775365.584,999.512,989.258,9.277,999.512
1741775365.588,893.066,-230.469,-35.156,895.996
1741775365.592,982.91,-918.457,-24.414,983.398
1741775365.596,982.91,758.301,2.441,982.422
1741775365.6,907.227,979.004,16.602,906.25
1741775365.603,999.512,-586.914,19.531,999.512
1741775365.607,842.773,-1000.0,34.668,797.852
1741775365.611,-616.211,-1000.0,-2.93,-653.809
1741775365.615,-1000.0,141.602,-25.879,-1000.0
1741775365.619,-926.27,883.789,-76.172,-929.199
1741775367.857,985.352,191.895,255.371,999.512
1741775367.861,922.852,-524.414,224.121,944.336
1741775367.865,978.516,908.203,288.574,943.359
1741775367.869,966.309,999.512,326.66,972.656
1741775367.873,966.309,-406.738,322.266,966.797
1741775367.877,966.309,-31.25,344.727,966.797
1741775367.881,966.309,930.176,378.418,966.797
1741775367.884,966.309,-797.363,375.977,966.797
1741775367.888,966.309,-163.574,395.508,966.797
1741775367.892,966.309,999.512,393.555,966.797
1741775367.896,966.309,-260.742,335.449,966.797
1741775367.9,966.309,-319.824,322.754,966.797
1741775368.278,966.309,410.156,30.762,966.797
1741775368.282,966.309,623.047,25.391,966.797
1741775368.286,966.309,503.418,-6.836,966.797
1741775368.29,966.309,-764.648,-8.789,966.797
1741775368.294,966.309,-1000.0,-7.812,967.285
1741775368.298,966.309,523.926,76.66,966.797
1741775368.302,966.309,356.445,147.949,966.797
1741775368.305,966.309,-887.695,102.051,966.797
1741775368.309,966.309,299.805,68.359,966.797
1741775368.313,966.309,-577.637,63.477,966.797
1741775368.317,966.309,-84.961,15.625,967.285
1741775368.321,966.309,551.758,-25.879,966.797
1741775368.937,-1000.0,-187.012,37.598,-1000.0
1741775368.941,-1000.0,999.512,2.441,-1000.0
1741775368.945,-1000.0,-541.992,6.348,-1000.0
1741775368.949,-1000.0,-81.055,14.648,-1000.0
1741775368.953,-1000.0,202.637,-27.832,-1000.0
1741775368.957,-1000.0,168.457,-30.762,-1000.0
1741775368.961,-1000.0,358.398,-39.551,-1000.0
1741775368.964,-1000.0,-615.234,-22.949,-1000.0
1741775368.968,-1000.0,263.672,-0.488,-1000.0
1741775368.972,-1000.0,-490.723,19.531,-1000.0
1741775368.976,-980.469,505.371,58.594,-994.629
1741775368.98,-971.68,287.598,-4.883,-947.266
1741775369.927,913.574,381.836,-326.172,913.574
1741775369.931,999.512,-904.785,-360.84,999.512
1741775369.935,837.891,-523.438,-321.777,802.246
1741775369.939,-556.152,-919.434,-300.293,-585.938
1741775369.943,-1000.0,-133.301,-246.094,-1000.0
1741775369.947,-933.594,999.512,-197.754,-936.035
1741775369.951,-1000.0,-143.066,-212.891,-1000.0
1741775369.954,-1000.0,-1000.0,-239.258,-1000.0
1741775369.958,-1000.0,459.961,-228.027,-1000.0
1741775369.962,-931.641,506.836,-227.051,-930.176
1741775369.966,-1000.0,-1000.0,-256.348,-1000.0
1741775369.97,-327.148,350.098,-250.488,-374.023
1741775371.458,-925.781,810.547,237.305,-942.871
1741775371.462,-1000.0,-543.945,176.758,-1000.0
1741775371.466,-993.652,-683.105,126.953,-992.188
1741775371.47,-952.148,763.672,174.316,-957.52
1741775371.474,-1000.0,-558.105,76.66,-1000.0
1741775371.478,-147.949,341.797,-21.973,-105.957
1741775371.482,999.512,999.512,-17.09,999.512
1741775371.485,946.777,-855.957,53.711,943.848
1741775371.489,942.871,-701.66,27.344,946.289
1741775371.493,972.656,426.758,-39.551,972.656
1741775371.497,966.309,-537.598,-1.953,966.797
1741775371.501,966.309,-28.809,130.371,966.797
1741775371.802,966.309,-333.496,-159.668,966.797
1741775371.806,966.309,-521.484,-133.301,966.797
1741775371.81,966.309,341.797,-40.039,966.797
1741775371.814,966.309,606.445,5.371,966.797
1741775371.818,966.309,-94.238,-41.016,967.285
1741775371.822,966.309,-168.945,-70.801,967.285
1741775371.826,966.309,-144.531,-92.773,966.797
1741775371.829,965.82,-85.938,-83.008,967.285
1741775371.833,966.309,-478.027,-56.152,966.797
1741775371.837,966.309,395.02,-60.059,966.797
1741775371.841,965.82,-46.387,-96.191,966.797
1741775371.845,966.309,-995.605,-118.164,966.797
1741775372.628,966.309,-203.125,26.367,967.285
1741775372.632,966.309,-562.5,29.785,966.797
1741775372.636,975.098,788.574,5.859,969.727
1741775372.64,933.594,-698.242,-33.691,962.891
1741775372.644,961.426,-389.648,-45.41,916.992
1741775372.648,999.512,808.105,-22.461,999.512
1741775372.652,-284.668,-516.113,-20.996,164.551
1741775372.655,-1000.0,-1000.0,4.883,-1000.0
1741775372.659,-935.059,-520.996,52.246,-990.723
1741775372.663,-1000.0,399.902,76.172,-976.074
1741775372.667,-1000.0,-552.734,73.73,-1000.0
1741775372.671,-935.059,145.996,81.055,-958.008
1741775373.482,357.91,993.652,75.195,-688.477
1741775373.486,999.512,959.961,48.34,747.559
1741775373.49,909.668,-419.434,17.578,999.512
1741775373.494,929.199,-260.742,22.949,853.027
1741775373.498,988.77,489.746,36.133,999.512
1741775373.502,948.242,46.875,25.391,904.785
1741775373.506,-442.871,-609.863,26.855,-519.043
1741775373.509,-1000.0,-1000.0,32.715,-1000.0
1741775373.513,-926.758,-524.902,66.895,-926.27
1741775373.517,-1000.0,742.676,97.656,-1000.0
1741775373.521,-1000.0,-395.508,39.551,-1000.0
1741775373.525,-1000.0,-991.211,-9.766,-1000.0
1741775373.572,-1000.0,29.785,-251.465,-1000.0
1741775373.576,-1000.0,-653.809,-287.598,-1000.0
1741775373.58,-1000.0,-600.586,-294.922,-1000.0
1741775373.584,-1000.0,-13.672,-297.363,-1000.0
1741775373.588,-1000.0,-631.836,-283.691,-1000.0
1741775373.592,-1000.0,596.191,-208.984,-1000.0
1741775373.596,-1000.0,167.969,-208.008,-1000.0
1741775373.599,-1000.0,-1000.0,-256.348,-1000.0
1741775373.603,-1000.0,-810.059,-271.973,-1000.0
1741775373.607,-1000.0,761.23,-224.609,-1000.0
1741775373.611,-1000.0,549.316,-153.809,-1000.0
1741775373.615,-1000.0,-1000.0,-145.996,-1000.0
1741775374.277,965.82,-106.934,112.305,966.797
1741775374.281,966.309,197.754,146.973,966.797
1741775374.285,966.309,-449.707,191.895,966.797
1741775374.289,966.309,193.359,189.453,966.797
1741775374.293,966.309,-207.52,129.395,966.797
1741775374.297,966.309,233.398,4.395,966.797
1741775374.301,966.309,390.137,-27.832,966.797
1741775374.304,966.309,-1000.0,-11.23,966.797
1741775374.308,966.309,456.543,96.191,966.797
1741775374.312,966.309,282.227,201.172,966.797
1741775374.316,966.309,-667.48,245.605,967.285
1741775374.32,966.309,396.484,253.906,966.797
1741775374.607,966.309,-410.645,-91.797,967.285
1741775374.611,966.309,375.977,-7.812,966.797
1741775374.615,966.309,731.934,16.602,966.797
1741775374.619,966.309,-465.332,-14.16,966.797
1741775374.623,966.309,7.812,-21.973,966.797
1741775374.627,966.309,844.727,-1.465,966.797
1741775374.631,966.309,448.73,20.02,966.797
1741775374.634,966.309,-136.23,27.344,966.797
1741775374.638,966.309,-630.371,11.719,966.797
1741775374.642,966.309,-296.875,-25.879,966.797
1741775374.646,966.309,366.211,-68.848,966.797
1741775374.65,966.309,-115.723,-41.992,966.797
1741775376.004,-1000.0,-312.012,-178.223,-939.941
1741775376.008,-689.941,999.512,-136.719,-1000.0
1741775376.012,738.281,999.512,-103.516,-193.848
1741775376.016,999.512,783.203,-99.609,999.512
1741775376.02,905.762,-578.125,-95.215,947.266
1741775376.024,980.469,75.195,-69.336,941.406
1741775376.028,966.309,434.082,-20.02,973.145
1741775376.031,966.309,-1000.0,-16.602,966.797
1741775376.035,966.309,164.062,-13.672,966.797
1741775376.039,966.309,272.949,-5.371,966.797
1741775376.043,966.309,-618.652,-35.645,966.797
1741775376.047,980.469,-303.223,-78.125,980.469
1741775376.707,966.309,967.285,24.414,966.797
1741775376.711,966.309,966.797,64.941,966.797
1741775376.715,966.309,967.285,99.121,966.797
1741775376.719,966.309,966.797,73.242,966.797
1741775376.723,966.309,966.797,42.48,966.797
1741775376.727,965.82,967.285,45.41,966.797
1741775376.731,966.309,966.797,40.527,966.797
1741775376.734,966.309,981.445,-9.277,967.285
1741775376.738,965.82,897.949,-25.879,966.797
1741775376.742,966.309,999.512,-6.348,966.797
1741775376.746,966.797,603.516,-51.27,970.215
1741775376.75,903.32,-827.637,-136.719,950.684
1741775376.887,966.309,976.074,-64.453,967.285
1741775376.891,966.309,895.996,-102.539,967.285
1741775376.895,978.516,999.512,-135.742,976.074
1741775376.899,917.969,363.281,-137.207,929.199
1741775376.903,999.512,-1000.0,-147.949,977.051
1741775376.907,876.953,-1000.0,-155.762,958.008
1741775376.911,-497.07,-958.984,-185.059,-356.934
1741775376.914,-1000.0,-1000.0,-229.492,-1000.0
1741775376.918,-933.594,-1000.0,-254.883,-935.547
1741775376.922,-1000.0,-1000.0,-228.027,-1000.0
1741775376.926,-1000.0,-1000.0,-208.008,-1000.0
1741775376.93,-1000.0,-1000.0,-238.77,-1000.0
1741775377.082,-1000.0,-1000.0,-240.723,-1000.0
1741775377.086,-1000.0,-991.211,-284.18,-1000.0
1741775377.09,-936.523,-952.148,-331.055,-1000.0
1741775377.094,-1000.0,-1000.0,-370.117,-1000.0
1741775377.098,-238.77,-68.359,-417.48,-1000.0
1741775377.102,999.512,999.512,-394.043,-1000.0
1741775377.106,953.125,930.664,-300.781,-1000.0
1741775377.109,946.777,961.914,-62.5,-1000.0
1741775377.113,901.855,897.461,130.371,-1000.0
1741775377.117,999.512,999.512,187.988,-1000.0
1741775377.121,365.234,403.809,205.566,-1000.0
1741775377.125,-1000.0,-989.258,215.82,-1000.0
1741775377.697,938.477,-961.914,299.316,904.297
1741775377.701,999.512,-1000.0,338.867,999.512
1741775377.705,-109.863,-953.125,51.758,644.043
1741775377.709,-1000.0,-1000.0,-446.289,-754.395
1741775377.713,-952.148,-1000.0,-497.559,-1000.0
1741775377.717,-1000.0,-1000.0,-536.133,-950.195
1741775377.721,-928.711,-929.688,-655.762,-942.871
1741775377.724,-1000.0,-1000.0,-632.324,-1000.0
1741775377.728,-454.102,-366.211,-572.754,-359.375
1741775377.732,942.383,983.398,-535.156,983.887
1741775377.736,990.723,975.098,-516.602,974.609
1741775377.74,919.922,928.223,-364.746,928.223
1741775377.832,-1000.0,-932.617,271.973,-1000.0
1741775377.836,-1000.0,-1000.0,168.945,-1000.0
1741775377.84,-1000.0,-291.016,142.578,-1000.0
1741775377.844,-1000.0,935.547,165.039,-1000.0
1741775377.848,-1000.0,999.512,142.578,-1000.0
1741775377.852,-1000.0,476.074,172.363,-1000.0
1741775377.856,-929.688,-822.754,270.996,-955.566
1741775377.859,-1000.0,-1000.0,333.984,-1000.0
1741775377.863,-649.414,-360.352,363.77,-934.082
1741775377.867,795.41,944.824,348.145,418.457
1741775377.871,999.512,984.375,333.008,999.512
1741775377.875,906.738,923.828,302.734,901.367
1741775378.447,923.34,-963.379,424.805,944.824
1741775378.451,991.211,-1000.0,383.301,942.383
1741775378.455,905.762,-1000.0,372.559,999.512
1741775378.459,-433.105,-1000.0,335.449,-152.344
1741775378.463,-1000.0,-1000.0,316.895,-1000.0
1741775378.467,-936.035,-1000.0,329.59,-945.312
1741775378.471,-1000.0,-1000.0,301.758,-996.094
1741775378.474,-1000.0,-1000.0,275.879,-1000.0
1741775378.478,-995.117,-944.824,274.902,-1000.0
1741775378.482,-946.777,-1000.0,283.691,-937.5
1741775378.486,-1000.0,-819.336,338.379,-1000.0
1741775378.49,-125.0,573.73,397.949,-220.703
1741775378.582,-979.492,-929.688,-125.488,-980.469
1741775378.586,-1000.0,-1000.0,-153.809,-1000.0
1741775378.59,-1000.0,-320.801,-152.344,-1000.0
1741775378.594,-1000.0,999.512,-188.477,-1000.0
1741775378.598,-1000.0,914.062,-245.605,-1000.0
1741775378.602,-1000.0,985.352,-215.82,-1000.0
1741775378.606,-1000.0,827.637,-193.848,-1000.0
1741775378.609,-1000.0,-576.66,-228.516,-1000.0
1741775378.613,-1000.0,-1000.0,-217.773,-1000.0
1741775378.617,-1000.0,-934.57,-140.625,-1000.0
1741775378.621,-1000.0,-1000.0,-92.773,-1000.0
1741775378.625,-1000.0,-1000.0,-98.145,-1000.0
1741775378.942,-271.973,-202.637,-95.215,-258.301
1741775378.946,999.512,999.512,-90.332,999.512
1741775378.95,958.008,948.242,-113.77,956.543
1741775378.954,935.059,940.918,-132.324,936.523
1741775378.958,988.281,988.281,-99.609,983.887
1741775378.962,911.621,896.484,-98.145,931.152
1741775378.966,999.512,999.512,-173.828,973.145
1741775378.969,819.824,599.121,-231.934,971.191
1741775378.973,-581.543,-838.867,-205.566,-337.891
1741775378.977,-1000.0,-1000.0,-131.836,-1000.0
1741775378.981,-934.082,-941.895,-144.043,-935.547
1741775378.985,-1000.0,-1000.0,-122.07,-1000.0
1741775380.067,-1000.0,40.527,-45.41,-1000.0
1741775380.071,-1000.0,1.953,-6.836,-1000.0
1741775380.075,-989.258,87.891,-17.09,-983.398
1741775380.079,-955.566,475.586,33.691,-973.145
1741775380.083,-1000.0,-87.402,51.758,-1000.0
1741775380.087,-33.691,484.375,11.23,54.199
1741775380.091,999.512,782.715,-13.672,999.512
1741775380.094,925.293,764.16,-26.367,927.246
1741775380.098,952.637,-123.047,-36.621,955.078
1741775380.102,968.75,-1000.0,-32.715,969.727
1741775380.106,966.309,113.281,20.508,966.797
1741775380.11,966.309,267.578,36.133,966.797
1741775382.047,966.309,-16.602,-85.938,966.797
1741775382.051,966.309,-35.645,-60.547,966.797
1741775382.055,966.309,145.996,-31.738,967.285
1741775382.059,966.309,38.574,-36.133,966.797
1741775382.063,966.309,176.27,-45.898,966.797
1741775382.067,966.309,61.035,-65.918,966.797
1741775382.071,966.309,-52.734,-79.102,966.797
1741775382.074,966.309,-227.051,-63.965,967.285
1741775382.078,966.309,-326.66,-72.266,967.285
1741775382.082,966.309,-49.805,-93.262,966.797
1741775382.086,966.309,-88.867,-85.449,966.797
1741775382.09,966.309,-306.641,-75.684,967.285
1741775383.307,966.309,17.578,-57.617,966.797
1741775383.311,966.309,120.605,-55.664,966.797
1741775383.315,966.309,134.766,-35.645,966.797
1741775383.319,966.309,-176.27,-33.691,966.797
1741775383.323,966.309,210.938,-17.09,966.797
1741775383.327,966.309,767.578,-6.348,966.797
1741775383.331,966.309,-78.613,-31.25,966.797
1741775383.334,966.309,-672.852,-51.758,966.797
1741775383.338,966.309,175.781,-42.969,966.797
1741775383.342,966.309,411.133,-16.602,966.797
1741775383.346,966.309,-74.707,-8.301,966.797
1741775383.35,966.309,62.5,2.441,966.797
1741775383.817,-1000.0,242.676,-114.746,-1000.0
1741775383.821,-1000.0,298.828,-137.695,-1000.0
1741775383.825,-1000.0,40.527,-172.363,-1000.0
1741775383.829,-1000.0,82.031,-181.152,-1000.0
1741775383.833,-1000.0,166.992,-185.059,-1000.0
1741775383.837,-1000.0,500.0,-156.25,-1000.0
1741775383.841,-1000.0,394.531,-157.227,-1000.0
1741775383.844,-1000.0,-248.535,-176.758,-1000.0
1741775383.848,-1000.0,-33.691,-169.434,-1000.0
1741775383.852,-1000.0,80.078,-152.344,-1000.0
1741775383.856,-1000.0,42.48,-130.371,-1000.0
1741775383.86,-1000.0,116.699,-129.883,-1000.0
1741775383.907,980.469,189.941,-128.906,965.332
1741775383.911,966.309,294.434,-121.582,967.773
1741775383.915,966.309,270.996,-106.934,966.797
1741775383.919,966.309,-86.426,-137.207,966.797
1741775383.923,966.309,171.875,-141.113,966.797
1741775383.927,966.309,618.164,-108.887,966.797
1741775383.931,966.309,157.227,-115.723,966.797
1741775383.934,966.309,-155.273,-135.254,966.797
1741775383.938,966.309,313.477,-122.559,966.797
1741775383.942,966.309,-4.883,-132.324,966.797
1741775383.946,966.309,-102.539,-137.695,966.797
1741775383.95,966.309,452.148,-148.926,966.797
1741775384.132,966.309,69.336,-360.352,966.797
1741775384.136,966.309,360.84,-310.059,966.797
1741775384.14,966.309,285.156,-266.113,966.797
1741775384.144,966.309,354.98,-239.258,966.797
1741775384.148,966.309,274.414,-238.77,966.797
1741775384.152,966.309,547.363,-255.859,966.797
1741775384.156,966.309,141.113,-295.898,966.797
1741775384.159,966.309,-519.043,-308.105,966.797
1741775384.163,966.309,349.609,-227.051,966.797
1741775384.167,966.309,665.527,-196.289,966.797
1741775384.171,966.309,-131.348,-249.023,966.797
1741775384.175,966.309,-262.207,-281.738,966.797
1741775384.657,895.508,211.426,-294.922,895.02
1741775384.661,999.512,381.348,-260.254,999.512
1741775384.665,338.867,-263.184,-294.434,381.348
1741775384.669,-1000.0,-672.363,-337.891,-992.188
1741775384.673,-1000.0,166.016,-322.266,-1000.0
1741775384.677,-960.938,483.398,-333.984,-957.52
1741775384.681,-1000.0,145.508,-352.539,-1000.0
1741775384.684,-1000.0,113.77,-327.148,-1000.0
1741775384.688,-1000.0,186.523,-361.328,-1000.0
1741775384.692,-1000.0,-160.156,-484.375,-1000.0
1741775384.696,-1000.0,-29.785,-532.227,-1000.0
1741775384.7,-1000.0,-150.879,-494.141,-1000.0
1741775384.957,-1000.0,133.789,-689.941,-1000.0
1741775384.961,-998.047,269.043,-701.172,-1000.0
1741775384.965,-941.895,201.66,-699.707,-930.176
1741775384.969,-1000.0,68.848,-652.344,-1000.0
1741775384.973,-176.758,489.746,-594.238,-524.414
1741775384.977,999.512,872.07,-595.703,876.953
1741775384.981,943.848,208.008,-591.309,999.512
1741775384.984,942.383,-102.539,-583.984,916.504
1741775384.988,982.91,317.871,-547.852,988.281
1741775384.992,893.066,193.359,-522.461,896.484
1741775384.996,999.512,2.441,-553.223,999.512
1741775385.0,399.902,-432.129,-570.312,349.121
1741775386.067,966.309,226.074,-282.227,966.797
1741775386.071,966.309,47.852,-259.766,966.797
1741775386.075,966.309,119.629,-239.746,966.797
1741775386.079,966.309,312.5,-205.078,966.797
1741775386.083,979.98,183.594,-149.414,981.445
1741775386.087,892.09,62.988,-106.934,899.902
1741775386.091,999.512,283.691,-95.703,999.512
1741775386.094,499.023,162.598,-93.262,642.09
1741775386.098,-929.688,-546.387,-97.656,-787.598
1741775386.102,-1000.0,-73.73,-90.332,-1000.0
1741775386.106,-947.754,268.555,-33.203,-940.43
1741775386.11,-1000.0,64.941,-12.207,-1000.0
1741775386.637,999.512,295.898,-124.512,999.512
1741775386.641,199.707,-192.871,-171.875,330.078
1741775386.645,-1000.0,-409.18,-197.754,-1000.0
1741775386.649,-985.84,222.656,-187.5,-1000.0
1741775386.653,-972.168,322.266,-170.898,-961.426
1741775386.657,-1000.0,166.016,-229.98,-1000.0
1741775386.661,-1000.0,141.602,-260.254,-1000.0
1741775386.664,-1000.0,296.875,-228.516,-1000.0
1741775386.668,-1000.0,160.156,-229.492,-1000.0
1741775386.672,-1000.0,-25.879,-217.285,-1000.0
1741775386.676,-1000.0,141.113,-186.523,-1000.0
1741775386.68,-989.258,294.922,-163.086,-992.676
1741775386.804,-1000.0,308.105,-91.797,-1000.0
1741775386.808,-1000.0,119.629,-78.613,-1000.0
1741775386.812,-937.988,222.168,-106.445,-937.5
1741775386.816,-1000.0,241.699,-104.004,-1000.0
1741775386.82,-216.797,564.453,-97.168,-219.727
1741775386.824,999.512,852.051,-133.789,999.512
1741775386.828,949.219,248.047,-149.414,950.684
1741775386.831,939.453,146.973,-120.117,939.941
1741775386.835,973.633,304.688,-96.68,974.121
1741775386.839,903.32,127.93,-56.641,904.297
1741775386.843,999.512,190.43,-46.875,999.512
1741775386.847,186.523,348.633,11.719,187.012
1741775389.577,913.086,-60.059,124.512,913.086
1741775389.581,999.512,-4.395,124.512,999.512
1741775389.585,893.066,-73.242,103.027,886.23
1741775389.589,-541.016,-491.211,44.434,-552.246
1741775389.593,-1000.0,-156.738,72.754,-1000.0
1741775389.597,-925.781,215.332,110.352,-925.781
1741775389.601,-1000.0,-7.324,68.359,-1000.0
1741775389.604,-1000.0,-190.918,61.035,-1000.0
1741775389.608,-1000.0,-65.918,78.613,-1000.0
1741775389.612,-1000.0,120.117,65.43,-1000.0
1741775389.616,-1000.0,48.828,86.914,-1000.0
1741775389.62,-1000.0,-48.34,84.961,-1000.0
1741775391.438,-1000.0,65.43,137.695,-1000.0
1741775391.442,-1000.0,-61.523,156.25,-1000.0
1741775391.446,-931.152,-24.414,156.25,-934.57
1741775391.45,-1000.0,-76.172,128.418,-1000.0
1741775391.454,-479.492,206.055,140.137,-473.145
1741775391.458,907.227,452.148,125.488,897.461
1741775391.462,999.512,90.82,39.062,999.512
1741775391.465,917.48,-134.766,11.719,918.945
1741775391.469,979.98,-59.082,13.672,980.469
1741775391.473,966.309,54.688,24.902,966.797
1741775391.477,966.309,79.59,62.988,966.797
1741775391.481,966.309,46.875,72.266,966.797
1741775391.722,992.188,72.266,-18.555,980.957
1741775391.726,937.012,-13.184,-50.293,966.797
1741775391.73,-462.402,-437.012,-42.969,-394.531
1741775391.734,-1000.0,-290.527,10.254,-1000.0
1741775391.738,-926.758,38.574,38.086,-929.688
1741775391.742,-1000.0,82.031,53.223,-1000.0
1741775391.746,-1000.0,30.273,50.293,-1000.0
1741775391.749,-1000.0,-71.289,42.969,-1000.0
1741775391.753,-1000.0,30.762,55.176,-1000.0
1741775391.757,-1000.0,24.414,42.48,-1000.0
1741775391.761,-1000.0,7.812,11.23,-1000.0
1741775391.765,-1000.0,20.02,-45.41,-1000.0
1741775391.91,-1000.0,-28.809,-282.715,-1000.0
1741775391.914,-1000.0,-93.75,-306.152,-1000.0
1741775391.918,-1000.0,-51.27,-327.637,-1000.0
1741775391.922,-1000.0,-56.641,-301.27,-1000.0
1741775391.926,-1000.0,-61.035,-256.836,-1000.0
1741775391.93,-937.5,68.848,-235.352,-942.383
1741775391.934,-1000.0,-4.395,-231.934,-1000.0
1741775391.937,-824.707,-111.816,-185.547,-891.113
1741775391.941,640.625,189.453,-116.211,564.453
1741775391.945,999.512,96.68,-104.98,999.512
1741775391.949,894.531,4.395,-94.238,892.09
1741775391.953,982.91,10.742,-84.961,982.91
1741775392.187,-1000.0,136.719,-20.02,-1000.0
1741775392.191,227.051,336.914,25.391,114.746
1741775392.195,999.512,296.387,12.207,999.512
1741775392.199,901.367,-16.113,0.488,916.016
1741775392.203,969.238,2.441,-26.855,961.914
1741775392.207,966.309,124.512,-37.109,969.238
1741775392.211,966.309,96.68,7.812,966.797
1741775392.214,966.309,-94.238,40.527,966.797
1741775392.218,966.309,-137.207,8.301,966.797
1741775392.222,966.309,-75.195,40.039,966.797
1741775392.226,978.027,-12.695,84.961,978.516
1741775392.23,925.293,33.203,45.898,925.781
1741775393.688,-1000.0,239.258,-17.09,-1000.0
1741775393.692,-945.312,290.039,-13.672,-949.219
1741775393.696,-1000.0,184.57,-12.695,-1000.0
1741775393.7,-913.574,228.516,0.0,-941.895
1741775393.704,529.297,551.27,4.883,479.98
1741775393.708,999.512,451.172,1.465,999.512
1741775393.712,891.602,193.848,-21.973,893.066
1741775393.715,981.445,132.324,-8.789,979.98
1741775393.719,966.309,161.621,37.598,966.797
1741775393.723,966.309,170.41,55.176,966.797
1741775393.727,966.309,180.176,50.781,966.797
1741775393.731,966.309,203.613,48.828,966.797
1741775394.543,966.309,112.305,-47.852,966.797
1741775394.547,965.82,154.297,-49.805,966.797
1741775394.551,966.309,282.227,-5.371,966.797
1741775394.555,966.309,185.059,37.109,966.797
1741775394.559,966.309,115.723,26.855,966.797
1741775394.563,966.309,135.254,27.344,966.797
1741775394.567,966.309,148.438,32.227,966.797
1741775394.57,966.309,107.91,14.16,967.285
1741775394.574,966.309,80.078,3.906,967.285
1741775394.578,966.309,67.871,-21.973,967.285
1741775394.582,966.309,122.07,-67.871,967.285
1741775394.586,966.309,137.695,-70.312,966.797
1741775395.697,966.309,-72.754,-139.16,966.797
1741775395.701,966.309,-138.184,-136.719,966.797
1741775395.705,966.309,-72.754,-142.578,966.797
1741775395.709,966.309,-98.633,-117.188,966.797
1741775395.713,967.285,-109.375,-54.688,967.285
1741775395.717,960.938,-52.734,-11.719,966.797
1741775395.721,912.109,-109.375,29.785,905.273
1741775395.724,999.512,-172.363,49.316,999.512
1741775395.728,92.773,-381.836,5.371,172.852
1741775395.732,-1000.0,-359.863,-28.809,-1000.0
1741775395.736,-971.191,-125.0,-0.488,-981.934
1741775395.74,-979.98,-126.465,11.23,-974.121
1741775396.357,-1000.0,-82.52,-83.984,-1000.0
1741775396.361,-1000.0,-56.152,-55.176,-1000.0
1741775396.365,-1000.0,-50.781,-65.43,-1000.0
1741775396.369,-1000.0,-47.363,-96.68,-1000.0
1741775396.373,-1000.0,-48.828,-110.84,-1000.0
1741775396.377,-1000.0,-5.371,-116.211,-1000.0
1741775396.381,-1000.0,33.203,-69.336,-1000.0
1741775396.384,-1000.0,-12.695,11.23,-1000.0
1741775396.388,-1000.0,-68.359,-18.555,-1000.0
1741775396.392,-1000.0,-39.551,-91.797,-1000.0
1741775396.396,-1000.0,6.836,-90.82,-1000.0
1741775396.4,-1000.0,-31.25,-80.078,-1000.0
1741775397.153,966.309,-125.488,15.625,966.797
1741775397.157,966.309,-41.504,10.254,966.797
1741775397.161,966.309,59.57,17.09,966.797
1741775397.165,966.309,-78.125,11.719,966.797
1741775397.169,966.309,-162.109,-34.668,967.285
1741775397.173,966.309,-29.785,-30.273,966.797
1741775397.177,966.309,-61.035,-18.066,967.285
1741775397.18,966.309,-129.395,-11.23,967.285
1741775397.184,966.309,-90.82,36.621,967.285
1741775397.188,966.309,-61.523,62.012,967.285
1741775397.192,966.309,-61.523,62.988,966.797
1741775397.196,966.309,-38.574,18.555,966.797
1741775397.677,966.309,-56.641,-104.492,966.797
1741775397.681,966.309,-80.078,-110.84,967.285
1741775397.685,966.309,-25.391,-101.074,966.797
1741775397.689,966.309,-19.531,-114.746,966.797
1741775397.693,966.309,-66.895,-119.141,967.285
1741775397.697,966.309,5.859,-73.73,967.285
1741775397.701,966.309,44.922,-57.129,966.797
1741775397.704,966.309,-78.613,-64.453,966.797
1741775397.708,966.309,-88.867,-48.34,966.797
1741775397.712,965.82,55.664,-18.066,966.797
1741775397.716,966.309,11.719,-20.996,966.797
1741775397.72,966.309,-81.543,-53.223,966.797
1741775398.307,-1000.0,-4.395,-109.375,-1000.0
1741775398.311,-1000.0,-18.066,-102.051,-1000.0
1741775398.315,-1000.0,20.508,-102.539,-1000.0
1741775398.319,-1000.0,48.34,-105.957,-1000.0
1741775398.323,-1000.0,18.066,-82.52,-1000.0
1741775398.327,-926.758,102.539,-44.922,-931.641
1741775398.331,-1000.0,81.055,-0.977,-1000.0
1741775398.334,-585.938,58.594,4.883,-614.258
1741775398.338,856.934,181.152,26.367,807.617
1741775398.342,999.512,78.613,87.402,999.512
1741775398.346,910.156,37.598,100.098,910.645
1741775398.35,981.934,29.297,67.383,981.445
1741775399.357,-1000.0,33.691,-13.672,-1000.0
1741775399.361,-1000.0,0.488,-54.199,-1000.0
1741775399.365,-954.102,42.48,-51.27,-956.543
1741775399.369,-1000.0,62.5,-60.059,-1000.0
1741775399.373,-976.562,17.578,-76.172,-985.352
1741775399.377,418.945,313.477,-63.965,394.043
1741775399.381,999.512,244.629,-56.152,999.512
1741775399.384,892.578,-94.238,-26.855,895.02
1741775399.388,977.539,-78.125,-7.812,977.051
1741775399.392,966.309,30.273,-6.348,966.797
1741775399.396,966.309,45.41,21.484,966.797
1741775399.4,966.309,7.812,55.176,966.797
1741775399.732,-1000.0,0.488,42.48,-1000.0
1741775399.736,-139.648,175.293,78.125,-365.723
1741775399.74,999.512,247.07,79.102,947.754
1741775399.744,946.289,64.453,57.129,982.91
1741775399.748,943.359,-1.953,82.031,926.758
1741775399.752,972.656,22.461,54.688,978.027
1741775399.756,966.309,34.18,-0.488,967.285
1741775399.759,966.309,70.312,2.93,967.285
1741775399.763,966.309,126.953,7.324,966.797
1741775399.767,966.309,36.621,10.254,966.797
1741775399.771,970.215,13.672,11.23,971.191
1741775399.775,953.125,49.805,19.531,955.566
1741775400.902,891.602,31.738,-15.137,892.09
1741775400.906,981.934,48.34,1.953,981.445
1741775400.91,966.309,-9.766,-9.277,966.797
1741775400.914,966.309,18.555,-38.086,966.797
1741775400.918,966.309,10.254,-48.34,966.797
1741775400.922,966.309,47.363,-28.32,966.797
1741775400.926,982.422,35.156,-19.531,983.398
1741775400.929,908.691,-71.777,-30.762,908.691
1741775400.933,999.512,-19.531,-20.02,999.512
1741775400.937,856.934,-5.859,-17.578,852.539
1741775400.941,-597.656,-256.836,-14.648,-604.492
1741775400.945,-1000.0,-66.406,7.812,-1000.0
1741775401.517,-1000.0,-89.355,-56.641,-1000.0
1741775401.521,-1000.0,-41.992,-43.945,-1000.0
1741775401.525,-1000.0,-32.227,-71.289,-1000.0
1741775401.529,-1000.0,-31.738,-56.641,-1000.0
1741775401.533,-1000.0,-13.184,-37.598,-1000.0
1741775401.537,-1000.0,29.785,-40.527,-1000.0
1741775401.541,-972.656,-8.301,-15.137,-977.051
1741775401.544,-985.84,-88.867,-0.977,-980.469
1741775401.548,-1000.0,-57.129,-2.93,-1000.0
1741775401.552,185.547,156.25,-10.742,106.445
1741775401.556,999.512,165.527,-20.508,999.512
1741775401.56,905.762,-0.977,-35.645,918.945
1741775401.848,-892.578,-43.945,-90.332,-917.969
1741775401.852,561.523,219.727,-61.035,521.973
1741775401.856,999.512,76.66,-47.852,999.512
1741775401.86,891.602,-78.613,-64.453,892.09
1741775401.864,981.934,-25.391,-86.914,981.934
1741775401.868,966.309,27.344,-90.332,967.285
1741775401.872,966.309,2.93,-67.871,967.285
1741775401.875,966.309,-114.258,-63.477,966.797
1741775401.879,965.82,-107.91,-65.918,966.797
1741775401.883,966.309,-65.43,-58.594,966.797
1741775401.887,981.445,-67.383,-69.824,981.445
1741775401.891,911.621,-64.453,-64.453,915.527
1741775402.027,-1000.0,-94.238,-15.137,-1000.0
1741775402.031,-1000.0,-83.008,5.859,-1000.0
1741775402.035,-1000.0,-42.969,1.465,-1000.0
1741775402.039,-1000.0,-2.441,0.488,-1000.0
1741775402.043,-1000.0,-1.953,14.648,-1000.0
1741775402.047,-1000.0,51.27,18.066,-1000.0
1741775402.051,-978.516,-17.09,-3.418,-980.469
1741775402.054,-975.586,-131.348,-23.438,-973.633
1741775402.058,-1000.0,-70.801,-25.391,-1000.0
1741775402.062,100.098,217.773,-17.09,57.129
1741775402.066,999.512,168.945,-36.133,999.512
1741775402.07,914.551,-14.648,-35.645,923.34
1741775403.422,-1000.0,-28.809,26.855,-1000.0
1741775403.426,-1000.0,-50.293,13.672,-1000.0
1741775403.43,-1000.0,59.57,44.922,-1000.0
1741775403.434,-1000.0,28.32,31.738,-1000.0
1741775403.438,-1000.0,-62.012,23.438,-1000.0
1741775403.442,-1000.0,-8.789,37.109,-1000.0
1741775403.446,-1000.0,70.801,17.578,-1000.0
1741775403.449,-1000.0,11.23,-7.324,-1000.0
1741775403.453,-1000.0,-83.496,9.277,-1000.0
1741775403.457,-1000.0,-24.414,21.484,-1000.0
1741775403.461,-1000.0,3.906,-3.418,-1000.0
1741775403.465,-1000.0,-3.418,2.93,-1000.0
1741775403.754,-990.234,8.789,-48.828,-990.234
1741775403.758,-953.613,-33.691,-44.922,-955.078
1741775403.762,-1000.0,-62.012,-40.039,-1000.0
1741775403.766,-49.805,149.414,-36.133,-54.199
1741775403.77,999.512,152.832,-50.293,999.512
1741775403.774,926.758,-25.391,-58.105,930.176
1741775403.778,951.66,-22.461,-54.199,951.172
1741775403.781,969.238,-27.832,-33.203,970.215
1741775403.785,966.309,-48.34,-28.809,967.285
1741775403.789,966.309,-47.852,-30.273,967.285
1741775403.793,966.309,-91.309,-19.531,966.797
1741775403.797,966.309,-51.27,-24.414,966.797
1741775404.787,966.309,-39.062,3.906,959.473
1741775404.791,904.785,-126.953,-9.766,917.969
1741775404.795,999.512,-40.527,-1.953,999.512
1741775404.799,173.34,-141.602,13.672,66.406
1741775404.803,-1000.0,-163.574,21.484,-1000.0
1741775404.807,-981.934,-20.02,26.855,-970.703
1741775404.811,-974.121,-25.879,22.949,-980.957
1741775404.814,-1000.0,-35.645,-3.418,-1000.0
1741775404.818,-1000.0,-101.074,-10.254,-1000.0
1741775404.822,-1000.0,-115.234,-5.859,-1000.0
1741775404.826,-1000.0,-76.172,-12.695,-1000.0
1741775404.83,-1000.0,-45.898,-4.883,-1000.0
1741775407.968,-1000.0,-57.617,-119.629,-1000.0
1741775407.972,-1000.0,-44.434,-106.934,-1000.0
1741775407.976,-1000.0,-37.598,-119.629,-1000.0
1741775407.98,-1000.0,-64.453,-132.812,-1000.0
1741775407.984,-1000.0,-62.988,-130.859,-1000.0
1741775407.988,-978.516,-8.301,-122.07,-985.352
1741775407.992,-975.098,-47.852,-122.07,-962.402
1741775407.995,-1000.0,-91.797,-119.629,-1000.0
1741775407.999,117.188,20.996,-109.863,15.137
1741775408.003,999.512,22.949,-91.309,999.512
1741775408.007,910.645,-76.172,-96.68,921.875
1741775408.011,962.402,-94.238,-103.516,956.543
1741775408.672,966.309,69.824,-10.254,966.797
1741775408.676,966.309,108.887,18.066,967.285
1741775408.68,966.309,92.285,24.414,966.797
1741775408.684,966.309,94.727,26.367,966.797
1741775408.688,966.309,135.742,25.879,966.797
1741775408.692,966.309,97.168,7.324,966.797
1741775408.696,976.074,70.312,13.672,979.98
1741775408.699,895.02,-0.977,27.344,911.133
1741775408.703,999.512,39.062,15.137,999.512
1741775408.707,387.207,32.227,-16.113,792.969
1741775408.711,-986.328,-75.195,-19.043,-605.957
1741775408.715,-1000.0,39.551,-3.418,-1000.0
1741775409.845,-1000.0,72.266,-163.086,-1000.0
1741775409.849,-1000.0,136.719,-145.996,-1000.0
1741775409.853,-1000.0,35.645,-127.441,-1000.0
1741775409.857,-1000.0,37.598,-149.414,-1000.0
1741775409.861,-1000.0,47.363,-159.668,-1000.0
1741775409.865,-1000.0,99.609,-132.324,-1000.0
1741775409.869,-1000.0,184.57,-85.938,-1000.0
1741775409.872,-1000.0,146.973,-55.664,-1000.0
1741775409.876,-1000.0,132.324,-69.824,-1000.0
1741775409.88,-1000.0,162.598,-83.008,-1000.0
1741775409.884,-1000.0,162.109,-76.66,-1000.0
1741775409.888,-1000.0,162.109,-64.941,-1000.0
1741775410.218,821.777,18.555,-17.578,999.512
1741775410.222,-548.828,-138.184,-49.316,503.906
1741775410.226,-1000.0,-171.875,-32.227,-884.277
1741775410.23,-937.012,-26.367,-4.883,-1000.0
1741775410.234,-1000.0,-0.977,-1.953,-949.707
1741775410.238,-1000.0,-9.766,-15.625,-1000.0
1741775410.242,-1000.0,-19.531,-29.785,-1000.0
1741775410.245,-1000.0,-46.387,-54.199,-1000.0
1741775410.249,-1000.0,-25.391,-57.129,-1000.0
1741775410.253,-1000.0,-33.203,-32.715,-1000.0
1741775410.257,-1000.0,-43.945,-40.039,-1000.0
1741775410.261,-1000.0,-12.207,-60.547,-1000.0
1741775410.685,966.309,-88.867,-92.285,966.797
1741775410.689,966.309,-151.855,-60.547,966.797
1741775410.693,966.309,-123.535,-61.035,966.797
1741775410.697,966.309,-74.707,-56.641,966.797
1741775410.701,966.309,-58.105,-53.223,967.285
1741775410.705,966.309,-50.293,-47.363,967.285
1741775410.709,966.309,-88.379,-37.598,966.797
1741775410.712,966.309,-106.934,-45.41,966.797
1741775410.716,966.309,-85.938,-87.402,966.797
1741775410.72,966.309,-53.223,-110.352,966.797
1741775410.724,966.309,-91.797,-80.078,967.285
1741775410.728,966.309,-91.797,-50.293,967.285
1741775411.147,-1000.0,-99.121,45.898,-1000.0
1741775411.151,-1000.0,-74.219,28.809,-1000.0
1741775411.155,-1000.0,-28.809,2.93,-1000.0
1741775411.159,-1000.0,-15.137,-16.113,-1000.0
1741775411.163,-1000.0,-3.418,8.301,-1000.0
1741775411.167,-1000.0,-64.941,2.441,-1000.0
1741775411.171,-1000.0,-120.117,-52.246,-1000.0
1741775411.174,-1000.0,-104.492,-85.449,-1000.0
1741775411.178,-1000.0,-180.664,-82.52,-1000.0
1741775411.182,-1000.0,-174.316,-57.617,-1000.0
1741775411.186,-1000.0,-66.406,-43.945,-1000.0
1741775411.19,-1000.0,-23.438,-27.344,-1000.0
1741775411.657,966.309,-19.043,-25.391,966.797
1741775411.661,966.309,-34.668,-18.066,967.285
1741775411.665,966.309,-14.16,-23.438,967.285
1741775411.669,966.309,24.902,-62.988,966.797
1741775411.673,966.309,12.207,-62.988,966.797
1741775411.677,966.309,-18.066,-43.945,966.797
1741775411.681,966.309,-54.688,-49.316,966.797
1741775411.684,966.309,-81.543,-59.57,967.285
1741775411.688,966.309,-159.18,-46.875,967.285
1741775411.692,966.309,-140.625,-56.641,966.797
1741775411.696,966.309,-98.633,-65.918,967.285
1741775411.7,966.309,-113.77,-53.711,966.797
1741775412.078,-1000.0,-140.137,-65.918,-1000.0
1741775412.082,-221.191,11.23,-45.898,-285.156
1741775412.086,999.512,80.566,-52.246,999.512
1741775412.09,950.195,6.348,-61.523,961.426
1741775412.094,938.965,-90.332,-56.152,934.57
1741775412.098,973.145,-59.082,-46.387,975.586
1741775412.102,966.309,-13.672,-28.809,966.797
1741775412.105,966.309,-115.723,19.531,966.797
1741775412.109,966.309,-77.637,105.957,966.797
1741775412.113,966.309,-94.727,147.461,966.797
1741775412.117,966.797,-135.254,141.113,968.262
1741775412.121,965.82,-50.293,156.25,963.379
1741775413.037,-1000.0,-47.852,-62.988,-1000.0
1741775413.041,-1000.0,-66.895,-63.477,-1000.0
1741775413.045,-1000.0,-37.109,-51.758,-1000.0
1741775413.049,-1000.0,-14.648,-84.961,-1000.0
1741775413.053,-1000.0,-77.637,-93.75,-1000.0
1741775413.057,-1000.0,-52.246,-81.543,-1000.0
1741775413.061,-1000.0,0.977,-102.539,-1000.0
1741775413.064,-1000.0,-48.34,-144.531,-1000.0
1741775413.068,-1000.0,-73.73,-228.027,-1000.0
1741775413.072,-1000.0,-66.895,-406.738,-1000.0
1741775413.076,-1000.0,-88.867,-538.574,-1000.0
1741775413.08,-1000.0,-61.523,-552.246,-1000.0
1741775413.684,-993.164,-39.551,-90.332,-992.676
1741775413.688,-1000.0,-37.109,-97.656,-1000.0
1741775413.692,-1000.0,-53.711,-104.492,-1000.0
1741775413.696,-1000.0,-80.078,-89.844,-1000.0
1741775413.7,-1000.0,-60.547,-64.941,-1000.0
1741775413.704,-1000.0,-11.719,-62.012,-1000.0
1741775413.708,-1000.0,-23.926,-58.594,-1000.0
1741775413.711,-1000.0,-109.375,-61.035,-1000.0
1741775413.715,-1000.0,-116.211,-84.473,-1000.0
1741775413.719,-1000.0,-45.41,-71.777,-1000.0
1741775413.723,-1000.0,-30.762,-42.969,-1000.0
1741775413.727,-1000.0,-82.52,-81.543,-1000.0
1741775413.969,966.309,-74.707,-173.34,966.797
1741775413.973,966.309,-54.199,-161.621,966.797
1741775413.977,966.309,-100.098,-137.695,967.285
1741775413.981,966.309,-145.996,-152.344,966.797
1741775413.985,966.309,-104.004,-147.461,966.797
1741775413.989,966.309,21.973,-133.789,966.797
1741775413.993,966.309,-63.477,-124.512,966.797
1741775413.996,966.309,-163.574,-149.902,966.309
1741775414.0,967.773,-120.117,-163.086,967.285
1741775414.004,959.961,-90.82,-124.023,967.285
1741775414.008,914.062,-97.656,-114.258,904.785
1741775414.012,999.512,-97.168,-132.324,999.512
1741775414.434,981.445,-2.93,-93.262,980.957
1741775414.438,894.043,-10.254,-95.215,899.414
1741775414.442,999.512,0.977,-125.0,999.512
1741775414.446,585.938,-116.699,-127.441,616.699
1741775414.45,-858.398,-262.207,-100.098,-806.641
1741775414.454,-1000.0,-103.027,-86.426,-1000.0
1741775414.458,-942.383,-71.289,-84.473,-941.895
1741775414.461,-1000.0,-135.742,-96.68,-1000.0
1741775414.465,-1000.0,-107.422,-98.145,-1000.0
1741775414.469,-1000.0,-39.551,-92.285,-1000.0
1741775414.473,-1000.0,-31.738,-93.75,-1000.0
1741775414.477,-1000.0,-53.711,-109.863,-1000.0
1741775414.987,908.691,-18.066,-62.012,909.18
1741775414.991,999.512,2.441,-76.172,999.512
1741775414.995,857.422,-68.848,-90.82,851.074
1741775414.999,-597.656,-192.383,-70.312,-603.516
1741775415.003,-1000.0,-120.117,-47.363,-1000.0
1741775415.007,-925.781,17.578,-85.449,-926.27
1741775415.011,-1000.0,22.949,-98.145,-1000.0
1741775415.014,-1000.0,-6.348,-86.914,-1000.0
1741775415.018,-1000.0,16.113,-77.148,-1000.0
1741775415.022,-1000.0,-1.465,-69.824,-1000.0
1741775415.026,-1000.0,8.301,-68.848,-1000.0
1741775415.03,-1000.0,27.832,-37.598,-1000.0
1741775415.122,-1000.0,64.941,-47.363,-1000.0
1741775415.126,-1000.0,91.309,-25.391,-1000.0
1741775415.13,-1000.0,86.426,-37.109,-1000.0
1741775415.134,-1000.0,77.637,-43.457,-1000.0
1741775415.138,-1000.0,156.738,-31.738,-1000.0
1741775415.142,-1000.0,180.176,-28.809,-1000.0
1741775415.146,-1000.0,91.797,-35.156,-1000.0
1741775415.149,-932.617,49.805,-32.227,-936.035
1741775415.153,-1000.0,41.992,-8.301,-1000.0
1741775415.157,-771.973,63.477,-43.457,-783.691
1741775415.161,705.078,185.059,-72.266,677.734
1741775415.165,999.512,110.352,-40.527,999.512
1741775415.632,999.512,206.055,-67.383,955.566
1741775415.636,880.859,87.891,-49.316,999.512
1741775415.64,-560.059,11.23,-110.352,-226.562
1741775415.644,-1000.0,104.004,-94.238,-1000.0
1741775415.648,-925.781,57.617,-76.66,-941.406
1741775415.652,-1000.0,94.727,-98.633,-1000.0
1741775415.656,-1000.0,76.66,-105.957,-1000.0
1741775415.659,-1000.0,-4.883,-104.492,-1000.0
1741775415.663,-928.711,171.387,-51.758,-936.523
1741775415.667,-1000.0,186.523,-15.625,-1000.0
1741775415.671,-694.824,153.809,-73.73,-509.277
1741775415.675,778.809,219.238,-97.168,864.746
1741775416.532,-1000.0,-8.301,44.922,-1000.0
1741775416.536,-1000.0,3.418,33.691,-1000.0
1741775416.54,-1000.0,-29.785,-9.766,-1000.0
1741775416.544,-1000.0,-36.133,-49.316,-1000.0
1741775416.548,-1000.0,-23.438,-62.988,-1000.0
1741775416.552,-1000.0,42.48,-33.691,-1000.0
1741775416.556,-1000.0,26.367,-32.715,-1000.0
1741775416.559,-1000.0,-39.551,-55.176,-1000.0
1741775416.563,-1000.0,-37.109,-26.367,-1000.0
1741775416.567,-949.219,2.93,-4.883,-964.844
1741775416.571,-1000.0,41.016,-13.672,-1000.0
1741775416.575,-940.43,36.133,-54.199,-1000.0
1741775417.147,-1000.0,-56.152,-250.977,-1000.0
1741775417.151,-1000.0,-49.316,-260.254,-1000.0
1741775417.155,-1000.0,-82.031,-281.738,-1000.0
1741775417.159,-1000.0,-97.656,-283.691,-1000.0
1741775417.163,-1000.0,-39.551,-278.32,-1000.0
1741775417.167,-1000.0,46.875,-280.762,-1000.0
1741775417.171,-942.383,-14.16,-290.039,-944.824
1741775417.174,-1000.0,-101.562,-292.969,-1000.0
1741775417.178,-891.113,-5.859,-301.758,-910.645
1741775417.182,563.965,140.625,-306.152,533.691
1741775417.186,999.512,4.395,-315.918,999.512
1741775417.19,891.602,-101.562,-319.824,892.09
1741775419.713,999.512,48.34,91.309,999.512
1741775419.717,912.598,-77.148,106.934,921.875
1741775419.721,962.402,-85.449,145.508,958.496
1741775419.725,967.773,-69.336,184.082,969.727
1741775419.729,966.309,-45.898,186.523,966.797
1741775419.733,966.309,-12.207,175.293,966.797
1741775419.737,966.309,-32.715,142.578,967.285
1741775419.74,966.309,-82.52,136.719,966.797
1741775419.744,966.309,-118.164,187.012,966.797
1741775419.748,977.051,-63.477,216.309,976.562
1741775419.752,927.246,-22.461,219.238,932.129
1741775419.756,974.121,-89.355,234.375,967.773
1741775420.508,-1000.0,-42.969,-42.48,-1000.0
1741775420.512,-1000.0,-76.172,-42.969,-1000.0
1741775420.516,-1000.0,-85.938,-55.176,-1000.0
1741775420.52,-1000.0,-80.078,-54.688,-1000.0
1741775420.524,-1000.0,-10.742,-43.945,-1000.0
1741775420.528,-1000.0,20.996,-65.43,-1000.0
1741775420.532,-1000.0,-47.852,-85.449,-1000.0
1741775420.535,-1000.0,-101.074,-97.656,-1000.0
1741775420.539,-935.059,-128.906,-67.871,-943.359
1741775420.543,-1000.0,-134.766,-40.039,-1000.0
1741775420.547,-777.832,-69.824,-55.664,-896.973
1741775420.551,686.035,30.273,-70.801,554.688
1741775420.883,-962.891,-82.52,60.059,-980.957
1741775420.887,-986.816,-51.758,57.617,-978.027
1741775420.891,-1000.0,-34.668,48.828,-1000.0
1741775420.895,-1000.0,-58.594,28.809,-1000.0
1741775420.899,-1000.0,-89.844,27.832,-1000.0
1741775420.903,-1000.0,-17.578,58.105,-1000.0
1741775420.907,-1000.0,-35.645,58.594,-1000.0
1741775420.91,-1000.0,-114.258,47.363,-1000.0
1741775420.914,-995.117,-76.172,62.012,-1000.0
1741775420.918,-950.684,-69.824,41.016,-943.848
1741775420.922,-1000.0,-65.43,41.504,-1000.0
1741775420.926,-174.805,9.766,21.973,-309.082
1741775421.543,999.512,-72.266,-169.922,999.512
1741775421.547,439.941,-204.59,-159.668,240.234
1741775421.551,-943.848,-243.652,-153.32,-1000.0
1741775421.555,-1000.0,-75.684,-118.164,-1000.0
1741775421.559,-952.148,2.93,-68.359,-966.797
1741775421.563,-1000.0,24.902,-57.129,-1000.0
1741775421.567,-1000.0,-13.184,-57.129,-1000.0
1741775421.57,-1000.0,-52.246,-52.246,-1000.0
1741775421.574,-1000.0,-10.742,-33.203,-1000.0
1741775421.578,-1000.0,27.344,-9.277,-1000.0
1741775421.582,-1000.0,63.477,11.23,-1000.0
1741775421.586,-1000.0,58.105,24.414,-1000.0
1741775422.473,965.82,90.82,-19.531,966.797
1741775422.477,966.309,99.609,-20.996,966.797
1741775422.481,966.309,95.703,-17.578,967.285
1741775422.485,966.309,83.008,-8.789,966.797
1741775422.489,966.309,127.441,-12.695,966.797
1741775422.493,966.309,160.645,-1.465,966.797
1741775422.497,966.309,123.047,13.184,966.797
1741775422.5,966.309,61.523,19.531,967.285
1741775422.504,966.309,87.402,36.621,966.797
1741775422.508,966.309,128.418,57.617,966.797
1741775422.512,966.309,114.258,62.012,966.797
1741775422.516,966.309,100.098,65.43,966.797
1741775422.624,-1000.0,155.762,191.406,-1000.0
1741775422.628,-1000.0,153.809,196.289,-1000.0
1741775422.632,-1000.0,154.785,214.355,-1000.0
1741775422.636,-1000.0,177.246,235.84,-1000.0
1741775422.64,-1000.0,185.059,256.836,-1000.0
1741775422.644,-1000.0,208.984,257.812,-1000.0
1741775422.648,-1000.0,177.734,229.98,-1000.0
1741775422.651,-1000.0,134.766,218.75,-1000.0
1741775422.655,-1000.0,174.805,237.793,-1000.0
1741775422.659,-1000.0,142.578,236.328,-1000.0
1741775422.663,-1000.0,125.488,230.469,-1000.0
1741775422.667,-1000.0,137.695,225.098,-1000.0
1741775423.208,-1000.0,5.859,-38.086,-1000.0
1741775423.212,-1000.0,-44.434,-33.691,-1000.0
1741775423.216,-1000.0,-84.961,-29.297,-1000.0
1741775423.22,-942.383,-42.48,-26.855,-942.383
1741775423.224,-1000.0,-17.09,-24.902,-1000.0
1741775423.228,-891.113,60.547,-19.043,-890.137
1741775423.232,563.477,152.832,-20.996,565.918
1741775423.235,999.512,12.207,-11.719,999.512
1741775423.239,891.602,-48.828,9.277,892.578
1741775423.243,982.422,-1.953,14.648,982.91
1741775423.247,966.309,30.762,40.527,966.797
1741775423.251,966.309,5.371,53.223,967.285
1741775424.243,966.309,-60.547,32.715,966.797
1741775424.247,966.309,-121.094,24.902,966.797
1741775424.251,966.309,-139.648,13.672,966.797
1741775424.255,966.309,-144.043,6.836,966.797
1741775424.259,966.309,-131.348,-14.648,966.797
1741775424.263,965.82,-80.078,-22.949,966.797
1741775424.267,982.422,-97.656,-10.742,982.91
1741775424.27,907.227,-172.363,4.395,909.668
1741775424.274,999.512,-142.09,5.859,999.512
1741775424.278,842.773,-154.297,-20.996,860.352
1741775424.282,-615.234,-280.762,-38.574,-593.262
1741775424.286,-1000.0,-231.445,-35.645,-1000.0
1741775425.368,966.309,-6.836,160.645,966.797
1741775425.372,966.309,-9.277,148.438,966.797
1741775425.376,966.309,32.715,129.883,967.285
1741775425.38,966.309,9.766,106.934,966.797
1741775425.384,966.309,35.156,126.465,967.285
1741775425.388,966.309,91.797,149.902,966.797
1741775425.392,966.309,62.988,127.441,966.797
1741775425.395,966.309,33.691,86.914,967.285
1741775425.399,966.309,19.531,61.523,966.797
1741775425.403,966.309,2.93,42.969,966.797
1741775425.407,966.309,12.695,23.926,966.797
1741775425.411,966.309,34.668,21.973,966.797
1741775426.313,-578.125,-162.109,-183.594,14.648
1741775426.317,-1000.0,-126.953,-172.363,-1000.0
1741775426.321,-925.781,0.0,-144.043,-971.191
1741775426.325,-1000.0,-10.742,-131.836,-983.398
1741775426.329,-1000.0,-57.129,-137.695,-1000.0
1741775426.333,-1000.0,-37.109,-146.973,-1000.0
1741775426.337,-1000.0,-43.945,-177.734,-1000.0
1741775426.34,-1000.0,-106.445,-222.168,-1000.0
1741775426.344,-1000.0,-76.172,-231.934,-1000.0
1741775426.348,-1000.0,-21.973,-207.031,-1000.0
1741775426.352,-1000.0,-32.715,-181.152,-1000.0
1741775426.356,-1000.0,-37.109,-169.434,-1000.0
1741775426.508,966.309,-219.238,-99.609,967.285
1741775426.512,966.309,-205.078,-168.945,967.285
1741775426.516,966.309,-214.844,-186.523,966.797
1741775426.52,966.309,-180.176,-183.105,967.285
1741775426.524,966.309,-194.336,-228.027,966.797
1741775426.528,966.309,-200.684,-226.562,966.797
1741775426.532,966.309,-169.434,-211.426,966.797
1741775426.535,966.309,-192.383,-205.078,966.797
1741775426.539,966.309,-217.285,-164.062,966.797
1741775426.543,966.309,-193.359,-169.434,966.797
1741775426.547,966.309,-162.109,-189.453,966.797
1741775426.551,966.309,-160.156,-170.41,966.797
1741775427.708,966.309,12.695,-32.227,966.797
1741775427.712,966.309,44.434,-28.32,966.797
1741775427.716,966.309,74.707,-81.055,966.797
1741775427.72,966.309,-3.906,-49.805,966.797
1741775427.724,966.309,-24.902,-39.551,966.797
1741775427.728,966.309,78.125,-67.871,966.797
1741775427.732,966.309,108.398,-67.871,966.797
1741775427.735,966.309,26.367,-78.613,966.797
1741775427.739,966.309,3.906,-27.344,966.797
1741775427.743,966.309,5.859,-19.531,966.797
1741775427.747,966.309,-53.223,-32.715,966.797
1741775427.751,966.309,6.836,-87.402,966.797
1741775428.969,896.484,17.578,6.836,905.762
1741775428.973,983.887,54.688,34.18,982.91
1741775428.977,966.309,19.043,25.391,967.285
1741775428.981,966.309,6.348,24.414,966.797
1741775428.985,966.309,0.977,37.109,966.797
1741775428.989,966.309,4.883,43.457,967.285
1741775428.993,966.309,9.277,60.547,966.797
1741775428.996,966.309,-27.344,62.5,966.797
1741775429.0,966.309,-15.137,62.5,966.797
1741775429.004,966.309,-30.273,64.941,966.797
1741775429.008,966.309,-7.324,71.777,966.797
1741775429.012,966.309,31.25,74.707,966.797
1741775429.403,-1000.0,136.23,11.23,-1000.0
1741775429.407,-1000.0,206.543,78.613,-1000.0
1741775429.411,-1000.0,176.758,92.285,-1000.0
1741775429.415,-942.383,73.73,116.211,-941.895
1741775429.419,-1000.0,88.379,136.23,-1000.0
1741775429.423,-891.113,145.996,130.859,-882.324
1741775429.427,563.965,146.484,78.125,575.195
1741775429.43,999.512,89.355,49.316,999.512
1741775429.434,891.602,14.648,14.16,892.578
1741775429.438,981.934,-2.441,15.137,982.91
1741775429.442,966.309,73.73,70.801,966.797
1741775429.446,966.309,157.715,113.77,966.797
1741775429.869,983.887,89.844,167.48,983.398
1741775429.873,966.309,79.102,147.461,966.797
1741775429.877,966.309,109.863,145.996,966.797
1741775429.881,966.309,58.105,164.551,966.797
1741775429.885,966.309,2.93,140.625,966.797
1741775429.889,966.309,32.227,147.949,966.797
1741775429.893,966.309,-17.09,187.5,966.797
1741775429.896,966.309,-133.789,185.059,966.797
1741775429.9,966.309,-127.441,210.938,966.797
1741775429.904,966.309,-105.469,213.379,966.797
1741775429.908,966.309,-207.52,184.082,966.797
1741775429.912,974.121,-253.906,193.359,967.773
1741775429.973,999.512,-26.855,233.887,999.512
1741775429.977,900.391,-51.758,258.789,909.18
1741775429.981,983.887,-43.945,261.23,982.422
1741775429.985,966.309,-27.344,209.473,966.797
1741775429.989,966.309,-10.254,191.406,966.797
1741775429.993,966.309,21.973,210.938,966.797
1741775429.997,966.309,1.953,183.594,966.797
1741775430.0,966.309,-41.016,161.621,966.797
1741775430.004,966.309,7.324,161.133,967.285
1741775430.008,966.309,46.875,199.707,967.285
1741775430.012,966.309,-5.371,199.707,967.285
1741775430.016,966.309,37.598,152.832,966.797
1741775430.198,-137.695,156.738,214.355,-244.629
1741775430.202,999.512,149.414,212.402,981.934
1741775430.206,945.801,119.629,202.637,966.309
1741775430.21,943.359,124.512,207.031,935.547
1741775430.214,972.168,92.285,172.363,976.074
1741775430.218,966.309,107.91,159.668,966.797
1741775430.222,966.309,89.355,145.996,966.797
1741775430.225,966.309,40.527,105.469,967.285
1741775430.229,966.309,66.895,111.816,966.797
1741775430.233,982.422,126.953,133.789,983.398
1741775430.237,907.715,130.371,144.531,907.715
1741775430.241,999.512,117.676,130.371,999.512
1741775431.923,932.129,-213.867,-139.16,919.922
1741775431.927,948.73,-230.469,-127.93,958.984
1741775431.931,969.727,-271.973,-141.113,969.238
1741775431.935,966.309,-211.426,-117.188,966.797
1741775431.939,966.309,-189.941,-99.609,966.797
1741775431.943,966.309,-235.84,-135.742,966.797
1741775431.947,966.309,-267.578,-145.508,966.797
1741775431.95,966.309,-289.062,-134.766,966.797
1741775431.954,966.309,-255.859,-153.809,966.797
1741775431.958,966.309,-247.559,-170.898,966.797
1741775431.962,966.309,-240.234,-172.852,967.285
1741775431.966,966.309,-229.98,-169.922,967.285
1741775432.435,966.309,967.285,966.309,966.797
1741775432.439,966.309,966.797,949.219,966.797
1741775432.443,966.309,966.797,823.73,966.797
1741775432.447,966.309,966.797,536.621,966.797
1741775432.451,966.309,966.797,606.934,967.285
1741775432.455,966.309,966.797,967.285,966.797
1741775432.459,966.309,966.797,973.145,966.797
1741775432.462,966.309,966.797,955.078,967.285
1741775432.466,966.309,967.285,969.727,966.797
1741775432.47,966.309,967.285,967.285,966.797
1741775432.474,966.309,967.285,966.797,966.797
1741775432.478,966.309,966.797,966.797,966.797
1741775433.844,904.297,66.406,-185.547,940.43
1741775433.848,999.512,155.762,-144.043,952.637
1741775433.852,699.219,75.684,-204.59,999.512
1741775433.856,-713.867,-94.238,-184.082,-210.938
1741775433.86,-1000.0,-44.922,-175.293,-1000.0
1741775433.864,-938.965,10.254,-230.469,-942.871
1741775433.868,-1000.0,-101.562,-242.188,-998.535
1741775433.871,-1000.0,-115.723,-250.0,-1000.0
1741775433.875,-984.863,-9.766,-240.723,-971.191
1741775433.879,-962.402,-9.277,-235.84,-998.535
1741775433.883,-1000.0,-113.77,-243.164,-989.258
1741775433.887,26.367,-27.344,-246.094,225.098
1741775434.865,-597.656,-62.988,45.41,-597.656
1741775434.869,-1000.0,-53.223,90.332,-1000.0
1741775434.873,-925.781,-90.82,83.008,-925.781
1741775434.877,-1000.0,-67.383,48.34,-1000.0
1741775434.881,-1000.0,-56.641,20.02,-1000.0
1741775434.885,-1000.0,-106.445,-16.602,-1000.0
1741775434.889,-1000.0,-129.395,-20.02,-1000.0
1741775434.892,-1000.0,-126.465,-91.309,-1000.0
1741775434.896,-1000.0,-135.254,-105.957,-1000.0
1741775434.9,-1000.0,-112.305,-120.117,-1000.0
1741775434.904,-1000.0,-84.473,-170.898,-1000.0
1741775434.908,-1000.0,-112.305,-202.148,-1000.0
1741775435.148,966.309,-178.223,-284.18,966.797
1741775435.152,966.309,-164.551,-287.598,967.285
1741775435.156,966.309,-154.297,-276.367,966.797
1741775435.16,966.309,-138.672,-273.926,966.797
1741775435.164,966.309,-145.508,-197.266,966.797
1741775435.168,966.309,-96.191,-155.273,966.797
1741775435.172,966.309,67.871,54.199,966.797
1741775435.175,966.309,182.617,316.895,966.797
1741775435.179,966.797,196.289,277.832,967.285
1741775435.183,964.844,212.891,228.027,967.773
1741775435.187,906.738,242.676,332.031,904.297
1741775435.191,999.512,231.445,322.266,999.512
1741775435.658,966.309,-151.855,-32.227,967.285
1741775435.662,966.309,-127.441,4.395,966.797
1741775435.666,966.309,-93.75,32.715,966.797
1741775435.67,966.309,-107.91,23.926,967.285
1741775435.674,966.309,-159.18,-41.504,967.285
1741775435.678,969.727,-136.23,-78.613,973.633
1741775435.682,900.391,-118.164,-67.383,897.461
1741775435.685,999.512,-125.977,-67.383,999.512
1741775435.689,237.793,-208.984,-126.953,312.5
1741775435.693,-1000.0,-229.98,-157.715,-1000.0
1741775435.697,-992.188,-126.465,-145.508,-1000.0
1741775435.701,-969.238,-117.188,-157.715,-962.891
1741775438.313,83.008,-106.445,-177.246,-147.949
1741775438.317,999.512,-76.66,-168.945,999.512
1741775438.321,915.527,55.176,-69.824,940.918
1741775438.325,959.961,211.914,77.637,944.824
1741775438.329,967.773,224.609,130.859,971.68
1741775438.333,965.82,219.238,140.625,966.797
1741775438.337,966.309,177.734,162.598,966.797
1741775438.34,966.309,104.004,159.668,966.797
1741775438.344,966.309,-80.566,66.895,966.797
1741775438.348,971.68,-165.039,24.902,974.609
1741775438.352,942.383,-102.539,20.02,934.57
1741775438.356,944.336,-74.219,-22.461,967.773
