timestamps,TP9,AF7,AF8,TP10
1741778444.146,-712.402,-1000.0,-238.77,-477.539
1741778444.15,-1000.0,-949.707,-197.266,-1000.0
1741778444.154,-948.73,-1000.0,-27.344,-943.359
1741778444.158,-947.754,-935.059,23.438,-943.848
1741778444.162,-1000.0,-1000.0,-52.246,-1000.0
1741778444.166,-750.488,-527.344,-40.039,-700.684
1741778444.17,729.004,870.605,-10.254,758.301
1741778444.173,999.512,999.512,-93.75,999.512
1741778444.177,897.949,914.551,-79.59,902.344
1741778444.181,983.887,981.445,-41.992,983.887
1741778444.185,966.309,967.285,-129.395,967.285
1741778444.189,966.309,967.285,-191.895,966.797
1741778444.16,978.027,981.934,-61.035,971.68
1741778444.164,924.316,914.062,-93.262,951.66
1741778444.168,980.957,999.512,-91.797,932.617
1741778444.172,966.797,894.531,-77.637,999.512
1741778444.176,-401.855,-537.598,-295.41,-28.809
1741778444.18,-1000.0,-1000.0,-113.281,-1000.0
1741778444.184,-928.223,-925.781,108.887,-962.891
1741778444.187,-1000.0,-1000.0,-79.102,-987.305
1741778444.191,-1000.0,-1000.0,-27.832,-1000.0
1741778444.195,-942.383,-942.383,27.344,-938.965
1741778444.199,-1000.0,-1000.0,-9.766,-1000.0
1741778444.203,-891.113,-891.113,86.914,-841.797
1741778444.67,-855.469,-1000.0,-222.168,-634.766
1741778444.674,-1000.0,-929.688,-171.875,-1000.0
1741778444.678,-958.984,-1000.0,-22.949,-943.359
1741778444.682,-955.566,-935.059,-20.508,-957.031
1741778444.686,-1000.0,-1000.0,-77.148,-1000.0
1741778444.69,-862.305,-426.27,-35.156,-867.188
1741778444.694,600.586,925.293,2.441,593.262
1741778444.697,999.512,999.512,-174.805,999.512
1741778444.701,885.742,887.695,-158.203,891.602
1741778444.705,935.059,979.004,-86.426,929.199
1741778444.709,999.512,999.512,-184.082,999.512
1741778444.713,107.91,-313.965,-319.824,204.102
1741778444.206,563.965,564.453,237.305,620.117
1741778444.21,999.512,999.512,157.227,999.512
1741778444.214,891.602,892.09,-48.34,894.531
1741778444.218,985.352,993.164,-116.699,983.398
1741778444.222,955.566,930.176,7.324,981.934
1741778444.226,924.805,971.68,114.258,896.973
1741778444.23,999.512,990.723,66.895,999.512
1741778444.233,41.504,-341.309,-280.273,602.539
1741778444.237,-1000.0,-1000.0,-315.918,-844.238
1741778444.241,-971.68,-931.641,12.695,-1000.0
1741778444.245,-982.422,-1000.0,100.098,-939.941
1741778444.249,-1000.0,-1000.0,50.293,-1000.0
1741778444.206,563.965,564.453,237.305,620.117
1741778444.21,999.512,999.512,157.227,999.512
1741778444.214,891.602,892.09,-48.34,894.531
1741778444.218,985.352,993.164,-116.699,983.398
1741778444.222,955.566,930.176,7.324,981.934
1741778444.226,924.805,971.68,114.258,896.973
1741778444.23,999.512,990.723,66.895,999.512
1741778444.233,41.504,-341.309,-280.273,602.539
1741778444.237,-1000.0,-1000.0,-315.918,-844.238
1741778444.241,-971.68,-931.641,12.695,-1000.0
1741778444.245,-982.422,-1000.0,100.098,-939.941
1741778444.249,-1000.0,-1000.0,50.293,-1000.0
1741778444.251,-956.055,-965.332,-95.215,-952.148
1741778444.255,-1000.0,-1000.0,-196.777,-1000.0
1741778444.259,-987.793,-1000.0,-53.711,-958.984
1741778444.263,396.484,285.156,131.836,443.848
1741778444.267,999.512,999.512,149.414,999.512
1741778444.271,893.066,898.438,21.973,894.043
1741778444.275,976.562,972.656,-148.926,979.004
1741778444.278,966.309,967.285,-186.523,966.797
1741778444.282,966.309,966.797,2.93,967.285
1741778444.286,980.469,983.398,12.695,972.656
1741778444.29,916.016,907.715,-81.055,946.777
1741778444.294,999.512,999.512,-97.168,940.918
1741778444.251,-956.055,-965.332,-95.215,-952.148
1741778444.255,-1000.0,-1000.0,-196.777,-1000.0
1741778444.259,-987.793,-1000.0,-53.711,-958.984
1741778444.263,396.484,285.156,131.836,443.848
1741778444.267,999.512,999.512,149.414,999.512
1741778444.271,893.066,898.438,21.973,894.043
1741778444.275,976.562,972.656,-148.926,979.004
1741778444.278,966.309,967.285,-186.523,966.797
1741778444.282,966.309,966.797,2.93,967.285
1741778444.286,980.469,983.398,12.695,972.656
1741778444.29,916.016,907.715,-81.055,946.777
1741778444.294,999.512,999.512,-97.168,940.918
1741778444.298,914.551,838.867,-25.391,999.512
1741778444.302,-501.953,-619.141,-70.801,-100.586
1741778444.306,-1000.0,-1000.0,-142.578,-1000.0
1741778444.31,-942.871,-940.43,-170.898,-972.168
1741778444.314,-952.637,-947.754,-131.348,-929.199
1741778444.318,-1000.0,-1000.0,60.547,-1000.0
1741778444.322,-858.887,-606.934,143.555,-828.613
1741778444.325,606.445,821.777,71.777,638.184
1741778444.329,999.512,999.512,18.066,999.512
1741778444.333,892.578,909.18,-17.09,895.02
1741778444.337,993.652,998.047,49.805,987.793
1741778444.341,927.734,912.598,215.82,952.637
1741778444.298,914.551,838.867,-25.391,999.512
1741778444.302,-501.953,-619.141,-70.801,-100.586
1741778444.306,-1000.0,-1000.0,-142.578,-1000.0
1741778444.31,-942.871,-940.43,-170.898,-972.168
1741778444.314,-952.637,-947.754,-131.348,-929.199
1741778444.318,-1000.0,-1000.0,60.547,-1000.0
1741778444.322,-858.887,-606.934,143.555,-828.613
1741778444.325,606.445,821.777,71.777,638.184
1741778444.329,999.512,999.512,18.066,999.512
1741778444.333,892.578,909.18,-17.09,895.02
1741778444.337,993.652,998.047,49.805,987.793
1741778444.341,927.734,912.598,215.82,952.637
1741778444.356,974.121,999.512,196.777,930.664
1741778444.36,983.398,884.766,-2.93,999.512
1741778444.364,-364.258,-554.688,-251.953,-8.789
1741778444.368,-1000.0,-1000.0,-228.027,-1000.0
1741778444.372,-929.688,-925.781,116.211,-965.332
1741778444.376,-1000.0,-1000.0,122.07,-985.84
1741778444.38,-1000.0,-1000.0,-24.414,-1000.0
1741778444.383,-963.867,-967.285,-208.008,-960.449
1741778444.387,-1000.0,-995.605,-242.188,-1000.0
1741778444.391,-1000.0,-1000.0,-50.293,-1000.0
1741778444.395,303.711,258.789,82.031,343.75
1741778444.399,999.512,999.512,23.438,999.512
1741778444.356,974.121,999.512,196.777,930.664
1741778444.36,983.398,884.766,-2.93,999.512
1741778444.364,-364.258,-554.688,-251.953,-8.789
1741778444.368,-1000.0,-1000.0,-228.027,-1000.0
1741778444.372,-929.688,-925.781,116.211,-965.332
1741778444.376,-1000.0,-1000.0,122.07,-985.84
1741778444.38,-1000.0,-1000.0,-24.414,-1000.0
1741778444.383,-963.867,-967.285,-208.008,-960.449
1741778444.387,-1000.0,-995.605,-242.188,-1000.0
1741778444.391,-1000.0,-1000.0,-50.293,-1000.0
1741778444.395,303.711,258.789,82.031,343.75
1741778444.399,999.512,999.512,23.438,999.512
1741778444.4,896.484,899.902,-103.516,897.461
1741778444.404,972.656,971.191,-171.875,974.609
1741778444.408,966.309,966.797,-112.793,966.797
1741778444.412,966.309,966.797,-53.711,967.285
1741778444.416,972.168,979.492,-83.496,968.75
1741778444.42,942.871,922.363,-153.809,968.75
1741778444.424,944.336,987.793,-198.73,908.691
1741778444.427,999.512,950.195,-84.473,999.512
1741778444.431,-155.762,-431.641,-135.254,269.043
1741778444.435,-1000.0,-1000.0,-186.035,-1000.0
1741778444.439,-946.777,-928.223,-73.242,-1000.0
1741778444.443,-996.094,-1000.0,-52.246,-965.332
1741778444.4,896.484,899.902,-103.516,897.461
1741778444.404,972.656,971.191,-171.875,974.609
1741778444.408,966.309,966.797,-112.793,966.797
1741778444.412,966.309,966.797,-53.711,967.285
1741778444.416,972.168,979.492,-83.496,968.75
1741778444.42,942.871,922.363,-153.809,968.75
1741778444.424,944.336,987.793,-198.73,908.691
1741778444.427,999.512,950.195,-84.473,999.512
1741778444.431,-155.762,-431.641,-135.254,269.043
1741778444.435,-1000.0,-1000.0,-186.035,-1000.0
1741778444.439,-946.777,-928.223,-73.242,-1000.0
1741778444.443,-996.094,-1000.0,-52.246,-965.332
1741778444.445,-1000.0,-1000.0,-30.762,-1000.0
1741778444.449,-1000.0,-1000.0,-68.848,-1000.0
1741778444.453,-960.449,-947.754,2.93,-964.844
1741778444.457,-1000.0,-1000.0,-39.062,-1000.0
1741778444.461,-1000.0,-930.664,-125.977,-1000.0
1741778444.465,341.797,500.488,208.984,291.992
1741778444.469,999.512,999.512,253.418,999.512
1741778444.472,895.02,896.973,-32.715,898.438
1741778444.476,974.609,968.75,7.324,973.145
1741778444.48,966.309,930.176,-20.02,967.285
1741778444.484,982.422,999.512,-45.41,981.934
1741778444.488,908.203,41.992,75.684,914.551
1741778444.445,-1000.0,-1000.0,-30.762,-1000.0
1741778444.449,-1000.0,-1000.0,-68.848,-1000.0
1741778444.453,-960.449,-947.754,2.93,-964.844
1741778444.457,-1000.0,-1000.0,-39.062,-1000.0
1741778444.461,-1000.0,-930.664,-125.977,-1000.0
1741778444.465,341.797,500.488,208.984,291.992
1741778444.469,999.512,999.512,253.418,999.512
1741778444.472,895.02,896.973,-32.715,898.438
1741778444.476,974.609,968.75,7.324,973.145
1741778444.48,966.309,930.176,-20.02,967.285
1741778444.484,982.422,999.512,-45.41,981.934
1741778444.488,908.203,41.992,75.684,914.551
1741778444.956,-793.457,-1000.0,-306.641,-737.305
1741778444.96,-1000.0,-948.242,-230.469,-1000.0
1741778444.964,-948.242,-1000.0,-110.352,-939.941
1741778444.968,-968.262,-938.965,-191.406,-986.816
1741778444.972,-1000.0,-1000.0,-158.203,-991.699
1741778444.976,-953.125,-820.312,-111.816,-1000.0
1741778444.98,459.473,646.484,24.902,221.191
1741778444.983,999.512,999.512,-61.035,999.512
1741778444.987,892.578,895.508,-188.965,904.785
1741778444.991,979.004,983.887,-109.375,968.75
1741778444.995,967.285,978.027,-207.031,967.773
1741778444.999,972.656,927.246,-123.535,980.957
1741778444.491,999.512,-1000.0,93.262,999.512
1741778444.495,857.422,-976.074,-10.254,897.949
1741778444.499,-597.656,-980.957,-237.305,-532.227
1741778444.503,-1000.0,-1000.0,-161.621,-1000.0
1741778444.507,-925.781,-1000.0,-4.395,-925.781
1741778444.511,-1000.0,-1000.0,81.543,-1000.0
1741778444.515,-1000.0,-1000.0,19.531,-1000.0
1741778444.518,-1000.0,-993.652,-234.375,-1000.0
1741778444.522,-927.734,-954.102,-118.164,-928.711
1741778444.526,-1000.0,-1000.0,51.27,-1000.0
1741778444.53,-594.727,-157.227,15.625,-678.223
1741778444.534,849.609,999.512,67.383,789.062
1741778444.491,999.512,-1000.0,93.262,999.512
1741778444.495,857.422,-976.074,-10.254,897.949
1741778444.499,-597.656,-980.957,-237.305,-532.227
1741778444.503,-1000.0,-1000.0,-161.621,-1000.0
1741778444.507,-925.781,-1000.0,-4.395,-925.781
1741778444.511,-1000.0,-1000.0,81.543,-1000.0
1741778444.515,-1000.0,-1000.0,19.531,-1000.0
1741778444.518,-1000.0,-993.652,-234.375,-1000.0
1741778444.522,-927.734,-954.102,-118.164,-928.711
1741778444.526,-1000.0,-1000.0,51.27,-1000.0
1741778444.53,-594.727,-157.227,15.625,-678.223
1741778444.534,849.609,999.512,67.383,789.062
1741778444.536,999.512,951.66,-13.184,999.512
1741778444.54,908.691,942.871,-187.988,903.32
1741778444.544,982.422,974.121,-115.234,983.887
1741778444.548,975.586,980.957,-51.758,974.121
1741778444.552,931.152,917.969,-63.965,940.918
1741778444.556,966.309,998.535,-78.125,950.684
1741778444.56,999.512,922.363,-105.957,999.512
1741778444.563,-321.289,-489.258,-226.074,-197.266
1741778444.567,-1000.0,-1000.0,-210.449,-1000.0
1741778444.571,-931.641,-926.27,-119.629,-942.871
1741778444.575,-1000.0,-1000.0,-138.672,-1000.0
1741778444.579,-946.289,-942.383,-129.883,-950.684
1741778444.583,-1000.0,-1000.0,-41.016,-1000.0
1741778444.587,-920.898,-891.113,98.145,-944.824
1741778444.591,517.09,564.453,249.023,476.074
1741778444.595,999.512,999.512,32.227,999.512
1741778444.599,891.602,892.578,-113.77,892.578
1741778444.603,980.957,982.91,116.211,979.98
1741778444.607,966.309,967.285,136.23,966.797
1741778444.61,982.91,981.934,-13.184,983.398
1741778444.614,907.227,898.926,-11.719,909.18
1741778444.618,999.512,999.512,47.363,999.512
1741778444.622,842.773,614.746,26.367,857.91
1741778444.626,-616.699,-826.172,-55.664,-597.656
1741778444.583,-1000.0,-1000.0,-41.016,-1000.0
1741778444.587,-920.898,-891.113,98.145,-944.824
1741778444.591,517.09,564.453,249.023,476.074
1741778444.595,999.512,999.512,32.227,999.512
1741778444.599,891.602,892.578,-113.77,892.578
1741778444.603,980.957,982.91,116.211,979.98
1741778444.607,966.309,967.285,136.23,966.797
1741778444.61,982.91,981.934,-13.184,983.398
1741778444.614,907.227,898.926,-11.719,909.18
1741778444.618,999.512,999.512,47.363,999.512
1741778444.622,842.773,614.746,26.367,857.91
1741778444.626,-616.699,-826.172,-55.664,-597.656
1741778444.625,-1000.0,-1000.0,154.297,-1000.0
1741778444.629,-942.383,-955.566,94.727,-942.383
1741778444.633,-958.008,-946.777,-88.867,-957.52
1741778444.637,-1000.0,-1000.0,-26.367,-1000.0
1741778444.641,-884.277,-685.547,206.543,-878.418
1741778444.645,572.754,774.414,349.609,580.566
1741778444.649,999.512,999.512,75.684,999.512
1741778444.652,892.09,915.039,-254.883,893.066
1741778444.656,996.094,941.895,-137.695,999.512
1741778444.66,897.949,982.91,23.438,906.738
1741778444.664,999.512,962.402,1.465,999.512
1741778444.668,572.754,-404.297,-80.566,827.637
1741778444.625,-1000.0,-1000.0,154.297,-1000.0
1741778444.629,-942.383,-955.566,94.727,-942.383
1741778444.633,-958.008,-946.777,-88.867,-957.52
1741778444.637,-1000.0,-1000.0,-26.367,-1000.0
1741778444.641,-884.277,-685.547,206.543,-878.418
1741778444.645,572.754,774.414,349.609,580.566
1741778444.649,999.512,999.512,75.684,999.512
1741778444.652,892.09,915.039,-254.883,893.066
1741778444.656,996.094,941.895,-137.695,999.512
1741778444.66,897.949,982.91,23.438,906.738
1741778444.664,999.512,962.402,1.465,999.512
1741778444.668,572.754,-404.297,-80.566,827.637
1741778444.731,-1000.0,-1000.0,-213.379,-1000.0
1741778444.735,-979.98,-933.105,-174.316,-995.117
1741778444.739,-994.629,-1000.0,-221.191,-986.816
1741778444.743,-944.336,-930.664,-288.574,-949.707
1741778444.747,-1000.0,-1000.0,-361.816,-1000.0
1741778444.751,-843.75,-546.387,-122.559,-876.465
1741778444.755,623.047,868.652,32.227,583.008
1741778444.758,999.512,999.512,-222.656,999.512
1741778444.762,906.738,892.09,-325.684,906.25
1741778444.766,910.645,958.496,-327.148,912.598
1741778444.77,999.512,999.512,-354.492,999.512
1741778444.774,513.184,-113.77,-393.555,534.18
1741778444.731,-1000.0,-1000.0,-213.379,-1000.0
1741778444.735,-979.98,-933.105,-174.316,-995.117
1741778444.739,-994.629,-1000.0,-221.191,-986.816
1741778444.743,-944.336,-930.664,-288.574,-949.707
1741778444.747,-1000.0,-1000.0,-361.816,-1000.0
1741778444.751,-843.75,-546.387,-122.559,-876.465
1741778444.755,623.047,868.652,32.227,583.008
1741778444.758,999.512,999.512,-222.656,999.512
1741778444.762,906.738,892.09,-325.684,906.25
1741778444.766,910.645,958.496,-327.148,912.598
1741778444.77,999.512,999.512,-354.492,999.512
1741778444.774,513.184,-113.77,-393.555,534.18
1741778445.241,-1000.0,-1000.0,-12.695,-1000.0
1741778445.245,-942.383,-934.082,89.844,-942.383
1741778445.249,-1000.0,-1000.0,59.57,-1000.0
1741778445.253,-891.113,-780.273,35.156,-891.113
1741778445.257,563.965,691.895,160.156,564.453
1741778445.261,999.512,999.512,27.344,999.512
1741778445.265,891.602,897.461,-17.09,892.578
1741778445.268,995.117,999.512,2.441,994.141
1741778445.272,921.387,912.109,-17.578,926.758
1741778445.276,988.281,999.512,1.953,977.539
1741778445.28,949.707,879.883,-119.629,977.051
1741778445.284,-439.941,-562.988,-169.434,-379.395
1741778444.731,-1000.0,-1000.0,-213.379,-1000.0
1741778444.735,-979.98,-933.105,-174.316,-995.117
1741778444.739,-994.629,-1000.0,-221.191,-986.816
1741778444.743,-944.336,-930.664,-288.574,-949.707
1741778444.747,-1000.0,-1000.0,-361.816,-1000.0
1741778444.751,-843.75,-546.387,-122.559,-876.465
1741778444.755,623.047,868.652,32.227,583.008
1741778444.758,999.512,999.512,-222.656,999.512
1741778444.762,906.738,892.09,-325.684,906.25
1741778444.766,910.645,958.496,-327.148,912.598
1741778444.77,999.512,999.512,-354.492,999.512
1741778444.774,513.184,-113.77,-393.555,534.18
1741778444.775,-912.109,-1000.0,-396.484,-890.625
1741778444.779,-1000.0,-966.797,-342.773,-1000.0
1741778444.783,-944.336,-950.195,-332.52,-957.031
1741778444.787,-961.914,-1000.0,-200.195,-946.289
1741778444.791,-1000.0,-994.629,-158.203,-1000.0
1741778444.795,-229.492,374.512,-20.996,-525.391
1741778444.799,997.07,999.512,0.977,879.395
1741778444.802,959.961,895.508,-345.215,999.512
1741778444.806,936.523,976.074,-232.91,915.039
1741778444.81,980.469,972.168,-7.324,988.77
1741778444.814,942.383,948.242,-75.684,939.941
1741778444.818,945.312,937.012,-132.812,953.613
1741778444.775,-912.109,-1000.0,-396.484,-890.625
1741778444.779,-1000.0,-966.797,-342.773,-1000.0
1741778444.783,-944.336,-950.195,-332.52,-957.031
1741778444.787,-961.914,-1000.0,-200.195,-946.289
1741778444.791,-1000.0,-994.629,-158.203,-1000.0
1741778444.795,-229.492,374.512,-20.996,-525.391
1741778444.799,997.07,999.512,0.977,879.395
1741778444.802,959.961,895.508,-345.215,999.512
1741778444.806,936.523,976.074,-232.91,915.039
1741778444.81,980.469,972.168,-7.324,988.77
1741778444.814,942.383,948.242,-75.684,939.941
1741778444.818,945.312,937.012,-132.812,953.613
1741778444.821,999.512,999.512,-121.582,999.512
1741778444.825,-167.48,-90.332,-267.09,-203.613
1741778444.829,-1000.0,-1000.0,-276.367,-1000.0
1741778444.833,-944.824,-953.613,-58.594,-944.824
1741778444.837,-997.07,-992.188,-8.301,-998.047
1741778444.841,-1000.0,-1000.0,-112.793,-1000.0
1741778444.845,-1000.0,-1000.0,-128.418,-1000.0
1741778444.848,-1000.0,-1000.0,-96.68,-1000.0
1741778444.852,-1000.0,-1000.0,-37.109,-1000.0
1741778444.856,-1000.0,-1000.0,-39.062,-1000.0
1741778444.86,-979.98,-968.75,-144.043,-999.512
1741778444.864,-973.633,-993.652,-167.48,-944.824
1741778444.821,999.512,999.512,-121.582,999.512
1741778444.825,-167.48,-90.332,-267.09,-203.613
1741778444.829,-1000.0,-1000.0,-276.367,-1000.0
1741778444.833,-944.824,-953.613,-58.594,-944.824
1741778444.837,-997.07,-992.188,-8.301,-998.047
1741778444.841,-1000.0,-1000.0,-112.793,-1000.0
1741778444.845,-1000.0,-1000.0,-128.418,-1000.0
1741778444.848,-1000.0,-1000.0,-96.68,-1000.0
1741778444.852,-1000.0,-1000.0,-37.109,-1000.0
1741778444.856,-1000.0,-1000.0,-39.062,-1000.0
1741778444.86,-979.98,-968.75,-144.043,-999.512
1741778444.864,-973.633,-993.652,-167.48,-944.824
1741778444.866,-1000.0,-1000.0,-107.91,-1000.0
1741778444.87,80.566,232.422,49.805,-252.441
1741778444.874,999.512,999.512,126.465,992.188
1741778444.878,916.992,904.297,-225.098,963.867
1741778444.882,959.473,969.238,-288.574,935.547
1741778444.886,982.91,983.887,21.484,989.258
1741778444.89,916.016,908.203,-25.879,918.945
1741778444.893,999.512,999.512,-235.84,997.07
1741778444.897,915.039,839.844,-211.426,926.758
1741778444.901,-502.93,-616.699,-275.879,-480.957
1741778444.905,-1000.0,-1000.0,-237.793,-1000.0
1741778444.909,-925.781,-926.758,-11.23,-926.27
1741778444.866,-1000.0,-1000.0,-107.91,-1000.0
1741778444.87,80.566,232.422,49.805,-252.441
1741778444.874,999.512,999.512,126.465,992.188
1741778444.878,916.992,904.297,-225.098,963.867
1741778444.882,959.473,969.238,-288.574,935.547
1741778444.886,982.91,983.887,21.484,989.258
1741778444.89,916.016,908.203,-25.879,918.945
1741778444.893,999.512,999.512,-235.84,997.07
1741778444.897,915.039,839.844,-211.426,926.758
1741778444.901,-502.93,-616.699,-275.879,-480.957
1741778444.905,-1000.0,-1000.0,-237.793,-1000.0
1741778444.909,-925.781,-926.758,-11.23,-926.27
1741778444.91,-1000.0,-1000.0,31.738,-1000.0
1741778444.914,-1000.0,-1000.0,-96.68,-1000.0
1741778444.918,-939.453,-930.176,-125.0,-941.895
1741778444.922,-1000.0,-1000.0,-74.219,-1000.0
1741778444.926,-857.422,-723.633,73.73,-884.766
1741778444.93,607.422,751.465,311.035,572.754
1741778444.934,999.512,999.512,79.59,999.512
1741778444.937,892.578,907.715,-318.359,892.578
1741778444.941,999.512,957.52,-179.688,999.512
1741778444.945,895.508,953.613,-1.953,900.391
1741778444.949,999.512,999.512,-8.789,999.512
1741778444.953,682.129,-187.5,-115.723,732.422
1741778444.91,-1000.0,-1000.0,31.738,-1000.0
1741778444.914,-1000.0,-1000.0,-96.68,-1000.0
1741778444.918,-939.453,-930.176,-125.0,-941.895
1741778444.922,-1000.0,-1000.0,-74.219,-1000.0
1741778444.926,-857.422,-723.633,73.73,-884.766
1741778444.93,607.422,751.465,311.035,572.754
1741778444.934,999.512,999.512,79.59,999.512
1741778444.937,892.578,907.715,-318.359,892.578
1741778444.941,999.512,957.52,-179.688,999.512
1741778444.945,895.508,953.613,-1.953,900.391
1741778444.949,999.512,999.512,-8.789,999.512
1741778444.953,682.129,-187.5,-115.723,732.422
1741778445.001,902.344,977.539,25.879,896.484
1741778445.005,999.512,974.121,-45.898,999.512
1741778445.009,362.305,-372.07,-121.582,563.477
1741778445.013,-971.68,-1000.0,-295.41,-871.582
1741778445.017,-1000.0,-931.152,-207.52,-1000.0
1741778445.021,-958.008,-1000.0,58.594,-942.871
1741778445.025,-1000.0,-1000.0,-16.113,-1000.0
1741778445.028,-942.383,-938.477,-185.547,-942.871
1741778445.032,-1000.0,-1000.0,-136.719,-1000.0
1741778445.036,-891.113,-842.773,-6.348,-891.602
1741778445.04,563.477,622.559,170.41,563.477
1741778445.044,999.512,999.512,35.645,999.512
1741778445.001,902.344,977.539,25.879,896.484
1741778445.005,999.512,974.121,-45.898,999.512
1741778445.009,362.305,-372.07,-121.582,563.477
1741778445.013,-971.68,-1000.0,-295.41,-871.582
1741778445.017,-1000.0,-931.152,-207.52,-1000.0
1741778445.021,-958.008,-1000.0,58.594,-942.871
1741778445.025,-1000.0,-1000.0,-16.113,-1000.0
1741778445.028,-942.383,-938.477,-185.547,-942.871
1741778445.032,-1000.0,-1000.0,-136.719,-1000.0
1741778445.036,-891.113,-842.773,-6.348,-891.602
1741778445.04,563.477,622.559,170.41,563.477
1741778445.044,999.512,999.512,35.645,999.512
1741778445.045,891.602,894.531,1.465,892.578
1741778445.049,981.934,983.887,-70.801,982.91
1741778445.053,966.309,967.285,-207.52,966.797
1741778445.057,982.422,983.398,-102.539,982.422
1741778445.061,908.691,909.668,37.109,913.086
1741778445.065,999.512,999.512,192.383,999.512
1741778445.069,856.934,857.91,43.945,889.648
1741778445.072,-597.656,-597.656,-381.348,-548.34
1741778445.076,-1000.0,-1000.0,-197.754,-1000.0
1741778445.08,-925.781,-942.383,55.664,-925.293
1741778445.084,-1000.0,-953.125,29.297,-1000.0
1741778445.088,-1000.0,-1000.0,15.137,-1000.0
1741778445.045,891.602,894.531,1.465,892.578
1741778445.049,981.934,983.887,-70.801,982.91
1741778445.053,966.309,967.285,-207.52,966.797
1741778445.057,982.422,983.398,-102.539,982.422
1741778445.061,908.691,909.668,37.109,913.086
1741778445.065,999.512,999.512,192.383,999.512
1741778445.069,856.934,857.91,43.945,889.648
1741778445.072,-597.656,-597.656,-381.348,-548.34
1741778445.076,-1000.0,-1000.0,-197.754,-1000.0
1741778445.08,-925.781,-942.383,55.664,-925.293
1741778445.084,-1000.0,-953.125,29.297,-1000.0
1741778445.088,-1000.0,-1000.0,15.137,-1000.0
1741778445.105,-1000.0,-818.848,29.297,-1000.0
1741778445.109,-1000.0,593.75,-7.324,-1000.0
1741778445.113,-1000.0,999.512,-93.75,-1000.0
1741778445.117,-1000.0,235.352,-70.312,-1000.0
1741778445.121,-927.246,-888.184,5.371,-930.664
1741778445.125,-1000.0,-1000.0,7.812,-1000.0
1741778445.129,-637.207,-296.875,122.07,-732.91
1741778445.132,823.242,941.406,225.586,743.164
1741778445.136,999.512,979.492,113.77,999.512
1741778445.14,905.762,929.199,93.262,899.414
1741778445.144,982.91,977.539,36.133,984.375
1741778445.148,972.656,979.492,3.906,970.215
1741778445.105,-1000.0,-818.848,29.297,-1000.0
1741778445.109,-1000.0,593.75,-7.324,-1000.0
1741778445.113,-1000.0,999.512,-93.75,-1000.0
1741778445.117,-1000.0,235.352,-70.312,-1000.0
1741778445.121,-927.246,-888.184,5.371,-930.664
1741778445.125,-1000.0,-1000.0,7.812,-1000.0
1741778445.129,-637.207,-296.875,122.07,-732.91
1741778445.132,823.242,941.406,225.586,743.164
1741778445.136,999.512,979.492,113.77,999.512
1741778445.14,905.762,929.199,93.262,899.414
1741778445.144,982.91,977.539,36.133,984.375
1741778445.148,972.656,979.492,3.906,970.215
1741778445.151,940.918,922.363,108.398,957.031
1741778445.155,947.266,988.77,117.676,923.828
1741778445.159,999.512,948.242,113.281,999.512
1741778445.163,-183.594,-436.523,-159.668,63.965
1741778445.167,-1000.0,-1000.0,-219.727,-1000.0
1741778445.171,-943.359,-927.734,144.043,-974.609
1741778445.175,-998.047,-1000.0,105.469,-980.469
1741778445.178,-1000.0,-1000.0,-80.566,-1000.0
1741778445.182,-1000.0,-1000.0,-80.078,-1000.0
1741778445.186,-927.246,-935.547,-67.871,-929.688
1741778445.19,-1000.0,-1000.0,7.812,-1000.0
1741778445.194,-656.738,-412.109,184.57,-712.402
1741778445.151,940.918,922.363,108.398,957.031
1741778445.155,947.266,988.77,117.676,923.828
1741778445.159,999.512,948.242,113.281,999.512
1741778445.163,-183.594,-436.523,-159.668,63.965
1741778445.167,-1000.0,-1000.0,-219.727,-1000.0
1741778445.171,-943.359,-927.734,144.043,-974.609
1741778445.175,-998.047,-1000.0,105.469,-980.469
1741778445.178,-1000.0,-1000.0,-80.566,-1000.0
1741778445.182,-1000.0,-1000.0,-80.078,-1000.0
1741778445.186,-927.246,-935.547,-67.871,-929.688
1741778445.19,-1000.0,-1000.0,7.812,-1000.0
1741778445.194,-656.738,-412.109,184.57,-712.402
1741778445.195,812.5,931.152,269.531,763.672
1741778445.199,999.512,990.234,-8.301,999.512
1741778445.203,904.297,923.34,-97.168,900.879
1741778445.207,983.398,979.004,20.508,984.375
1741778445.211,982.422,983.398,41.016,981.934
1741778445.215,909.668,908.691,51.27,915.527
1741778445.219,999.512,999.512,13.184,999.512
1741778445.222,864.258,851.562,-152.832,904.785
1741778445.226,-586.914,-604.98,-277.344,-520.508
1741778445.23,-1000.0,-1000.0,-112.793,-1000.0
1741778445.234,-925.781,-925.781,41.016,-925.781
1741778445.238,-1000.0,-1000.0,-5.371,-1000.0
1741778445.195,812.5,931.152,269.531,763.672
1741778445.199,999.512,990.234,-8.301,999.512
1741778445.203,904.297,923.34,-97.168,900.879
1741778445.207,983.398,979.004,20.508,984.375
1741778445.211,982.422,983.398,41.016,981.934
1741778445.215,909.668,908.691,51.27,915.527
1741778445.219,999.512,999.512,13.184,999.512
1741778445.222,864.258,851.562,-152.832,904.785
1741778445.226,-586.914,-604.98,-277.344,-520.508
1741778445.23,-1000.0,-1000.0,-112.793,-1000.0
1741778445.234,-925.781,-925.781,41.016,-925.781
1741778445.238,-1000.0,-1000.0,-5.371,-1000.0
1741778445.286,-1000.0,-1000.0,12.695,-1000.0
1741778445.29,-930.664,-935.547,28.32,-932.129
1741778445.294,-998.535,-979.004,0.488,-1000.0
1741778445.298,-961.426,-1000.0,-92.285,-954.102
1741778445.302,-1000.0,-1000.0,-41.016,-1000.0
1741778445.306,-43.457,300.293,240.234,-133.301
1741778445.31,999.512,999.512,244.629,999.512
1741778445.313,932.617,905.762,-49.316,946.777
1741778445.317,967.285,946.289,-171.875,960.938
1741778445.321,908.691,953.613,-52.246,915.039
1741778445.325,999.512,999.512,94.727,999.512
1741778445.329,804.199,-194.824,-66.895,857.91
1741778445.286,-1000.0,-1000.0,12.695,-1000.0
1741778445.29,-930.664,-935.547,28.32,-932.129
1741778445.294,-998.535,-979.004,0.488,-1000.0
1741778445.298,-961.426,-1000.0,-92.285,-954.102
1741778445.302,-1000.0,-1000.0,-41.016,-1000.0
1741778445.306,-43.457,300.293,240.234,-133.301
1741778445.31,999.512,999.512,244.629,999.512
1741778445.313,932.617,905.762,-49.316,946.777
1741778445.317,967.285,946.289,-171.875,960.938
1741778445.321,908.691,953.613,-52.246,915.039
1741778445.325,999.512,999.512,94.727,999.512
1741778445.329,804.199,-194.824,-66.895,857.91
1741778445.331,-657.715,-1000.0,-179.199,-597.656
1741778445.335,-1000.0,-951.172,-101.074,-1000.0
1741778445.339,-936.523,-981.445,-50.781,-935.547
1741778445.343,-949.707,-969.238,18.066,-948.242
1741778445.347,-1000.0,-1000.0,90.82,-1000.0
1741778445.351,-431.641,1.465,264.16,-466.309
1741778445.355,927.734,999.512,225.586,911.621
1741778445.358,991.699,930.176,-141.113,998.535
1741778445.362,921.387,954.102,-25.879,919.434
1741778445.366,979.004,971.191,129.883,980.469
1741778445.37,966.309,967.285,69.336,966.797
1741778445.374,983.398,981.445,-27.832,983.398
1741778445.331,-657.715,-1000.0,-179.199,-597.656
1741778445.335,-1000.0,-951.172,-101.074,-1000.0
1741778445.339,-936.523,-981.445,-50.781,-935.547
1741778445.343,-949.707,-969.238,18.066,-948.242
1741778445.347,-1000.0,-1000.0,90.82,-1000.0
1741778445.351,-431.641,1.465,264.16,-466.309
1741778445.355,927.734,999.512,225.586,911.621
1741778445.358,991.699,930.176,-141.113,998.535
1741778445.362,921.387,954.102,-25.879,919.434
1741778445.366,979.004,971.191,129.883,980.469
1741778445.37,966.309,967.285,69.336,966.797
1741778445.374,983.398,981.445,-27.832,983.398
1741778445.383,904.297,897.461,-78.125,908.203
1741778445.387,999.512,999.512,-20.02,999.512
1741778445.391,807.129,601.562,7.812,847.168
1741778445.395,-660.645,-839.844,-134.766,-611.328
1741778445.399,-1000.0,-1000.0,-154.297,-1000.0
1741778445.403,-927.734,-940.43,-17.09,-925.781
1741778445.407,-1000.0,-1000.0,39.062,-1000.0
1741778445.41,-942.383,-942.383,-113.77,-942.383
1741778445.414,-1000.0,-1000.0,-118.652,-1000.0
1741778445.418,-891.113,-891.113,-17.578,-891.113
1741778445.422,563.965,564.941,94.727,564.453
1741778445.426,999.512,999.512,-86.426,999.512
1741778445.383,904.297,897.461,-78.125,908.203
1741778445.387,999.512,999.512,-20.02,999.512
1741778445.391,807.129,601.562,7.812,847.168
1741778445.395,-660.645,-839.844,-134.766,-611.328
1741778445.399,-1000.0,-1000.0,-154.297,-1000.0
1741778445.403,-927.734,-940.43,-17.09,-925.781
1741778445.407,-1000.0,-1000.0,39.062,-1000.0
1741778445.41,-942.383,-942.383,-113.77,-942.383
1741778445.414,-1000.0,-1000.0,-118.652,-1000.0
1741778445.418,-891.113,-891.113,-17.578,-891.113
1741778445.422,563.965,564.941,94.727,564.453
1741778445.426,999.512,999.512,-86.426,999.512
1741778445.435,831.543,825.684,-103.516,832.031
1741778445.439,999.512,999.512,-96.68,999.512
1741778445.443,833.984,532.715,-185.059,826.66
1741778445.447,-627.93,-872.07,-153.32,-636.23
1741778445.451,-1000.0,-1000.0,-90.82,-1000.0
1741778445.455,-926.27,-945.312,100.586,-926.758
1741778445.459,-1000.0,-1000.0,-24.414,-1000.0
1741778445.462,-942.383,-940.43,-138.184,-955.078
1741778445.466,-1000.0,-1000.0,-11.719,-1000.0
1741778445.47,-891.113,-866.211,64.941,-977.051
1741778445.474,563.965,594.238,185.547,412.598
1741778445.478,999.512,999.512,-4.883,999.512
1741778445.435,831.543,825.684,-103.516,832.031
1741778445.439,999.512,999.512,-96.68,999.512
1741778445.443,833.984,532.715,-185.059,826.66
1741778445.447,-627.93,-872.07,-153.32,-636.23
1741778445.451,-1000.0,-1000.0,-90.82,-1000.0
1741778445.455,-926.27,-945.312,100.586,-926.758
1741778445.459,-1000.0,-1000.0,-24.414,-1000.0
1741778445.462,-942.383,-940.43,-138.184,-955.078
1741778445.466,-1000.0,-1000.0,-11.719,-1000.0
1741778445.47,-891.113,-866.211,64.941,-977.051
1741778445.474,563.965,594.238,185.547,412.598
1741778445.478,999.512,999.512,-4.883,999.512
1741778445.48,892.578,894.043,-140.137,897.461
1741778445.484,986.328,991.211,-23.926,971.191
1741778445.488,903.809,900.391,111.328,920.898
1741778445.492,999.512,999.512,214.355,999.512
1741778445.496,314.941,391.602,-33.203,128.418
1741778445.5,-995.117,-964.355,-105.957,-1000.0
1741778445.504,-1000.0,-1000.0,88.379,-986.816
1741778445.507,-961.914,-956.055,51.27,-975.098
1741778445.511,-1000.0,-1000.0,45.898,-1000.0
1741778445.515,-1000.0,-1000.0,16.113,-1000.0
1741778445.519,-1000.0,-1000.0,4.883,-1000.0
1741778445.523,-1000.0,-1000.0,129.395,-1000.0
1741778445.48,892.578,894.043,-140.137,897.461
1741778445.484,986.328,991.211,-23.926,971.191
1741778445.488,903.809,900.391,111.328,920.898
1741778445.492,999.512,999.512,214.355,999.512
1741778445.496,314.941,391.602,-33.203,128.418
1741778445.5,-995.117,-964.355,-105.957,-1000.0
1741778445.504,-1000.0,-1000.0,88.379,-986.816
1741778445.507,-961.914,-956.055,51.27,-975.098
1741778445.511,-1000.0,-1000.0,45.898,-1000.0
1741778445.515,-1000.0,-1000.0,16.113,-1000.0
1741778445.519,-1000.0,-1000.0,4.883,-1000.0
1741778445.523,-1000.0,-1000.0,129.395,-1000.0
1741778445.525,-1000.0,-1000.0,146.484,-1000.0
1741778445.529,-1000.0,-1000.0,80.566,-1000.0
1741778445.533,-953.125,-945.801,86.914,-980.957
1741778445.537,-1000.0,-1000.0,119.141,-973.145
1741778445.541,-970.215,-918.457,249.512,-1000.0
1741778445.545,447.266,537.598,520.508,72.754
1741778445.549,999.512,999.512,519.043,999.512
1741778445.552,946.777,945.801,173.828,999.512
1741778445.556,869.141,872.559,-67.871,717.285
1741778445.56,-597.656,-597.656,-2.441,-726.562
1741778445.564,-1000.0,-1000.0,242.676,-1000.0
1741778445.568,-925.781,-925.781,157.715,-932.617
1741778445.57,-1000.0,-1000.0,48.828,-1000.0
1741778445.574,-1000.0,-968.262,-64.453,-1000.0
1741778445.578,-933.105,-996.094,72.266,-1000.0
1741778445.582,-1000.0,-1000.0,154.297,-1000.0
1741778445.586,-469.727,235.84,77.148,-1000.0
1741778445.59,909.668,999.512,143.066,-1000.0
1741778445.594,986.816,872.559,-65.43,-1000.0
1741778445.597,879.395,965.82,-177.246,-1000.0
1741778445.601,999.512,999.512,76.172,-1000.0
1741778445.605,16.602,-286.621,-23.438,-1000.0
1741778445.609,-1000.0,-1000.0,-119.629,-1000.0
1741778445.613,-968.262,-936.523,-124.512,-1000.0
1741778445.57,-1000.0,-1000.0,48.828,-1000.0
1741778445.574,-1000.0,-968.262,-64.453,-1000.0
1741778445.578,-933.105,-996.094,72.266,-1000.0
1741778445.582,-1000.0,-1000.0,154.297,-1000.0
1741778445.586,-469.727,235.84,77.148,-1000.0
1741778445.59,909.668,999.512,143.066,-1000.0
1741778445.594,986.816,872.559,-65.43,-1000.0
1741778445.597,879.395,965.82,-177.246,-1000.0
1741778445.601,999.512,999.512,76.172,-1000.0
1741778445.605,16.602,-286.621,-23.438,-1000.0
1741778445.609,-1000.0,-1000.0,-119.629,-1000.0
1741778445.613,-968.262,-936.523,-124.512,-1000.0
1741778445.616,-984.375,-1000.0,-118.652,-1000.0
1741778445.62,-1000.0,-1000.0,-11.23,-1000.0
1741778445.624,-994.629,-965.332,-14.16,-1000.0
1741778445.628,-951.172,-1000.0,-29.785,-1000.0
1741778445.632,-1000.0,-1000.0,-119.141,-1000.0
1741778445.636,-166.992,282.715,-10.254,-1000.0
1741778445.64,999.512,999.512,79.102,-1000.0
1741778445.643,950.684,902.832,-84.961,-1000.0
1741778445.647,952.637,979.492,-104.98,-1000.0
1741778445.651,932.617,895.02,-107.91,-1000.0
1741778445.655,978.516,999.512,-35.156,-1000.0
1741778445.659,973.633,912.109,7.324,-1000.0
1741778445.616,-984.375,-1000.0,-118.652,-1000.0
1741778445.62,-1000.0,-1000.0,-11.23,-1000.0
1741778445.624,-994.629,-965.332,-14.16,-1000.0
1741778445.628,-951.172,-1000.0,-29.785,-1000.0
1741778445.632,-1000.0,-1000.0,-119.141,-1000.0
1741778445.636,-166.992,282.715,-10.254,-1000.0
1741778445.64,999.512,999.512,79.102,-1000.0
1741778445.643,950.684,902.832,-84.961,-1000.0
1741778445.647,952.637,979.492,-104.98,-1000.0
1741778445.651,932.617,895.02,-107.91,-1000.0
1741778445.655,978.516,999.512,-35.156,-1000.0
1741778445.659,973.633,912.109,7.324,-1000.0
1741778445.676,-386.23,-510.254,-82.031,-1000.0
1741778445.68,-1000.0,-1000.0,-49.316,-1000.0
1741778445.684,-938.477,-939.453,-35.645,-1000.0
1741778445.688,-974.121,-965.82,-48.828,-1000.0
1741778445.692,-999.512,-1000.0,-29.785,-1000.0
1741778445.696,-1000.0,-964.355,84.961,-1000.0
1741778445.7,280.273,437.988,230.469,-1000.0
1741778445.703,999.512,999.512,-0.488,-1000.0
1741778445.707,898.438,893.555,-131.836,-1000.0
1741778445.711,972.168,979.492,31.25,-1000.0
1741778445.715,977.051,978.027,147.949,-1000.0
1741778445.719,897.949,898.438,182.617,-1000.0
1741778445.676,-386.23,-510.254,-82.031,-1000.0
1741778445.68,-1000.0,-1000.0,-49.316,-1000.0
1741778445.684,-938.477,-939.453,-35.645,-1000.0
1741778445.688,-974.121,-965.82,-48.828,-1000.0
1741778445.692,-999.512,-1000.0,-29.785,-1000.0
1741778445.696,-1000.0,-964.355,84.961,-1000.0
1741778445.7,280.273,437.988,230.469,-1000.0
1741778445.703,999.512,999.512,-0.488,-1000.0
1741778445.707,898.438,893.555,-131.836,-1000.0
1741778445.711,972.168,979.492,31.25,-1000.0
1741778445.715,977.051,978.027,147.949,-1000.0
1741778445.719,897.949,898.438,182.617,-1000.0
1741778445.722,999.512,999.512,87.891,-1000.0
1741778445.726,454.102,452.148,-51.758,-1000.0
1741778445.73,-933.594,-936.523,17.578,-1000.0
1741778445.734,-1000.0,-1000.0,131.836,-1000.0
1741778445.738,-951.172,-951.172,104.004,-1000.0
1741778445.742,-1000.0,-1000.0,102.051,-1000.0
1741778445.746,-1000.0,-1000.0,89.355,-1000.0
1741778445.749,-940.918,-935.547,121.094,-943.848
1741778445.753,-1000.0,-1000.0,106.445,-1000.0
1741778445.757,-875.0,-809.082,104.98,-901.855
1741778445.761,584.961,662.598,306.152,547.363
1741778445.765,999.512,999.512,-10.254,999.512
1741778445.766,892.09,895.996,-136.23,892.578
1741778445.77,999.512,999.512,54.199,996.094
1741778445.774,896.973,898.926,110.352,898.926
1741778445.778,999.512,999.512,146.484,999.512
1741778445.782,714.355,732.422,104.98,579.59
1741778445.786,-765.137,-745.605,221.191,-849.121
1741778445.79,-1000.0,-1000.0,468.262,-1000.0
1741778445.793,-932.129,-931.152,392.578,-941.895
1741778445.797,-1000.0,-1000.0,343.75,-1000.0
1741778445.801,-1000.0,-1000.0,370.605,-1000.0
1741778445.805,-942.383,-936.035,420.41,-951.66
1741778445.809,-1000.0,-1000.0,494.629,-1000.0
1741778445.766,892.09,895.996,-136.23,892.578
1741778445.77,999.512,999.512,54.199,996.094
1741778445.774,896.973,898.926,110.352,898.926
1741778445.778,999.512,999.512,146.484,999.512
1741778445.782,714.355,732.422,104.98,579.59
1741778445.786,-765.137,-745.605,221.191,-849.121
1741778445.79,-1000.0,-1000.0,468.262,-1000.0
1741778445.793,-932.129,-931.152,392.578,-941.895
1741778445.797,-1000.0,-1000.0,343.75,-1000.0
1741778445.801,-1000.0,-1000.0,370.605,-1000.0
1741778445.805,-942.383,-936.035,420.41,-951.66
1741778445.809,-1000.0,-1000.0,494.629,-1000.0
1741778445.81,-891.113,-795.41,480.957,-956.543
1741778445.814,563.965,667.969,561.523,450.684
1741778445.818,999.512,999.512,440.918,999.512
1741778445.822,891.602,896.973,226.562,893.555
1741778445.826,983.887,984.863,256.348,982.422
1741778445.83,965.332,969.238,389.648,958.984
1741778445.834,910.156,907.715,394.531,922.852
1741778445.837,999.512,999.512,239.746,999.512
1741778445.841,218.262,269.043,-16.113,106.445
1741778445.845,-1000.0,-1000.0,-9.766,-1000.0
1741778445.849,-997.07,-1000.0,203.613,-983.398
1741778445.853,-969.238,-965.332,96.68,-977.051
1741778445.81,-891.113,-795.41,480.957,-956.543
1741778445.814,563.965,667.969,561.523,450.684
1741778445.818,999.512,999.512,440.918,999.512
1741778445.822,891.602,896.973,226.562,893.555
1741778445.826,983.887,984.863,256.348,982.422
1741778445.83,965.332,969.238,389.648,958.984
1741778445.834,910.156,907.715,394.531,922.852
1741778445.837,999.512,999.512,239.746,999.512
1741778445.841,218.262,269.043,-16.113,106.445
1741778445.845,-1000.0,-1000.0,-9.766,-1000.0
1741778445.849,-997.07,-1000.0,203.613,-983.398
1741778445.853,-969.238,-965.332,96.68,-977.051
1741778445.855,-1000.0,-1000.0,-2.93,-1000.0
1741778445.859,-977.539,-955.078,-9.766,-988.281
1741778445.863,-977.051,-1000.0,82.52,-960.938
1741778445.867,-1000.0,-978.027,63.965,-1000.0
1741778445.871,112.793,407.715,99.121,-53.711
1741778445.875,999.512,999.512,170.41,999.512
1741778445.879,913.086,894.531,-23.438,935.547
1741778445.882,961.426,977.539,-79.102,950.195
1741778445.886,968.262,967.285,108.398,971.68
1741778445.89,966.797,972.656,168.945,966.797
1741778445.894,980.957,947.266,109.375,984.375
1741778445.898,894.043,941.895,2.441,897.461
1741778445.9,999.512,999.512,145.02,999.512
1741778445.904,553.711,-87.402,189.453,700.684
1741778445.908,-884.766,-1000.0,-0.488,-773.926
1741778445.912,-1000.0,-956.543,-3.906,-1000.0
1741778445.916,-943.359,-937.988,-75.195,-933.105
1741778445.92,-1000.0,-1000.0,-1.465,-1000.0
1741778445.924,-1000.0,-290.039,147.461,-997.559
1741778445.927,-1000.0,999.512,-110.84,-997.07
1741778445.931,-1000.0,915.039,-308.105,-1000.0
1741778445.935,-1000.0,-527.832,-375.977,-1000.0
1741778445.939,-1000.0,-1000.0,-306.641,-1000.0
1741778445.943,-1000.0,-927.246,-200.195,-1000.0
1741778445.9,999.512,999.512,145.02,999.512
1741778445.904,553.711,-87.402,189.453,700.684
1741778445.908,-884.766,-1000.0,-0.488,-773.926
1741778445.912,-1000.0,-956.543,-3.906,-1000.0
1741778445.916,-943.359,-937.988,-75.195,-933.105
1741778445.92,-1000.0,-1000.0,-1.465,-1000.0
1741778445.924,-1000.0,-290.039,147.461,-997.559
1741778445.927,-1000.0,999.512,-110.84,-997.07
1741778445.931,-1000.0,915.039,-308.105,-1000.0
1741778445.935,-1000.0,-527.832,-375.977,-1000.0
1741778445.939,-1000.0,-1000.0,-306.641,-1000.0
1741778445.943,-1000.0,-927.246,-200.195,-1000.0
1741778445.945,-1000.0,-1000.0,-287.109,-1000.0
1741778445.949,-929.199,-937.988,-264.648,-928.711
1741778445.953,-1000.0,-1000.0,-248.047,-1000.0
1741778445.957,-515.137,-377.441,-162.109,-587.402
1741778445.961,892.578,943.359,147.461,850.098
1741778445.965,999.512,984.375,263.672,999.512
1741778445.969,915.039,926.27,229.492,910.156
1741778445.972,980.469,978.516,90.332,982.91
1741778445.976,966.309,966.797,-6.836,966.797
1741778445.98,982.422,982.91,128.906,982.91
1741778445.984,908.691,906.738,336.914,910.645
1741778445.988,999.512,999.512,352.539,999.512
1741778445.945,-1000.0,-1000.0,-287.109,-1000.0
1741778445.949,-929.199,-937.988,-264.648,-928.711
1741778445.953,-1000.0,-1000.0,-248.047,-1000.0
1741778445.957,-515.137,-377.441,-162.109,-587.402
1741778445.961,892.578,943.359,147.461,850.098
1741778445.965,999.512,984.375,263.672,999.512
1741778445.969,915.039,926.27,229.492,910.156
1741778445.972,980.469,978.516,90.332,982.91
1741778445.976,966.309,966.797,-6.836,966.797
1741778445.98,982.422,982.91,128.906,982.91
1741778445.984,908.691,906.738,336.914,910.645
1741778445.988,999.512,999.512,352.539,999.512
1741778445.992,857.422,830.078,94.727,866.699
1741778445.996,-597.656,-630.859,-116.699,-583.496
1741778446.0,-1000.0,-1000.0,164.062,-1000.0
1741778446.004,-925.781,-926.758,229.98,-925.781
1741778446.008,-1000.0,-1000.0,100.586,-1000.0
1741778446.012,-1000.0,-1000.0,76.172,-1000.0
1741778446.016,-1000.0,-1000.0,-160.156,-1000.0
1741778446.019,-942.383,-931.152,-217.773,-942.383
1741778446.023,-1000.0,-1000.0,-165.527,-1000.0
1741778446.027,-891.113,-725.098,-109.375,-891.113
1741778446.031,563.965,745.605,4.395,564.941
1741778446.035,999.512,999.512,-297.363,999.512
1741778445.992,857.422,830.078,94.727,866.699
1741778445.996,-597.656,-630.859,-116.699,-583.496
1741778446.0,-1000.0,-1000.0,164.062,-1000.0
1741778446.004,-925.781,-926.758,229.98,-925.781
1741778446.008,-1000.0,-1000.0,100.586,-1000.0
1741778446.012,-1000.0,-1000.0,76.172,-1000.0
1741778446.016,-1000.0,-1000.0,-160.156,-1000.0
1741778446.019,-942.383,-931.152,-217.773,-942.383
1741778446.023,-1000.0,-1000.0,-165.527,-1000.0
1741778446.027,-891.113,-725.098,-109.375,-891.113
1741778446.031,563.965,745.605,4.395,564.941
1741778446.035,999.512,999.512,-297.363,999.512
1741778446.051,821.289,834.473,-298.828,826.66
1741778446.055,999.512,999.512,-143.555,999.512
1741778446.059,687.988,763.672,-281.738,522.949
1741778446.063,-789.062,-713.867,-377.441,-874.512
1741778446.067,-1000.0,-1000.0,-355.469,-1000.0
1741778446.071,-933.594,-929.199,-281.25,-946.289
1741778446.075,-1000.0,-1000.0,-114.746,-1000.0
1741778446.078,-1000.0,-1000.0,-95.703,-1000.0
1741778446.082,-1000.0,-999.023,39.062,-1000.0
1741778446.086,-928.223,-946.289,-20.996,-941.895
1741778446.09,-1000.0,-1000.0,-120.117,-1000.0
1741778446.094,-678.711,-255.371,113.77,-884.766
1741778446.051,821.289,834.473,-298.828,826.66
1741778446.055,999.512,999.512,-143.555,999.512
1741778446.059,687.988,763.672,-281.738,522.949
1741778446.063,-789.062,-713.867,-377.441,-874.512
1741778446.067,-1000.0,-1000.0,-355.469,-1000.0
1741778446.071,-933.594,-929.199,-281.25,-946.289
1741778446.075,-1000.0,-1000.0,-114.746,-1000.0
1741778446.078,-1000.0,-1000.0,-95.703,-1000.0
1741778446.082,-1000.0,-999.023,39.062,-1000.0
1741778446.086,-928.223,-946.289,-20.996,-941.895
1741778446.09,-1000.0,-1000.0,-120.117,-1000.0
1741778446.094,-678.711,-255.371,113.77,-884.766
1741778446.096,792.48,983.398,275.391,572.266
1741778446.1,999.512,966.309,152.344,999.512
1741778446.104,902.832,935.547,71.777,892.578
1741778446.108,983.398,976.074,125.0,982.91
1741778446.112,966.309,966.797,187.988,967.285
1741778446.116,966.309,966.797,201.172,966.797
1741778446.12,966.309,966.797,202.637,966.797
1741778446.123,966.309,966.797,12.207,967.285
1741778446.127,975.098,982.422,-107.422,967.773
1741778446.131,932.617,912.598,146.484,976.074
1741778446.135,963.379,999.512,109.375,901.367
1741778446.139,999.512,885.742,-138.184,999.512
1741778446.096,792.48,983.398,275.391,572.266
1741778446.1,999.512,966.309,152.344,999.512
1741778446.104,902.832,935.547,71.777,892.578
1741778446.108,983.398,976.074,125.0,982.91
1741778446.112,966.309,966.797,187.988,967.285
1741778446.116,966.309,966.797,201.172,966.797
1741778446.12,966.309,966.797,202.637,966.797
1741778446.123,966.309,966.797,12.207,967.285
1741778446.127,975.098,982.422,-107.422,967.773
1741778446.131,932.617,912.598,146.484,976.074
1741778446.135,963.379,999.512,109.375,901.367
1741778446.139,999.512,885.742,-138.184,999.512
1741778446.141,-300.781,-552.734,-298.828,445.312
1741778446.145,-1000.0,-1000.0,-369.141,-930.664
1741778446.149,-939.453,-930.664,-76.66,-1000.0
1741778446.153,-940.43,-951.66,49.316,-915.039
1741778446.157,-1000.0,-1000.0,-103.027,-1000.0
1741778446.161,-382.324,-360.84,-73.242,-78.613
1741778446.165,949.219,959.473,-47.852,999.512
1741778446.168,999.023,979.98,-273.438,960.938
1741778446.172,852.539,873.047,-320.801,877.93
1741778446.176,999.512,999.512,-324.707,999.512
1741778446.18,594.238,248.047,-342.285,696.777
1741778446.184,-862.793,-1000.0,-305.176,-778.809
1741778446.141,-300.781,-552.734,-298.828,445.312
1741778446.145,-1000.0,-1000.0,-369.141,-930.664
1741778446.149,-939.453,-930.664,-76.66,-1000.0
1741778446.153,-940.43,-951.66,49.316,-915.039
1741778446.157,-1000.0,-1000.0,-103.027,-1000.0
1741778446.161,-382.324,-360.84,-73.242,-78.613
1741778446.165,949.219,959.473,-47.852,999.512
1741778446.168,999.023,979.98,-273.438,960.938
1741778446.172,852.539,873.047,-320.801,877.93
1741778446.176,999.512,999.512,-324.707,999.512
1741778446.18,594.238,248.047,-342.285,696.777
1741778446.184,-862.793,-1000.0,-305.176,-778.809
1741778446.141,-300.781,-552.734,-298.828,445.312
1741778446.145,-1000.0,-1000.0,-369.141,-930.664
1741778446.149,-939.453,-930.664,-76.66,-1000.0
1741778446.153,-940.43,-951.66,49.316,-915.039
1741778446.157,-1000.0,-1000.0,-103.027,-1000.0
1741778446.161,-382.324,-360.84,-73.242,-78.613
1741778446.165,949.219,959.473,-47.852,999.512
1741778446.168,999.023,979.98,-273.438,960.938
1741778446.172,852.539,873.047,-320.801,877.93
1741778446.176,999.512,999.512,-324.707,999.512
1741778446.18,594.238,248.047,-342.285,696.777
1741778446.184,-862.793,-1000.0,-305.176,-778.809
1741778446.186,-1000.0,-1000.0,-54.199,-1000.0
1741778446.19,-940.43,-966.309,57.129,-933.594
1741778446.194,-1000.0,-1000.0,-42.48,-1000.0
1741778446.198,-1000.0,-950.195,-136.23,-1000.0
1741778446.202,-1000.0,-1000.0,-106.934,-1000.0
1741778446.206,-1000.0,-933.105,205.566,-1000.0
1741778446.21,-1000.0,424.316,367.188,-1000.0
1741778446.213,-1000.0,999.512,309.082,-1000.0
1741778446.217,-996.094,889.16,325.195,-1000.0
1741778446.221,-948.73,-427.734,356.934,-938.477
1741778446.225,-1000.0,-1000.0,516.602,-1000.0
1741778446.229,-193.359,223.633,675.293,-834.473
1741778446.186,-1000.0,-1000.0,-54.199,-1000.0
1741778446.19,-940.43,-966.309,57.129,-933.594
1741778446.194,-1000.0,-1000.0,-42.48,-1000.0
1741778446.198,-1000.0,-950.195,-136.23,-1000.0
1741778446.202,-1000.0,-1000.0,-106.934,-1000.0
1741778446.206,-1000.0,-933.105,205.566,-1000.0
1741778446.21,-1000.0,424.316,367.188,-1000.0
1741778446.213,-1000.0,999.512,309.082,-1000.0
1741778446.217,-996.094,889.16,325.195,-1000.0
1741778446.221,-948.73,-427.734,356.934,-938.477
1741778446.225,-1000.0,-1000.0,516.602,-1000.0
1741778446.229,-193.359,223.633,675.293,-834.473
1741778446.23,999.512,999.512,680.664,628.418
1741778446.234,954.102,911.621,584.473,999.512
1741778446.238,939.941,964.355,519.043,895.02
1741778446.242,973.633,968.262,530.273,983.398
1741778446.246,966.309,967.285,639.648,967.285
1741778446.25,966.309,966.797,757.324,966.797
1741778446.254,966.309,966.797,699.219,966.797
1741778446.257,966.309,966.797,453.125,966.797
1741778446.261,966.309,967.285,430.664,966.797
1741778446.265,966.309,966.797,513.672,966.797
1741778446.269,966.309,966.797,505.859,966.797
1741778446.273,966.309,966.797,416.016,966.797
1741778446.23,999.512,999.512,680.664,628.418
1741778446.234,954.102,911.621,584.473,999.512
1741778446.238,939.941,964.355,519.043,895.02
1741778446.242,973.633,968.262,530.273,983.398
1741778446.246,966.309,967.285,639.648,967.285
1741778446.25,966.309,966.797,757.324,966.797
1741778446.254,966.309,966.797,699.219,966.797
1741778446.257,966.309,966.797,453.125,966.797
1741778446.261,966.309,967.285,430.664,966.797
1741778446.265,966.309,966.797,513.672,966.797
1741778446.269,966.309,966.797,505.859,966.797
1741778446.273,966.309,966.797,416.016,966.797
1741778446.277,966.309,966.797,305.176,967.285
1741778446.281,966.309,966.797,386.719,966.797
1741778446.285,966.309,966.797,462.891,966.797
1741778446.289,966.309,967.285,364.258,966.797
1741778446.293,966.309,966.797,332.52,966.797
1741778446.297,966.309,966.797,330.566,966.797
1741778446.301,966.309,967.285,191.406,966.797
1741778446.304,966.309,966.797,145.02,966.797
1741778446.308,966.309,966.797,249.023,966.797
1741778446.312,966.309,967.285,272.461,966.797
1741778446.316,966.309,967.285,219.727,966.797
1741778446.32,966.309,966.797,-76.172,967.285
1741778446.277,966.309,966.797,305.176,967.285
1741778446.281,966.309,966.797,386.719,966.797
1741778446.285,966.309,966.797,462.891,966.797
1741778446.289,966.309,967.285,364.258,966.797
1741778446.293,966.309,966.797,332.52,966.797
1741778446.297,966.309,966.797,330.566,966.797
1741778446.301,966.309,967.285,191.406,966.797
1741778446.304,966.309,966.797,145.02,966.797
1741778446.308,966.309,966.797,249.023,966.797
1741778446.312,966.309,967.285,272.461,966.797
1741778446.316,966.309,967.285,219.727,966.797
1741778446.32,966.309,966.797,-76.172,967.285
1741778446.35,966.309,966.797,-35.645,967.285
1741778446.354,966.309,967.285,122.559,967.285
1741778446.358,966.309,966.797,144.043,967.285
1741778446.362,966.309,966.797,160.156,966.797
1741778446.366,966.309,966.797,106.934,966.797
1741778446.37,966.309,966.797,197.266,966.797
1741778446.374,966.309,966.797,240.234,966.797
1741778446.377,966.309,967.285,204.59,967.285
1741778446.381,966.309,966.797,327.637,967.285
1741778446.385,966.309,966.797,385.254,967.285
1741778446.389,966.309,966.797,492.676,966.797
1741778446.393,966.309,966.797,560.059,967.285
1741778446.35,966.309,966.797,-35.645,967.285
1741778446.354,966.309,967.285,122.559,967.285
1741778446.358,966.309,966.797,144.043,967.285
1741778446.362,966.309,966.797,160.156,966.797
1741778446.366,966.309,966.797,106.934,966.797
1741778446.37,966.309,966.797,197.266,966.797
1741778446.374,966.309,966.797,240.234,966.797
1741778446.377,966.309,967.285,204.59,967.285
1741778446.381,966.309,966.797,327.637,967.285
1741778446.385,966.309,966.797,385.254,967.285
1741778446.389,966.309,966.797,492.676,966.797
1741778446.393,966.309,966.797,560.059,967.285
1741778446.35,966.309,966.797,-35.645,967.285
1741778446.354,966.309,967.285,122.559,967.285
1741778446.358,966.309,966.797,144.043,967.285
1741778446.362,966.309,966.797,160.156,966.797
1741778446.366,966.309,966.797,106.934,966.797
1741778446.37,966.309,966.797,197.266,966.797
1741778446.374,966.309,966.797,240.234,966.797
1741778446.377,966.309,967.285,204.59,967.285
1741778446.381,966.309,966.797,327.637,967.285
1741778446.385,966.309,966.797,385.254,967.285
1741778446.389,966.309,966.797,492.676,966.797
1741778446.393,966.309,966.797,560.059,967.285
1741778446.365,966.309,967.285,595.215,967.285
1741778446.369,966.309,966.797,607.91,966.797
1741778446.373,966.309,967.285,562.5,966.797
1741778446.377,966.309,967.285,574.707,966.797
1741778446.381,966.309,966.797,666.504,966.797
1741778446.385,966.309,966.797,889.16,966.797
1741778446.389,966.309,966.797,985.352,966.797
1741778446.392,966.309,966.797,955.566,966.797
1741778446.396,966.309,966.797,968.75,967.285
1741778446.4,966.309,966.797,966.797,966.797
1741778446.404,966.309,967.285,967.285,966.797
1741778446.408,965.82,966.797,966.797,967.285
1741778446.365,966.309,967.285,595.215,967.285
1741778446.369,966.309,966.797,607.91,966.797
1741778446.373,966.309,967.285,562.5,966.797
1741778446.377,966.309,967.285,574.707,966.797
1741778446.381,966.309,966.797,666.504,966.797
1741778446.385,966.309,966.797,889.16,966.797
1741778446.389,966.309,966.797,985.352,966.797
1741778446.392,966.309,966.797,955.566,966.797
1741778446.396,966.309,966.797,968.75,967.285
1741778446.4,966.309,966.797,966.797,966.797
1741778446.404,966.309,967.285,967.285,966.797
1741778446.408,965.82,966.797,966.797,967.285
1741778446.365,966.309,967.285,595.215,967.285
1741778446.369,966.309,966.797,607.91,966.797
1741778446.373,966.309,967.285,562.5,966.797
1741778446.377,966.309,967.285,574.707,966.797
1741778446.381,966.309,966.797,666.504,966.797
1741778446.385,966.309,966.797,889.16,966.797
1741778446.389,966.309,966.797,985.352,966.797
1741778446.392,966.309,966.797,955.566,966.797
1741778446.396,966.309,966.797,968.75,967.285
1741778446.4,966.309,966.797,966.797,966.797
1741778446.404,966.309,967.285,967.285,966.797
1741778446.408,965.82,966.797,966.797,967.285
1741778446.426,966.309,966.797,966.797,966.797
1741778446.43,966.309,967.285,968.262,966.797
1741778446.434,966.309,966.797,962.402,966.797
1741778446.438,973.145,980.957,966.309,966.797
1741778446.442,940.43,916.504,965.332,966.797
1741778446.446,949.219,999.512,783.691,966.797
1741778446.45,999.512,912.598,593.262,966.797
1741778446.453,-192.871,-505.371,456.055,966.797
1741778446.457,-1000.0,-1000.0,377.93,966.797
1741778446.461,-943.359,-926.27,370.605,966.797
1741778446.465,-998.535,-1000.0,195.801,966.797
1741778446.469,-1000.0,-1000.0,151.855,967.285
1741778446.426,966.309,966.797,966.797,966.797
1741778446.43,966.309,967.285,968.262,966.797
1741778446.434,966.309,966.797,962.402,966.797
1741778446.438,973.145,980.957,966.309,966.797
1741778446.442,940.43,916.504,965.332,966.797
1741778446.446,949.219,999.512,783.691,966.797
1741778446.45,999.512,912.598,593.262,966.797
1741778446.453,-192.871,-505.371,456.055,966.797
1741778446.457,-1000.0,-1000.0,377.93,966.797
1741778446.461,-943.359,-926.27,370.605,966.797
1741778446.465,-998.535,-1000.0,195.801,966.797
1741778446.469,-1000.0,-1000.0,151.855,967.285
1741778446.471,-1000.0,-1000.0,237.793,967.285
1741778446.475,-1000.0,-1000.0,243.652,966.797
1741778446.479,-1000.0,-1000.0,267.09,966.797
1741778446.483,-1000.0,-1000.0,153.32,982.422
1741778446.487,-1000.0,-1000.0,82.52,912.109
1741778446.491,-1000.0,-1000.0,268.066,999.512
1741778446.495,-1000.0,-1000.0,236.328,881.348
1741778446.498,-1000.0,-1000.0,-41.504,-560.547
1741778446.502,-1000.0,-1000.0,-137.695,-1000.0
1741778446.506,-1000.0,-1000.0,-63.965,-925.781
1741778446.51,-1000.0,-1000.0,42.969,-1000.0
1741778446.514,-1000.0,-1000.0,123.047,-1000.0
1741778446.471,-1000.0,-1000.0,237.793,967.285
1741778446.475,-1000.0,-1000.0,243.652,966.797
1741778446.479,-1000.0,-1000.0,267.09,966.797
1741778446.483,-1000.0,-1000.0,153.32,982.422
1741778446.487,-1000.0,-1000.0,82.52,912.109
1741778446.491,-1000.0,-1000.0,268.066,999.512
1741778446.495,-1000.0,-1000.0,236.328,881.348
1741778446.498,-1000.0,-1000.0,-41.504,-560.547
1741778446.502,-1000.0,-1000.0,-137.695,-1000.0
1741778446.506,-1000.0,-1000.0,-63.965,-925.781
1741778446.51,-1000.0,-1000.0,42.969,-1000.0
1741778446.514,-1000.0,-1000.0,123.047,-1000.0
1741778446.515,-1000.0,-1000.0,-4.395,-1000.0
1741778446.519,-1000.0,-1000.0,-89.355,-1000.0
1741778446.523,-1000.0,-1000.0,21.484,-1000.0
1741778446.527,-1000.0,-1000.0,142.09,-1000.0
1741778446.531,-1000.0,-1000.0,236.328,-1000.0
1741778446.535,-1000.0,-1000.0,232.91,-1000.0
1741778446.539,-1000.0,-1000.0,145.996,-1000.0
1741778446.542,-1000.0,-1000.0,-89.844,-1000.0
1741778446.546,-1000.0,-1000.0,-56.152,-1000.0
1741778446.55,-1000.0,-1000.0,70.801,-1000.0
1741778446.554,-1000.0,-1000.0,132.812,-1000.0
1741778446.558,-961.426,-945.801,212.891,-1000.0
1741778446.515,-1000.0,-1000.0,-4.395,-1000.0
1741778446.519,-1000.0,-1000.0,-89.355,-1000.0
1741778446.523,-1000.0,-1000.0,21.484,-1000.0
1741778446.527,-1000.0,-1000.0,142.09,-1000.0
1741778446.531,-1000.0,-1000.0,236.328,-1000.0
1741778446.535,-1000.0,-1000.0,232.91,-1000.0
1741778446.539,-1000.0,-1000.0,145.996,-1000.0
1741778446.542,-1000.0,-1000.0,-89.844,-1000.0
1741778446.546,-1000.0,-1000.0,-56.152,-1000.0
1741778446.55,-1000.0,-1000.0,70.801,-1000.0
1741778446.554,-1000.0,-1000.0,132.812,-1000.0
1741778446.558,-961.426,-945.801,212.891,-1000.0
1741778446.561,-1000.0,-1000.0,116.211,-1000.0
1741778446.565,-1000.0,-918.457,72.266,-1000.0
1741778446.569,329.59,521.484,320.312,-1000.0
1741778446.573,999.512,999.512,283.691,-1000.0
1741778446.577,895.996,892.578,156.738,-1000.0
1741778446.581,974.121,981.934,161.133,-1000.0
1741778446.585,966.309,967.285,150.391,-1000.0
1741778446.588,966.309,967.285,197.266,-940.918
1741778446.592,966.309,967.285,137.695,-1000.0
1741778446.596,966.309,967.285,150.879,-874.023
1741778446.6,966.309,966.797,299.316,584.961
1741778446.604,966.309,967.285,100.586,999.512
1741778446.561,-1000.0,-1000.0,116.211,-1000.0
1741778446.565,-1000.0,-918.457,72.266,-1000.0
1741778446.569,329.59,521.484,320.312,-1000.0
1741778446.573,999.512,999.512,283.691,-1000.0
1741778446.577,895.996,892.578,156.738,-1000.0
1741778446.581,974.121,981.934,161.133,-1000.0
1741778446.585,966.309,967.285,150.391,-1000.0
1741778446.588,966.309,967.285,197.266,-940.918
1741778446.592,966.309,967.285,137.695,-1000.0
1741778446.596,966.309,967.285,150.879,-874.023
1741778446.6,966.309,966.797,299.316,584.961
1741778446.604,966.309,967.285,100.586,999.512
1741778446.605,966.309,967.285,88.867,893.066
1741778446.609,966.309,967.285,112.793,983.398
1741778446.613,966.309,967.285,9.277,967.285
1741778446.617,981.934,983.398,-42.48,980.957
1741778446.621,911.133,909.18,-3.418,917.48
1741778446.625,999.512,999.512,111.816,999.512
1741778446.629,877.441,857.91,104.98,918.945
1741778446.632,-566.406,-597.656,-186.035,-496.094
1741778446.636,-1000.0,-1000.0,-265.137,-1000.0
1741778446.64,-925.781,-925.781,-189.941,-926.27
1741778446.644,-1000.0,-1000.0,-55.176,-1000.0
1741778446.648,-1000.0,-1000.0,35.645,-1000.0
1741778446.651,-1000.0,-1000.0,55.664,-1000.0
1741778446.655,-1000.0,-1000.0,28.809,-1000.0
1741778446.659,-1000.0,-1000.0,-85.449,-1000.0
1741778446.663,-929.688,-941.895,-62.5,-945.312
1741778446.667,-1000.0,-1000.0,-8.789,-1000.0
1741778446.671,-719.238,-324.219,152.344,-950.684
1741778446.675,716.309,906.25,250.488,533.691
1741778446.678,999.512,999.512,51.27,999.512
1741778446.682,31.25,167.969,-130.371,-410.156
1741778446.686,-1000.0,-1000.0,-91.797,-1000.0
1741778446.69,-978.516,-994.629,125.0,-934.57
1741778446.694,-978.516,-970.215,15.137,-1000.0
1741778446.651,-1000.0,-1000.0,55.664,-1000.0
1741778446.655,-1000.0,-1000.0,28.809,-1000.0
1741778446.659,-1000.0,-1000.0,-85.449,-1000.0
1741778446.663,-929.688,-941.895,-62.5,-945.312
1741778446.667,-1000.0,-1000.0,-8.789,-1000.0
1741778446.671,-719.238,-324.219,152.344,-950.684
1741778446.675,716.309,906.25,250.488,533.691
1741778446.678,999.512,999.512,51.27,999.512
1741778446.682,31.25,167.969,-130.371,-410.156
1741778446.686,-1000.0,-1000.0,-91.797,-1000.0
1741778446.69,-978.516,-994.629,125.0,-934.57
1741778446.694,-978.516,-970.215,15.137,-1000.0
1741778446.697,-1000.0,-1000.0,-210.449,-1000.0
1741778446.701,-983.887,-969.238,-93.75,-1000.0
1741778446.705,-967.285,-993.164,126.953,-932.129
1741778446.709,-1000.0,-1000.0,52.734,-1000.0
1741778446.713,19.531,229.492,41.504,-495.605
1741778446.717,999.512,999.512,146.484,893.555
1741778446.721,924.805,904.297,-7.324,999.512
1741778446.724,967.285,982.91,-154.785,930.176
1741778446.728,927.246,918.945,-123.047,935.059
1741778446.732,981.934,997.559,7.812,990.234
1741778446.736,965.332,924.805,-61.523,942.871
1741778446.74,-406.738,-484.375,-312.5,-445.312
1741778446.697,-1000.0,-1000.0,-210.449,-1000.0
1741778446.701,-983.887,-969.238,-93.75,-1000.0
1741778446.705,-967.285,-993.164,126.953,-932.129
1741778446.709,-1000.0,-1000.0,52.734,-1000.0
1741778446.713,19.531,229.492,41.504,-495.605
1741778446.717,999.512,999.512,146.484,893.555
1741778446.721,924.805,904.297,-7.324,999.512
1741778446.724,967.285,982.91,-154.785,930.176
1741778446.728,927.246,918.945,-123.047,935.059
1741778446.732,981.934,997.559,7.812,990.234
1741778446.736,965.332,924.805,-61.523,942.871
1741778446.74,-406.738,-484.375,-312.5,-445.312
1741778446.771,-1000.0,-1000.0,-207.52,-1000.0
1741778446.775,-928.223,-926.27,-28.809,-927.734
1741778446.779,-1000.0,-1000.0,26.855,-1000.0
1741778446.783,-1000.0,-954.59,-75.195,-1000.0
1741778446.787,-1000.0,-1000.0,-181.152,-1000.0
1741778446.791,-1000.0,-1000.0,-20.02,-1000.0
1741778446.795,-1000.0,499.512,1.953,-1000.0
1741778446.798,-1000.0,857.91,-222.656,-1000.0
1741778446.802,-1000.0,-812.988,-376.953,-1000.0
1741778446.806,-1000.0,-1000.0,-333.008,-1000.0
1741778446.81,-1000.0,-932.129,-199.707,-1000.0
1741778446.814,-1000.0,-1000.0,-214.844,-1000.0
1741778446.771,-1000.0,-1000.0,-207.52,-1000.0
1741778446.775,-928.223,-926.27,-28.809,-927.734
1741778446.779,-1000.0,-1000.0,26.855,-1000.0
1741778446.783,-1000.0,-954.59,-75.195,-1000.0
1741778446.787,-1000.0,-1000.0,-181.152,-1000.0
1741778446.791,-1000.0,-1000.0,-20.02,-1000.0
1741778446.795,-1000.0,499.512,1.953,-1000.0
1741778446.798,-1000.0,857.91,-222.656,-1000.0
1741778446.802,-1000.0,-812.988,-376.953,-1000.0
1741778446.806,-1000.0,-1000.0,-333.008,-1000.0
1741778446.81,-1000.0,-932.129,-199.707,-1000.0
1741778446.814,-1000.0,-1000.0,-214.844,-1000.0
1741778446.83,-1000.0,-1000.0,-291.992,-1000.0
1741778446.834,-1000.0,-1000.0,-487.305,-1000.0
1741778446.838,-1000.0,-1000.0,-501.465,-1000.0
1741778446.842,-1000.0,-1000.0,-394.043,-1000.0
1741778446.846,-1000.0,-1000.0,-334.961,-1000.0
1741778446.85,-1000.0,-1000.0,-153.809,-1000.0
1741778446.854,-1000.0,-1000.0,-230.469,-1000.0
1741778446.857,-1000.0,-1000.0,-494.141,-1000.0
1741778446.861,-1000.0,-1000.0,-384.277,-1000.0
1741778446.865,-1000.0,-1000.0,-190.918,-1000.0
1741778446.869,-1000.0,-1000.0,-170.898,-1000.0
1741778446.873,-1000.0,-1000.0,-167.48,-1000.0
1741778446.83,-1000.0,-1000.0,-291.992,-1000.0
1741778446.834,-1000.0,-1000.0,-487.305,-1000.0
1741778446.838,-1000.0,-1000.0,-501.465,-1000.0
1741778446.842,-1000.0,-1000.0,-394.043,-1000.0
1741778446.846,-1000.0,-1000.0,-334.961,-1000.0
1741778446.85,-1000.0,-1000.0,-153.809,-1000.0
1741778446.854,-1000.0,-1000.0,-230.469,-1000.0
1741778446.857,-1000.0,-1000.0,-494.141,-1000.0
1741778446.861,-1000.0,-1000.0,-384.277,-1000.0
1741778446.865,-1000.0,-1000.0,-190.918,-1000.0
1741778446.869,-1000.0,-1000.0,-170.898,-1000.0
1741778446.873,-1000.0,-1000.0,-167.48,-1000.0
1741778446.876,-1000.0,-1000.0,-139.16,-1000.0
1741778446.88,-1000.0,-1000.0,-19.043,-1000.0
1741778446.884,-1000.0,-1000.0,-73.242,-1000.0
1741778446.888,-1000.0,-1000.0,-194.824,-1000.0
1741778446.892,-1000.0,-1000.0,-35.645,-1000.0
1741778446.896,-1000.0,-1000.0,164.062,-1000.0
1741778446.9,-1000.0,-1000.0,165.527,-1000.0
1741778446.903,-1000.0,-1000.0,-31.738,-1000.0
1741778446.907,-1000.0,-1000.0,-56.641,-1000.0
1741778446.911,-1000.0,-1000.0,31.738,-1000.0
1741778446.915,-1000.0,-1000.0,99.609,-1000.0
1741778446.919,-1000.0,-1000.0,102.051,-1000.0
1741778446.876,-1000.0,-1000.0,-139.16,-1000.0
1741778446.88,-1000.0,-1000.0,-19.043,-1000.0
1741778446.884,-1000.0,-1000.0,-73.242,-1000.0
1741778446.888,-1000.0,-1000.0,-194.824,-1000.0
1741778446.892,-1000.0,-1000.0,-35.645,-1000.0
1741778446.896,-1000.0,-1000.0,164.062,-1000.0
1741778446.9,-1000.0,-1000.0,165.527,-1000.0
1741778446.903,-1000.0,-1000.0,-31.738,-1000.0
1741778446.907,-1000.0,-1000.0,-56.641,-1000.0
1741778446.911,-1000.0,-1000.0,31.738,-1000.0
1741778446.915,-1000.0,-1000.0,99.609,-1000.0
1741778446.919,-1000.0,-1000.0,102.051,-1000.0
1741778446.921,-996.582,-969.238,-34.18,-1000.0
1741778446.925,-948.73,-993.652,-72.266,-1000.0
1741778446.929,-1000.0,-1000.0,66.406,-1000.0
1741778446.933,-199.707,224.609,213.379,-1000.0
1741778446.937,999.512,999.512,236.816,-1000.0
1741778446.941,966.309,920.41,160.645,-1000.0
1741778446.945,899.902,916.504,52.246,-1000.0
1741778446.948,982.91,999.512,9.277,-1000.0
1741778446.952,980.469,901.367,-25.391,-1000.0
1741778446.956,-372.07,-525.879,-51.758,-1000.0
1741778446.96,-1000.0,-1000.0,5.859,-1000.0
1741778446.964,-903.809,-886.23,39.062,-1000.0
1741778446.921,-996.582,-969.238,-34.18,-1000.0
1741778446.925,-948.73,-993.652,-72.266,-1000.0
1741778446.929,-1000.0,-1000.0,66.406,-1000.0
1741778446.933,-199.707,224.609,213.379,-1000.0
1741778446.937,999.512,999.512,236.816,-1000.0
1741778446.941,966.309,920.41,160.645,-1000.0
1741778446.945,899.902,916.504,52.246,-1000.0
1741778446.948,982.91,999.512,9.277,-1000.0
1741778446.952,980.469,901.367,-25.391,-1000.0
1741778446.956,-372.07,-525.879,-51.758,-1000.0
1741778446.96,-1000.0,-1000.0,5.859,-1000.0
1741778446.964,-903.809,-886.23,39.062,-1000.0
1741778446.965,-990.234,-1000.0,40.527,-1000.0
1741778446.969,-1000.0,-1000.0,60.547,-1000.0
1741778446.973,154.297,343.262,151.367,-1000.0
1741778446.977,999.512,999.512,16.602,-1000.0
1741778446.981,909.668,901.855,-199.219,-1000.0
1741778446.985,976.562,958.984,-46.387,-1000.0
1741778446.989,896.973,935.547,139.16,-1000.0
1741778446.992,999.512,999.512,32.227,-1000.0
1741778446.996,489.746,-20.996,-93.75,-1000.0
1741778447.0,-919.434,-1000.0,-250.977,-1000.0
1741778447.004,-1000.0,-983.887,-85.449,-1000.0
1741778447.008,-890.625,-925.781,-4.395,-1000.0
1741778446.965,-990.234,-1000.0,40.527,-1000.0
1741778446.969,-1000.0,-1000.0,60.547,-1000.0
1741778446.973,154.297,343.262,151.367,-1000.0
1741778446.977,999.512,999.512,16.602,-1000.0
1741778446.981,909.668,901.855,-199.219,-1000.0
1741778446.985,976.562,958.984,-46.387,-1000.0
1741778446.989,896.973,935.547,139.16,-1000.0
1741778446.992,999.512,999.512,32.227,-1000.0
1741778446.996,489.746,-20.996,-93.75,-1000.0
1741778447.0,-919.434,-1000.0,-250.977,-1000.0
1741778447.004,-1000.0,-983.887,-85.449,-1000.0
1741778447.008,-890.625,-925.781,-4.395,-1000.0
1741778447.012,-1000.0,-1000.0,-93.262,-1000.0
1741778447.016,-891.113,-865.234,20.996,-1000.0
1741778447.02,563.965,595.215,-24.902,-1000.0
1741778447.024,999.512,999.512,-108.887,-1000.0
1741778447.028,906.25,883.789,47.363,-1000.0
1741778447.032,910.156,941.895,141.113,-1000.0
1741778447.036,999.512,999.512,104.98,-1000.0
1741778447.039,557.617,72.754,-66.406,-1000.0
1741778447.043,-883.301,-1000.0,-78.125,-1000.0
1741778447.047,-1000.0,-978.516,87.891,-1000.0
1741778447.051,-959.961,-996.582,151.367,-1000.0
1741778447.055,-955.566,-939.453,136.719,-1000.0
1741778447.012,-1000.0,-1000.0,-93.262,-1000.0
1741778447.016,-891.113,-865.234,20.996,-1000.0
1741778447.02,563.965,595.215,-24.902,-1000.0
1741778447.024,999.512,999.512,-108.887,-1000.0
1741778447.028,906.25,883.789,47.363,-1000.0
1741778447.032,910.156,941.895,141.113,-1000.0
1741778447.036,999.512,999.512,104.98,-1000.0
1741778447.039,557.617,72.754,-66.406,-1000.0
1741778447.043,-883.301,-1000.0,-78.125,-1000.0
1741778447.047,-1000.0,-978.516,87.891,-1000.0
1741778447.051,-959.961,-996.582,151.367,-1000.0
1741778447.055,-955.566,-939.453,136.719,-1000.0
1741778447.055,-1000.0,-1000.0,-7.812,-1000.0
1741778447.059,-861.816,-775.391,24.902,-1000.0
1741778447.063,601.562,699.219,269.043,-1000.0
1741778447.067,999.512,999.512,225.586,-1000.0
1741778447.071,908.691,912.598,295.41,-1000.0
1741778447.075,927.246,920.41,268.555,-1000.0
1741778447.079,999.512,999.512,208.496,-1000.0
1741778447.082,875.0,704.59,251.953,-1000.0
1741778447.086,-570.312,-739.258,307.617,-1000.0
1741778447.09,-1000.0,-1000.0,362.793,-1000.0
1741778447.094,-942.383,-950.684,322.754,-1000.0
1741778447.098,-952.637,-958.008,296.387,-942.383
1741778447.055,-1000.0,-1000.0,-7.812,-1000.0
1741778447.059,-861.816,-775.391,24.902,-1000.0
1741778447.063,601.562,699.219,269.043,-1000.0
1741778447.067,999.512,999.512,225.586,-1000.0
1741778447.071,908.691,912.598,295.41,-1000.0
1741778447.075,927.246,920.41,268.555,-1000.0
1741778447.079,999.512,999.512,208.496,-1000.0
1741778447.082,875.0,704.59,251.953,-1000.0
1741778447.086,-570.312,-739.258,307.617,-1000.0
1741778447.09,-1000.0,-1000.0,362.793,-1000.0
1741778447.094,-942.383,-950.684,322.754,-1000.0
1741778447.098,-952.637,-958.008,296.387,-942.383
1741778447.102,-1000.0,-1000.0,339.355,-1000.0
1741778447.106,-832.52,-887.695,372.559,-891.113
1741778447.11,633.789,568.848,643.066,564.453
1741778447.114,999.512,999.512,537.598,999.512
1741778447.118,894.043,892.578,322.754,892.578
1741778447.122,982.91,982.91,577.148,982.91
1741778447.126,966.309,967.285,688.965,967.285
1741778447.129,966.309,966.797,629.883,966.797
1741778447.133,966.309,966.797,576.172,966.797
1741778447.137,966.309,966.797,527.832,966.797
1741778447.141,966.309,966.797,646.484,966.797
1741778447.145,966.309,967.285,760.254,966.797
1741778447.102,-1000.0,-1000.0,339.355,-1000.0
1741778447.106,-832.52,-887.695,372.559,-891.113
1741778447.11,633.789,568.848,643.066,564.453
1741778447.114,999.512,999.512,537.598,999.512
1741778447.118,894.043,892.578,322.754,892.578
1741778447.122,982.91,982.91,577.148,982.91
1741778447.126,966.309,967.285,688.965,967.285
1741778447.129,966.309,966.797,629.883,966.797
1741778447.133,966.309,966.797,576.172,966.797
1741778447.137,966.309,966.797,527.832,966.797
1741778447.141,966.309,966.797,646.484,966.797
1741778447.145,966.309,967.285,760.254,966.797
1741778447.161,966.309,966.797,781.25,966.797
1741778447.165,966.309,966.797,822.266,966.797
1741778447.169,966.309,966.797,671.387,966.797
1741778447.173,966.309,967.285,552.246,967.285
1741778447.177,966.309,970.215,608.398,967.285
1741778447.181,983.398,959.473,754.883,966.797
1741778447.185,897.461,922.363,725.586,966.797
1741778447.188,999.512,999.512,374.023,966.797
1741778447.192,708.008,109.375,297.852,966.797
1741778447.196,-773.926,-1000.0,452.637,967.285
1741778447.2,-1000.0,-911.621,525.391,966.797
1741778447.204,-1000.0,-1000.0,477.051,966.797
1741778447.161,966.309,966.797,781.25,966.797
1741778447.165,966.309,966.797,822.266,966.797
1741778447.169,966.309,966.797,671.387,966.797
1741778447.173,966.309,967.285,552.246,967.285
1741778447.177,966.309,970.215,608.398,967.285
1741778447.181,983.398,959.473,754.883,966.797
1741778447.185,897.461,922.363,725.586,966.797
1741778447.188,999.512,999.512,374.023,966.797
1741778447.192,708.008,109.375,297.852,966.797
1741778447.196,-773.926,-1000.0,452.637,967.285
1741778447.2,-1000.0,-911.621,525.391,966.797
1741778447.204,-1000.0,-1000.0,477.051,966.797
1741778447.206,-492.188,-699.707,409.18,967.285
1741778447.21,895.996,780.762,418.945,967.285
1741778447.214,999.512,999.512,562.012,967.285
1741778447.218,917.969,902.344,489.746,966.797
1741778447.222,979.492,984.375,305.176,967.285
1741778447.226,966.309,967.285,288.086,967.285
1741778447.23,966.309,967.285,237.305,967.285
1741778447.233,966.309,966.797,231.934,966.797
1741778447.237,966.309,967.285,267.09,966.797
1741778447.241,966.309,967.285,227.539,967.285
1741778447.245,966.309,967.285,115.234,966.797
1741778447.249,966.309,967.285,107.422,966.797
1741778447.206,-492.188,-699.707,409.18,967.285
1741778447.21,895.996,780.762,418.945,967.285
1741778447.214,999.512,999.512,562.012,967.285
1741778447.218,917.969,902.344,489.746,966.797
1741778447.222,979.492,984.375,305.176,967.285
1741778447.226,966.309,967.285,288.086,967.285
1741778447.23,966.309,967.285,237.305,967.285
1741778447.233,966.309,966.797,231.934,966.797
1741778447.237,966.309,967.285,267.09,966.797
1741778447.241,966.309,967.285,227.539,967.285
1741778447.245,966.309,967.285,115.234,966.797
1741778447.249,966.309,967.285,107.422,966.797
1741778447.25,972.656,977.051,172.852,966.797
1741778447.254,941.895,929.688,192.871,966.797
1741778447.258,945.801,972.168,228.027,966.797
1741778447.262,999.512,988.281,30.762,966.797
1741778447.266,-169.922,-342.285,-204.59,966.797
1741778447.27,-1000.0,-1000.0,-86.426,966.797
1741778447.274,-944.824,-931.641,110.84,967.285
1741778447.277,-997.07,-1000.0,-46.875,966.797
1741778447.281,-1000.0,-1000.0,-221.191,966.797
1741778447.285,-950.684,-948.73,-264.648,966.797
1741778447.289,-1000.0,-1000.0,-117.676,967.285
1741778447.293,-952.148,-938.477,-52.734,967.285
1741778447.25,972.656,977.051,172.852,966.797
1741778447.254,941.895,929.688,192.871,966.797
1741778447.258,945.801,972.168,228.027,966.797
1741778447.262,999.512,988.281,30.762,966.797
1741778447.266,-169.922,-342.285,-204.59,966.797
1741778447.27,-1000.0,-1000.0,-86.426,966.797
1741778447.274,-944.824,-931.641,110.84,967.285
1741778447.277,-997.07,-1000.0,-46.875,966.797
1741778447.281,-1000.0,-1000.0,-221.191,966.797
1741778447.285,-950.684,-948.73,-264.648,966.797
1741778447.289,-1000.0,-1000.0,-117.676,967.285
1741778447.293,-952.148,-938.477,-52.734,967.285
1741778447.312,461.426,486.328,-22.461,967.285
1741778447.316,999.512,999.512,-119.141,966.797
1741778447.32,892.09,892.578,-224.121,966.797
1741778447.324,983.398,984.863,-160.645,966.797
1741778447.328,952.148,951.172,-167.969,966.797
1741778447.332,929.688,933.105,-209.473,966.797
1741778447.336,999.512,999.512,-120.117,966.797
1741778447.339,-9.766,-37.598,-362.305,967.285
1741778447.343,-1000.0,-1000.0,-429.688,967.285
1741778447.347,-964.844,-961.426,-308.594,966.797
1741778447.351,-1000.0,-1000.0,-320.312,966.797
1741778447.355,-954.102,-942.383,-403.809,966.797
1741778447.312,461.426,486.328,-22.461,967.285
1741778447.316,999.512,999.512,-119.141,966.797
1741778447.32,892.09,892.578,-224.121,966.797
1741778447.324,983.398,984.863,-160.645,966.797
1741778447.328,952.148,951.172,-167.969,966.797
1741778447.332,929.688,933.105,-209.473,966.797
1741778447.336,999.512,999.512,-120.117,966.797
1741778447.339,-9.766,-37.598,-362.305,967.285
1741778447.343,-1000.0,-1000.0,-429.688,967.285
1741778447.347,-964.844,-961.426,-308.594,966.797
1741778447.351,-1000.0,-1000.0,-320.312,966.797
1741778447.355,-954.102,-942.383,-403.809,966.797
1741778447.34,-1000.0,-1000.0,-634.277,966.797
1741778447.344,-945.801,-842.773,-574.707,967.285
1741778447.348,471.68,621.094,-414.551,966.797
1741778447.352,999.512,999.512,-447.754,967.285
1741778447.356,868.652,870.605,-353.027,979.98
1741778447.36,958.984,962.402,-436.035,897.461
1741778447.364,999.512,999.512,-526.367,999.512
1741778447.367,-158.691,-157.227,-583.984,525.879
1741778447.371,-1000.0,-1000.0,-681.641,-890.137
1741778447.375,-947.754,-947.266,-552.734,-1000.0
1741778447.379,-996.094,-996.094,-545.41,-945.801
1741778447.383,-1000.0,-1000.0,-667.48,-1000.0
1741778447.34,-1000.0,-1000.0,-634.277,966.797
1741778447.344,-945.801,-842.773,-574.707,967.285
1741778447.348,471.68,621.094,-414.551,966.797
1741778447.352,999.512,999.512,-447.754,967.285
1741778447.356,868.652,870.605,-353.027,979.98
1741778447.36,958.984,962.402,-436.035,897.461
1741778447.364,999.512,999.512,-526.367,999.512
1741778447.367,-158.691,-157.227,-583.984,525.879
1741778447.371,-1000.0,-1000.0,-681.641,-890.137
1741778447.375,-947.754,-947.266,-552.734,-1000.0
1741778447.379,-996.094,-996.094,-545.41,-945.801
1741778447.383,-1000.0,-1000.0,-667.48,-1000.0
1741778447.386,-1000.0,-1000.0,-591.309,-1000.0
1741778447.39,-926.758,-938.477,-496.582,-928.711
1741778447.394,-1000.0,-1000.0,-489.258,-1000.0
1741778447.398,-640.625,-361.328,-492.676,-643.066
1741778447.402,824.219,951.172,-480.957,813.477
1741778447.406,999.512,981.445,-348.633,999.512
1741778447.41,905.273,927.734,-315.43,905.762
1741778447.413,982.91,978.027,-448.73,983.398
1741778447.417,966.309,967.285,-523.438,966.797
1741778447.421,981.934,981.934,-515.625,971.68
1741778447.425,911.621,904.297,-399.902,949.707
1741778447.429,999.512,999.512,-317.871,936.523
1741778447.386,-1000.0,-1000.0,-591.309,-1000.0
1741778447.39,-926.758,-938.477,-496.582,-928.711
1741778447.394,-1000.0,-1000.0,-489.258,-1000.0
1741778447.398,-640.625,-361.328,-492.676,-643.066
1741778447.402,824.219,951.172,-480.957,813.477
1741778447.406,999.512,981.445,-348.633,999.512
1741778447.41,905.273,927.734,-315.43,905.762
1741778447.413,982.91,978.027,-448.73,983.398
1741778447.417,966.309,967.285,-523.438,966.797
1741778447.421,981.934,981.934,-515.625,971.68
1741778447.425,911.621,904.297,-399.902,949.707
1741778447.429,999.512,999.512,-317.871,936.523
1741778447.431,882.324,717.285,-342.285,999.512
1741778447.435,-558.105,-722.656,-459.473,-45.41
1741778447.439,-1000.0,-1000.0,-516.113,-1000.0
1741778447.443,-865.723,-870.117,-417.48,-898.926
1741778447.447,-1000.0,-1000.0,-258.301,-1000.0
1741778447.451,-870.117,-823.242,-37.109,-804.199
1741778447.455,591.309,646.973,3.418,664.062
1741778447.458,999.512,999.512,-395.02,999.512
1741778447.462,892.578,895.02,-466.797,896.973
1741778447.466,999.023,999.512,-335.449,999.512
1741778447.47,908.203,899.902,-313.477,911.621
1741778447.474,999.512,999.512,-357.91,999.512
1741778447.431,882.324,717.285,-342.285,999.512
1741778447.435,-558.105,-722.656,-459.473,-45.41
1741778447.439,-1000.0,-1000.0,-516.113,-1000.0
1741778447.443,-865.723,-870.117,-417.48,-898.926
1741778447.447,-1000.0,-1000.0,-258.301,-1000.0
1741778447.451,-870.117,-823.242,-37.109,-804.199
1741778447.455,591.309,646.973,3.418,664.062
1741778447.458,999.512,999.512,-395.02,999.512
1741778447.462,892.578,895.02,-466.797,896.973
1741778447.466,999.023,999.512,-335.449,999.512
1741778447.47,908.203,899.902,-313.477,911.621
1741778447.474,999.512,999.512,-357.91,999.512
1741778447.476,853.027,709.961,-551.27,878.906
1741778447.48,-603.516,-754.395,-611.328,-564.453
1741778447.484,-1000.0,-1000.0,-391.602,-1000.0
1741778447.488,-859.863,-863.77,-302.246,-859.375
1741778447.492,-1000.0,-1000.0,-359.863,-1000.0
1741778447.496,-800.781,-722.656,-300.781,-660.645
1741778447.5,676.27,749.512,-202.637,774.902
1741778447.503,999.512,999.512,-290.527,999.512
1741778447.507,895.02,900.879,-361.816,905.273
1741778447.511,989.258,997.07,-351.074,982.91
1741778447.515,945.801,920.898,-440.918,975.098
1741778447.519,940.43,991.699,-447.266,939.453
1741778447.476,853.027,709.961,-551.27,878.906
1741778447.48,-603.516,-754.395,-611.328,-564.453
1741778447.484,-1000.0,-1000.0,-391.602,-1000.0
1741778447.488,-859.863,-863.77,-302.246,-859.375
1741778447.492,-1000.0,-1000.0,-359.863,-1000.0
1741778447.496,-800.781,-722.656,-300.781,-660.645
1741778447.5,676.27,749.512,-202.637,774.902
1741778447.503,999.512,999.512,-290.527,999.512
1741778447.507,895.02,900.879,-361.816,905.273
1741778447.511,989.258,997.07,-351.074,982.91
1741778447.515,945.801,920.898,-440.918,975.098
1741778447.519,940.43,991.699,-447.266,939.453
1741778447.551,999.512,940.43,-328.125,961.914
1741778447.555,-116.211,-453.125,-347.656,978.027
1741778447.559,-1000.0,-1000.0,-336.426,-189.941
1741778447.563,-910.156,-888.184,-417.969,-1000.0
1741778447.567,-1000.0,-1000.0,-346.68,-999.512
1741778447.571,-1000.0,-1000.0,-98.633,-927.246
1741778447.575,362.305,337.402,28.32,486.328
1741778447.578,999.512,999.512,-124.512,999.512
1741778447.582,894.043,895.996,-352.539,892.578
1741778447.586,975.586,976.074,-365.723,980.469
1741778447.59,982.422,978.516,-170.41,966.797
1741778447.594,909.668,904.297,-48.34,966.797
1741778447.581,999.512,999.512,-1.953,966.797
1741778447.585,865.723,573.73,-77.148,966.797
1741778447.589,-598.145,-840.332,-147.949,966.797
1741778447.593,-1000.0,-1000.0,-82.52,966.797
1741778447.597,-952.148,-977.539,-20.02,966.797
1741778447.601,-985.84,-961.426,20.508,966.797
1741778447.605,429.688,472.168,25.879,967.285
1741778447.608,999.512,999.512,-201.172,966.797
1741778447.612,892.578,892.578,-129.395,966.797
1741778447.616,994.141,996.582,-31.25,967.285
1741778447.62,908.691,908.691,-173.828,966.797
1741778447.624,999.512,999.512,-225.098,966.797
1741778447.625,856.934,848.633,-303.711,966.797
1741778447.629,-597.656,-608.887,-225.098,966.797
1741778447.633,-1000.0,-1000.0,-127.93,966.797
1741778447.637,-916.992,-895.508,-177.246,966.797
1741778447.641,-971.191,-1000.0,-163.086,966.797
1741778447.645,-1000.0,-1000.0,-279.785,966.797
1741778447.649,-110.352,218.75,-162.598,966.797
1741778447.652,999.512,999.512,-50.293,966.797
1741778447.656,941.895,905.762,-61.523,967.285
1741778447.66,945.801,968.262,5.371,966.797
1741778447.664,971.68,967.773,-62.988,966.797
1741778447.668,966.309,966.797,13.184,966.797
1741778447.625,856.934,848.633,-303.711,966.797
1741778447.629,-597.656,-608.887,-225.098,966.797
1741778447.633,-1000.0,-1000.0,-127.93,966.797
1741778447.637,-916.992,-895.508,-177.246,966.797
1741778447.641,-971.191,-1000.0,-163.086,966.797
1741778447.645,-1000.0,-1000.0,-279.785,966.797
1741778447.649,-110.352,218.75,-162.598,966.797
1741778447.652,999.512,999.512,-50.293,966.797
1741778447.656,941.895,905.762,-61.523,967.285
1741778447.66,945.801,968.262,5.371,966.797
1741778447.664,971.68,967.773,-62.988,966.797
1741778447.668,966.309,966.797,13.184,966.797
1741778447.671,966.309,967.285,207.52,966.797
1741778447.675,966.309,967.285,216.309,966.797
1741778447.679,966.309,966.797,144.531,966.797
1741778447.683,966.309,967.285,38.086,967.285
1741778447.687,976.074,980.957,-48.34,966.797
1741778447.691,930.176,917.969,35.645,966.797
1741778447.695,968.75,999.023,144.043,966.797
1741778447.698,997.07,921.387,92.773,966.797
1741778447.702,-331.543,-490.234,-224.121,967.285
1741778447.706,-1000.0,-1000.0,-344.238,966.797
1741778447.71,-946.777,-942.871,-106.934,967.285
1741778447.714,-952.148,-954.59,-55.664,966.797
1741778447.671,966.309,967.285,207.52,966.797
1741778447.675,966.309,967.285,216.309,966.797
1741778447.679,966.309,966.797,144.531,966.797
1741778447.683,966.309,967.285,38.086,967.285
1741778447.687,976.074,980.957,-48.34,966.797
1741778447.691,930.176,917.969,35.645,966.797
1741778447.695,968.75,999.023,144.043,966.797
1741778447.698,997.07,921.387,92.773,966.797
1741778447.702,-331.543,-490.234,-224.121,967.285
1741778447.706,-1000.0,-1000.0,-344.238,966.797
1741778447.71,-946.777,-942.871,-106.934,967.285
1741778447.714,-952.148,-954.59,-55.664,966.797
1741778447.715,-1000.0,-1000.0,-185.059,966.797
1741778447.719,-916.992,-881.836,-247.559,966.797
1741778447.723,523.438,576.172,-197.754,966.797
1741778447.727,999.512,999.512,-176.27,967.285
1741778447.731,878.906,873.047,-107.91,982.422
1741778447.735,941.895,956.055,-34.668,896.973
1741778447.739,999.512,999.512,-162.598,999.512
1741778447.742,18.066,-96.191,-401.855,637.695
1741778447.746,-1000.0,-1000.0,-350.098,-819.824
1741778447.75,-900.879,-892.09,-130.859,-1000.0
1741778447.754,-1000.0,-1000.0,-141.602,-1000.0
1741778447.758,-777.832,-835.938,-255.859,-397.949
1741778447.715,-1000.0,-1000.0,-185.059,966.797
1741778447.719,-916.992,-881.836,-247.559,966.797
1741778447.723,523.438,576.172,-197.754,966.797
1741778447.727,999.512,999.512,-176.27,967.285
1741778447.731,878.906,873.047,-107.91,982.422
1741778447.735,941.895,956.055,-34.668,896.973
1741778447.739,999.512,999.512,-162.598,999.512
1741778447.742,18.066,-96.191,-401.855,637.695
1741778447.746,-1000.0,-1000.0,-350.098,-819.824
1741778447.75,-900.879,-892.09,-130.859,-1000.0
1741778447.754,-1000.0,-1000.0,-141.602,-1000.0
1741778447.758,-777.832,-835.938,-255.859,-397.949
1741778447.79,704.102,638.184,-212.891,917.48
1741778447.794,999.512,999.512,-226.562,989.746
1741778447.798,896.484,894.531,-208.008,925.293
1741778447.802,991.699,996.582,-134.766,980.469
1741778447.806,936.035,922.363,-208.008,967.285
1741778447.81,956.055,988.77,-284.668,910.156
1741778447.814,999.512,946.777,-202.637,999.512
1741778447.817,-251.953,-436.523,-314.453,251.953
1741778447.821,-1000.0,-1000.0,-372.07,-1000.0
1741778447.825,-937.012,-928.223,-210.449,-1000.0
1741778447.829,-1000.0,-1000.0,-277.344,-980.957
1741778447.833,-950.195,-942.871,-185.059,-959.473
1741778447.79,704.102,638.184,-212.891,917.48
1741778447.794,999.512,999.512,-226.562,989.746
1741778447.798,896.484,894.531,-208.008,925.293
1741778447.802,991.699,996.582,-134.766,980.469
1741778447.806,936.035,922.363,-208.008,967.285
1741778447.81,956.055,988.77,-284.668,910.156
1741778447.814,999.512,946.777,-202.637,999.512
1741778447.817,-251.953,-436.523,-314.453,251.953
1741778447.821,-1000.0,-1000.0,-372.07,-1000.0
1741778447.825,-937.012,-928.223,-210.449,-1000.0
1741778447.829,-1000.0,-1000.0,-277.344,-980.957
1741778447.833,-950.195,-942.871,-185.059,-959.473
1741778447.805,-1000.0,-1000.0,-36.621,-1000.0
1741778447.809,-946.777,-893.555,-148.926,-946.777
1741778447.813,474.609,560.059,22.949,471.68
1741778447.817,999.512,999.512,-85.938,999.512
1741778447.821,900.879,905.762,-258.789,901.367
1741778447.825,945.312,935.547,-67.383,947.266
1741778447.829,964.844,994.629,-23.438,962.891
1741778447.832,999.512,931.152,-139.16,999.512
1741778447.836,-309.57,-469.238,-287.109,-290.527
1741778447.84,-1000.0,-1000.0,-193.359,-1000.0
1741778447.844,-932.129,-927.246,141.113,-933.594
1741778447.848,-1000.0,-1000.0,176.758,-1000.0
1741778447.805,-1000.0,-1000.0,-36.621,-1000.0
1741778447.809,-946.777,-893.555,-148.926,-946.777
1741778447.813,474.609,560.059,22.949,471.68
1741778447.817,999.512,999.512,-85.938,999.512
1741778447.821,900.879,905.762,-258.789,901.367
1741778447.825,945.312,935.547,-67.383,947.266
1741778447.829,964.844,994.629,-23.438,962.891
1741778447.832,999.512,931.152,-139.16,999.512
1741778447.836,-309.57,-469.238,-287.109,-290.527
1741778447.84,-1000.0,-1000.0,-193.359,-1000.0
1741778447.844,-932.129,-927.246,141.113,-933.594
1741778447.848,-1000.0,-1000.0,176.758,-1000.0
1741778447.805,-1000.0,-1000.0,-36.621,-1000.0
1741778447.809,-946.777,-893.555,-148.926,-946.777
1741778447.813,474.609,560.059,22.949,471.68
1741778447.817,999.512,999.512,-85.938,999.512
1741778447.821,900.879,905.762,-258.789,901.367
1741778447.825,945.312,935.547,-67.383,947.266
1741778447.829,964.844,994.629,-23.438,962.891
1741778447.832,999.512,931.152,-139.16,999.512
1741778447.836,-309.57,-469.238,-287.109,-290.527
1741778447.84,-1000.0,-1000.0,-193.359,-1000.0
1741778447.844,-932.129,-927.246,141.113,-933.594
1741778447.848,-1000.0,-1000.0,176.758,-1000.0
1741778447.868,-1000.0,-1000.0,94.727,-1000.0
1741778447.872,-1000.0,-1000.0,-78.613,-1000.0
1741778447.876,-1000.0,-1000.0,-82.52,-1000.0
1741778447.88,-944.824,-931.152,0.977,-1000.0
1741778447.884,-1000.0,-1000.0,2.93,-1000.0
1741778447.888,-972.168,-770.02,127.93,-1000.0
1741778447.892,606.934,809.082,79.59,-1000.0
1741778447.895,910.645,937.988,-153.809,-1000.0
1741778447.899,-750.977,-663.086,-150.391,-1000.0
1741778447.903,-1000.0,-1000.0,17.578,-1000.0
1741778447.907,-928.711,-937.012,125.488,-1000.0
1741778447.911,-1000.0,-975.098,89.844,-1000.0
1741778447.868,-1000.0,-1000.0,94.727,-1000.0
1741778447.872,-1000.0,-1000.0,-78.613,-1000.0
1741778447.876,-1000.0,-1000.0,-82.52,-1000.0
1741778447.88,-944.824,-931.152,0.977,-1000.0
1741778447.884,-1000.0,-1000.0,2.93,-1000.0
1741778447.888,-972.168,-770.02,127.93,-1000.0
1741778447.892,606.934,809.082,79.59,-1000.0
1741778447.895,910.645,937.988,-153.809,-1000.0
1741778447.899,-750.977,-663.086,-150.391,-1000.0
1741778447.903,-1000.0,-1000.0,17.578,-1000.0
1741778447.907,-928.711,-937.012,125.488,-1000.0
1741778447.911,-1000.0,-975.098,89.844,-1000.0
1741778447.911,-1000.0,-1000.0,-39.062,-1000.0
1741778447.915,-1000.0,-986.816,40.527,-1000.0
1741778447.919,-1000.0,313.965,206.543,-1000.0
1741778447.923,-1000.0,999.512,137.695,-1000.0
1741778447.927,-1000.0,875.488,48.34,-1000.0
1741778447.931,-1000.0,-432.617,-45.898,-1000.0
1741778447.935,-1000.0,-1000.0,35.645,-1000.0
1741778447.938,-1000.0,-927.734,59.57,-1000.0
1741778447.942,-1000.0,-1000.0,57.129,-1000.0
1741778447.946,-1000.0,-1000.0,4.883,-1000.0
1741778447.95,-1000.0,-1000.0,-70.801,-1000.0
1741778447.954,-1000.0,-1000.0,8.301,-1000.0
1741778447.911,-1000.0,-1000.0,-39.062,-1000.0
1741778447.915,-1000.0,-986.816,40.527,-1000.0
1741778447.919,-1000.0,313.965,206.543,-1000.0
1741778447.923,-1000.0,999.512,137.695,-1000.0
1741778447.927,-1000.0,875.488,48.34,-1000.0
1741778447.931,-1000.0,-432.617,-45.898,-1000.0
1741778447.935,-1000.0,-1000.0,35.645,-1000.0
1741778447.938,-1000.0,-927.734,59.57,-1000.0
1741778447.942,-1000.0,-1000.0,57.129,-1000.0
1741778447.946,-1000.0,-1000.0,4.883,-1000.0
1741778447.95,-1000.0,-1000.0,-70.801,-1000.0
1741778447.954,-1000.0,-1000.0,8.301,-1000.0
1741778447.955,-1000.0,-1000.0,-17.578,-1000.0
1741778447.959,-1000.0,-1000.0,-82.031,-1000.0
1741778447.963,-942.383,-942.383,-55.664,-1000.0
1741778447.967,-1000.0,-1000.0,-190.918,-1000.0
1741778447.971,-891.113,-890.625,-157.227,-1000.0
1741778447.975,563.965,565.43,220.215,-1000.0
1741778447.979,999.512,999.512,252.93,-1000.0
1741778447.982,891.602,892.578,109.375,-1000.0
1741778447.986,982.422,982.91,36.621,-1000.0
1741778447.99,966.309,967.285,83.008,-1000.0
1741778447.994,966.309,967.285,336.426,-1000.0
1741778447.998,983.398,984.375,405.762,-1000.0
1741778447.955,-1000.0,-1000.0,-17.578,-1000.0
1741778447.959,-1000.0,-1000.0,-82.031,-1000.0
1741778447.963,-942.383,-942.383,-55.664,-1000.0
1741778447.967,-1000.0,-1000.0,-190.918,-1000.0
1741778447.971,-891.113,-890.625,-157.227,-1000.0
1741778447.975,563.965,565.43,220.215,-1000.0
1741778447.979,999.512,999.512,252.93,-1000.0
1741778447.982,891.602,892.578,109.375,-1000.0
1741778447.986,982.422,982.91,36.621,-1000.0
1741778447.99,966.309,967.285,83.008,-1000.0
1741778447.994,966.309,967.285,336.426,-1000.0
1741778447.998,983.398,984.375,405.762,-1000.0
1741778448.0,898.926,901.855,312.012,-1000.0
1741778448.004,999.512,999.512,271.484,-1000.0
1741778448.008,713.867,771.973,183.105,-1000.0
1741778448.012,-753.906,-702.637,73.73,-1000.0
1741778448.016,-1000.0,-1000.0,138.672,-1000.0
1741778448.02,-932.617,-929.199,249.512,-1000.0
1741778448.024,-1000.0,-1000.0,193.848,-1000.0
1741778448.027,-942.383,-941.895,7.812,-1000.0
1741778448.031,-1000.0,-1000.0,57.129,-1000.0
1741778448.035,-891.113,-877.93,202.637,-1000.0
1741778448.039,579.102,561.035,307.129,-1000.0
1741778448.043,999.512,999.512,74.219,-1000.0
1741778448.0,898.926,901.855,312.012,-1000.0
1741778448.004,999.512,999.512,271.484,-1000.0
1741778448.008,713.867,771.973,183.105,-1000.0
1741778448.012,-753.906,-702.637,73.73,-1000.0
1741778448.016,-1000.0,-1000.0,138.672,-1000.0
1741778448.02,-932.617,-929.199,249.512,-1000.0
1741778448.024,-1000.0,-1000.0,193.848,-1000.0
1741778448.027,-942.383,-941.895,7.812,-1000.0
1741778448.031,-1000.0,-1000.0,57.129,-1000.0
1741778448.035,-891.113,-877.93,202.637,-1000.0
1741778448.039,579.102,561.035,307.129,-1000.0
1741778448.043,999.512,999.512,74.219,-1000.0
1741778448.046,999.512,972.656,-78.125,-1000.0
1741778448.05,614.746,34.668,34.18,-1000.0
1741778448.054,-860.84,-1000.0,117.676,-1000.0
1741778448.058,-1000.0,-925.293,152.832,-1000.0
1741778448.062,-922.852,-1000.0,0.977,-1000.0
1741778448.066,-1000.0,-957.031,-43.457,-1000.0
1741778448.07,157.227,461.426,90.332,-1000.0
1741778448.073,999.512,999.512,-30.762,-1000.0
1741778448.077,909.18,893.066,-105.957,-1000.0
1741778448.081,968.262,989.258,-143.555,-1000.0
1741778448.085,955.566,932.617,-267.09,-1000.0
1741778448.089,926.27,966.797,-145.02,-1000.0
1741778448.046,999.512,972.656,-78.125,-1000.0
1741778448.05,614.746,34.668,34.18,-1000.0
1741778448.054,-860.84,-1000.0,117.676,-1000.0
1741778448.058,-1000.0,-925.293,152.832,-1000.0
1741778448.062,-922.852,-1000.0,0.977,-1000.0
1741778448.066,-1000.0,-957.031,-43.457,-1000.0
1741778448.07,157.227,461.426,90.332,-1000.0
1741778448.073,999.512,999.512,-30.762,-1000.0
1741778448.077,909.18,893.066,-105.957,-1000.0
1741778448.081,968.262,989.258,-143.555,-1000.0
1741778448.085,955.566,932.617,-267.09,-1000.0
1741778448.089,926.27,966.797,-145.02,-1000.0
1741778448.093,999.512,999.023,-81.543,-1000.0
1741778448.097,21.973,-304.688,-197.266,-1000.0
1741778448.101,-1000.0,-1000.0,-221.68,-1000.0
1741778448.105,-911.621,-876.953,-259.766,-952.148
1741778448.109,-1000.0,-1000.0,-211.426,-1000.0
1741778448.113,-899.902,-888.184,-124.512,-963.379
1741778448.117,557.129,568.848,35.156,442.871
1741778448.12,999.512,999.512,0.0,999.512
1741778448.124,891.602,892.09,-187.5,893.066
1741778448.128,981.934,982.91,-71.777,979.004
1741778448.132,966.309,967.285,170.898,966.797
1741778448.136,966.309,966.797,188.477,966.797
1741778448.093,999.512,999.023,-81.543,-1000.0
1741778448.097,21.973,-304.688,-197.266,-1000.0
1741778448.101,-1000.0,-1000.0,-221.68,-1000.0
1741778448.105,-911.621,-876.953,-259.766,-952.148
1741778448.109,-1000.0,-1000.0,-211.426,-1000.0
1741778448.113,-899.902,-888.184,-124.512,-963.379
1741778448.117,557.129,568.848,35.156,442.871
1741778448.12,999.512,999.512,0.0,999.512
1741778448.124,891.602,892.09,-187.5,893.066
1741778448.128,981.934,982.91,-71.777,979.004
1741778448.132,966.309,967.285,170.898,966.797
1741778448.136,966.309,966.797,188.477,966.797
1741778448.135,966.309,966.797,108.398,966.797
1741778448.139,966.309,966.797,-54.199,966.797
1741778448.143,966.309,966.797,9.277,966.797
1741778448.147,966.309,971.191,147.461,966.797
1741778448.151,979.98,955.078,85.938,966.797
1741778448.155,895.508,928.223,142.578,967.285
1741778448.159,999.512,999.512,73.73,966.797
1741778448.162,525.879,34.668,-99.609,966.797
1741778448.166,-898.438,-1000.0,-54.199,966.797
1741778448.17,-1000.0,-972.656,52.246,967.285
1741778448.174,-957.031,-997.07,114.258,966.797
1741778448.178,-946.289,-933.594,46.875,966.797
1741778448.135,966.309,966.797,108.398,966.797
1741778448.139,966.309,966.797,-54.199,966.797
1741778448.143,966.309,966.797,9.277,966.797
1741778448.147,966.309,971.191,147.461,966.797
1741778448.151,979.98,955.078,85.938,966.797
1741778448.155,895.508,928.223,142.578,967.285
1741778448.159,999.512,999.512,73.73,966.797
1741778448.162,525.879,34.668,-99.609,966.797
1741778448.166,-898.438,-1000.0,-54.199,966.797
1741778448.17,-1000.0,-972.656,52.246,967.285
1741778448.174,-957.031,-997.07,114.258,966.797
1741778448.178,-946.289,-933.594,46.875,966.797
1741778448.181,-1000.0,-1000.0,-41.504,966.797
1741778448.185,-517.09,-588.379,120.117,966.797
1741778448.189,883.301,851.562,258.789,966.797
1741778448.193,999.512,999.512,61.523,966.797
1741778448.197,915.039,910.156,-86.426,966.797
1741778448.201,984.863,995.117,-53.223,966.797
1741778448.205,951.66,922.852,86.426,966.797
1741778448.208,930.176,987.305,63.965,967.285
1741778448.212,999.512,952.148,-52.246,966.797
1741778448.216,-16.113,-428.223,-202.148,966.797
1741778448.22,-1000.0,-1000.0,-258.789,967.285
1741778448.224,-975.586,-944.824,-101.074,966.797
1741778448.181,-1000.0,-1000.0,-41.504,966.797
1741778448.185,-517.09,-588.379,120.117,966.797
1741778448.189,883.301,851.562,258.789,966.797
1741778448.193,999.512,999.512,61.523,966.797
1741778448.197,915.039,910.156,-86.426,966.797
1741778448.201,984.863,995.117,-53.223,966.797
1741778448.205,951.66,922.852,86.426,966.797
1741778448.208,930.176,987.305,63.965,967.285
1741778448.212,999.512,952.148,-52.246,966.797
1741778448.216,-16.113,-428.223,-202.148,966.797
1741778448.22,-1000.0,-1000.0,-258.789,967.285
1741778448.224,-975.586,-944.824,-101.074,966.797
1741778448.227,-919.922,-939.453,0.977,966.797
1741778448.231,-1000.0,-1000.0,-63.965,966.797
1741778448.235,-550.293,-689.941,-102.539,966.797
1741778448.239,849.609,779.785,-132.324,967.285
1741778448.243,999.512,999.512,-157.227,966.797
1741778448.247,926.27,917.969,-70.312,966.797
1741778448.251,932.129,930.176,-261.23,967.285
1741778448.254,997.07,999.512,-528.809,966.797
1741778448.258,923.828,888.184,-628.418,966.797
1741778448.262,-485.84,-550.293,-708.496,966.797
1741778448.266,-1000.0,-1000.0,-559.082,966.797
1741778448.27,-926.27,-925.781,-474.121,966.797
1741778448.227,-919.922,-939.453,0.977,966.797
1741778448.231,-1000.0,-1000.0,-63.965,966.797
1741778448.235,-550.293,-689.941,-102.539,966.797
1741778448.239,849.609,779.785,-132.324,967.285
1741778448.243,999.512,999.512,-157.227,966.797
1741778448.247,926.27,917.969,-70.312,966.797
1741778448.251,932.129,930.176,-261.23,967.285
1741778448.254,997.07,999.512,-528.809,966.797
1741778448.258,923.828,888.184,-628.418,966.797
1741778448.262,-485.84,-550.293,-708.496,966.797
1741778448.266,-1000.0,-1000.0,-559.082,966.797
1741778448.27,-926.27,-925.781,-474.121,966.797
1741778448.286,-1000.0,-1000.0,-528.809,966.797
1741778448.29,-1000.0,-1000.0,-580.078,966.797
1741778448.294,-953.125,-952.148,-562.012,966.797
1741778448.298,-1000.0,-1000.0,-505.371,966.797
1741778448.302,-967.773,-961.426,-490.723,966.797
1741778448.306,434.57,446.777,-346.191,966.797
1741778448.31,999.512,999.512,-449.707,966.797
1741778448.313,892.578,893.066,-691.895,966.797
1741778448.317,994.141,995.605,-593.262,970.215
1741778448.321,910.645,908.691,-469.727,959.473
1741778448.325,999.512,999.512,-349.609,922.363
1741778448.329,872.07,851.562,-409.668,999.512
1741778448.286,-1000.0,-1000.0,-528.809,966.797
1741778448.29,-1000.0,-1000.0,-580.078,966.797
1741778448.294,-953.125,-952.148,-562.012,966.797
1741778448.298,-1000.0,-1000.0,-505.371,966.797
1741778448.302,-967.773,-961.426,-490.723,966.797
1741778448.306,434.57,446.777,-346.191,966.797
1741778448.31,999.512,999.512,-449.707,966.797
1741778448.313,892.578,893.066,-691.895,966.797
1741778448.317,994.141,995.605,-593.262,970.215
1741778448.321,910.645,908.691,-469.727,959.473
1741778448.325,999.512,999.512,-349.609,922.363
1741778448.329,872.07,851.562,-409.668,999.512
1741778448.331,-580.078,-619.629,-550.781,148.926
1741778448.335,-1000.0,-1000.0,-480.957,-1000.0
1741778448.339,-1000.0,-1000.0,-329.59,-1000.0
1741778448.343,-421.387,-583.008,-256.836,150.879
1741778448.347,937.012,866.699,-309.082,999.512
1741778448.351,987.305,999.512,-433.105,917.48
1741778448.355,936.035,926.27,-355.957,969.727
1741778448.358,933.594,931.152,-375.977,939.453
1741778448.362,987.305,999.512,-349.609,957.031
1741778448.366,950.195,904.297,-377.441,999.512
1741778448.37,-436.523,-520.508,-540.527,-247.559
1741778448.374,-1000.0,-1000.0,-443.359,-1000.0
1741778448.331,-580.078,-619.629,-550.781,148.926
1741778448.335,-1000.0,-1000.0,-480.957,-1000.0
1741778448.339,-1000.0,-1000.0,-329.59,-1000.0
1741778448.343,-421.387,-583.008,-256.836,150.879
1741778448.347,937.012,866.699,-309.082,999.512
1741778448.351,987.305,999.512,-433.105,917.48
1741778448.355,936.035,926.27,-355.957,969.727
1741778448.358,933.594,931.152,-375.977,939.453
1741778448.362,987.305,999.512,-349.609,957.031
1741778448.366,950.195,904.297,-377.441,999.512
1741778448.37,-436.523,-520.508,-540.527,-247.559
1741778448.374,-1000.0,-1000.0,-443.359,-1000.0
1741778448.376,-927.734,-926.27,-339.355,-937.988
1741778448.38,-1000.0,-1000.0,-393.555,-1000.0
1741778448.384,-963.379,-963.867,-443.848,-958.496
1741778448.388,-1000.0,-1000.0,-549.316,-1000.0
1741778448.392,-774.902,-775.391,-357.422,-735.84
1741778448.396,506.348,504.883,8.789,572.754
1741778448.4,999.512,999.512,-8.789,999.512
1741778448.403,908.203,909.18,-236.816,908.203
1741778448.407,972.656,973.633,-358.887,975.586
1741778448.411,980.469,983.398,-278.32,979.004
1741778448.415,916.016,909.668,-111.816,923.828
1741778448.419,999.512,999.512,-88.379,985.352
1741778448.422,915.039,862.793,-157.715,958.008
1741778448.426,-503.418,-589.844,-390.137,-419.922
1741778448.43,-1000.0,-1000.0,-325.195,-1000.0
1741778448.434,-925.781,-925.781,-123.047,-927.734
1741778448.438,-1000.0,-1000.0,-182.129,-1000.0
1741778448.442,-1000.0,-1000.0,-59.57,-1000.0
1741778448.446,-1000.0,-1000.0,-172.852,-1000.0
1741778448.449,-1000.0,-1000.0,-354.492,-1000.0
1741778448.453,-1000.0,-1000.0,-208.984,-1000.0
1741778448.457,-1000.0,-1000.0,-74.707,-1000.0
1741778448.461,-1000.0,-1000.0,-96.191,-1000.0
1741778448.465,-936.523,-929.199,-207.031,-941.895
1741778448.422,915.039,862.793,-157.715,958.008
1741778448.426,-503.418,-589.844,-390.137,-419.922
1741778448.43,-1000.0,-1000.0,-325.195,-1000.0
1741778448.434,-925.781,-925.781,-123.047,-927.734
1741778448.438,-1000.0,-1000.0,-182.129,-1000.0
1741778448.442,-1000.0,-1000.0,-59.57,-1000.0
1741778448.446,-1000.0,-1000.0,-172.852,-1000.0
1741778448.449,-1000.0,-1000.0,-354.492,-1000.0
1741778448.453,-1000.0,-1000.0,-208.984,-1000.0
1741778448.457,-1000.0,-1000.0,-74.707,-1000.0
1741778448.461,-1000.0,-1000.0,-96.191,-1000.0
1741778448.465,-936.523,-929.199,-207.031,-941.895
1741778448.465,-1000.0,-1000.0,-217.285,-1000.0
1741778448.469,-825.684,-700.195,-117.188,-883.789
1741778448.473,645.996,772.461,22.949,573.73
1741778448.477,999.512,999.512,-151.855,999.512
1741778448.481,909.668,917.48,-351.074,908.691
1741778448.485,927.246,929.688,-361.328,926.27
1741778448.489,999.512,999.512,-232.422,999.512
1741778448.492,871.094,881.836,-242.188,864.258
1741778448.496,-575.684,-560.059,-515.625,-586.914
1741778448.5,-1000.0,-1000.0,-540.039,-1000.0
1741778448.504,-925.781,-925.781,-381.348,-925.781
1741778448.508,-1000.0,-1000.0,-261.23,-1000.0
1741778448.465,-1000.0,-1000.0,-217.285,-1000.0
1741778448.469,-825.684,-700.195,-117.188,-883.789
1741778448.473,645.996,772.461,22.949,573.73
1741778448.477,999.512,999.512,-151.855,999.512
1741778448.481,909.668,917.48,-351.074,908.691
1741778448.485,927.246,929.688,-361.328,926.27
1741778448.489,999.512,999.512,-232.422,999.512
1741778448.492,871.094,881.836,-242.188,864.258
1741778448.496,-575.684,-560.059,-515.625,-586.914
1741778448.5,-1000.0,-1000.0,-540.039,-1000.0
1741778448.504,-925.781,-925.781,-381.348,-925.781
1741778448.508,-1000.0,-1000.0,-261.23,-1000.0
1741778448.51,-1000.0,-1000.0,-229.004,-1000.0
1741778448.514,-1000.0,-1000.0,-246.094,-1000.0
1741778448.518,-963.379,-950.195,-243.652,-986.328
1741778448.522,-1000.0,-1000.0,-311.035,-963.867
1741778448.526,-1000.0,-948.242,-189.941,-1000.0
1741778448.53,325.684,486.328,108.398,-12.207
1741778448.534,999.512,999.512,12.207,986.328
1741778448.537,976.074,961.426,-306.641,999.512
1741778448.541,770.508,817.871,-448.242,552.734
1741778448.545,-713.379,-665.527,-513.672,-855.957
1741778448.549,-1000.0,-1000.0,-238.281,-1000.0
1741778448.553,-929.199,-927.734,-122.07,-942.871
1741778448.51,-1000.0,-1000.0,-229.004,-1000.0
1741778448.514,-1000.0,-1000.0,-246.094,-1000.0
1741778448.518,-963.379,-950.195,-243.652,-986.328
1741778448.522,-1000.0,-1000.0,-311.035,-963.867
1741778448.526,-1000.0,-948.242,-189.941,-1000.0
1741778448.53,325.684,486.328,108.398,-12.207
1741778448.534,999.512,999.512,12.207,986.328
1741778448.537,976.074,961.426,-306.641,999.512
1741778448.541,770.508,817.871,-448.242,552.734
1741778448.545,-713.379,-665.527,-513.672,-855.957
1741778448.549,-1000.0,-1000.0,-238.281,-1000.0
1741778448.553,-929.199,-927.734,-122.07,-942.871
1741778448.51,-1000.0,-1000.0,-229.004,-1000.0
1741778448.514,-1000.0,-1000.0,-246.094,-1000.0
1741778448.518,-963.379,-950.195,-243.652,-986.328
1741778448.522,-1000.0,-1000.0,-311.035,-963.867
1741778448.526,-1000.0,-948.242,-189.941,-1000.0
1741778448.53,325.684,486.328,108.398,-12.207
1741778448.534,999.512,999.512,12.207,986.328
1741778448.537,976.074,961.426,-306.641,999.512
1741778448.541,770.508,817.871,-448.242,552.734
1741778448.545,-713.379,-665.527,-513.672,-855.957
1741778448.549,-1000.0,-1000.0,-238.281,-1000.0
1741778448.553,-929.199,-927.734,-122.07,-942.871
1741778448.556,-1000.0,-1000.0,-164.062,-1000.0
1741778448.56,-1000.0,-1000.0,-191.406,-1000.0
1741778448.564,-992.676,-974.609,-261.719,-1000.0
1741778448.568,-959.961,-1000.0,-326.66,-938.965
1741778448.572,-1000.0,-833.008,-381.348,-1000.0
1741778448.576,-49.316,372.07,-326.66,-838.379
1741778448.58,999.512,999.512,-359.375,589.844
1741778448.583,890.137,855.957,-584.961,999.512
1741778448.587,999.512,999.512,-635.742,950.684
1741778448.591,181.152,260.742,-730.469,-155.762
1741778448.595,-1000.0,-1000.0,-676.758,-1000.0
1741778448.599,-990.234,-1000.0,-671.875,-949.707
1741778448.556,-1000.0,-1000.0,-164.062,-1000.0
1741778448.56,-1000.0,-1000.0,-191.406,-1000.0
1741778448.564,-992.676,-974.609,-261.719,-1000.0
1741778448.568,-959.961,-1000.0,-326.66,-938.965
1741778448.572,-1000.0,-833.008,-381.348,-1000.0
1741778448.576,-49.316,372.07,-326.66,-838.379
1741778448.58,999.512,999.512,-359.375,589.844
1741778448.583,890.137,855.957,-584.961,999.512
1741778448.587,999.512,999.512,-635.742,950.684
1741778448.591,181.152,260.742,-730.469,-155.762
1741778448.595,-1000.0,-1000.0,-676.758,-1000.0
1741778448.599,-990.234,-1000.0,-671.875,-949.707
1741778448.615,-988.77,-982.422,-841.309,-1000.0
1741778448.619,-949.707,-951.66,-777.344,-943.359
1741778448.623,-1000.0,-1000.0,-725.586,-1000.0
1741778448.627,-886.23,-887.207,-640.137,-874.512
1741778448.631,569.824,569.336,-567.871,584.473
1741778448.635,999.512,999.512,-638.672,999.512
1741778448.639,892.09,892.578,-771.973,892.578
1741778448.642,982.422,982.91,-925.781,982.91
1741778448.646,966.309,967.285,-913.086,967.285
1741778448.65,966.309,967.285,-977.051,966.797
1741778448.654,966.309,967.285,-988.281,966.797
1741778448.658,976.562,981.934,-796.387,971.191
1741778448.615,-988.77,-982.422,-841.309,-1000.0
1741778448.619,-949.707,-951.66,-777.344,-943.359
1741778448.623,-1000.0,-1000.0,-725.586,-1000.0
1741778448.627,-886.23,-887.207,-640.137,-874.512
1741778448.631,569.824,569.336,-567.871,584.473
1741778448.635,999.512,999.512,-638.672,999.512
1741778448.639,892.09,892.578,-771.973,892.578
1741778448.642,982.422,982.91,-925.781,982.91
1741778448.646,966.309,967.285,-913.086,967.285
1741778448.65,966.309,967.285,-977.051,966.797
1741778448.654,966.309,967.285,-988.281,966.797
1741778448.658,976.562,981.934,-796.387,971.191
1741778448.647,928.711,915.527,-649.414,952.637
1741778448.651,971.191,999.512,-633.301,930.664
1741778448.655,990.234,905.273,-853.516,999.512
1741778448.659,-363.77,-532.715,-1000.0,-25.391
1741778448.663,-1000.0,-1000.0,-986.816,-1000.0
1741778448.667,-984.375,-961.426,-884.277,-1000.0
1741778448.671,-898.438,-959.961,-877.93,-850.098
1741778448.674,563.477,473.633,-928.711,591.309
1741778448.678,999.512,999.512,-963.867,999.512
1741778448.682,896.973,905.273,-811.035,893.555
1741778448.686,962.402,934.082,-675.781,999.512
1741778448.69,939.453,991.699,-670.41,904.297
1741778448.647,928.711,915.527,-649.414,952.637
1741778448.651,971.191,999.512,-633.301,930.664
1741778448.655,990.234,905.273,-853.516,999.512
1741778448.659,-363.77,-532.715,-1000.0,-25.391
1741778448.663,-1000.0,-1000.0,-986.816,-1000.0
1741778448.667,-984.375,-961.426,-884.277,-1000.0
1741778448.671,-898.438,-959.961,-877.93,-850.098
1741778448.674,563.477,473.633,-928.711,591.309
1741778448.678,999.512,999.512,-963.867,999.512
1741778448.682,896.973,905.273,-811.035,893.555
1741778448.686,962.402,934.082,-675.781,999.512
1741778448.69,939.453,991.699,-670.41,904.297
1741778448.707,999.512,941.406,-733.398,999.512
1741778448.711,-122.07,-468.75,-913.574,770.996
1741778448.715,-1000.0,-1000.0,-767.09,-628.418
1741778448.719,-1000.0,-991.699,-481.445,-1000.0
1741778448.723,-782.715,-865.723,-508.789,-335.449
1741778448.727,684.082,619.629,-456.543,880.859
1741778448.731,999.512,999.512,-521.973,996.094
1741778448.734,895.508,886.23,-543.457,922.852
1741778448.738,992.188,999.512,-372.07,979.004
1741778448.742,934.57,-244.629,-343.75,983.398
1741778448.746,960.938,-1000.0,-305.176,906.738
1741778448.75,999.512,-941.406,-360.352,999.512
1741778448.707,999.512,941.406,-733.398,999.512
1741778448.711,-122.07,-468.75,-913.574,770.996
1741778448.715,-1000.0,-1000.0,-767.09,-628.418
1741778448.719,-1000.0,-991.699,-481.445,-1000.0
1741778448.723,-782.715,-865.723,-508.789,-335.449
1741778448.727,684.082,619.629,-456.543,880.859
1741778448.731,999.512,999.512,-521.973,996.094
1741778448.734,895.508,886.23,-543.457,922.852
1741778448.738,992.188,999.512,-372.07,979.004
1741778448.742,934.57,-244.629,-343.75,983.398
1741778448.746,960.938,-1000.0,-305.176,906.738
1741778448.75,999.512,-941.406,-360.352,999.512
1741778448.751,-262.207,-1000.0,-427.734,809.082
1741778448.755,-1000.0,-1000.0,-344.238,-648.438
1741778448.759,-956.543,-1000.0,-139.16,-1000.0
1741778448.763,-940.918,-937.988,-91.309,-862.793
1741778448.767,-1000.0,-1000.0,-165.527,-1000.0
1741778448.771,-860.84,-839.844,-60.059,-739.746
1741778448.775,603.027,627.93,98.145,713.867
1741778448.778,999.512,999.512,-173.828,999.512
1741778448.782,892.578,894.531,-348.145,900.391
1741778448.786,982.91,985.352,-300.293,983.398
1741778448.79,982.422,975.098,-206.543,983.398
1741778448.794,908.691,911.133,-87.891,909.18
1741778448.751,-262.207,-1000.0,-427.734,809.082
1741778448.755,-1000.0,-1000.0,-344.238,-648.438
1741778448.759,-956.543,-1000.0,-139.16,-1000.0
1741778448.763,-940.918,-937.988,-91.309,-862.793
1741778448.767,-1000.0,-1000.0,-165.527,-1000.0
1741778448.771,-860.84,-839.844,-60.059,-739.746
1741778448.775,603.027,627.93,98.145,713.867
1741778448.778,999.512,999.512,-173.828,999.512
1741778448.782,892.578,894.531,-348.145,900.391
1741778448.786,982.91,985.352,-300.293,983.398
1741778448.79,982.422,975.098,-206.543,983.398
1741778448.794,908.691,911.133,-87.891,909.18
1741778448.796,999.512,999.512,-114.746,999.512
1741778448.8,857.422,547.363,-273.926,854.98
1741778448.804,-597.656,-811.523,-548.34,-601.074
1741778448.808,-1000.0,-1000.0,-603.027,-1000.0
1741778448.812,-856.934,-873.535,-555.176,-856.445
1741778448.816,-1000.0,-1000.0,-568.848,-1000.0
1741778448.82,-757.324,-599.609,-371.094,-721.68
1741778448.823,722.168,840.332,-314.453,750.0
1741778448.827,999.512,999.512,-419.922,999.512
1741778448.831,897.461,909.668,-508.789,900.879
1741778448.835,983.887,982.91,-451.66,984.375
1741778448.839,966.309,967.285,-389.16,966.797
1741778448.796,999.512,999.512,-114.746,999.512
1741778448.8,857.422,547.363,-273.926,854.98
1741778448.804,-597.656,-811.523,-548.34,-601.074
1741778448.808,-1000.0,-1000.0,-603.027,-1000.0
1741778448.812,-856.934,-873.535,-555.176,-856.445
1741778448.816,-1000.0,-1000.0,-568.848,-1000.0
1741778448.82,-757.324,-599.609,-371.094,-721.68
1741778448.823,722.168,840.332,-314.453,750.0
1741778448.827,999.512,999.512,-419.922,999.512
1741778448.831,897.461,909.668,-508.789,900.879
1741778448.835,983.887,982.91,-451.66,984.375
1741778448.839,966.309,967.285,-389.16,966.797
1741778448.84,966.309,970.215,-465.332,966.797
1741778448.844,983.398,959.961,-495.117,978.027
1741778448.848,895.02,922.363,-369.629,927.734
1741778448.852,999.512,999.512,-407.715,979.004
1741778448.856,671.387,125.977,-440.918,964.844
1741778448.86,-801.758,-1000.0,-521.973,-366.211
1741778448.864,-1000.0,-986.816,-645.02,-1000.0
1741778448.867,-950.195,-991.699,-477.539,-948.73
1741778448.871,-964.355,-949.707,-298.828,-955.078
1741778448.875,-1000.0,-1000.0,-281.25,-1000.0
1741778448.879,-925.781,-889.648,-234.375,-937.5
1741778448.883,509.277,566.406,-255.371,488.281
1741778448.84,966.309,970.215,-465.332,966.797
1741778448.844,983.398,959.961,-495.117,978.027
1741778448.848,895.02,922.363,-369.629,927.734
1741778448.852,999.512,999.512,-407.715,979.004
1741778448.856,671.387,125.977,-440.918,964.844
1741778448.86,-801.758,-1000.0,-521.973,-366.211
1741778448.864,-1000.0,-986.816,-645.02,-1000.0
1741778448.867,-950.195,-991.699,-477.539,-948.73
1741778448.871,-964.355,-949.707,-298.828,-955.078
1741778448.875,-1000.0,-1000.0,-281.25,-1000.0
1741778448.879,-925.781,-889.648,-234.375,-937.5
1741778448.883,509.277,566.406,-255.371,488.281
1741778448.901,999.512,999.512,-283.691,999.512
1741778448.905,891.602,892.09,-276.367,892.578
1741778448.909,980.957,982.91,-310.547,980.469
1741778448.913,966.309,966.797,-348.633,966.797
1741778448.917,969.727,982.422,-447.754,966.797
1741778448.921,956.055,912.598,-327.637,966.797
1741778448.925,924.805,999.512,-210.938,975.098
1741778448.928,999.512,883.789,-314.941,937.5
1741778448.932,62.5,-555.176,-356.445,960.449
1741778448.936,-1000.0,-1000.0,-415.039,994.629
1741778448.94,-971.191,-919.922,-367.188,-201.172
1741778448.944,-930.176,-966.309,-257.324,-1000.0
1741778448.901,999.512,999.512,-283.691,999.512
1741778448.905,891.602,892.09,-276.367,892.578
1741778448.909,980.957,982.91,-310.547,980.469
1741778448.913,966.309,966.797,-348.633,966.797
1741778448.917,969.727,982.422,-447.754,966.797
1741778448.921,956.055,912.598,-327.637,966.797
1741778448.925,924.805,999.512,-210.938,975.098
1741778448.928,999.512,883.789,-314.941,937.5
1741778448.932,62.5,-555.176,-356.445,960.449
1741778448.936,-1000.0,-1000.0,-415.039,994.629
1741778448.94,-971.191,-919.922,-367.188,-201.172
1741778448.944,-930.176,-966.309,-257.324,-1000.0
1741778448.946,-1000.0,-1000.0,-271.484,-1000.0
1741778448.95,-170.898,-153.32,-82.52,97.168
1741778448.954,999.512,999.512,-75.684,999.512
1741778448.958,950.195,948.73,-377.93,919.434
1741778448.962,941.406,943.359,-295.41,959.961
1741778448.966,989.258,989.258,-77.148,977.539
1741778448.97,908.691,903.32,-115.234,937.988
1741778448.973,999.512,999.512,-346.68,957.031
1741778448.977,856.934,738.77,-381.836,999.512
1741778448.981,-598.145,-713.867,-352.051,-222.168
1741778448.985,-1000.0,-1000.0,-248.047,-1000.0
1741778448.989,-936.035,-940.918,-181.641,-956.543
1741778448.946,-1000.0,-1000.0,-271.484,-1000.0
1741778448.95,-170.898,-153.32,-82.52,97.168
1741778448.954,999.512,999.512,-75.684,999.512
1741778448.958,950.195,948.73,-377.93,919.434
1741778448.962,941.406,943.359,-295.41,959.961
1741778448.966,989.258,989.258,-77.148,977.539
1741778448.97,908.691,903.32,-115.234,937.988
1741778448.973,999.512,999.512,-346.68,957.031
1741778448.977,856.934,738.77,-381.836,999.512
1741778448.981,-598.145,-713.867,-352.051,-222.168
1741778448.985,-1000.0,-1000.0,-248.047,-1000.0
1741778448.989,-936.035,-940.918,-181.641,-956.543
1741778448.977,-979.004,-983.398,-324.707,-954.59
1741778448.981,-1000.0,-995.605,-440.918,-1000.0
1741778448.985,-1000.0,-1000.0,-262.695,-981.934
1741778448.989,308.594,258.301,-24.414,399.414
1741778448.993,999.512,999.512,-61.035,999.512
1741778448.997,896.484,910.156,-214.355,895.02
1741778449.001,973.633,934.082,-427.246,977.051
1741778449.004,981.934,973.633,-501.953,971.68
1741778449.008,910.645,982.91,-360.352,950.684
1741778449.012,999.512,-344.238,-312.5,934.57
1741778449.016,875.0,-1000.0,-312.988,999.512
1741778449.02,-569.824,-933.105,-428.711,-31.25
1741778448.977,-979.004,-983.398,-324.707,-954.59
1741778448.981,-1000.0,-995.605,-440.918,-1000.0
1741778448.985,-1000.0,-1000.0,-262.695,-981.934
1741778448.989,308.594,258.301,-24.414,399.414
1741778448.993,999.512,999.512,-61.035,999.512
1741778448.997,896.484,910.156,-214.355,895.02
1741778449.001,973.633,934.082,-427.246,977.051
1741778449.004,981.934,973.633,-501.953,971.68
1741778449.008,910.645,982.91,-360.352,950.684
1741778449.012,999.512,-344.238,-312.5,934.57
1741778449.016,875.0,-1000.0,-312.988,999.512
1741778449.02,-569.824,-933.105,-428.711,-31.25
1741778449.036,-1000.0,-1000.0,-391.113,-1000.0
1741778449.04,-933.105,-1000.0,-192.383,-974.609
1741778449.044,-985.84,-968.262,-61.035,-948.242
1741778449.048,-989.258,-993.652,-177.246,-1000.0
1741778449.052,-1000.0,-1000.0,-323.73,-1000.0
1741778449.056,219.238,245.605,-43.457,331.055
1741778449.06,999.512,999.512,37.109,999.512
1741778449.063,901.367,900.879,-162.109,897.461
1741778449.067,968.75,970.703,-294.434,974.609
1741778449.071,970.215,977.539,-423.828,967.773
1741778449.075,954.102,929.688,-327.637,975.098
1741778449.079,926.758,973.145,-232.422,901.367
1741778449.036,-1000.0,-1000.0,-391.113,-1000.0
1741778449.04,-933.105,-1000.0,-192.383,-974.609
1741778449.044,-985.84,-968.262,-61.035,-948.242
1741778449.048,-989.258,-993.652,-177.246,-1000.0
1741778449.052,-1000.0,-1000.0,-323.73,-1000.0
1741778449.056,219.238,245.605,-43.457,331.055
1741778449.06,999.512,999.512,37.109,999.512
1741778449.063,901.367,900.879,-162.109,897.461
1741778449.067,968.75,970.703,-294.434,974.609
1741778449.071,970.215,977.539,-423.828,967.773
1741778449.075,954.102,929.688,-327.637,975.098
1741778449.079,926.758,973.145,-232.422,901.367
1741778449.081,999.512,986.328,-252.441,999.512
1741778449.085,20.508,-348.633,-372.07,398.926
1741778449.089,-1000.0,-1000.0,-488.281,-957.031
1741778449.093,-968.75,-931.641,-335.938,-1000.0
1741778449.097,-983.887,-1000.0,-197.754,-955.566
1741778449.101,-1000.0,-1000.0,-140.137,-1000.0
1741778449.105,-1000.0,-1000.0,-186.523,-1000.0
1741778449.108,-1000.0,-1000.0,-338.379,-1000.0
1741778449.112,-1000.0,-1000.0,-328.125,-1000.0
1741778449.116,-1000.0,-1000.0,-230.469,-1000.0
1741778449.12,-1000.0,-1000.0,-146.973,-1000.0
1741778449.124,-942.383,-937.5,-106.934,-942.871
1741778449.081,999.512,986.328,-252.441,999.512
1741778449.085,20.508,-348.633,-372.07,398.926
1741778449.089,-1000.0,-1000.0,-488.281,-957.031
1741778449.093,-968.75,-931.641,-335.938,-1000.0
1741778449.097,-983.887,-1000.0,-197.754,-955.566
1741778449.101,-1000.0,-1000.0,-140.137,-1000.0
1741778449.105,-1000.0,-1000.0,-186.523,-1000.0
1741778449.108,-1000.0,-1000.0,-338.379,-1000.0
1741778449.112,-1000.0,-1000.0,-328.125,-1000.0
1741778449.116,-1000.0,-1000.0,-230.469,-1000.0
1741778449.12,-1000.0,-1000.0,-146.973,-1000.0
1741778449.124,-942.383,-937.5,-106.934,-942.871
1741778449.126,-1000.0,-1000.0,-239.746,-1000.0
1741778449.13,-891.113,-832.031,-199.219,-894.531
1741778449.134,563.965,634.766,117.188,559.57
1741778449.138,999.512,999.512,-38.086,999.512
1741778449.142,891.602,895.02,-174.316,892.09
1741778449.146,992.676,998.047,-107.422,992.676
1741778449.15,928.711,917.48,-109.375,930.176
1741778449.153,971.191,999.512,-110.352,971.191
1741778449.157,990.234,916.504,-91.797,992.188
1741778449.161,-350.586,-499.023,-227.539,-340.332
1741778449.165,-1000.0,-1000.0,-312.988,-1000.0
1741778449.169,-930.176,-926.27,-291.016,-931.152
1741778449.126,-1000.0,-1000.0,-239.746,-1000.0
1741778449.13,-891.113,-832.031,-199.219,-894.531
1741778449.134,563.965,634.766,117.188,559.57
1741778449.138,999.512,999.512,-38.086,999.512
1741778449.142,891.602,895.02,-174.316,892.09
1741778449.146,992.676,998.047,-107.422,992.676
1741778449.15,928.711,917.48,-109.375,930.176
1741778449.153,971.191,999.512,-110.352,971.191
1741778449.157,990.234,916.504,-91.797,992.188
1741778449.161,-350.586,-499.023,-227.539,-340.332
1741778449.165,-1000.0,-1000.0,-312.988,-1000.0
1741778449.169,-930.176,-926.27,-291.016,-931.152
1741778449.17,-1000.0,-1000.0,-289.062,-1000.0
1741778449.174,-1000.0,-1000.0,-188.965,-1000.0
1741778449.178,-1000.0,-1000.0,-140.625,-1000.0
1741778449.182,-937.5,-944.336,-179.199,-942.383
1741778449.186,-1000.0,-1000.0,-285.156,-1000.0
1741778449.19,-835.938,-419.922,-162.109,-891.113
1741778449.194,632.324,892.09,27.344,564.453
1741778449.197,999.512,999.512,-133.789,999.512
1741778449.201,893.555,921.875,-247.07,892.09
1741778449.205,982.91,979.98,-295.41,982.91
1741778449.209,966.309,966.797,-200.684,966.797
1741778449.213,966.309,966.797,-56.641,966.797
1741778449.17,-1000.0,-1000.0,-289.062,-1000.0
1741778449.174,-1000.0,-1000.0,-188.965,-1000.0
1741778449.178,-1000.0,-1000.0,-140.625,-1000.0
1741778449.182,-937.5,-944.336,-179.199,-942.383
1741778449.186,-1000.0,-1000.0,-285.156,-1000.0
1741778449.19,-835.938,-419.922,-162.109,-891.113
1741778449.194,632.324,892.09,27.344,564.453
1741778449.197,999.512,999.512,-133.789,999.512
1741778449.201,893.555,921.875,-247.07,892.09
1741778449.205,982.91,979.98,-295.41,982.91
1741778449.209,966.309,966.797,-200.684,966.797
1741778449.213,966.309,966.797,-56.641,966.797
1741778449.218,982.422,983.398,-106.445,981.934
1741778449.222,908.691,907.227,-119.141,914.062
1741778449.226,999.512,999.512,-35.156,999.512
1741778449.23,856.934,837.402,-140.625,895.996
1741778449.234,-597.656,-622.07,-221.191,-535.645
1741778449.238,-1000.0,-1000.0,19.043,-1000.0
1741778449.242,-925.781,-926.27,151.855,-925.781
1741778449.245,-1000.0,-1000.0,-88.379,-1000.0
1741778449.249,-1000.0,-1000.0,-117.676,-1000.0
1741778449.253,-935.547,-935.547,34.668,-934.57
1741778449.257,-1000.0,-1000.0,-45.898,-1000.0
1741778449.261,-812.988,-814.453,-77.637,-774.414
1741778449.218,982.422,983.398,-106.445,981.934
1741778449.222,908.691,907.227,-119.141,914.062
1741778449.226,999.512,999.512,-35.156,999.512
1741778449.23,856.934,837.402,-140.625,895.996
1741778449.234,-597.656,-622.07,-221.191,-535.645
1741778449.238,-1000.0,-1000.0,19.043,-1000.0
1741778449.242,-925.781,-926.27,151.855,-925.781
1741778449.245,-1000.0,-1000.0,-88.379,-1000.0
1741778449.249,-1000.0,-1000.0,-117.676,-1000.0
1741778449.253,-935.547,-935.547,34.668,-934.57
1741778449.257,-1000.0,-1000.0,-45.898,-1000.0
