timestamps,TP9,AF7,AF8,TP10
1742115071.275,-1000.0,-367.676,-152.344,-1000.0
1742115071.279,-366.699,158.691,-98.633,-450.684
1742115071.283,982.422,504.395,74.219,937.012
1742115071.287,974.609,6.836,145.996,991.699
1742115071.291,942.871,-93.75,73.73,934.082
1742115071.295,907.715,-176.27,48.34,916.504
1742115071.299,999.512,-337.402,-36.621,999.512
1742115071.302,630.859,-788.086,-128.418,647.461
1742115071.306,-812.5,-398.926,-33.691,-758.789
1742115071.31,-1000.0,83.008,63.477,-1000.0
1742115071.314,-939.941,-132.324,97.168,-941.895
1742115071.318,-1000.0,-282.227,32.227,-1000.0
1742115071.35,-1000.0,-201.66,45.41,-1000.0
1742115071.354,-958.496,53.711,91.797,-967.773
1742115071.358,-1000.0,-84.473,57.617,-1000.0
1742115071.362,-962.402,-69.824,85.449,-1000.0
1742115071.366,376.465,383.301,24.902,259.277
1742115071.37,999.512,214.355,-15.625,999.512
1742115071.374,908.691,-159.18,58.594,915.039
1742115071.377,941.406,85.938,-8.789,934.082
1742115071.381,962.402,343.262,-83.008,976.074
1742115071.385,998.535,-224.121,-35.645,933.105
1742115071.389,-283.691,-844.238,-50.293,-328.125
1742115071.393,-1000.0,-532.227,-97.656,-1000.0
1742115071.365,-937.5,-154.297,-56.152,-943.848
1742115071.369,-1000.0,-156.738,-20.996,-1000.0
1742115071.373,-950.195,-107.91,-27.344,-964.844
1742115071.377,-1000.0,-334.961,-9.277,-1000.0
1742115071.381,-890.625,-68.848,44.922,-983.398
1742115071.385,491.211,653.809,17.09,309.57
1742115071.389,999.512,191.406,-42.969,999.512
1742115071.392,899.902,-332.031,-9.766,905.762
1742115071.396,991.211,-63.477,17.09,982.422
1742115071.4,905.273,89.844,22.461,912.598
1742115071.404,999.512,-46.387,-15.137,999.512
1742115071.408,744.141,-212.891,-87.891,760.742
1742115071.409,-681.152,-601.074,-65.43,-619.629
1742115071.413,-1000.0,-361.816,-6.348,-1000.0
1742115071.417,-938.477,214.844,16.602,-942.383
1742115071.421,-1000.0,570.312,5.859,-995.117
1742115071.425,-959.473,128.418,40.039,-968.75
1742115071.429,-1000.0,-71.777,66.895,-1000.0
1742115071.433,0.0,614.258,29.785,24.414
1742115071.436,999.512,495.605,39.062,999.512
1742115071.44,921.387,19.043,81.055,927.734
1742115071.444,955.078,79.102,161.621,954.59
1742115071.448,969.238,266.113,191.406,971.191
1742115071.452,903.32,335.938,113.77,905.273
1742115071.409,-681.152,-601.074,-65.43,-619.629
1742115071.413,-1000.0,-361.816,-6.348,-1000.0
1742115071.417,-938.477,214.844,16.602,-942.383
1742115071.421,-1000.0,570.312,5.859,-995.117
1742115071.425,-959.473,128.418,40.039,-968.75
1742115071.429,-1000.0,-71.777,66.895,-1000.0
1742115071.433,0.0,614.258,29.785,24.414
1742115071.436,999.512,495.605,39.062,999.512
1742115071.44,921.387,19.043,81.055,927.734
1742115071.444,955.078,79.102,161.621,954.59
1742115071.448,969.238,266.113,191.406,971.191
1742115071.452,903.32,335.938,113.77,905.273
1742115071.455,999.512,43.945,79.59,999.512
1742115071.459,187.012,-460.938,163.574,201.66
1742115071.463,-1000.0,-472.168,144.043,-1000.0
1742115071.467,-983.887,49.316,131.348,-988.281
1742115071.471,-973.145,-18.555,179.688,-971.68
1742115071.475,-1000.0,294.434,233.887,-1000.0
1742115071.479,-1000.0,493.164,359.863,-1000.0
1742115071.482,-992.676,74.219,355.469,-995.117
1742115071.486,-950.195,-1.465,346.68,-948.242
1742115071.49,-1000.0,83.984,356.445,-1000.0
1742115071.494,-87.891,536.621,307.129,-131.348
1742115071.498,999.512,405.273,309.082,999.512
1742115071.455,999.512,43.945,79.59,999.512
1742115071.459,187.012,-460.938,163.574,201.66
1742115071.463,-1000.0,-472.168,144.043,-1000.0
1742115071.467,-983.887,49.316,131.348,-988.281
1742115071.471,-973.145,-18.555,179.688,-971.68
1742115071.475,-1000.0,294.434,233.887,-1000.0
1742115071.479,-1000.0,493.164,359.863,-1000.0
1742115071.482,-992.676,74.219,355.469,-995.117
1742115071.486,-950.195,-1.465,346.68,-948.242
1742115071.49,-1000.0,83.984,356.445,-1000.0
1742115071.494,-87.891,536.621,307.129,-131.348
1742115071.498,999.512,405.273,309.082,999.512
1742115071.53,938.477,-178.711,254.395,947.266
1742115071.534,922.852,61.523,223.633,916.504
1742115071.538,952.637,96.191,275.879,967.773
1742115071.542,999.512,-206.543,245.605,977.539
1742115071.546,-204.59,-758.789,178.711,-251.465
1742115071.55,-1000.0,58.594,57.617,-1000.0
1742115071.554,-940.918,397.461,-54.688,-945.801
1742115071.557,-999.512,-569.824,-60.059,-998.535
1742115071.561,-1000.0,-300.293,-63.965,-1000.0
1742115071.565,-1000.0,-215.332,-72.754,-1000.0
1742115071.569,-992.188,-202.148,-109.375,-993.164
1742115071.573,-950.684,-294.434,-177.734,-950.684
1742115071.53,938.477,-178.711,254.395,947.266
1742115071.534,922.852,61.523,223.633,916.504
1742115071.538,952.637,96.191,275.879,967.773
1742115071.542,999.512,-206.543,245.605,977.539
1742115071.546,-204.59,-758.789,178.711,-251.465
1742115071.55,-1000.0,58.594,57.617,-1000.0
1742115071.554,-940.918,397.461,-54.688,-945.801
1742115071.557,-999.512,-569.824,-60.059,-998.535
1742115071.561,-1000.0,-300.293,-63.965,-1000.0
1742115071.565,-1000.0,-215.332,-72.754,-1000.0
1742115071.569,-992.188,-202.148,-109.375,-993.164
1742115071.573,-950.684,-294.434,-177.734,-950.684
1742115071.56,-1000.0,-484.863,-182.617,-1000.0
1742115071.564,-79.59,448.242,-179.199,-104.004
1742115071.568,999.512,615.234,-167.48,999.512
1742115071.572,930.664,-390.625,-230.469,937.5
1742115071.576,960.449,-172.852,-286.133,955.566
1742115071.58,925.781,277.344,-192.383,936.523
1742115071.584,992.188,-175.781,-173.828,974.609
1742115071.587,910.156,-712.402,-239.746,945.312
1742115071.591,-438.477,-833.496,-245.605,-329.102
1742115071.595,-1000.0,-403.32,-233.398,-1000.0
1742115071.599,-933.594,-57.129,-116.211,-939.453
1742115071.603,-948.242,-269.043,-75.684,-944.336
1742115071.56,-1000.0,-484.863,-182.617,-1000.0
1742115071.564,-79.59,448.242,-179.199,-104.004
1742115071.568,999.512,615.234,-167.48,999.512
1742115071.572,930.664,-390.625,-230.469,937.5
1742115071.576,960.449,-172.852,-286.133,955.566
1742115071.58,925.781,277.344,-192.383,936.523
1742115071.584,992.188,-175.781,-173.828,974.609
1742115071.587,910.156,-712.402,-239.746,945.312
1742115071.591,-438.477,-833.496,-245.605,-329.102
1742115071.595,-1000.0,-403.32,-233.398,-1000.0
1742115071.599,-933.594,-57.129,-116.211,-939.453
1742115071.603,-948.242,-269.043,-75.684,-944.336
1742115071.56,-1000.0,-484.863,-182.617,-1000.0
1742115071.564,-79.59,448.242,-179.199,-104.004
1742115071.568,999.512,615.234,-167.48,999.512
1742115071.572,930.664,-390.625,-230.469,937.5
1742115071.576,960.449,-172.852,-286.133,955.566
1742115071.58,925.781,277.344,-192.383,936.523
1742115071.584,992.188,-175.781,-173.828,974.609
1742115071.587,910.156,-712.402,-239.746,945.312
1742115071.591,-438.477,-833.496,-245.605,-329.102
1742115071.595,-1000.0,-403.32,-233.398,-1000.0
1742115071.599,-933.594,-57.129,-116.211,-939.453
1742115071.603,-948.242,-269.043,-75.684,-944.336
1742115071.605,-1000.0,-74.219,-142.578,-1000.0
1742115071.609,-189.453,766.113,-132.324,-173.34
1742115071.613,999.512,287.598,-90.82,999.512
1742115071.617,945.312,-264.16,-43.457,944.336
1742115071.621,956.543,-37.109,-32.227,956.543
1742115071.625,901.855,-35.156,33.203,912.109
1742115071.629,999.512,12.207,131.348,999.512
1742115071.632,613.77,-528.32,60.547,717.773
1742115071.636,-829.59,-473.145,-38.574,-689.941
1742115071.64,-1000.0,532.715,-66.895,-1000.0
1742115071.644,-940.918,154.785,-58.594,-938.477
1742115071.648,-1000.0,-268.555,-20.02,-1000.0
1742115071.605,-1000.0,-74.219,-142.578,-1000.0
1742115071.609,-189.453,766.113,-132.324,-173.34
1742115071.613,999.512,287.598,-90.82,999.512
1742115071.617,945.312,-264.16,-43.457,944.336
1742115071.621,956.543,-37.109,-32.227,956.543
1742115071.625,901.855,-35.156,33.203,912.109
1742115071.629,999.512,12.207,131.348,999.512
1742115071.632,613.77,-528.32,60.547,717.773
1742115071.636,-829.59,-473.145,-38.574,-689.941
1742115071.64,-1000.0,532.715,-66.895,-1000.0
1742115071.644,-940.918,154.785,-58.594,-938.477
1742115071.648,-1000.0,-268.555,-20.02,-1000.0
1742115071.649,-1000.0,-152.832,-70.801,-1000.0
1742115071.653,-1000.0,-58.594,-92.773,-1000.0
1742115071.657,-964.355,-0.977,-66.406,-974.121
1742115071.661,-1000.0,-183.594,-67.871,-985.84
1742115071.665,-1000.0,-31.738,-47.363,-1000.0
1742115071.669,300.293,649.902,-17.09,171.875
1742115071.673,999.512,168.945,-24.414,999.512
1742115071.676,903.32,-418.457,-54.688,914.551
1742115071.68,960.938,152.832,-67.871,950.195
1742115071.684,918.945,127.93,-78.125,932.129
1742115071.688,999.512,-183.594,-67.871,999.512
1742115071.692,19.531,-641.113,-63.477,-29.785
1742115071.649,-1000.0,-152.832,-70.801,-1000.0
1742115071.653,-1000.0,-58.594,-92.773,-1000.0
1742115071.657,-964.355,-0.977,-66.406,-974.121
1742115071.661,-1000.0,-183.594,-67.871,-985.84
1742115071.665,-1000.0,-31.738,-47.363,-1000.0
1742115071.669,300.293,649.902,-17.09,171.875
1742115071.673,999.512,168.945,-24.414,999.512
1742115071.676,903.32,-418.457,-54.688,914.551
1742115071.68,960.938,152.832,-67.871,950.195
1742115071.684,918.945,127.93,-78.125,932.129
1742115071.688,999.512,-183.594,-67.871,999.512
1742115071.692,19.531,-641.113,-63.477,-29.785
1742115071.694,-1000.0,-624.512,-104.98,-1000.0
1742115071.698,-961.426,-89.355,-138.184,-962.891
1742115071.702,-985.352,-102.051,-69.336,-986.328
1742115071.706,-1000.0,-130.371,-56.152,-1000.0
1742115071.71,-1000.0,37.598,-74.707,-1000.0
1742115071.714,-996.094,222.656,30.762,-1000.0
1742115071.718,-944.824,-234.375,-3.906,-937.988
1742115071.721,-1000.0,-248.047,-152.832,-1000.0
1742115071.725,-144.531,749.023,-114.746,-214.355
1742115071.729,999.512,265.137,-55.176,999.512
1742115071.733,939.453,-411.133,-72.754,949.707
1742115071.737,944.824,94.238,-34.668,939.941
1742115071.694,-1000.0,-624.512,-104.98,-1000.0
1742115071.698,-961.426,-89.355,-138.184,-962.891
1742115071.702,-985.352,-102.051,-69.336,-986.328
1742115071.706,-1000.0,-130.371,-56.152,-1000.0
1742115071.71,-1000.0,37.598,-74.707,-1000.0
1742115071.714,-996.094,222.656,30.762,-1000.0
1742115071.718,-944.824,-234.375,-3.906,-937.988
1742115071.721,-1000.0,-248.047,-152.832,-1000.0
1742115071.725,-144.531,749.023,-114.746,-214.355
1742115071.729,999.512,265.137,-55.176,999.512
1742115071.733,939.453,-411.133,-72.754,949.707
1742115071.737,944.824,94.238,-34.668,939.941
1742115071.739,985.84,106.445,-34.18,984.863
1742115071.743,906.25,-218.262,-59.082,912.598
1742115071.747,999.512,-145.996,-56.152,999.512
1742115071.751,760.254,-163.086,-8.301,742.676
1742115071.755,-661.133,-653.32,-30.273,-629.883
1742115071.759,-1000.0,-352.051,-97.656,-1000.0
1742115071.763,-935.059,-38.574,-64.453,-939.941
1742115071.766,-1000.0,-115.723,-83.496,-1000.0
1742115071.77,-1000.0,-217.773,-102.051,-1000.0
1742115071.774,-937.5,-254.395,-144.531,-936.523
1742115071.778,-1000.0,-280.273,-148.438,-1000.0
1742115071.782,-220.703,271.973,-40.039,-234.375
1742115071.739,985.84,106.445,-34.18,984.863
1742115071.743,906.25,-218.262,-59.082,912.598
1742115071.747,999.512,-145.996,-56.152,999.512
1742115071.751,760.254,-163.086,-8.301,742.676
1742115071.755,-661.133,-653.32,-30.273,-629.883
1742115071.759,-1000.0,-352.051,-97.656,-1000.0
1742115071.763,-935.059,-38.574,-64.453,-939.941
1742115071.766,-1000.0,-115.723,-83.496,-1000.0
1742115071.77,-1000.0,-217.773,-102.051,-1000.0
1742115071.774,-937.5,-254.395,-144.531,-936.523
1742115071.778,-1000.0,-280.273,-148.438,-1000.0
1742115071.782,-220.703,271.973,-40.039,-234.375
1742115071.786,999.512,452.148,-38.086,999.512
1742115071.79,949.707,-147.949,-41.992,952.637
1742115071.794,938.965,301.758,-3.418,938.477
1742115071.798,972.656,6.836,-52.734,973.633
1742115071.802,973.633,-417.48,-58.594,976.074
1742115071.806,895.996,-196.777,-41.992,895.508
1742115071.81,999.512,323.242,-59.082,999.512
1742115071.813,327.637,27.832,-43.457,377.441
1742115071.817,-1000.0,-811.523,-36.133,-991.699
1742115071.821,-1000.0,-341.309,18.066,-1000.0
1742115071.825,-961.914,-180.664,39.551,-957.52
1742115071.829,-1000.0,-292.969,-7.812,-1000.0
1742115071.829,-1000.0,-251.465,-28.32,-1000.0
1742115071.833,-1000.0,-193.359,-47.363,-1000.0
1742115071.837,-926.27,154.785,5.371,-937.012
1742115071.841,-1000.0,-63.477,43.945,-1000.0
1742115071.845,-557.617,-55.176,63.477,-724.121
1742115071.849,877.93,590.82,143.555,694.824
1742115071.853,999.512,823.242,162.598,999.512
1742115071.856,912.109,239.746,189.453,905.273
1742115071.86,995.605,-535.156,201.66,992.676
1742115071.864,891.602,-227.539,179.199,896.484
1742115071.868,999.512,-18.066,206.543,999.512
1742115071.872,506.836,-405.273,207.031,494.629
1742115071.829,-1000.0,-251.465,-28.32,-1000.0
1742115071.833,-1000.0,-193.359,-47.363,-1000.0
1742115071.837,-926.27,154.785,5.371,-937.012
1742115071.841,-1000.0,-63.477,43.945,-1000.0
1742115071.845,-557.617,-55.176,63.477,-724.121
1742115071.849,877.93,590.82,143.555,694.824
1742115071.853,999.512,823.242,162.598,999.512
1742115071.856,912.109,239.746,189.453,905.273
1742115071.86,995.605,-535.156,201.66,992.676
1742115071.864,891.602,-227.539,179.199,896.484
1742115071.868,999.512,-18.066,206.543,999.512
1742115071.872,506.836,-405.273,207.031,494.629
1742115071.874,-925.781,-763.672,149.414,-909.668
1742115071.878,-1000.0,-253.906,61.035,-1000.0
1742115071.882,-947.266,-257.324,-41.504,-949.219
1742115071.886,-1000.0,-306.641,-54.199,-1000.0
1742115071.89,-1000.0,-170.41,-7.324,-1000.0
1742115071.894,-1000.0,34.668,15.137,-1000.0
1742115071.898,-937.5,125.0,88.867,-930.664
1742115071.901,-1000.0,-216.797,157.715,-1000.0
1742115071.905,-220.703,135.254,152.344,-353.516
1742115071.909,999.512,839.844,125.488,985.84
1742115071.913,949.707,784.668,169.434,973.633
1742115071.917,938.965,62.988,235.84,929.688
1742115071.874,-925.781,-763.672,149.414,-909.668
1742115071.878,-1000.0,-253.906,61.035,-1000.0
1742115071.882,-947.266,-257.324,-41.504,-949.219
1742115071.886,-1000.0,-306.641,-54.199,-1000.0
1742115071.89,-1000.0,-170.41,-7.324,-1000.0
1742115071.894,-1000.0,34.668,15.137,-1000.0
1742115071.898,-937.5,125.0,88.867,-930.664
1742115071.901,-1000.0,-216.797,157.715,-1000.0
1742115071.905,-220.703,135.254,152.344,-353.516
1742115071.909,999.512,839.844,125.488,985.84
1742115071.913,949.707,784.668,169.434,973.633
1742115071.917,938.965,62.988,235.84,929.688
1742115071.934,973.633,-270.02,208.008,976.074
1742115071.938,903.32,-187.988,141.113,907.715
1742115071.942,999.512,-80.566,130.371,999.512
1742115071.946,187.012,-647.949,113.281,152.832
1742115071.95,-1000.0,-493.164,155.273,-1000.0
1742115071.954,-983.887,332.031,60.059,-979.98
1742115071.958,-973.145,-239.258,-100.586,-975.586
1742115071.961,-1000.0,-647.461,-141.113,-1000.0
1742115071.965,-1000.0,-310.547,-201.172,-1000.0
1742115071.969,-1000.0,252.441,-160.156,-1000.0
1742115071.973,-970.215,-153.32,-210.938,-995.605
1742115071.977,-994.629,-593.262,-296.875,-945.312
1742115071.934,973.633,-270.02,208.008,976.074
1742115071.938,903.32,-187.988,141.113,907.715
1742115071.942,999.512,-80.566,130.371,999.512
1742115071.946,187.012,-647.949,113.281,152.832
1742115071.95,-1000.0,-493.164,155.273,-1000.0
1742115071.954,-983.887,332.031,60.059,-979.98
1742115071.958,-973.145,-239.258,-100.586,-975.586
1742115071.961,-1000.0,-647.461,-141.113,-1000.0
1742115071.965,-1000.0,-310.547,-201.172,-1000.0
1742115071.969,-1000.0,252.441,-160.156,-1000.0
1742115071.973,-970.215,-153.32,-210.938,-995.605
1742115071.977,-994.629,-593.262,-296.875,-945.312
1742115071.979,-1000.0,-161.621,-285.645,-1000.0
1742115071.983,226.562,432.617,-318.359,-137.695
1742115071.987,999.512,-17.09,-268.066,999.512
1742115071.991,907.227,-558.594,-223.633,940.918
1742115071.995,966.309,-300.293,-199.707,939.941
1742115071.999,905.273,3.906,-157.715,919.922
1742115072.003,999.512,-212.891,-161.133,999.512
1742115072.006,170.41,-923.828,-161.133,88.379
1742115072.01,-1000.0,-88.379,-151.367,-1000.0
1742115072.014,-981.445,722.168,-184.082,-972.656
1742115072.018,-974.121,-182.617,-104.004,-979.98
1742115072.022,-1000.0,-191.895,-83.496,-1000.0
1742115071.979,-1000.0,-161.621,-285.645,-1000.0
1742115071.983,226.562,432.617,-318.359,-137.695
1742115071.987,999.512,-17.09,-268.066,999.512
1742115071.991,907.227,-558.594,-223.633,940.918
1742115071.995,966.309,-300.293,-199.707,939.941
1742115071.999,905.273,3.906,-157.715,919.922
1742115072.003,999.512,-212.891,-161.133,999.512
1742115072.006,170.41,-923.828,-161.133,88.379
1742115072.01,-1000.0,-88.379,-151.367,-1000.0
1742115072.014,-981.445,722.168,-184.082,-972.656
1742115072.018,-974.121,-182.617,-104.004,-979.98
1742115072.022,-1000.0,-191.895,-83.496,-1000.0
1742115072.024,-1000.0,-65.918,-158.691,-1000.0
1742115072.028,-999.512,-241.211,-123.535,-1000.0
1742115072.032,-939.453,-232.422,-151.367,-935.547
1742115072.036,-1000.0,-354.492,-208.496,-1000.0
1742115072.04,-198.73,336.914,-244.629,-255.371
1742115072.044,999.512,586.914,-228.516,999.512
1742115072.048,946.777,-332.52,-147.461,956.055
1742115072.051,940.918,-440.918,-157.715,938.477
1742115072.055,972.168,276.367,-169.922,968.75
1742115072.059,904.297,-18.066,-123.047,915.527
1742115072.063,999.512,-368.164,-126.465,999.512
1742115072.067,173.828,-566.406,-72.754,90.332
1742115072.07,-1000.0,-599.609,-6.836,-1000.0
1742115072.074,-981.934,-133.301,-50.781,-974.121
1742115072.078,-980.957,-147.461,-121.582,-983.887
1742115072.082,-978.516,-141.602,-178.711,-985.352
1742115072.086,-987.793,-154.297,-134.277,-974.609
1742115072.09,-1000.0,7.324,4.395,-1000.0
1742115072.094,196.777,223.145,-18.555,89.844
1742115072.097,999.512,432.129,320.801,999.512
1742115072.101,905.762,420.41,945.312,918.457
1742115072.105,966.309,-380.371,980.469,959.473
1742115072.109,966.797,-448.73,945.312,968.262
1742115072.113,969.238,-154.785,973.145,969.727
1742115072.115,951.66,-145.508,966.797,956.055
1742115072.119,926.758,-298.34,966.797,925.293
1742115072.123,999.512,-304.688,966.797,999.512
1742115072.127,-45.898,-699.707,966.797,15.625
1742115072.131,-1000.0,-538.574,967.285,-1000.0
1742115072.135,-954.59,36.621,967.285,-967.285
1742115072.139,-989.746,-175.293,967.285,-983.887
1742115072.142,-1000.0,593.75,967.285,-1000.0
1742115072.146,-1000.0,331.543,966.797,-997.07
1742115072.15,-937.5,-438.965,966.797,-944.336
1742115072.154,-1000.0,-198.242,967.285,-1000.0
1742115072.158,-220.703,145.996,966.797,-162.109
1742115072.159,999.512,229.004,966.797,999.512
1742115072.163,949.707,-150.391,966.797,943.848
1742115072.167,938.965,-228.027,966.797,943.359
1742115072.171,973.145,-253.906,966.797,972.656
1742115072.175,973.145,-325.684,966.797,980.469
1742115072.179,896.973,-424.805,966.797,895.02
1742115072.183,999.512,408.203,966.797,999.512
1742115072.186,309.57,199.707,966.797,533.691
1742115072.19,-1000.0,-887.695,967.285,-891.113
1742115072.194,-1000.0,-696.777,967.285,-1000.0
1742115072.198,-963.379,129.883,967.285,-946.289
1742115072.202,-1000.0,429.688,967.285,-1000.0
1742115072.159,999.512,229.004,966.797,999.512
1742115072.163,949.707,-150.391,966.797,943.848
1742115072.167,938.965,-228.027,966.797,943.359
1742115072.171,973.145,-253.906,966.797,972.656
1742115072.175,973.145,-325.684,966.797,980.469
1742115072.179,896.973,-424.805,966.797,895.02
1742115072.183,999.512,408.203,966.797,999.512
1742115072.186,309.57,199.707,966.797,533.691
1742115072.19,-1000.0,-887.695,967.285,-891.113
1742115072.194,-1000.0,-696.777,967.285,-1000.0
1742115072.198,-963.379,129.883,967.285,-946.289
1742115072.202,-1000.0,429.688,967.285,-1000.0
1742115072.204,-935.547,-388.672,967.285,-936.035
1742115072.208,-1000.0,-397.461,967.285,-1000.0
1742115072.212,-735.84,-8.789,967.773,-652.344
1742115072.216,699.707,463.867,961.914,750.488
1742115072.22,999.512,-158.691,975.586,999.512
1742115072.224,853.027,-253.418,916.992,882.324
1742115072.228,999.512,371.094,816.895,969.727
1742115072.231,848.633,-379.883,742.676,999.512
1742115072.235,-524.902,-1000.0,680.176,-228.516
1742115072.239,-1000.0,-229.492,703.125,-1000.0
1742115072.243,-935.547,1.953,665.039,-943.848
1742115072.247,-1000.0,-526.367,580.566,-998.535
1742115072.204,-935.547,-388.672,967.285,-936.035
1742115072.208,-1000.0,-397.461,967.285,-1000.0
1742115072.212,-735.84,-8.789,967.773,-652.344
1742115072.216,699.707,463.867,961.914,750.488
1742115072.22,999.512,-158.691,975.586,999.512
1742115072.224,853.027,-253.418,916.992,882.324
1742115072.228,999.512,371.094,816.895,969.727
1742115072.231,848.633,-379.883,742.676,999.512
1742115072.235,-524.902,-1000.0,680.176,-228.516
1742115072.239,-1000.0,-229.492,703.125,-1000.0
1742115072.243,-935.547,1.953,665.039,-943.848
1742115072.247,-1000.0,-526.367,580.566,-998.535
1742115072.279,-1000.0,-380.371,535.645,-1000.0
1742115072.283,-1000.0,85.449,431.641,-1000.0
1742115072.287,-1000.0,154.297,383.789,-1000.0
1742115072.291,-937.5,-238.281,332.031,-934.57
1742115072.295,-1000.0,-416.992,233.398,-1000.0
1742115072.299,-220.703,403.32,209.473,-271.973
1742115072.303,999.512,460.938,144.531,999.512
1742115072.306,949.707,-569.824,77.148,958.984
1742115072.31,954.102,-306.152,130.371,947.754
1742115072.314,902.344,365.234,197.266,915.527
1742115072.318,999.512,401.367,164.551,999.512
1742115072.322,599.609,-512.695,117.676,681.641
1742115072.309,-839.844,-739.746,133.301,-708.984
1742115072.313,-1000.0,-137.695,125.488,-1000.0
1742115072.317,-941.895,-152.832,113.77,-941.406
1742115072.321,-1000.0,-417.48,152.344,-1000.0
1742115072.325,-1000.0,-225.098,94.238,-1000.0
1742115072.329,-1000.0,-25.879,46.875,-1000.0
1742115072.333,-1000.0,-204.59,59.082,-1000.0
1742115072.336,-937.5,-455.078,35.156,-936.523
1742115072.34,-1000.0,-349.121,36.621,-1000.0
1742115072.344,-221.191,401.367,52.734,-242.188
1742115072.348,999.512,616.699,39.551,999.512
1742115072.352,960.938,-382.812,-92.285,963.379
1742115072.309,-839.844,-739.746,133.301,-708.984
1742115072.313,-1000.0,-137.695,125.488,-1000.0
1742115072.317,-941.895,-152.832,113.77,-941.406
1742115072.321,-1000.0,-417.48,152.344,-1000.0
1742115072.325,-1000.0,-225.098,94.238,-1000.0
1742115072.329,-1000.0,-25.879,46.875,-1000.0
1742115072.333,-1000.0,-204.59,59.082,-1000.0
1742115072.336,-937.5,-455.078,35.156,-936.523
1742115072.34,-1000.0,-349.121,36.621,-1000.0
1742115072.344,-221.191,401.367,52.734,-242.188
1742115072.348,999.512,616.699,39.551,999.512
1742115072.352,960.938,-382.812,-92.285,963.379
1742115072.355,895.508,-367.188,-305.176,895.996
1742115072.359,997.559,107.422,-351.562,999.512
1742115072.363,914.062,-434.082,-354.492,868.164
1742115072.367,-434.082,-1000.0,-442.871,-444.824
1742115072.371,-1000.0,-443.359,-465.82,-1000.0
1742115072.375,-940.918,129.883,-478.516,-943.359
1742115072.379,-980.957,-375.977,-434.57,-995.117
1742115072.382,-987.305,-602.539,-353.516,-956.543
1742115072.386,-1000.0,124.023,-368.652,-1000.0
1742115072.39,184.082,623.535,-319.336,-50.781
1742115072.394,999.512,-107.422,-295.41,999.512
1742115072.398,908.691,-612.793,-364.258,931.152
1742115072.355,895.508,-367.188,-305.176,895.996
1742115072.359,997.559,107.422,-351.562,999.512
1742115072.363,914.062,-434.082,-354.492,868.164
1742115072.367,-434.082,-1000.0,-442.871,-444.824
1742115072.371,-1000.0,-443.359,-465.82,-1000.0
1742115072.375,-940.918,129.883,-478.516,-943.359
1742115072.379,-980.957,-375.977,-434.57,-995.117
1742115072.382,-987.305,-602.539,-353.516,-956.543
1742115072.386,-1000.0,124.023,-368.652,-1000.0
1742115072.39,184.082,623.535,-319.336,-50.781
1742115072.394,999.512,-107.422,-295.41,999.512
1742115072.398,908.691,-612.793,-364.258,931.152
1742115072.399,964.844,253.418,-350.586,951.172
1742115072.403,966.797,576.172,-295.898,970.703
1742115072.407,966.309,-200.684,-155.273,966.797
1742115072.411,966.309,-120.605,-101.074,966.797
1742115072.415,967.285,-104.98,-191.895,972.168
1742115072.419,902.832,90.332,-122.07,898.926
1742115072.423,999.512,153.809,-141.602,999.512
1742115072.426,193.359,-545.41,-187.012,278.809
1742115072.43,-1000.0,-179.199,-178.223,-1000.0
1742115072.434,-997.07,301.758,-217.285,-1000.0
1742115072.438,-898.926,-139.16,-208.008,-894.043
1742115072.442,-1000.0,-247.07,-242.188,-1000.0
1742115072.399,964.844,253.418,-350.586,951.172
1742115072.403,966.797,576.172,-295.898,970.703
1742115072.407,966.309,-200.684,-155.273,966.797
1742115072.411,966.309,-120.605,-101.074,966.797
1742115072.415,967.285,-104.98,-191.895,972.168
1742115072.419,902.832,90.332,-122.07,898.926
1742115072.423,999.512,153.809,-141.602,999.512
1742115072.426,193.359,-545.41,-187.012,278.809
1742115072.43,-1000.0,-179.199,-178.223,-1000.0
1742115072.434,-997.07,301.758,-217.285,-1000.0
1742115072.438,-898.926,-139.16,-208.008,-894.043
1742115072.442,-1000.0,-247.07,-242.188,-1000.0
1742115072.445,-464.844,193.848,-260.742,-440.43
1742115072.449,936.035,717.773,-210.449,941.406
1742115072.453,992.676,-43.945,-276.367,990.234
1742115072.457,918.945,-250.977,-310.059,921.875
1742115072.461,979.492,-158.203,-307.129,979.492
1742115072.465,966.309,90.332,-256.836,966.797
1742115072.469,966.797,0.0,-175.781,972.168
1742115072.472,903.809,14.16,-269.531,898.926
1742115072.476,999.512,780.273,-294.922,999.512
1742115072.48,186.523,-271.973,-324.707,276.855
1742115072.484,-1000.0,-950.195,-421.387,-1000.0
1742115072.488,-983.887,-141.602,-401.855,-999.023
1742115072.445,-464.844,193.848,-260.742,-440.43
1742115072.449,936.035,717.773,-210.449,941.406
1742115072.453,992.676,-43.945,-276.367,990.234
1742115072.457,918.945,-250.977,-310.059,921.875
1742115072.461,979.492,-158.203,-307.129,979.492
1742115072.465,966.309,90.332,-256.836,966.797
1742115072.469,966.797,0.0,-175.781,972.168
1742115072.472,903.809,14.16,-269.531,898.926
1742115072.476,999.512,780.273,-294.922,999.512
1742115072.48,186.523,-271.973,-324.707,276.855
1742115072.484,-1000.0,-950.195,-421.387,-1000.0
1742115072.488,-983.887,-141.602,-401.855,-999.023
1742115072.445,-464.844,193.848,-260.742,-440.43
1742115072.449,936.035,717.773,-210.449,941.406
1742115072.453,992.676,-43.945,-276.367,990.234
1742115072.457,918.945,-250.977,-310.059,921.875
1742115072.461,979.492,-158.203,-307.129,979.492
1742115072.465,966.309,90.332,-256.836,966.797
1742115072.469,966.797,0.0,-175.781,972.168
1742115072.472,903.809,14.16,-269.531,898.926
1742115072.476,999.512,780.273,-294.922,999.512
1742115072.48,186.523,-271.973,-324.707,276.855
1742115072.484,-1000.0,-950.195,-421.387,-1000.0
1742115072.488,-983.887,-141.602,-401.855,-999.023
1742115072.49,-982.91,-91.797,-367.188,-975.098
1742115072.494,-969.238,-165.039,-303.223,-969.238
1742115072.498,-1000.0,-94.727,-229.004,-1000.0
1742115072.502,-993.164,-50.293,-224.609,-937.5
1742115072.506,327.637,418.457,-202.637,374.023
1742115072.51,999.512,77.148,-244.629,999.512
1742115072.514,900.879,173.34,-250.977,906.25
1742115072.517,971.68,880.371,-257.812,971.68
1742115072.521,980.957,709.473,-299.805,979.98
1742115072.525,895.508,603.027,-198.73,912.109
1742115072.529,999.512,937.988,-159.668,999.512
1742115072.533,574.707,588.867,-279.297,800.293
1742115072.49,-982.91,-91.797,-367.188,-975.098
1742115072.494,-969.238,-165.039,-303.223,-969.238
1742115072.498,-1000.0,-94.727,-229.004,-1000.0
1742115072.502,-993.164,-50.293,-224.609,-937.5
1742115072.506,327.637,418.457,-202.637,374.023
1742115072.51,999.512,77.148,-244.629,999.512
1742115072.514,900.879,173.34,-250.977,906.25
1742115072.517,971.68,880.371,-257.812,971.68
1742115072.521,980.957,709.473,-299.805,979.98
1742115072.525,895.508,603.027,-198.73,912.109
1742115072.529,999.512,937.988,-159.668,999.512
1742115072.533,574.707,588.867,-279.297,800.293
1742115072.55,-859.375,-70.312,-293.457,-593.262
1742115072.554,-1000.0,384.277,-324.707,-1000.0
1742115072.558,-943.359,601.074,-340.82,-936.035
1742115072.562,-1000.0,423.828,-329.59,-1000.0
1742115072.566,-942.383,354.492,-347.656,-948.73
1742115072.57,-1000.0,498.047,-388.672,-1000.0
1742115072.574,-815.43,727.051,-458.496,-815.43
1742115072.577,597.168,822.266,-384.277,545.898
1742115072.581,999.512,529.297,-244.629,999.512
1742115072.585,900.879,168.457,-256.348,906.25
1742115072.589,979.004,187.012,-310.059,976.074
1742115072.593,966.309,-5.371,-409.18,966.797
1742115072.58,980.957,32.227,-342.285,978.516
1742115072.584,901.855,129.883,-184.57,915.039
1742115072.588,999.512,21.973,-153.809,999.512
1742115072.592,695.312,-2.441,-16.113,803.223
1742115072.596,-735.352,-424.316,30.762,-568.848
1742115072.6,-1000.0,59.082,-61.523,-1000.0
1742115072.604,-937.5,655.273,-65.43,-937.988
1742115072.607,-1000.0,-61.523,-85.449,-1000.0
1742115072.611,-1000.0,-371.582,-134.766,-1000.0
1742115072.615,-1000.0,90.332,-122.559,-1000.0
1742115072.619,-1000.0,786.133,-109.863,-1000.0
1742115072.623,-1000.0,490.723,-86.914,-1000.0
1742115072.625,-1000.0,-282.227,-46.875,-1000.0
1742115072.629,-937.5,-83.496,15.137,-940.43
1742115072.633,-1000.0,-191.895,-40.527,-1000.0
1742115072.637,-220.703,145.996,-146.973,-206.055
1742115072.641,999.512,95.215,-175.293,999.512
1742115072.645,949.707,120.117,-213.867,950.684
1742115072.649,938.965,353.027,-130.371,939.941
1742115072.652,985.352,-296.387,-130.859,983.887
1742115072.656,916.992,-314.453,-208.008,924.316
1742115072.66,999.512,322.266,-85.938,993.652
1742115072.664,867.188,389.648,-16.602,892.09
1742115072.668,-511.719,-583.984,-31.25,-437.012
1742115072.625,-1000.0,-282.227,-46.875,-1000.0
1742115072.629,-937.5,-83.496,15.137,-940.43
1742115072.633,-1000.0,-191.895,-40.527,-1000.0
1742115072.637,-220.703,145.996,-146.973,-206.055
1742115072.641,999.512,95.215,-175.293,999.512
1742115072.645,949.707,120.117,-213.867,950.684
1742115072.649,938.965,353.027,-130.371,939.941
1742115072.652,985.352,-296.387,-130.859,983.887
1742115072.656,916.992,-314.453,-208.008,924.316
1742115072.66,999.512,322.266,-85.938,993.652
1742115072.664,867.188,389.648,-16.602,892.09
1742115072.668,-511.719,-583.984,-31.25,-437.012
1742115072.684,-1000.0,-383.789,-68.848,-1000.0
1742115072.688,-933.594,343.262,-109.375,-937.988
1742115072.692,-1000.0,311.035,-60.059,-1000.0
1742115072.696,-997.07,-261.23,-68.848,-990.723
1742115072.7,-943.359,-92.773,-141.602,-959.473
1742115072.704,-1000.0,170.41,-128.418,-1000.0
1742115072.708,-155.762,255.859,-122.07,-65.43
1742115072.711,999.512,-287.598,-194.824,999.512
1742115072.715,940.918,-737.793,-226.074,938.965
1742115072.719,943.848,68.359,-159.668,948.242
1742115072.723,971.191,-96.68,36.621,971.68
1742115072.727,966.309,-629.395,89.844,966.797
1742115072.684,-1000.0,-383.789,-68.848,-1000.0
1742115072.688,-933.594,343.262,-109.375,-937.988
1742115072.692,-1000.0,311.035,-60.059,-1000.0
1742115072.696,-997.07,-261.23,-68.848,-990.723
1742115072.7,-943.359,-92.773,-141.602,-959.473
1742115072.704,-1000.0,170.41,-128.418,-1000.0
1742115072.708,-155.762,255.859,-122.07,-65.43
1742115072.711,999.512,-287.598,-194.824,999.512
1742115072.715,940.918,-737.793,-226.074,938.965
1742115072.719,943.848,68.359,-159.668,948.242
1742115072.723,971.191,-96.68,36.621,971.68
1742115072.727,966.309,-629.395,89.844,966.797
1742115072.76,978.516,-409.668,56.152,975.098
1742115072.764,916.992,-152.344,176.27,931.641
1742115072.768,999.512,-188.965,221.68,975.098
1742115072.772,865.234,-334.961,240.723,947.266
1742115072.776,-509.277,-630.859,253.906,-336.914
1742115072.78,-1000.0,-91.797,213.379,-1000.0
1742115072.784,-934.082,75.195,169.922,-940.43
1742115072.787,-1000.0,-401.855,147.949,-1000.0
1742115072.791,-1000.0,318.359,195.312,-1000.0
1742115072.795,-1000.0,999.512,143.555,-1000.0
1742115072.799,-1000.0,-24.902,63.965,-1000.0
1742115072.803,-949.219,-614.746,74.707,-958.496
1742115072.76,978.516,-409.668,56.152,975.098
1742115072.764,916.992,-152.344,176.27,931.641
1742115072.768,999.512,-188.965,221.68,975.098
1742115072.772,865.234,-334.961,240.723,947.266
1742115072.776,-509.277,-630.859,253.906,-336.914
1742115072.78,-1000.0,-91.797,213.379,-1000.0
1742115072.784,-934.082,75.195,169.922,-940.43
1742115072.787,-1000.0,-401.855,147.949,-1000.0
1742115072.791,-1000.0,318.359,195.312,-1000.0
1742115072.795,-1000.0,999.512,143.555,-1000.0
1742115072.799,-1000.0,-24.902,63.965,-1000.0
1742115072.803,-949.219,-614.746,74.707,-958.496
1742115072.777,-1000.0,-326.172,97.168,-1000.0
1742115072.781,-884.766,-208.496,115.234,-921.387
1742115072.785,500.0,180.176,115.234,396.973
1742115072.789,999.512,-62.988,174.316,999.512
1742115072.793,909.668,-269.043,190.918,913.574
1742115072.797,938.477,-45.898,145.508,938.965
1742115072.801,977.539,-132.324,110.352,971.191
1742115072.804,954.102,-557.129,2.93,957.031
1742115072.808,-365.723,-951.172,-99.121,-307.129
1742115072.812,-1000.0,-597.168,-91.309,-1000.0
1742115072.816,-935.547,-95.215,-45.898,-942.383
1742115072.82,-1000.0,-423.34,-82.031,-1000.0
1742115072.777,-1000.0,-326.172,97.168,-1000.0
1742115072.781,-884.766,-208.496,115.234,-921.387
1742115072.785,500.0,180.176,115.234,396.973
1742115072.789,999.512,-62.988,174.316,999.512
1742115072.793,909.668,-269.043,190.918,913.574
1742115072.797,938.477,-45.898,145.508,938.965
1742115072.801,977.539,-132.324,110.352,971.191
1742115072.804,954.102,-557.129,2.93,957.031
1742115072.808,-365.723,-951.172,-99.121,-307.129
1742115072.812,-1000.0,-597.168,-91.309,-1000.0
1742115072.816,-935.547,-95.215,-45.898,-942.383
1742115072.82,-1000.0,-423.34,-82.031,-1000.0
1742115072.819,-1000.0,-587.402,-127.93,-1000.0
1742115072.823,-1000.0,-360.352,-177.734,-1000.0
1742115072.827,-928.223,-513.672,-257.324,-928.223
1742115072.831,-1000.0,-302.734,-386.23,-1000.0
1742115072.835,-409.18,345.215,-405.762,-465.82
1742115072.839,961.914,515.137,-330.078,927.734
1742115072.843,982.422,-345.215,-306.152,995.117
1742115072.846,923.828,-368.652,-247.07,919.922
1742115072.85,978.027,893.066,-136.719,979.98
1742115072.854,966.309,589.355,-21.484,966.797
1742115072.858,966.309,-445.312,32.715,967.285
1742115072.862,966.797,-467.285,-19.531,968.75
1742115072.819,-1000.0,-587.402,-127.93,-1000.0
1742115072.823,-1000.0,-360.352,-177.734,-1000.0
1742115072.827,-928.223,-513.672,-257.324,-928.223
1742115072.831,-1000.0,-302.734,-386.23,-1000.0
1742115072.835,-409.18,345.215,-405.762,-465.82
1742115072.839,961.914,515.137,-330.078,927.734
1742115072.843,982.422,-345.215,-306.152,995.117
1742115072.846,923.828,-368.652,-247.07,919.922
1742115072.85,978.027,893.066,-136.719,979.98
1742115072.854,966.309,589.355,-21.484,966.797
1742115072.858,966.309,-445.312,32.715,967.285
1742115072.862,966.797,-467.285,-19.531,968.75
1742115072.88,903.809,-272.461,16.113,902.832
1742115072.884,999.512,-177.246,67.871,999.512
1742115072.888,183.594,-714.355,9.277,208.496
1742115072.892,-1000.0,-480.957,7.812,-1000.0
1742115072.896,-983.398,-42.969,87.891,-987.305
1742115072.9,-979.004,-218.262,166.504,-976.562
1742115072.904,-982.91,-113.77,213.867,-983.887
1742115072.907,-978.027,53.223,189.453,-982.422
1742115072.911,-1000.0,-36.621,297.363,-1000.0
1742115072.915,141.602,270.02,381.348,142.09
1742115072.919,999.512,157.227,312.5,999.512
1742115072.923,908.203,-239.258,299.316,914.551
1742115072.955,963.867,-175.781,275.879,962.402
1742115072.959,979.492,-260.742,291.992,981.445
1742115072.963,892.09,-291.016,273.926,898.926
1742115072.967,999.512,-62.988,221.68,999.512
1742115072.971,467.773,-407.227,228.027,577.637
1742115072.975,-947.754,-844.727,201.172,-838.379
1742115072.979,-1000.0,-53.711,96.68,-1000.0
1742115072.982,-950.195,-77.148,4.883,-944.336
1742115072.986,-1000.0,-236.328,39.551,-1000.0
1742115072.99,-1000.0,-103.027,188.965,-1000.0
1742115072.994,-1000.0,-78.125,206.055,-1000.0
1742115072.998,-981.934,-56.152,134.766,-984.375
1742115072.955,963.867,-175.781,275.879,962.402
1742115072.959,979.492,-260.742,291.992,981.445
1742115072.963,892.09,-291.016,273.926,898.926
1742115072.967,999.512,-62.988,221.68,999.512
1742115072.971,467.773,-407.227,228.027,577.637
1742115072.975,-947.754,-844.727,201.172,-838.379
1742115072.979,-1000.0,-53.711,96.68,-1000.0
1742115072.982,-950.195,-77.148,4.883,-944.336
1742115072.986,-1000.0,-236.328,39.551,-1000.0
1742115072.99,-1000.0,-103.027,188.965,-1000.0
1742115072.994,-1000.0,-78.125,206.055,-1000.0
1742115072.998,-981.934,-56.152,134.766,-984.375
1742115072.959,-967.773,-285.156,138.184,-969.727
1742115072.963,-1000.0,-245.117,71.289,-1000.0
1742115072.967,66.406,425.781,40.527,36.133
1742115072.971,999.512,311.035,154.297,999.512
1742115072.975,928.711,-233.887,175.293,938.965
1742115072.979,902.832,98.145,177.246,905.273
1742115072.983,999.512,3.906,212.402,999.512
1742115072.986,793.457,-487.793,127.441,836.426
1742115072.99,-615.723,-911.133,41.016,-528.32
1742115072.994,-1000.0,-312.012,52.734,-1000.0
1742115072.998,-934.57,249.512,124.023,-937.012
1742115073.002,-1000.0,-119.141,287.598,-1000.0
1742115072.959,-967.773,-285.156,138.184,-969.727
1742115072.963,-1000.0,-245.117,71.289,-1000.0
1742115072.967,66.406,425.781,40.527,36.133
1742115072.971,999.512,311.035,154.297,999.512
1742115072.975,928.711,-233.887,175.293,938.965
1742115072.979,902.832,98.145,177.246,905.273
1742115072.983,999.512,3.906,212.402,999.512
1742115072.986,793.457,-487.793,127.441,836.426
1742115072.99,-615.723,-911.133,41.016,-528.32
1742115072.994,-1000.0,-312.012,52.734,-1000.0
1742115072.998,-934.57,249.512,124.023,-937.012
1742115073.002,-1000.0,-119.141,287.598,-1000.0
1742115072.959,-967.773,-285.156,138.184,-969.727
1742115072.963,-1000.0,-245.117,71.289,-1000.0
1742115072.967,66.406,425.781,40.527,36.133
1742115072.971,999.512,311.035,154.297,999.512
1742115072.975,928.711,-233.887,175.293,938.965
1742115072.979,902.832,98.145,177.246,905.273
1742115072.983,999.512,3.906,212.402,999.512
1742115072.986,793.457,-487.793,127.441,836.426
1742115072.99,-615.723,-911.133,41.016,-528.32
1742115072.994,-1000.0,-312.012,52.734,-1000.0
1742115072.998,-934.57,249.512,124.023,-937.012
1742115073.002,-1000.0,-119.141,287.598,-1000.0
1742115073.014,-1000.0,-150.879,316.895,-1000.0
1742115073.018,-1000.0,62.012,226.074,-1000.0
1742115073.022,-1000.0,-21.973,186.523,-1000.0
1742115073.026,-988.281,-207.52,156.25,-1000.0
1742115073.03,-958.496,-276.855,97.656,-938.477
1742115073.034,-1000.0,256.836,85.938,-1000.0
1742115073.038,-27.832,997.559,133.301,-208.984
1742115073.041,999.512,705.078,141.602,999.512
1742115073.045,860.84,-210.938,106.445,884.277
1742115073.049,999.512,295.898,52.734,999.512
1742115073.053,688.965,352.539,33.203,647.949
1742115073.057,-754.395,-956.543,65.918,-770.508
1742115073.014,-1000.0,-150.879,316.895,-1000.0
1742115073.018,-1000.0,62.012,226.074,-1000.0
1742115073.022,-1000.0,-21.973,186.523,-1000.0
1742115073.026,-988.281,-207.52,156.25,-1000.0
1742115073.03,-958.496,-276.855,97.656,-938.477
1742115073.034,-1000.0,256.836,85.938,-1000.0
1742115073.038,-27.832,997.559,133.301,-208.984
1742115073.041,999.512,705.078,141.602,999.512
1742115073.045,860.84,-210.938,106.445,884.277
1742115073.049,999.512,295.898,52.734,999.512
1742115073.053,688.965,352.539,33.203,647.949
1742115073.057,-754.395,-956.543,65.918,-770.508
1742115073.059,-1000.0,-605.957,-5.859,-1000.0
1742115073.063,-937.5,-79.102,19.531,-941.895
1742115073.067,-1000.0,-181.641,91.309,-1000.0
1742115073.071,-1000.0,-351.562,66.895,-1000.0
1742115073.075,-1000.0,-244.141,110.352,-1000.0
1742115073.079,-958.984,10.254,116.211,-968.262
1742115073.083,-1000.0,-130.859,32.227,-999.023
1742115073.086,-964.844,-298.34,-10.254,-1000.0
1742115073.09,373.535,353.516,-13.184,252.441
1742115073.094,999.512,678.223,-21.484,999.512
1742115073.098,900.391,183.105,31.25,907.227
1742115073.102,973.145,-175.293,71.289,968.262
1742115073.095,966.309,-134.766,51.27,967.285
1742115073.099,966.309,-15.137,10.742,966.797
1742115073.103,966.309,-74.219,87.891,966.797
1742115073.107,970.215,-172.363,93.262,969.727
1742115073.111,947.754,118.652,-30.762,955.566
1742115073.115,934.082,489.746,-22.949,924.316
1742115073.119,999.512,-55.176,-49.316,999.512
1742115073.122,-103.516,-764.16,-88.867,5.859
1742115073.126,-1000.0,-81.055,-176.27,-1000.0
1742115073.13,-949.219,68.848,-355.469,-963.379
1742115073.134,-994.141,-486.816,-452.637,-986.328
1742115073.138,-938.965,-302.734,-502.93,-940.43
1742115073.15,-1000.0,-329.59,-484.863,-1000.0
1742115073.154,-221.191,442.383,-367.188,-229.492
1742115073.158,999.512,321.289,-325.684,999.512
1742115073.162,950.195,-401.855,-337.891,952.148
1742115073.166,952.637,412.109,-329.59,952.148
1742115073.17,898.926,999.512,-349.121,904.785
1742115073.174,999.512,260.742,-342.285,999.512
1742115073.177,482.422,-949.219,-365.723,565.43
1742115073.181,-939.941,-800.781,-357.422,-851.562
1742115073.185,-1000.0,-471.191,-275.879,-1000.0
1742115073.189,-949.219,-458.496,-246.582,-944.824
1742115073.193,-1000.0,-385.742,-171.387,-1000.0
1742115073.15,-1000.0,-329.59,-484.863,-1000.0
1742115073.154,-221.191,442.383,-367.188,-229.492
1742115073.158,999.512,321.289,-325.684,999.512
1742115073.162,950.195,-401.855,-337.891,952.148
1742115073.166,952.637,412.109,-329.59,952.148
1742115073.17,898.926,999.512,-349.121,904.785
1742115073.174,999.512,260.742,-342.285,999.512
1742115073.177,482.422,-949.219,-365.723,565.43
1742115073.181,-939.941,-800.781,-357.422,-851.562
1742115073.185,-1000.0,-471.191,-275.879,-1000.0
1742115073.189,-949.219,-458.496,-246.582,-944.824
1742115073.193,-1000.0,-385.742,-171.387,-1000.0
1742115073.195,-1000.0,-325.195,-159.18,-1000.0
1742115073.199,-947.754,-235.352,-189.941,-966.309
1742115073.203,-1000.0,-374.512,-229.004,-1000.0
1742115073.207,-862.305,-253.906,-355.469,-997.559
1742115073.211,527.344,255.371,-323.73,281.738
1742115073.215,999.512,17.578,-267.578,999.512
1742115073.219,901.367,-554.688,-307.617,908.203
1742115073.222,973.633,-172.852,-355.469,962.891
1742115073.226,910.156,754.395,-365.234,916.016
1742115073.23,999.512,28.809,-288.574,999.512
1742115073.234,115.234,-907.715,-326.66,86.426
1742115073.238,-1000.0,-604.98,-422.852,-1000.0
1742115073.195,-1000.0,-325.195,-159.18,-1000.0
1742115073.199,-947.754,-235.352,-189.941,-966.309
1742115073.203,-1000.0,-374.512,-229.004,-1000.0
1742115073.207,-862.305,-253.906,-355.469,-997.559
1742115073.211,527.344,255.371,-323.73,281.738
1742115073.215,999.512,17.578,-267.578,999.512
1742115073.219,901.367,-554.688,-307.617,908.203
1742115073.222,973.633,-172.852,-355.469,962.891
1742115073.226,910.156,754.395,-365.234,916.016
1742115073.23,999.512,28.809,-288.574,999.512
1742115073.234,115.234,-907.715,-326.66,86.426
1742115073.238,-1000.0,-604.98,-422.852,-1000.0
1742115073.239,-974.121,-401.855,-445.801,-972.656
1742115073.243,-992.676,-531.738,-449.707,-991.211
1742115073.247,-948.242,-224.121,-331.055,-956.543
1742115073.251,-1000.0,-313.477,-267.578,-1000.0
1742115073.255,-824.219,-176.27,-306.152,-872.559
1742115073.259,586.914,490.723,-299.805,487.793
1742115073.263,999.512,22.949,-408.691,999.512
1742115073.266,900.391,59.57,-418.945,903.809
1742115073.27,979.004,3.418,-347.656,976.074
1742115073.274,976.562,-467.773,-354.98,974.121
1742115073.278,925.293,-84.961,-367.676,934.57
1742115073.282,984.863,287.109,-448.242,969.238
1742115073.239,-974.121,-401.855,-445.801,-972.656
1742115073.243,-992.676,-531.738,-449.707,-991.211
1742115073.247,-948.242,-224.121,-331.055,-956.543
1742115073.251,-1000.0,-313.477,-267.578,-1000.0
1742115073.255,-824.219,-176.27,-306.152,-872.559
1742115073.259,586.914,490.723,-299.805,487.793
1742115073.263,999.512,22.949,-408.691,999.512
1742115073.266,900.391,59.57,-418.945,903.809
1742115073.27,979.004,3.418,-347.656,976.074
1742115073.274,976.562,-467.773,-354.98,974.121
1742115073.278,925.293,-84.961,-367.676,934.57
1742115073.282,984.863,287.109,-448.242,969.238
1742115073.303,931.641,-254.883,-497.07,958.496
1742115073.307,-402.832,-733.398,-424.805,-298.34
1742115073.311,-1000.0,-392.09,-408.691,-1000.0
1742115073.315,-860.84,-152.832,-442.871,-871.582
1742115073.319,-1000.0,-206.055,-370.117,-1000.0
1742115073.323,-507.324,307.129,-260.254,-496.094
1742115073.327,912.598,999.512,-254.883,906.25
1742115073.33,999.512,245.605,-365.723,999.512
1742115073.334,915.527,-313.477,-407.227,917.969
1742115073.338,980.469,-5.371,-357.422,980.469
1742115073.342,966.309,-405.762,-377.93,966.797
1742115073.346,966.309,-558.105,-472.168,966.797
1742115073.303,931.641,-254.883,-497.07,958.496
1742115073.307,-402.832,-733.398,-424.805,-298.34
1742115073.311,-1000.0,-392.09,-408.691,-1000.0
1742115073.315,-860.84,-152.832,-442.871,-871.582
1742115073.319,-1000.0,-206.055,-370.117,-1000.0
1742115073.323,-507.324,307.129,-260.254,-496.094
1742115073.327,912.598,999.512,-254.883,906.25
1742115073.33,999.512,245.605,-365.723,999.512
1742115073.334,915.527,-313.477,-407.227,917.969
1742115073.338,980.469,-5.371,-357.422,980.469
1742115073.342,966.309,-405.762,-377.93,966.797
1742115073.346,966.309,-558.105,-472.168,966.797
1742115073.329,966.309,-445.312,-544.434,966.797
1742115073.333,966.309,-203.613,-473.633,967.285
1742115073.337,966.309,-8.789,-364.746,966.797
1742115073.341,973.633,-197.754,-310.059,969.727
1742115073.345,936.035,-210.938,-249.023,953.613
1742115073.349,959.473,130.859,-268.555,926.758
1742115073.353,999.512,50.293,-319.824,999.512
1742115073.356,-259.766,-706.543,-382.812,-30.273
1742115073.36,-1000.0,-526.855,-337.402,-1000.0
1742115073.364,-939.941,122.07,-263.672,-957.031
1742115073.368,-1000.0,688.477,-324.707,-988.281
1742115073.372,-1000.0,999.512,-300.781,-1000.0
1742115073.329,966.309,-445.312,-544.434,966.797
1742115073.333,966.309,-203.613,-473.633,967.285
1742115073.337,966.309,-8.789,-364.746,966.797
1742115073.341,973.633,-197.754,-310.059,969.727
1742115073.345,936.035,-210.938,-249.023,953.613
1742115073.349,959.473,130.859,-268.555,926.758
1742115073.353,999.512,50.293,-319.824,999.512
1742115073.356,-259.766,-706.543,-382.812,-30.273
1742115073.36,-1000.0,-526.855,-337.402,-1000.0
1742115073.364,-939.941,122.07,-263.672,-957.031
1742115073.368,-1000.0,688.477,-324.707,-988.281
1742115073.372,-1000.0,999.512,-300.781,-1000.0
1742115073.391,-1000.0,114.258,-222.168,-1000.0
1742115073.395,-932.617,-341.797,-284.668,-939.453
1742115073.399,-1000.0,-191.895,-338.867,-1000.0
1742115073.403,-687.988,-205.566,-376.953,-679.688
1742115073.407,752.441,118.164,-425.781,707.52
1742115073.411,999.512,315.918,-412.109,999.512
1742115073.415,904.785,67.383,-384.766,909.668
1742115073.418,981.445,-519.043,-348.633,978.516
1742115073.422,981.445,-371.582,-310.547,980.469
1742115073.426,895.02,143.555,-275.879,905.762
1742115073.43,999.512,999.512,-260.254,999.512
1742115073.434,601.074,369.141,-292.48,723.633
1742115073.48,-842.285,-1000.0,-231.445,-689.941
1742115073.484,-1000.0,240.234,-186.035,-1000.0
1742115073.488,-941.406,549.316,-182.617,-937.988
1742115073.492,-1000.0,-388.184,-66.895,-1000.0
1742115073.496,-969.727,-148.438,-52.734,-967.773
1742115073.5,-993.164,-112.793,-173.828,-1000.0
1742115073.504,-1000.0,-153.809,-146.484,-1000.0
1742115073.507,230.957,-80.566,-92.773,257.812
1742115073.511,999.512,-178.711,-146.484,999.512
1742115073.515,903.32,240.234,-179.688,908.691
1742115073.519,968.262,-130.371,-176.758,967.773
1742115073.523,966.309,-687.012,-97.656,967.285
1742115073.48,-842.285,-1000.0,-231.445,-689.941
1742115073.484,-1000.0,240.234,-186.035,-1000.0
1742115073.488,-941.406,549.316,-182.617,-937.988
1742115073.492,-1000.0,-388.184,-66.895,-1000.0
1742115073.496,-969.727,-148.438,-52.734,-967.773
1742115073.5,-993.164,-112.793,-173.828,-1000.0
1742115073.504,-1000.0,-153.809,-146.484,-1000.0
1742115073.507,230.957,-80.566,-92.773,257.812
1742115073.511,999.512,-178.711,-146.484,999.512
1742115073.515,903.32,240.234,-179.688,908.691
1742115073.519,968.262,-130.371,-176.758,967.773
1742115073.523,966.309,-687.012,-97.656,967.285
1742115073.485,979.492,-125.0,-71.289,980.469
1742115073.489,892.09,117.676,-85.938,899.414
1742115073.493,999.512,-253.418,-93.75,999.512
1742115073.497,485.84,-688.477,-105.957,605.469
1742115073.501,-937.5,-402.832,-103.027,-814.453
1742115073.505,-1000.0,425.781,-54.688,-1000.0
1742115073.509,-892.09,-113.281,48.34,-892.578
1742115073.512,-1000.0,-526.367,91.309,-1000.0
1742115073.516,-829.59,312.5,72.266,-859.375
1742115073.52,579.59,713.379,86.914,509.766
1742115073.524,999.512,-199.219,50.293,999.512
1742115073.528,900.391,-360.352,30.762,903.32
1742115073.485,979.492,-125.0,-71.289,980.469
1742115073.489,892.09,117.676,-85.938,899.414
1742115073.493,999.512,-253.418,-93.75,999.512
1742115073.497,485.84,-688.477,-105.957,605.469
1742115073.501,-937.5,-402.832,-103.027,-814.453
1742115073.505,-1000.0,425.781,-54.688,-1000.0
1742115073.509,-892.09,-113.281,48.34,-892.578
1742115073.512,-1000.0,-526.367,91.309,-1000.0
1742115073.516,-829.59,312.5,72.266,-859.375
1742115073.52,579.59,713.379,86.914,509.766
1742115073.524,999.512,-199.219,50.293,999.512
1742115073.528,900.391,-360.352,30.762,903.32
1742115073.525,993.164,149.902,75.195,990.234
1742115073.529,892.09,-10.254,30.762,901.855
1742115073.533,999.512,-379.395,-52.246,999.512
1742115073.537,524.414,-565.43,-77.637,657.227
1742115073.541,-911.621,-492.188,-25.879,-764.16
1742115073.545,-1000.0,48.828,-23.438,-1000.0
1742115073.549,-945.801,-78.613,-45.41,-940.43
1742115073.552,-1000.0,-335.938,19.043,-1000.0
1742115073.556,-1000.0,271.973,-23.926,-1000.0
1742115073.56,-984.863,999.512,-133.789,-988.281
1742115073.564,-962.891,232.91,-90.332,-958.008
1742115073.568,-1000.0,-347.168,-89.844,-1000.0
1742115073.662,31.738,414.062,-136.719,-30.762
1742115073.666,999.512,-45.41,-91.309,999.512
1742115073.67,917.969,-521.484,-60.547,928.223
1742115073.674,957.52,-374.023,-27.344,952.637
1742115073.678,974.121,-270.508,-24.414,974.121
1742115073.682,940.43,-95.215,-8.301,948.242
1742115073.686,948.73,-267.578,15.625,937.5
1742115073.689,999.512,-378.418,11.23,999.512
1742115073.693,-203.125,-710.449,-31.25,-104.98
1742115073.697,-1000.0,-724.121,-48.34,-1000.0
1742115073.701,-940.918,-441.406,-78.125,-951.66
1742115073.705,-999.023,-266.602,-84.473,-992.676
1742115073.662,31.738,414.062,-136.719,-30.762
1742115073.666,999.512,-45.41,-91.309,999.512
1742115073.67,917.969,-521.484,-60.547,928.223
1742115073.674,957.52,-374.023,-27.344,952.637
1742115073.678,974.121,-270.508,-24.414,974.121
1742115073.682,940.43,-95.215,-8.301,948.242
1742115073.686,948.73,-267.578,15.625,937.5
1742115073.689,999.512,-378.418,11.23,999.512
1742115073.693,-203.125,-710.449,-31.25,-104.98
1742115073.697,-1000.0,-724.121,-48.34,-1000.0
1742115073.701,-940.918,-441.406,-78.125,-951.66
1742115073.705,-999.023,-266.602,-84.473,-992.676
1742115073.674,-1000.0,-203.125,-62.012,-1000.0
1742115073.678,-1000.0,-192.871,-66.895,-1000.0
1742115073.682,-952.148,-76.66,-2.93,-962.402
1742115073.686,-1000.0,-249.023,0.488,-1000.0
1742115073.69,-914.062,-96.191,22.461,-974.121
1742115073.694,458.984,321.777,24.902,329.102
1742115073.698,999.512,-81.543,0.977,999.512
1742115073.701,899.414,-387.695,48.34,904.785
1742115073.705,976.074,-248.047,29.785,971.191
1742115073.709,966.797,-233.398,46.387,966.797
1742115073.713,903.32,-312.012,52.246,905.762
1742115073.717,999.512,-187.988,-84.473,999.512
1742115073.662,31.738,414.062,-136.719,-30.762
1742115073.666,999.512,-45.41,-91.309,999.512
1742115073.67,917.969,-521.484,-60.547,928.223
1742115073.674,957.52,-374.023,-27.344,952.637
1742115073.678,974.121,-270.508,-24.414,974.121
1742115073.682,940.43,-95.215,-8.301,948.242
1742115073.686,948.73,-267.578,15.625,937.5
1742115073.689,999.512,-378.418,11.23,999.512
1742115073.693,-203.125,-710.449,-31.25,-104.98
1742115073.697,-1000.0,-724.121,-48.34,-1000.0
1742115073.701,-940.918,-441.406,-78.125,-951.66
1742115073.705,-999.023,-266.602,-84.473,-992.676
1742115073.674,-1000.0,-203.125,-62.012,-1000.0
1742115073.678,-1000.0,-192.871,-66.895,-1000.0
1742115073.682,-952.148,-76.66,-2.93,-962.402
1742115073.686,-1000.0,-249.023,0.488,-1000.0
1742115073.69,-914.062,-96.191,22.461,-974.121
1742115073.694,458.984,321.777,24.902,329.102
1742115073.698,999.512,-81.543,0.977,999.512
1742115073.701,899.414,-387.695,48.34,904.785
1742115073.705,976.074,-248.047,29.785,971.191
1742115073.709,966.797,-233.398,46.387,966.797
1742115073.713,903.32,-312.012,52.246,905.762
1742115073.717,999.512,-187.988,-84.473,999.512
1742115073.68,187.012,-641.113,-147.949,169.922
1742115073.684,-1000.0,-737.305,-91.797,-1000.0
1742115073.688,-985.352,-210.938,-54.199,-983.887
1742115073.692,-965.82,-205.078,-61.035,-964.844
1742115073.696,-956.055,-326.66,-100.586,-961.914
1742115073.7,-1000.0,-135.254,-40.527,-1000.0
1742115073.704,-93.262,448.242,87.402,-69.824
1742115073.707,999.512,115.234,57.617,999.512
1742115073.711,932.617,-28.32,-7.812,934.57
1742115073.715,948.73,902.832,-66.406,949.707
1742115073.719,970.703,436.523,-41.504,971.68
1742115073.723,903.32,-200.195,87.402,904.785
1742115073.674,-1000.0,-203.125,-62.012,-1000.0
1742115073.678,-1000.0,-192.871,-66.895,-1000.0
1742115073.682,-952.148,-76.66,-2.93,-962.402
1742115073.686,-1000.0,-249.023,0.488,-1000.0
1742115073.69,-914.062,-96.191,22.461,-974.121
1742115073.694,458.984,321.777,24.902,329.102
1742115073.698,999.512,-81.543,0.977,999.512
1742115073.701,899.414,-387.695,48.34,904.785
1742115073.705,976.074,-248.047,29.785,971.191
1742115073.709,966.797,-233.398,46.387,966.797
1742115073.713,903.32,-312.012,52.246,905.762
1742115073.717,999.512,-187.988,-84.473,999.512
1742115073.68,187.012,-641.113,-147.949,169.922
1742115073.684,-1000.0,-737.305,-91.797,-1000.0
1742115073.688,-985.352,-210.938,-54.199,-983.887
1742115073.692,-965.82,-205.078,-61.035,-964.844
1742115073.696,-956.055,-326.66,-100.586,-961.914
1742115073.7,-1000.0,-135.254,-40.527,-1000.0
1742115073.704,-93.262,448.242,87.402,-69.824
1742115073.707,999.512,115.234,57.617,999.512
1742115073.711,932.617,-28.32,-7.812,934.57
1742115073.715,948.73,902.832,-66.406,949.707
1742115073.719,970.703,436.523,-41.504,971.68
1742115073.723,903.32,-200.195,87.402,904.785
1742115073.68,187.012,-641.113,-147.949,169.922
1742115073.684,-1000.0,-737.305,-91.797,-1000.0
1742115073.688,-985.352,-210.938,-54.199,-983.887
1742115073.692,-965.82,-205.078,-61.035,-964.844
1742115073.696,-956.055,-326.66,-100.586,-961.914
1742115073.7,-1000.0,-135.254,-40.527,-1000.0
1742115073.704,-93.262,448.242,87.402,-69.824
1742115073.707,999.512,115.234,57.617,999.512
1742115073.711,932.617,-28.32,-7.812,934.57
1742115073.715,948.73,902.832,-66.406,949.707
1742115073.719,970.703,436.523,-41.504,971.68
1742115073.723,903.32,-200.195,87.402,904.785
1742115073.735,999.512,2.93,112.305,999.512
1742115073.739,186.523,-573.242,148.438,186.523
1742115073.743,-1000.0,-782.227,118.164,-1000.0
1742115073.747,-983.887,-321.289,20.996,-984.375
1742115073.751,-973.145,348.145,31.25,-973.145
1742115073.755,-1000.0,999.512,14.648,-1000.0
1742115073.759,-929.199,80.078,-62.5,-927.734
1742115073.762,-1000.0,-874.512,-95.215,-1000.0
1742115073.766,-381.348,417.969,-49.805,-481.445
1742115073.77,975.586,999.512,59.082,920.898
1742115073.774,977.051,44.434,149.414,998.047
1742115073.778,926.27,-214.355,227.051,918.945
1742115073.735,999.512,2.93,112.305,999.512
1742115073.739,186.523,-573.242,148.438,186.523
1742115073.743,-1000.0,-782.227,118.164,-1000.0
1742115073.747,-983.887,-321.289,20.996,-984.375
1742115073.751,-973.145,348.145,31.25,-973.145
1742115073.755,-1000.0,999.512,14.648,-1000.0
1742115073.759,-929.199,80.078,-62.5,-927.734
1742115073.762,-1000.0,-874.512,-95.215,-1000.0
1742115073.766,-381.348,417.969,-49.805,-481.445
1742115073.77,975.586,999.512,59.082,920.898
1742115073.774,977.051,44.434,149.414,998.047
1742115073.778,926.27,-214.355,227.051,918.945
1742115073.766,978.027,-82.031,158.203,979.98
1742115073.77,903.32,-412.109,51.758,905.273
1742115073.774,999.512,-249.023,34.18,999.512
1742115073.778,186.523,-603.027,-89.355,172.363
1742115073.782,-1000.0,-550.293,-60.547,-1000.0
1742115073.786,-983.887,-327.637,-66.406,-981.934
1742115073.79,-973.145,-307.617,-163.086,-974.121
1742115073.793,-1000.0,-129.395,-129.883,-1000.0
1742115073.797,-1000.0,-419.434,-206.543,-1000.0
1742115073.801,-937.5,-335.449,-192.383,-935.547
1742115073.805,-1000.0,-283.203,-133.789,-1000.0
1742115073.809,-220.703,360.352,-174.805,-255.371
1742115073.766,978.027,-82.031,158.203,979.98
1742115073.77,903.32,-412.109,51.758,905.273
1742115073.774,999.512,-249.023,34.18,999.512
1742115073.778,186.523,-603.027,-89.355,172.363
1742115073.782,-1000.0,-550.293,-60.547,-1000.0
1742115073.786,-983.887,-327.637,-66.406,-981.934
1742115073.79,-973.145,-307.617,-163.086,-974.121
1742115073.793,-1000.0,-129.395,-129.883,-1000.0
1742115073.797,-1000.0,-419.434,-206.543,-1000.0
1742115073.801,-937.5,-335.449,-192.383,-935.547
1742115073.805,-1000.0,-283.203,-133.789,-1000.0
1742115073.809,-220.703,360.352,-174.805,-255.371
1742115073.766,978.027,-82.031,158.203,979.98
1742115073.77,903.32,-412.109,51.758,905.273
1742115073.774,999.512,-249.023,34.18,999.512
1742115073.778,186.523,-603.027,-89.355,172.363
1742115073.782,-1000.0,-550.293,-60.547,-1000.0
1742115073.786,-983.887,-327.637,-66.406,-981.934
1742115073.79,-973.145,-307.617,-163.086,-974.121
1742115073.793,-1000.0,-129.395,-129.883,-1000.0
1742115073.797,-1000.0,-419.434,-206.543,-1000.0
1742115073.801,-937.5,-335.449,-192.383,-935.547
1742115073.805,-1000.0,-283.203,-133.789,-1000.0
1742115073.809,-220.703,360.352,-174.805,-255.371
1742115073.81,999.512,801.758,-121.094,999.512
1742115073.814,949.707,666.992,-138.672,956.055
1742115073.818,938.965,987.793,-177.734,937.012
1742115073.822,973.633,967.773,-195.801,975.586
1742115073.826,964.844,960.449,-247.07,964.844
1742115073.83,906.25,973.633,-199.219,908.691
1742115073.834,999.512,939.453,-183.594,999.512
1742115073.837,155.762,967.773,-234.375,141.113
1742115073.841,-1000.0,932.129,-212.402,-1000.0
1742115073.845,-979.492,-198.242,-216.309,-978.027
1742115073.849,-975.586,-1000.0,-191.895,-976.562
1742115073.853,-1000.0,-965.332,-149.902,-1000.0
1742115073.81,999.512,801.758,-121.094,999.512
1742115073.814,949.707,666.992,-138.672,956.055
1742115073.818,938.965,987.793,-177.734,937.012
1742115073.822,973.633,967.773,-195.801,975.586
1742115073.826,964.844,960.449,-247.07,964.844
1742115073.83,906.25,973.633,-199.219,908.691
1742115073.834,999.512,939.453,-183.594,999.512
1742115073.837,155.762,967.773,-234.375,141.113
1742115073.841,-1000.0,932.129,-212.402,-1000.0
1742115073.845,-979.492,-198.242,-216.309,-978.027
1742115073.849,-975.586,-1000.0,-191.895,-976.562
1742115073.853,-1000.0,-965.332,-149.902,-1000.0
1742115073.854,-1000.0,-990.723,-164.551,-1000.0
1742115073.858,-1000.0,-1000.0,-114.258,-1000.0
1742115073.862,-1000.0,-1000.0,-104.004,-1000.0
1742115073.866,-928.223,-981.445,-140.625,-937.012
1742115073.87,-1000.0,-998.535,-126.953,-1000.0
1742115073.874,-606.445,-1000.0,-125.0,-673.34
1742115073.878,833.008,-121.094,-106.934,729.492
1742115073.881,999.512,-211.914,-136.719,999.512
1742115073.885,909.18,-1000.0,-149.414,909.18
1742115073.889,981.445,-990.234,-78.613,979.98
1742115073.893,981.445,-885.742,-59.082,979.004
1742115073.897,897.461,-926.27,-12.207,909.668
1742115073.854,-1000.0,-990.723,-164.551,-1000.0
1742115073.858,-1000.0,-1000.0,-114.258,-1000.0
1742115073.862,-1000.0,-1000.0,-104.004,-1000.0
1742115073.866,-928.223,-981.445,-140.625,-937.012
1742115073.87,-1000.0,-998.535,-126.953,-1000.0
1742115073.874,-606.445,-1000.0,-125.0,-673.34
1742115073.878,833.008,-121.094,-106.934,729.492
1742115073.881,999.512,-211.914,-136.719,999.512
1742115073.885,909.18,-1000.0,-149.414,909.18
1742115073.889,981.445,-990.234,-78.613,979.98
1742115073.893,981.445,-885.742,-59.082,979.004
1742115073.897,897.461,-926.27,-12.207,909.668
1742115073.902,999.512,-1000.0,25.879,999.512
1742115073.906,641.113,-1000.0,-20.02,723.145
1742115073.91,-799.316,-761.23,-22.461,-666.016
1742115073.914,-1000.0,-742.676,-74.707,-1000.0
1742115073.918,-939.453,-975.586,-97.168,-939.453
1742115073.922,-1000.0,-749.512,-44.922,-1000.0
1742115073.926,-1000.0,-482.422,-48.34,-1000.0
1742115073.929,-940.43,-666.016,-46.875,-948.242
1742115073.933,-1000.0,-994.629,-87.891,-1000.0
1742115073.937,-797.363,-388.184,-113.77,-854.004
1742115073.941,624.023,233.398,-45.41,527.344
1742115073.945,999.512,-615.234,-37.598,999.512
1742115073.902,999.512,-1000.0,25.879,999.512
1742115073.906,641.113,-1000.0,-20.02,723.145
1742115073.91,-799.316,-761.23,-22.461,-666.016
1742115073.914,-1000.0,-742.676,-74.707,-1000.0
1742115073.918,-939.453,-975.586,-97.168,-939.453
1742115073.922,-1000.0,-749.512,-44.922,-1000.0
1742115073.926,-1000.0,-482.422,-48.34,-1000.0
1742115073.929,-940.43,-666.016,-46.875,-948.242
1742115073.933,-1000.0,-994.629,-87.891,-1000.0
1742115073.937,-797.363,-388.184,-113.77,-854.004
1742115073.941,624.023,233.398,-45.41,527.344
1742115073.945,999.512,-615.234,-37.598,999.512
1742115073.944,900.879,-779.785,-43.457,902.832
1742115073.948,982.422,-707.031,-36.621,980.469
1742115073.952,952.148,-795.41,-55.176,953.125
1742115073.956,926.27,-623.535,-94.727,931.641
1742115073.96,999.512,-813.477,-125.488,999.512
1742115073.964,-41.504,-734.375,-88.867,-21.973
1742115073.968,-1000.0,152.344,-75.195,-1000.0
1742115073.971,-955.078,-275.879,-68.848,-965.82
1742115073.975,-989.746,-834.961,-34.18,-985.352
1742115073.979,-1000.0,-516.113,-4.395,-1000.0
1742115073.983,-1000.0,-445.801,56.641,-998.047
1742115073.987,-937.5,-344.727,70.801,-942.871
1742115073.944,900.879,-779.785,-43.457,902.832
1742115073.948,982.422,-707.031,-36.621,980.469
1742115073.952,952.148,-795.41,-55.176,953.125
1742115073.956,926.27,-623.535,-94.727,931.641
1742115073.96,999.512,-813.477,-125.488,999.512
1742115073.964,-41.504,-734.375,-88.867,-21.973
1742115073.968,-1000.0,152.344,-75.195,-1000.0
1742115073.971,-955.078,-275.879,-68.848,-965.82
1742115073.975,-989.746,-834.961,-34.18,-985.352
1742115073.979,-1000.0,-516.113,-4.395,-1000.0
1742115073.983,-1000.0,-445.801,56.641,-998.047
1742115073.987,-937.5,-344.727,70.801,-942.871
1742115074.019,-1000.0,-540.527,97.168,-1000.0
1742115074.023,-221.191,260.742,136.719,-179.688
1742115074.027,999.512,463.379,62.988,999.512
1742115074.031,955.566,-648.438,1.465,952.148
1742115074.035,914.551,-460.449,-22.949,916.504
1742115074.039,951.172,-259.766,-78.613,958.984
1742115074.043,999.512,-552.246,-97.168,999.512
1742115074.046,-179.199,-981.445,-80.078,-193.848
1742115074.05,-1000.0,-590.82,-40.039,-1000.0
1742115074.054,-942.383,-114.258,-71.777,-948.242
1742115074.058,-998.047,-423.34,-70.312,-996.094
1742115074.062,-1000.0,-327.637,44.922,-1000.0
1742115074.019,-1000.0,-540.527,97.168,-1000.0
1742115074.023,-221.191,260.742,136.719,-179.688
1742115074.027,999.512,463.379,62.988,999.512
1742115074.031,955.566,-648.438,1.465,952.148
1742115074.035,914.551,-460.449,-22.949,916.504
1742115074.039,951.172,-259.766,-78.613,958.984
1742115074.043,999.512,-552.246,-97.168,999.512
1742115074.046,-179.199,-981.445,-80.078,-193.848
1742115074.05,-1000.0,-590.82,-40.039,-1000.0
1742115074.054,-942.383,-114.258,-71.777,-948.242
1742115074.058,-998.047,-423.34,-70.312,-996.094
1742115074.062,-1000.0,-327.637,44.922,-1000.0
1742115074.096,-944.824,-279.297,38.574,-955.566
1742115074.1,-1000.0,-440.43,-21.484,-1000.0
1742115074.104,-841.309,-189.941,34.668,-917.969
1742115074.108,562.012,151.855,60.059,428.223
1742115074.112,999.512,-151.855,29.785,999.512
1742115074.116,900.879,-195.801,18.555,903.809
1742115074.12,979.004,-304.688,11.719,971.68
1742115074.123,903.32,-460.449,66.406,910.645
1742115074.127,999.512,-272.461,-0.977,999.512
1742115074.131,187.012,-557.617,-56.641,134.277
1742115074.135,-1000.0,-762.695,-17.09,-1000.0
1742115074.139,-983.887,-314.453,31.25,-978.516
1742115074.096,-944.824,-279.297,38.574,-955.566
1742115074.1,-1000.0,-440.43,-21.484,-1000.0
1742115074.104,-841.309,-189.941,34.668,-917.969
1742115074.108,562.012,151.855,60.059,428.223
1742115074.112,999.512,-151.855,29.785,999.512
1742115074.116,900.879,-195.801,18.555,903.809
1742115074.12,979.004,-304.688,11.719,971.68
1742115074.123,903.32,-460.449,66.406,910.645
1742115074.127,999.512,-272.461,-0.977,999.512
1742115074.131,187.012,-557.617,-56.641,134.277
1742115074.135,-1000.0,-762.695,-17.09,-1000.0
1742115074.139,-983.887,-314.453,31.25,-978.516
1742115074.099,-973.145,110.84,58.594,-976.562
1742115074.103,-1000.0,-14.648,-8.301,-1000.0
1742115074.107,-1000.0,-389.648,-63.477,-1000.0
1742115074.111,-937.5,-187.012,-126.953,-951.172
1742115074.115,-1000.0,-47.852,-125.977,-1000.0
1742115074.119,-753.906,149.414,-20.508,-868.164
1742115074.123,674.316,364.258,-35.156,495.117
1742115074.126,999.512,-78.613,-59.57,999.512
1742115074.13,902.344,-155.273,84.473,903.809
1742115074.134,992.188,-161.621,140.137,986.328
1742115074.138,918.945,-398.926,101.074,925.293
1742115074.142,999.512,132.324,113.77,988.77
1742115074.099,-973.145,110.84,58.594,-976.562
1742115074.103,-1000.0,-14.648,-8.301,-1000.0
1742115074.107,-1000.0,-389.648,-63.477,-1000.0
1742115074.111,-937.5,-187.012,-126.953,-951.172
1742115074.115,-1000.0,-47.852,-125.977,-1000.0
1742115074.119,-753.906,149.414,-20.508,-868.164
1742115074.123,674.316,364.258,-35.156,495.117
1742115074.126,999.512,-78.613,-59.57,999.512
1742115074.13,902.344,-155.273,84.473,903.809
1742115074.134,992.188,-161.621,140.137,986.328
1742115074.138,918.945,-398.926,101.074,925.293
1742115074.142,999.512,132.324,113.77,988.77
1742115074.099,-973.145,110.84,58.594,-976.562
1742115074.103,-1000.0,-14.648,-8.301,-1000.0
1742115074.107,-1000.0,-389.648,-63.477,-1000.0
1742115074.111,-937.5,-187.012,-126.953,-951.172
1742115074.115,-1000.0,-47.852,-125.977,-1000.0
1742115074.119,-753.906,149.414,-20.508,-868.164
1742115074.123,674.316,364.258,-35.156,495.117
1742115074.126,999.512,-78.613,-59.57,999.512
1742115074.13,902.344,-155.273,84.473,903.809
1742115074.134,992.188,-161.621,140.137,986.328
1742115074.138,918.945,-398.926,101.074,925.293
1742115074.142,999.512,132.324,113.77,988.77
1742115074.14,887.695,312.988,110.352,913.574
1742115074.144,-482.422,-752.93,27.344,-415.039
1742115074.148,-1000.0,-582.031,4.883,-1000.0
1742115074.152,-933.594,-42.969,79.59,-937.012
1742115074.156,-1000.0,-126.465,111.816,-1000.0
1742115074.16,-957.031,-260.254,55.664,-969.238
1742115074.164,-1000.0,-364.258,39.551,-996.582
1742115074.167,-951.66,219.727,42.969,-1000.0
1742115074.171,395.02,956.543,63.965,237.793
1742115074.175,999.512,394.531,138.672,999.512
1742115074.179,915.527,-409.668,230.469,920.898
1742115074.183,904.297,218.262,320.312,906.738
1742115074.14,887.695,312.988,110.352,913.574
1742115074.144,-482.422,-752.93,27.344,-415.039
1742115074.148,-1000.0,-582.031,4.883,-1000.0
1742115074.152,-933.594,-42.969,79.59,-937.012
1742115074.156,-1000.0,-126.465,111.816,-1000.0
1742115074.16,-957.031,-260.254,55.664,-969.238
1742115074.164,-1000.0,-364.258,39.551,-996.582
1742115074.167,-951.66,219.727,42.969,-1000.0
1742115074.171,395.02,956.543,63.965,237.793
1742115074.175,999.512,394.531,138.672,999.512
1742115074.179,915.527,-409.668,230.469,920.898
1742115074.183,904.297,218.262,320.312,906.738
1742115074.215,999.512,334.961,329.59,999.512
1742115074.219,635.254,-607.422,237.793,705.078
1742115074.223,-809.082,-792.969,196.289,-702.148
1742115074.227,-1000.0,-331.055,168.945,-1000.0
1742115074.231,-939.453,-246.094,116.699,-939.453
1742115074.235,-1000.0,-96.191,206.543,-1000.0
1742115074.239,-1000.0,77.637,321.289,-1000.0
1742115074.242,-1000.0,174.316,329.102,-1000.0
1742115074.246,-937.5,-52.734,231.445,-936.523
1742115074.25,-1000.0,-383.789,215.82,-1000.0
1742115074.254,-220.703,371.094,271.973,-236.328
1742115074.258,999.512,560.059,259.766,999.512
1742115074.215,999.512,334.961,329.59,999.512
1742115074.219,635.254,-607.422,237.793,705.078
1742115074.223,-809.082,-792.969,196.289,-702.148
1742115074.227,-1000.0,-331.055,168.945,-1000.0
1742115074.231,-939.453,-246.094,116.699,-939.453
1742115074.235,-1000.0,-96.191,206.543,-1000.0
1742115074.239,-1000.0,77.637,321.289,-1000.0
1742115074.242,-1000.0,174.316,329.102,-1000.0
1742115074.246,-937.5,-52.734,231.445,-936.523
1742115074.25,-1000.0,-383.789,215.82,-1000.0
1742115074.254,-220.703,371.094,271.973,-236.328
1742115074.258,999.512,560.059,259.766,999.512
1742115074.229,949.707,-210.449,191.895,953.125
1742115074.233,938.965,-362.305,41.504,938.477
1742115074.237,973.145,-343.262,-81.055,974.121
1742115074.241,968.262,-215.332,-110.352,969.238
1742115074.245,954.102,-336.914,-116.211,958.008
1742115074.249,922.852,-144.531,-124.512,921.387
1742115074.253,999.512,-36.621,-178.223,999.512
1742115074.256,-9.766,-629.395,-150.391,39.551
1742115074.26,-1000.0,-647.461,-88.379,-1000.0
1742115074.264,-962.402,-321.777,-109.375,-971.191
1742115074.268,-969.238,-54.199,1.465,-967.773
1742115074.272,-969.727,67.871,-13.672,-969.238
1742115074.229,949.707,-210.449,191.895,953.125
1742115074.233,938.965,-362.305,41.504,938.477
1742115074.237,973.145,-343.262,-81.055,974.121
1742115074.241,968.262,-215.332,-110.352,969.238
1742115074.245,954.102,-336.914,-116.211,958.008
1742115074.249,922.852,-144.531,-124.512,921.387
1742115074.253,999.512,-36.621,-178.223,999.512
1742115074.256,-9.766,-629.395,-150.391,39.551
1742115074.26,-1000.0,-647.461,-88.379,-1000.0
1742115074.264,-962.402,-321.777,-109.375,-971.191
1742115074.268,-969.238,-54.199,1.465,-967.773
1742115074.272,-969.727,67.871,-13.672,-969.238
1742115074.229,949.707,-210.449,191.895,953.125
1742115074.233,938.965,-362.305,41.504,938.477
1742115074.237,973.145,-343.262,-81.055,974.121
1742115074.241,968.262,-215.332,-110.352,969.238
1742115074.245,954.102,-336.914,-116.211,958.008
1742115074.249,922.852,-144.531,-124.512,921.387
1742115074.253,999.512,-36.621,-178.223,999.512
1742115074.256,-9.766,-629.395,-150.391,39.551
1742115074.26,-1000.0,-647.461,-88.379,-1000.0
1742115074.264,-962.402,-321.777,-109.375,-971.191
1742115074.268,-969.238,-54.199,1.465,-967.773
1742115074.272,-969.727,67.871,-13.672,-969.238
1742115074.275,-1000.0,-35.645,37.598,-1000.0
1742115074.279,63.477,221.68,371.094,17.578
1742115074.283,999.512,613.77,365.723,999.512
1742115074.287,915.039,687.012,348.145,924.805
1742115074.291,958.984,-38.574,363.281,954.59
1742115074.295,906.25,-179.199,262.207,909.668
1742115074.299,999.512,432.617,255.371,999.512
1742115074.302,172.852,-339.844,187.012,159.668
1742115074.306,-1000.0,-781.25,142.578,-1000.0
1742115074.31,-981.934,-36.133,203.125,-980.469
1742115074.314,-974.121,5.859,182.617,-975.098
1742115074.318,-1000.0,-80.566,102.539,-1000.0
1742115074.275,-1000.0,-35.645,37.598,-1000.0
1742115074.279,63.477,221.68,371.094,17.578
1742115074.283,999.512,613.77,365.723,999.512
1742115074.287,915.039,687.012,348.145,924.805
1742115074.291,958.984,-38.574,363.281,954.59
1742115074.295,906.25,-179.199,262.207,909.668
1742115074.299,999.512,432.617,255.371,999.512
1742115074.302,172.852,-339.844,187.012,159.668
1742115074.306,-1000.0,-781.25,142.578,-1000.0
1742115074.31,-981.934,-36.133,203.125,-980.469
1742115074.314,-974.121,5.859,182.617,-975.098
1742115074.318,-1000.0,-80.566,102.539,-1000.0
1742115074.35,-929.688,-94.727,24.902,-935.547
1742115074.354,-1000.0,-250.977,-28.32,-1000.0
1742115074.358,-647.461,131.836,-16.602,-689.453
1742115074.362,797.363,574.219,-51.27,729.98
1742115074.366,999.512,-139.648,-90.332,999.512
1742115074.37,906.738,187.988,-65.918,907.227
1742115074.374,981.934,733.887,-64.941,980.469
1742115074.377,966.309,40.039,16.602,967.773
1742115074.381,966.309,-317.871,66.406,964.844
1742115074.385,904.297,146.484,38.086,909.18
1742115074.389,999.512,333.496,22.461,999.512
1742115074.393,180.664,-541.016,-40.039,145.02
1742115074.35,-929.688,-94.727,24.902,-935.547
1742115074.354,-1000.0,-250.977,-28.32,-1000.0
1742115074.358,-647.461,131.836,-16.602,-689.453
1742115074.362,797.363,574.219,-51.27,729.98
1742115074.366,999.512,-139.648,-90.332,999.512
1742115074.37,906.738,187.988,-65.918,907.227
1742115074.374,981.934,733.887,-64.941,980.469
1742115074.377,966.309,40.039,16.602,967.773
1742115074.381,966.309,-317.871,66.406,964.844
1742115074.385,904.297,146.484,38.086,909.18
1742115074.389,999.512,333.496,22.461,999.512
1742115074.393,180.664,-541.016,-40.039,145.02
1742115074.38,-1000.0,-578.613,-16.602,-1000.0
1742115074.384,-982.91,59.082,14.648,-979.492
1742115074.388,-985.84,0.0,-36.133,-984.375
1742115074.392,-958.008,-8.301,-54.688,-963.379
1742115074.396,-1000.0,-22.461,-75.684,-1000.0
1742115074.4,-901.855,169.922,-24.414,-852.051
1742115074.404,472.656,495.117,-25.391,452.637
1742115074.407,999.512,116.211,-98.145,999.512
1742115074.411,899.902,-274.414,-144.043,910.156
1742115074.415,976.074,-94.238,-222.656,972.168
1742115074.419,966.309,-52.734,-229.004,967.285
1742115074.423,966.797,-103.027,-214.844,969.727
1742115074.38,-1000.0,-578.613,-16.602,-1000.0
1742115074.384,-982.91,59.082,14.648,-979.492
1742115074.388,-985.84,0.0,-36.133,-984.375
1742115074.392,-958.008,-8.301,-54.688,-963.379
1742115074.396,-1000.0,-22.461,-75.684,-1000.0
1742115074.4,-901.855,169.922,-24.414,-852.051
1742115074.404,472.656,495.117,-25.391,452.637
1742115074.407,999.512,116.211,-98.145,999.512
1742115074.411,899.902,-274.414,-144.043,910.156
1742115074.415,976.074,-94.238,-222.656,972.168
1742115074.419,966.309,-52.734,-229.004,967.285
1742115074.423,966.797,-103.027,-214.844,969.727
1742115074.425,903.32,-24.902,-288.086,901.855
1742115074.429,999.512,575.195,-264.16,999.512
1742115074.433,187.012,-196.777,-235.84,227.539
1742115074.437,-1000.0,-747.559,-250.488,-1000.0
1742115074.441,-983.887,60.547,-222.656,-990.723
1742115074.445,-973.145,-53.711,-343.262,-970.215
1742115074.449,-1000.0,-155.762,-403.809,-1000.0
1742115074.452,-937.5,-108.398,-405.273,-937.012
1742115074.456,-1000.0,-9.766,-390.137,-1000.0
1742115074.46,-221.191,771.484,-328.613,-228.516
1742115074.464,999.512,469.238,-416.504,999.512
1742115074.468,949.707,-280.273,-397.949,952.148
1742115074.47,938.965,-18.066,-343.75,938.965
1742115074.474,973.145,-60.059,-364.746,974.121
1742115074.478,966.309,-14.648,-278.32,966.797
1742115074.482,966.309,2.441,-263.672,966.797
1742115074.486,966.309,-200.195,-356.934,966.797
1742115074.49,971.68,-61.035,-375.977,969.727
1742115074.494,941.895,-139.16,-351.562,953.125
1742115074.497,945.801,-217.773,-311.523,927.246
1742115074.501,999.512,168.457,-368.164,999.512
1742115074.505,-182.129,-500.0,-412.598,-31.25
1742115074.509,-1000.0,-576.66,-389.16,-1000.0
1742115074.513,-942.871,-15.137,-383.301,-958.008
1742115074.514,-998.047,-14.16,-294.434,-988.281
1742115074.518,-1000.0,-207.52,-223.145,-1000.0
1742115074.522,-1000.0,-151.855,-246.094,-1000.0
1742115074.526,-937.5,-7.812,-335.938,-934.57
1742115074.53,-1000.0,-151.855,-424.805,-1000.0
1742115074.534,-221.191,473.633,-356.445,-267.09
1742115074.538,999.512,633.789,-345.215,999.512
1742115074.541,950.195,35.645,-530.273,958.008
1742115074.545,938.965,-85.938,-416.504,936.035
1742115074.549,972.656,-325.195,-106.445,975.098
1742115074.553,981.445,-184.57,191.406,979.98
1742115074.557,894.043,385.254,389.648,900.391
1742115074.56,999.512,445.801,359.863,999.512
1742115074.564,573.73,-492.676,542.48,607.422
1742115074.568,-867.676,-875.488,666.016,-806.641
1742115074.572,-1000.0,-102.539,662.109,-1000.0
1742115074.576,-942.871,94.238,724.609,-943.359
1742115074.58,-1000.0,-107.91,676.27,-1000.0
1742115074.584,-1000.0,-7.812,558.105,-1000.0
1742115074.587,-1000.0,171.875,439.453,-1000.0
1742115074.591,-1000.0,-137.695,416.016,-1000.0
1742115074.595,-928.711,-306.641,481.934,-939.941
1742115074.599,-1000.0,-169.922,464.844,-1000.0
1742115074.603,-612.305,189.941,439.453,-745.605
1742115074.56,999.512,445.801,359.863,999.512
1742115074.564,573.73,-492.676,542.48,607.422
1742115074.568,-867.676,-875.488,666.016,-806.641
1742115074.572,-1000.0,-102.539,662.109,-1000.0
1742115074.576,-942.871,94.238,724.609,-943.359
1742115074.58,-1000.0,-107.91,676.27,-1000.0
1742115074.584,-1000.0,-7.812,558.105,-1000.0
1742115074.587,-1000.0,171.875,439.453,-1000.0
1742115074.591,-1000.0,-137.695,416.016,-1000.0
1742115074.595,-928.711,-306.641,481.934,-939.941
1742115074.599,-1000.0,-169.922,464.844,-1000.0
1742115074.603,-612.305,189.941,439.453,-745.605
1742115074.604,827.148,474.121,393.066,662.109
1742115074.608,999.512,-195.801,299.316,999.512
1742115074.612,908.691,-188.965,352.539,905.273
1742115074.616,981.445,-27.344,372.559,979.492
1742115074.62,966.309,-333.496,313.477,966.797
1742115074.624,967.285,-383.789,299.805,969.727
1742115074.628,903.32,174.805,245.605,900.879
1742115074.631,999.512,999.512,280.273,999.512
1742115074.635,187.012,-75.195,252.93,235.352
1742115074.639,-1000.0,-879.395,223.633,-1000.0
1742115074.643,-983.887,21.973,283.691,-991.699
1742115074.647,-973.145,59.082,263.184,-969.238
1742115074.604,827.148,474.121,393.066,662.109
1742115074.608,999.512,-195.801,299.316,999.512
1742115074.612,908.691,-188.965,352.539,905.273
1742115074.616,981.445,-27.344,372.559,979.492
1742115074.62,966.309,-333.496,313.477,966.797
1742115074.624,967.285,-383.789,299.805,969.727
1742115074.628,903.32,174.805,245.605,900.879
1742115074.631,999.512,999.512,280.273,999.512
1742115074.635,187.012,-75.195,252.93,235.352
1742115074.639,-1000.0,-879.395,223.633,-1000.0
1742115074.643,-983.887,21.973,283.691,-991.699
1742115074.647,-973.145,59.082,263.184,-969.238
1742115074.604,827.148,474.121,393.066,662.109
1742115074.608,999.512,-195.801,299.316,999.512
1742115074.612,908.691,-188.965,352.539,905.273
1742115074.616,981.445,-27.344,372.559,979.492
1742115074.62,966.309,-333.496,313.477,966.797
1742115074.624,967.285,-383.789,299.805,969.727
1742115074.628,903.32,174.805,245.605,900.879
1742115074.631,999.512,999.512,280.273,999.512
1742115074.635,187.012,-75.195,252.93,235.352
1742115074.639,-1000.0,-879.395,223.633,-1000.0
1742115074.643,-983.887,21.973,283.691,-991.699
1742115074.647,-973.145,59.082,263.184,-969.238
1742115074.649,-1000.0,-49.805,244.141,-1000.0
1742115074.653,-1000.0,-41.016,181.641,-1000.0
1742115074.657,-927.246,-45.41,128.418,-929.199
1742115074.661,-1000.0,-129.395,115.723,-1000.0
1742115074.665,-445.312,183.594,30.273,-495.117
1742115074.669,945.312,589.844,-49.805,903.32
1742115074.673,989.258,524.902,-52.734,999.512
1742115074.676,920.41,-20.508,-111.816,918.457
1742115074.68,979.492,-455.566,-156.738,980.469
1742115074.684,966.797,-129.883,-149.902,969.238
1742115074.688,903.32,32.227,-102.051,902.832
1742115074.692,999.512,40.527,-58.105,999.512
1742115074.649,-1000.0,-49.805,244.141,-1000.0
1742115074.653,-1000.0,-41.016,181.641,-1000.0
1742115074.657,-927.246,-45.41,128.418,-929.199
1742115074.661,-1000.0,-129.395,115.723,-1000.0
1742115074.665,-445.312,183.594,30.273,-495.117
1742115074.669,945.312,589.844,-49.805,903.32
1742115074.673,989.258,524.902,-52.734,999.512
1742115074.676,920.41,-20.508,-111.816,918.457
1742115074.68,979.492,-455.566,-156.738,980.469
1742115074.684,966.797,-129.883,-149.902,969.238
1742115074.688,903.32,32.227,-102.051,902.832
1742115074.692,999.512,40.527,-58.105,999.512
1742115074.694,186.523,-489.258,-25.879,218.262
1742115074.698,-1000.0,-580.566,-29.785,-1000.0
1742115074.702,-983.887,109.863,-35.645,-989.746
1742115074.706,-973.145,158.691,118.164,-970.703
1742115074.71,-1000.0,84.473,172.852,-1000.0
1742115074.714,-1000.0,141.113,33.203,-1000.0
1742115074.718,-1000.0,166.992,-0.977,-1000.0
1742115074.721,-939.453,47.363,22.461,-955.078
1742115074.725,-1000.0,-206.055,1.465,-1000.0
1742115074.729,-782.227,178.223,64.453,-916.992
1742115074.733,641.602,774.902,143.066,433.105
1742115074.737,999.512,153.32,190.918,999.512
1742115074.694,186.523,-489.258,-25.879,218.262
1742115074.698,-1000.0,-580.566,-29.785,-1000.0
1742115074.702,-983.887,109.863,-35.645,-989.746
1742115074.706,-973.145,158.691,118.164,-970.703
1742115074.71,-1000.0,84.473,172.852,-1000.0
1742115074.714,-1000.0,141.113,33.203,-1000.0
1742115074.718,-1000.0,166.992,-0.977,-1000.0
1742115074.721,-939.453,47.363,22.461,-955.078
1742115074.725,-1000.0,-206.055,1.465,-1000.0
1742115074.729,-782.227,178.223,64.453,-916.992
1742115074.733,641.602,774.902,143.066,433.105
1742115074.737,999.512,153.32,190.918,999.512
1742115074.694,186.523,-489.258,-25.879,218.262
1742115074.698,-1000.0,-580.566,-29.785,-1000.0
1742115074.702,-983.887,109.863,-35.645,-989.746
1742115074.706,-973.145,158.691,118.164,-970.703
1742115074.71,-1000.0,84.473,172.852,-1000.0
1742115074.714,-1000.0,141.113,33.203,-1000.0
1742115074.718,-1000.0,166.992,-0.977,-1000.0
1742115074.721,-939.453,47.363,22.461,-955.078
1742115074.725,-1000.0,-206.055,1.465,-1000.0
1742115074.729,-782.227,178.223,64.453,-916.992
1742115074.733,641.602,774.902,143.066,433.105
1742115074.737,999.512,153.32,190.918,999.512
1742115074.754,901.367,-128.418,149.414,902.832
1742115074.758,979.98,-67.383,184.082,974.609
1742115074.762,981.445,26.855,306.152,980.469
1742115074.766,899.414,55.176,308.594,909.668
1742115074.77,999.512,222.656,304.688,999.512
1742115074.774,670.41,75.684,265.625,761.23
1742115074.778,-768.066,-627.441,210.449,-638.184
1742115074.781,-1000.0,-226.074,326.66,-1000.0
1742115074.785,-938.477,144.043,334.961,-937.012
1742115074.789,-1000.0,322.266,306.641,-1000.0
1742115074.793,-972.168,184.082,370.605,-977.539
1742115074.797,-988.281,-173.828,387.207,-979.004
1742115074.754,901.367,-128.418,149.414,902.832
1742115074.758,979.98,-67.383,184.082,974.609
1742115074.762,981.445,26.855,306.152,980.469
1742115074.766,899.414,55.176,308.594,909.668
1742115074.77,999.512,222.656,304.688,999.512
1742115074.774,670.41,75.684,265.625,761.23
1742115074.778,-768.066,-627.441,210.449,-638.184
1742115074.781,-1000.0,-226.074,326.66,-1000.0
1742115074.785,-938.477,144.043,334.961,-937.012
1742115074.789,-1000.0,322.266,306.641,-1000.0
1742115074.793,-972.168,184.082,370.605,-977.539
1742115074.797,-988.281,-173.828,387.207,-979.004
1742115074.799,-1000.0,127.93,402.832,-1000.0
1742115074.803,201.172,613.281,416.016,124.512
1742115074.807,999.512,200.684,526.367,999.512
1742115074.811,905.762,-18.066,569.824,915.039
1742115074.815,966.797,224.609,523.926,961.914
1742115074.819,966.797,71.777,500.0,968.262
1742115074.823,966.309,-66.406,395.02,967.773
1742115074.826,966.309,-96.191,414.062,964.844
1742115074.83,904.785,271.484,436.523,908.203
1742115074.834,999.512,831.055,382.812,999.512
1742115074.838,173.828,-342.773,479.004,146.973
1742115074.842,-1000.0,-730.469,492.676,-1000.0
1742115074.799,-1000.0,127.93,402.832,-1000.0
1742115074.803,201.172,613.281,416.016,124.512
1742115074.807,999.512,200.684,526.367,999.512
1742115074.811,905.762,-18.066,569.824,915.039
1742115074.815,966.797,224.609,523.926,961.914
1742115074.819,966.797,71.777,500.0,968.262
1742115074.823,966.309,-66.406,395.02,967.773
1742115074.826,966.309,-96.191,414.062,964.844
1742115074.83,904.785,271.484,436.523,908.203
1742115074.834,999.512,831.055,382.812,999.512
1742115074.838,173.828,-342.773,479.004,146.973
1742115074.842,-1000.0,-730.469,492.676,-1000.0
1742115074.845,-981.934,-3.906,399.902,-979.004
1742115074.849,-985.84,-193.359,320.801,-988.281
1742115074.853,-933.105,-443.848,253.906,-936.035
1742115074.857,-1000.0,-210.938,337.891,-1000.0
1742115074.861,-470.703,429.199,398.926,-537.598
1742115074.865,931.152,715.332,357.91,869.141
1742115074.869,994.141,-15.137,408.203,999.512
1742115074.872,918.457,-229.98,378.906,915.527
1742115074.876,993.652,443.848,416.992,993.164
1742115074.88,892.09,50.781,500.977,898.926
1742115074.884,999.512,-241.699,478.516,999.512
1742115074.888,501.465,-195.801,484.375,541.992
1742115074.89,-928.711,-593.262,452.637,-863.281
1742115074.894,-1000.0,-279.297,412.598,-1000.0
1742115074.898,-947.754,-143.555,376.465,-947.754
1742115074.902,-1000.0,-75.684,256.348,-1000.0
1742115074.906,-939.453,-180.176,264.648,-942.383
1742115074.91,-1000.0,-121.582,372.07,-1000.0
1742115074.914,-200.684,374.023,384.766,-172.852
1742115074.917,999.512,598.633,389.16,999.512
1742115074.921,946.777,546.875,351.562,944.336
1742115074.925,940.43,-191.895,336.426,942.871
1742115074.929,987.793,-477.051,365.723,985.84
1742115074.933,897.461,180.176,352.539,908.691
1742115074.965,999.512,47.363,344.727,999.512
1742115074.969,646.484,-548.34,317.871,748.535
1742115074.973,-795.41,-759.277,285.156,-652.832
1742115074.977,-1000.0,-341.797,268.555,-1000.0
1742115074.981,-939.453,-157.227,213.379,-937.5
1742115074.985,-1000.0,-335.938,261.23,-1000.0
1742115074.989,-1000.0,-163.574,288.086,-1000.0
1742115074.992,-1000.0,128.418,203.125,-1000.0
1742115074.996,-928.223,-383.789,182.129,-937.012
1742115075.0,-1000.0,-477.539,191.406,-1000.0
1742115075.004,-600.586,57.617,158.691,-562.5
1742115075.008,842.773,122.07,120.117,826.66
1742115074.965,999.512,47.363,344.727,999.512
1742115074.969,646.484,-548.34,317.871,748.535
1742115074.973,-795.41,-759.277,285.156,-652.832
1742115074.977,-1000.0,-341.797,268.555,-1000.0
1742115074.981,-939.453,-157.227,213.379,-937.5
1742115074.985,-1000.0,-335.938,261.23,-1000.0
1742115074.989,-1000.0,-163.574,288.086,-1000.0
1742115074.992,-1000.0,128.418,203.125,-1000.0
1742115074.996,-928.223,-383.789,182.129,-937.012
1742115075.0,-1000.0,-477.539,191.406,-1000.0
1742115075.004,-600.586,57.617,158.691,-562.5
1742115075.008,842.773,122.07,120.117,826.66
1742115074.965,999.512,47.363,344.727,999.512
1742115074.969,646.484,-548.34,317.871,748.535
1742115074.973,-795.41,-759.277,285.156,-652.832
1742115074.977,-1000.0,-341.797,268.555,-1000.0
1742115074.981,-939.453,-157.227,213.379,-937.5
1742115074.985,-1000.0,-335.938,261.23,-1000.0
1742115074.989,-1000.0,-163.574,288.086,-1000.0
1742115074.992,-1000.0,128.418,203.125,-1000.0
1742115074.996,-928.223,-383.789,182.129,-937.012
1742115075.0,-1000.0,-477.539,191.406,-1000.0
1742115075.004,-600.586,57.617,158.691,-562.5
1742115075.008,842.773,122.07,120.117,826.66
1742115075.009,999.512,-346.68,109.863,999.512
1742115075.013,908.203,-361.328,155.762,912.109
1742115075.017,981.934,721.191,475.098,981.445
1742115075.021,977.539,999.512,642.09,975.586
1742115075.025,925.781,-99.121,535.156,935.059
1742115075.029,977.539,-56.152,513.672,961.914
1742115075.033,974.609,743.164,508.301,999.512
1742115075.036,-384.277,-505.371,437.5,-270.996
1742115075.04,-1000.0,-816.895,390.137,-1000.0
1742115075.044,-929.199,-323.73,357.422,-937.988
1742115075.048,-1000.0,-294.434,321.777,-1000.0
1742115075.052,-1000.0,-210.449,297.852,-1000.0
1742115075.009,999.512,-346.68,109.863,999.512
1742115075.013,908.203,-361.328,155.762,912.109
1742115075.017,981.934,721.191,475.098,981.445
1742115075.021,977.539,999.512,642.09,975.586
1742115075.025,925.781,-99.121,535.156,935.059
1742115075.029,977.539,-56.152,513.672,961.914
1742115075.033,974.609,743.164,508.301,999.512
1742115075.036,-384.277,-505.371,437.5,-270.996
1742115075.04,-1000.0,-816.895,390.137,-1000.0
1742115075.044,-929.199,-323.73,357.422,-937.988
1742115075.048,-1000.0,-294.434,321.777,-1000.0
1742115075.052,-1000.0,-210.449,297.852,-1000.0
1742115075.069,-1000.0,-215.332,314.941,-1000.0
1742115075.073,-1000.0,-188.965,327.148,-1000.0
1742115075.077,-936.035,-139.648,226.562,-939.453
1742115075.081,-1000.0,-269.531,184.57,-1000.0
1742115075.085,-815.43,-91.797,208.496,-838.379
1742115075.089,656.25,532.227,235.352,620.117
1742115075.093,999.512,104.004,280.762,999.512
1742115075.096,894.531,-356.445,271.973,895.508
1742115075.1,999.512,-247.559,250.977,997.07
1742115075.104,898.438,492.676,297.852,904.297
1742115075.108,999.512,423.34,315.43,999.512
1742115075.112,732.422,-470.703,305.176,676.758
1742115075.069,-1000.0,-215.332,314.941,-1000.0
1742115075.073,-1000.0,-188.965,327.148,-1000.0
1742115075.077,-936.035,-139.648,226.562,-939.453
1742115075.081,-1000.0,-269.531,184.57,-1000.0
1742115075.085,-815.43,-91.797,208.496,-838.379
1742115075.089,656.25,532.227,235.352,620.117
1742115075.093,999.512,104.004,280.762,999.512
1742115075.096,894.531,-356.445,271.973,895.508
1742115075.1,999.512,-247.559,250.977,997.07
1742115075.104,898.438,492.676,297.852,904.297
1742115075.108,999.512,423.34,315.43,999.512
1742115075.112,732.422,-470.703,305.176,676.758
1742115075.115,-744.629,-507.324,257.324,-752.441
1742115075.119,-1000.0,548.34,224.609,-1000.0
1742115075.123,-931.152,218.262,279.785,-936.035
1742115075.127,-1000.0,-273.438,230.469,-1000.0
1742115075.131,-1000.0,-163.086,168.457,-1000.0
1742115075.135,-1000.0,-34.668,204.59,-1000.0
1742115075.139,-942.383,35.645,227.051,-952.148
1742115075.142,-1000.0,-281.25,265.625,-1000.0
1742115075.146,-891.113,113.77,239.746,-957.52
1742115075.15,563.965,865.234,181.152,448.73
1742115075.154,999.512,83.496,150.391,999.512
1742115075.158,907.715,-357.91,125.0,903.32
1742115075.115,-744.629,-507.324,257.324,-752.441
1742115075.119,-1000.0,548.34,224.609,-1000.0
1742115075.123,-931.152,218.262,279.785,-936.035
1742115075.127,-1000.0,-273.438,230.469,-1000.0
1742115075.131,-1000.0,-163.086,168.457,-1000.0
1742115075.135,-1000.0,-34.668,204.59,-1000.0
1742115075.139,-942.383,35.645,227.051,-952.148
1742115075.142,-1000.0,-281.25,265.625,-1000.0
1742115075.146,-891.113,113.77,239.746,-957.52
1742115075.15,563.965,865.234,181.152,448.73
1742115075.154,999.512,83.496,150.391,999.512
1742115075.158,907.715,-357.91,125.0,903.32
1742115075.16,909.18,211.426,184.57,916.016
1742115075.164,999.512,80.078,172.852,999.512
1742115075.168,601.562,-461.426,40.527,500.977
1742115075.172,-857.422,-573.73,337.402,-876.953
1742115075.176,-1000.0,-151.855,931.152,-1000.0
1742115075.18,-939.941,-0.977,982.422,-947.754
1742115075.184,-1000.0,-14.648,946.289,-1000.0
1742115075.187,-1000.0,-279.297,972.656,-1000.0
1742115075.191,-1000.0,271.484,967.285,-1000.0
1742115075.195,-942.383,335.449,967.285,-947.266
1742115075.199,-1000.0,-203.125,967.285,-1000.0
1742115075.203,-891.113,-29.785,967.285,-927.734
1742115075.16,909.18,211.426,184.57,916.016
1742115075.164,999.512,80.078,172.852,999.512
1742115075.168,601.562,-461.426,40.527,500.977
1742115075.172,-857.422,-573.73,337.402,-876.953
1742115075.176,-1000.0,-151.855,931.152,-1000.0
1742115075.18,-939.941,-0.977,982.422,-947.754
1742115075.184,-1000.0,-14.648,946.289,-1000.0
1742115075.187,-1000.0,-279.297,972.656,-1000.0
1742115075.191,-1000.0,271.484,967.285,-1000.0
1742115075.195,-942.383,335.449,967.285,-947.266
1742115075.199,-1000.0,-203.125,967.285,-1000.0
1742115075.203,-891.113,-29.785,967.285,-927.734
1742115075.205,563.965,678.711,966.797,503.906
1742115075.209,999.512,62.5,966.797,999.512
1742115075.213,891.602,-373.535,966.797,892.578
1742115075.217,999.512,-240.234,966.797,995.117
1742115075.221,895.508,-353.516,966.797,901.367
1742115075.225,999.512,-36.621,966.797,999.512
1742115075.229,679.688,-303.223,967.773,645.996
1742115075.232,-795.898,-585.938,963.867,-789.551
1742115075.236,-1000.0,288.574,970.215,-1000.0
1742115075.24,-934.57,-9.277,964.355,-937.5
1742115075.244,-1000.0,-293.945,873.047,-1000.0
1742115075.248,-1000.0,-92.773,863.77,-1000.0
1742115075.205,563.965,678.711,966.797,503.906
1742115075.209,999.512,62.5,966.797,999.512
1742115075.213,891.602,-373.535,966.797,892.578
1742115075.217,999.512,-240.234,966.797,995.117
1742115075.221,895.508,-353.516,966.797,901.367
1742115075.225,999.512,-36.621,966.797,999.512
1742115075.229,679.688,-303.223,967.773,645.996
1742115075.232,-795.898,-585.938,963.867,-789.551
1742115075.236,-1000.0,288.574,970.215,-1000.0
1742115075.24,-934.57,-9.277,964.355,-937.5
1742115075.244,-1000.0,-293.945,873.047,-1000.0
1742115075.248,-1000.0,-92.773,863.77,-1000.0
1742115075.25,-942.383,-106.445,839.355,-944.336
1742115075.254,-1000.0,-314.941,755.859,-1000.0
1742115075.258,-891.113,72.754,741.699,-903.32
1742115075.262,563.477,730.957,691.406,544.434
1742115075.266,999.512,167.48,620.605,999.512
1742115075.27,908.691,-59.082,562.988,908.691
1742115075.274,919.922,-37.598,459.473,920.41
1742115075.277,999.512,283.691,429.688,999.512
1742115075.281,809.082,-48.828,418.457,798.828
1742115075.285,-658.203,-708.496,380.859,-660.645
1742115075.289,-1000.0,37.109,319.824,-1000.0
1742115075.293,-927.246,512.207,226.074,-928.711
1742115075.25,-942.383,-106.445,839.355,-944.336
1742115075.254,-1000.0,-314.941,755.859,-1000.0
1742115075.258,-891.113,72.754,741.699,-903.32
1742115075.262,563.477,730.957,691.406,544.434
1742115075.266,999.512,167.48,620.605,999.512
1742115075.27,908.691,-59.082,562.988,908.691
1742115075.274,919.922,-37.598,459.473,920.41
1742115075.277,999.512,283.691,429.688,999.512
1742115075.281,809.082,-48.828,418.457,798.828
1742115075.285,-658.203,-708.496,380.859,-660.645
1742115075.289,-1000.0,37.109,319.824,-1000.0
1742115075.293,-927.246,512.207,226.074,-928.711
1742115075.294,-1000.0,2.441,178.711,-1000.0
1742115075.298,-1000.0,-261.23,104.492,-1000.0
1742115075.302,-1000.0,-86.426,38.086,-1000.0
1742115075.306,-939.941,-48.828,-6.348,-941.406
1742115075.31,-1000.0,-191.406,-30.273,-1000.0
1742115075.314,-863.77,-91.309,240.723,-877.93
1742115075.318,598.145,784.668,498.535,580.566
1742115075.321,999.512,898.438,475.586,999.512
1742115075.325,907.227,-87.891,513.672,906.25
1742115075.329,931.152,-410.156,454.59,935.547
1742115075.333,999.512,-35.645,372.559,994.629
1742115075.337,904.785,-158.691,327.148,931.152
1742115075.294,-1000.0,2.441,178.711,-1000.0
1742115075.298,-1000.0,-261.23,104.492,-1000.0
1742115075.302,-1000.0,-86.426,38.086,-1000.0
1742115075.306,-939.941,-48.828,-6.348,-941.406
1742115075.31,-1000.0,-191.406,-30.273,-1000.0
1742115075.314,-863.77,-91.309,240.723,-877.93
1742115075.318,598.145,784.668,498.535,580.566
1742115075.321,999.512,898.438,475.586,999.512
1742115075.325,907.227,-87.891,513.672,906.25
1742115075.329,931.152,-410.156,454.59,935.547
1742115075.333,999.512,-35.645,372.559,994.629
1742115075.337,904.785,-158.691,327.148,931.152
1742115075.339,-520.02,-834.961,263.184,-466.309
1742115075.343,-1000.0,-525.391,240.723,-1000.0
1742115075.347,-925.781,50.293,187.012,-927.246
1742115075.351,-1000.0,-164.551,161.621,-1000.0
1742115075.355,-942.383,-222.656,159.668,-941.406
1742115075.359,-1000.0,17.09,112.793,-1000.0
1742115075.363,-888.184,587.402,128.418,-872.559
1742115075.366,567.383,806.641,163.086,584.961
1742115075.37,999.512,-239.258,134.766,999.512
1742115075.374,892.09,-300.293,159.18,893.066
1742115075.378,982.422,710.449,81.543,982.91
1742115075.382,966.309,118.652,253.418,966.797
1742115075.339,-520.02,-834.961,263.184,-466.309
1742115075.343,-1000.0,-525.391,240.723,-1000.0
1742115075.347,-925.781,50.293,187.012,-927.246
1742115075.351,-1000.0,-164.551,161.621,-1000.0
1742115075.355,-942.383,-222.656,159.668,-941.406
1742115075.359,-1000.0,17.09,112.793,-1000.0
1742115075.363,-888.184,587.402,128.418,-872.559
1742115075.366,567.383,806.641,163.086,584.961
1742115075.37,999.512,-239.258,134.766,999.512
1742115075.374,892.09,-300.293,159.18,893.066
1742115075.378,982.422,710.449,81.543,982.91
1742115075.382,966.309,118.652,253.418,966.797
1742115075.384,966.309,-384.766,858.398,966.797
1742115075.388,983.887,-150.391,995.117,982.422
1742115075.392,896.484,-154.297,942.383,903.32
1742115075.396,999.512,-109.863,971.68,999.512
1742115075.4,699.219,-393.555,964.844,725.098
1742115075.404,-776.855,-293.457,924.805,-724.609
1742115075.408,-1000.0,229.004,871.094,-1000.0
1742115075.411,-933.105,-159.18,840.332,-933.105
1742115075.415,-1000.0,-188.477,806.641,-1000.0
1742115075.419,-1000.0,83.984,773.438,-1000.0
1742115075.423,-958.008,80.566,701.172,-960.938
1742115075.427,-1000.0,-240.723,591.797,-1000.0
1742115075.384,966.309,-384.766,858.398,966.797
1742115075.388,983.887,-150.391,995.117,982.422
1742115075.392,896.484,-154.297,942.383,903.32
1742115075.396,999.512,-109.863,971.68,999.512
1742115075.4,699.219,-393.555,964.844,725.098
1742115075.404,-776.855,-293.457,924.805,-724.609
1742115075.408,-1000.0,229.004,871.094,-1000.0
1742115075.411,-933.105,-159.18,840.332,-933.105
1742115075.415,-1000.0,-188.477,806.641,-1000.0
1742115075.419,-1000.0,83.984,773.438,-1000.0
1742115075.423,-958.008,80.566,701.172,-960.938
1742115075.427,-1000.0,-240.723,591.797,-1000.0
1742115075.384,966.309,-384.766,858.398,966.797
1742115075.388,983.887,-150.391,995.117,982.422
1742115075.392,896.484,-154.297,942.383,903.32
1742115075.396,999.512,-109.863,971.68,999.512
1742115075.4,699.219,-393.555,964.844,725.098
1742115075.404,-776.855,-293.457,924.805,-724.609
1742115075.408,-1000.0,229.004,871.094,-1000.0
1742115075.411,-933.105,-159.18,840.332,-933.105
1742115075.415,-1000.0,-188.477,806.641,-1000.0
1742115075.419,-1000.0,83.984,773.438,-1000.0
1742115075.423,-958.008,80.566,701.172,-960.938
1742115075.427,-1000.0,-240.723,591.797,-1000.0
1742115075.444,-998.047,-151.855,552.246,-1000.0
1742115075.448,373.047,607.422,594.238,334.473
1742115075.452,999.512,340.332,621.094,999.512
1742115075.456,894.043,-217.773,528.32,897.461
1742115075.46,975.586,-32.227,412.109,974.121
1742115075.464,966.309,238.77,428.223,966.797
1742115075.468,966.309,55.664,360.84,966.797
1742115075.471,982.422,-375.977,327.148,982.91
1742115075.475,908.691,-170.41,403.32,910.156
1742115075.479,999.512,565.918,426.758,999.512
1742115075.483,856.934,144.531,450.684,864.746
1742115075.487,-597.656,-886.23,497.559,-585.449
1742115075.444,-998.047,-151.855,552.246,-1000.0
1742115075.448,373.047,607.422,594.238,334.473
1742115075.452,999.512,340.332,621.094,999.512
1742115075.456,894.043,-217.773,528.32,897.461
1742115075.46,975.586,-32.227,412.109,974.121
1742115075.464,966.309,238.77,428.223,966.797
1742115075.468,966.309,55.664,360.84,966.797
1742115075.471,982.422,-375.977,327.148,982.91
1742115075.475,908.691,-170.41,403.32,910.156
1742115075.479,999.512,565.918,426.758,999.512
1742115075.483,856.934,144.531,450.684,864.746
1742115075.487,-597.656,-886.23,497.559,-585.449
1742115075.491,-1000.0,-220.703,591.309,-1000.0
1742115075.495,-925.781,608.887,618.652,-925.781
1742115075.499,-1000.0,127.93,609.375,-1000.0
1742115075.503,-1000.0,-179.199,596.68,-1000.0
1742115075.507,-1000.0,-25.391,557.129,-1000.0
1742115075.511,-1000.0,84.961,522.949,-1000.0
1742115075.515,-941.895,79.59,471.191,-942.383
1742115075.518,-1000.0,-333.008,431.641,-1000.0
1742115075.522,-883.301,32.715,420.41,-888.672
1742115075.526,573.73,750.488,593.75,567.383
1742115075.53,999.512,59.082,832.031,999.512
1742115075.534,891.602,-208.496,874.512,892.09
1742115075.491,-1000.0,-220.703,591.309,-1000.0
1742115075.495,-925.781,608.887,618.652,-925.781
1742115075.499,-1000.0,127.93,609.375,-1000.0
1742115075.503,-1000.0,-179.199,596.68,-1000.0
1742115075.507,-1000.0,-25.391,557.129,-1000.0
1742115075.511,-1000.0,84.961,522.949,-1000.0
1742115075.515,-941.895,79.59,471.191,-942.383
1742115075.518,-1000.0,-333.008,431.641,-1000.0
1742115075.522,-883.301,32.715,420.41,-888.672
1742115075.526,573.73,750.488,593.75,567.383
1742115075.53,999.512,59.082,832.031,999.512
1742115075.534,891.602,-208.496,874.512,892.09
1742115075.535,998.535,-39.551,868.164,999.512
1742115075.539,908.203,-195.801,838.379,907.715
1742115075.543,999.512,23.438,789.062,999.512
1742115075.547,852.539,-185.059,721.191,837.402
1742115075.551,-603.516,-360.84,698.242,-621.094
1742115075.555,-1000.0,73.73,605.469,-1000.0
1742115075.559,-925.781,-186.035,468.75,-926.758
1742115075.562,-1000.0,-250.488,530.273,-1000.0
1742115075.566,-1000.0,489.258,523.926,-1000.0
1742115075.57,-957.52,368.164,408.203,-966.797
1742115075.574,-1000.0,-60.059,306.152,-998.047
1742115075.578,-994.141,83.496,282.715,-1000.0
1742115075.535,998.535,-39.551,868.164,999.512
1742115075.539,908.203,-195.801,838.379,907.715
1742115075.543,999.512,23.438,789.062,999.512
1742115075.547,852.539,-185.059,721.191,837.402
1742115075.551,-603.516,-360.84,698.242,-621.094
1742115075.555,-1000.0,73.73,605.469,-1000.0
1742115075.559,-925.781,-186.035,468.75,-926.758
1742115075.562,-1000.0,-250.488,530.273,-1000.0
1742115075.566,-1000.0,489.258,523.926,-1000.0
1742115075.57,-957.52,368.164,408.203,-966.797
1742115075.574,-1000.0,-60.059,306.152,-998.047
1742115075.578,-994.141,83.496,282.715,-1000.0
1742115075.579,380.371,731.934,286.133,257.324
1742115075.583,999.512,300.781,6.348,999.512
1742115075.587,894.043,-43.457,-219.238,902.832
1742115075.591,976.074,18.066,-329.102,970.215
1742115075.595,966.309,-162.109,-475.098,967.285
1742115075.599,977.051,118.164,-405.273,975.586
1742115075.603,927.246,20.508,-292.48,934.57
1742115075.606,974.609,170.41,-196.289,962.402
1742115075.61,982.91,746.094,-68.359,999.512
1742115075.614,-366.699,-431.152,-69.824,-274.902
1742115075.618,-1000.0,-441.895,1.465,-1000.0
1742115075.622,-945.801,235.84,128.906,-953.613
1742115075.579,380.371,731.934,286.133,257.324
1742115075.583,999.512,300.781,6.348,999.512
1742115075.587,894.043,-43.457,-219.238,902.832
1742115075.591,976.074,18.066,-329.102,970.215
1742115075.595,966.309,-162.109,-475.098,967.285
1742115075.599,977.051,118.164,-405.273,975.586
1742115075.603,927.246,20.508,-292.48,934.57
1742115075.606,974.609,170.41,-196.289,962.402
1742115075.61,982.91,746.094,-68.359,999.512
1742115075.614,-366.699,-431.152,-69.824,-274.902
1742115075.618,-1000.0,-441.895,1.465,-1000.0
1742115075.622,-945.801,235.84,128.906,-953.613
1742115075.624,-950.684,48.828,155.273,-946.777
1742115075.628,-1000.0,82.031,259.277,-1000.0
1742115075.632,-891.113,168.457,255.371,-903.809
1742115075.636,563.477,695.801,250.977,542.48
1742115075.64,999.512,237.793,266.602,999.512
1742115075.644,891.602,-351.074,132.324,892.578
1742115075.648,981.934,168.457,175.781,981.934
1742115075.651,966.309,656.738,187.012,966.797
1742115075.655,981.934,210.938,168.945,980.469
1742115075.659,911.621,-241.211,264.648,918.457
1742115075.663,999.512,84.961,225.586,997.559
1742115075.667,881.836,375.488,135.742,923.34
1742115075.669,-558.594,-580.566,41.992,-484.375
1742115075.673,-1000.0,-861.328,-71.777,-1000.0
1742115075.677,-925.781,-250.977,-84.473,-926.758
1742115075.681,-1000.0,-296.875,-87.402,-1000.0
1742115075.685,-1000.0,-267.09,-73.73,-1000.0
1742115075.689,-936.035,-170.898,-126.465,-939.941
1742115075.693,-1000.0,-287.598,-265.137,-1000.0
1742115075.696,-811.035,142.578,-204.102,-803.223
1742115075.7,659.668,55.664,-220.215,640.137
1742115075.704,999.512,-534.668,-281.738,999.512
1742115075.708,908.203,-101.562,-271.484,909.18
1742115075.712,937.012,-320.312,-336.426,939.453
1742115075.669,-558.594,-580.566,41.992,-484.375
1742115075.673,-1000.0,-861.328,-71.777,-1000.0
1742115075.677,-925.781,-250.977,-84.473,-926.758
1742115075.681,-1000.0,-296.875,-87.402,-1000.0
1742115075.685,-1000.0,-267.09,-73.73,-1000.0
1742115075.689,-936.035,-170.898,-126.465,-939.941
1742115075.693,-1000.0,-287.598,-265.137,-1000.0
1742115075.696,-811.035,142.578,-204.102,-803.223
1742115075.7,659.668,55.664,-220.215,640.137
1742115075.704,999.512,-534.668,-281.738,999.512
1742115075.708,908.203,-101.562,-271.484,909.18
1742115075.712,937.012,-320.312,-336.426,939.453
1742115075.714,991.699,-503.418,-265.625,985.84
1742115075.718,939.453,-383.301,-228.516,953.125
1742115075.722,-458.008,-854.492,-279.297,-419.922
1742115075.726,-1000.0,-574.219,-213.867,-1000.0
1742115075.73,-926.758,-306.152,-251.465,-929.199
1742115075.734,-1000.0,-109.863,-254.883,-1000.0
1742115075.738,-1000.0,303.711,-250.0,-1000.0
1742115075.741,-967.773,-318.848,-351.562,-978.027
1742115075.745,-995.117,-728.516,-381.348,-977.539
1742115075.749,-1000.0,-437.012,-415.527,-1000.0
1742115075.753,253.906,435.059,-443.359,102.051
1742115075.757,999.512,-177.246,-475.098,999.512
1742115075.714,991.699,-503.418,-265.625,985.84
1742115075.718,939.453,-383.301,-228.516,953.125
1742115075.722,-458.008,-854.492,-279.297,-419.922
1742115075.726,-1000.0,-574.219,-213.867,-1000.0
1742115075.73,-926.758,-306.152,-251.465,-929.199
1742115075.734,-1000.0,-109.863,-254.883,-1000.0
1742115075.738,-1000.0,303.711,-250.0,-1000.0
1742115075.741,-967.773,-318.848,-351.562,-978.027
1742115075.745,-995.117,-728.516,-381.348,-977.539
1742115075.749,-1000.0,-437.012,-415.527,-1000.0
1742115075.753,253.906,435.059,-443.359,102.051
1742115075.757,999.512,-177.246,-475.098,999.512
1742115075.76,899.414,-722.168,-499.023,916.992
1742115075.764,970.215,-298.34,-476.562,960.938
1742115075.768,966.309,357.422,-516.113,969.238
1742115075.772,982.422,-11.23,-470.703,983.398
1742115075.776,908.203,-485.352,-400.879,908.691
1742115075.78,999.512,98.145,-427.246,999.512
1742115075.784,856.934,178.711,-453.613,852.051
1742115075.787,-598.145,-796.875,-497.07,-604.492
1742115075.791,-1000.0,-612.305,-491.211,-1000.0
1742115075.795,-925.781,-67.383,-446.289,-925.781
1742115075.799,-1000.0,-189.453,-466.309,-1000.0
1742115075.803,-1000.0,-285.156,-463.867,-1000.0
1742115075.76,899.414,-722.168,-499.023,916.992
1742115075.764,970.215,-298.34,-476.562,960.938
1742115075.768,966.309,357.422,-516.113,969.238
1742115075.772,982.422,-11.23,-470.703,983.398
1742115075.776,908.203,-485.352,-400.879,908.691
1742115075.78,999.512,98.145,-427.246,999.512
1742115075.784,856.934,178.711,-453.613,852.051
1742115075.787,-598.145,-796.875,-497.07,-604.492
1742115075.791,-1000.0,-612.305,-491.211,-1000.0
1742115075.795,-925.781,-67.383,-446.289,-925.781
1742115075.799,-1000.0,-189.453,-466.309,-1000.0
1742115075.803,-1000.0,-285.156,-463.867,-1000.0
1742115075.82,-929.688,-357.422,-445.801,-935.547
1742115075.824,-1000.0,-462.402,-460.449,-1000.0
1742115075.828,-706.543,63.965,-384.277,-747.559
1742115075.832,766.113,374.512,-413.574,704.59
1742115075.836,999.512,-399.902,-500.488,999.512
1742115075.84,900.879,292.48,-509.277,899.902
1742115075.844,983.398,433.594,-470.703,983.398
1742115075.847,967.285,-418.457,-346.191,968.75
1742115075.851,970.215,-195.312,-309.082,972.168
1742115075.855,904.785,150.391,-297.363,907.715
1742115075.859,999.512,93.262,-238.281,999.512
1742115075.863,315.43,-611.816,-226.562,385.254
1742115075.82,-929.688,-357.422,-445.801,-935.547
1742115075.824,-1000.0,-462.402,-460.449,-1000.0
1742115075.828,-706.543,63.965,-384.277,-747.559
1742115075.832,766.113,374.512,-413.574,704.59
1742115075.836,999.512,-399.902,-500.488,999.512
1742115075.84,900.879,292.48,-509.277,899.902
1742115075.844,983.398,433.594,-470.703,983.398
1742115075.847,967.285,-418.457,-346.191,968.75
1742115075.851,970.215,-195.312,-309.082,972.168
1742115075.855,904.785,150.391,-297.363,907.715
1742115075.859,999.512,93.262,-238.281,999.512
1742115075.863,315.43,-611.816,-226.562,385.254
1742115075.865,-990.723,-552.734,-223.633,-938.477
1742115075.869,-1000.0,320.801,-276.367,-1000.0
1742115075.873,-971.68,-90.332,-286.621,-964.355
1742115075.877,-975.098,-268.066,-247.559,-980.957
1742115075.881,-1000.0,-139.648,-270.996,-995.605
1742115075.885,-1000.0,-69.824,-224.609,-1000.0
1742115075.889,293.457,635.742,-132.812,236.816
1742115075.892,999.512,159.668,-73.242,999.512
1742115075.896,897.461,-193.359,5.371,904.785
1742115075.9,972.656,701.172,37.598,969.727
1742115075.904,975.098,204.59,70.312,976.562
1742115075.908,899.414,-270.508,30.762,903.32
1742115075.865,-990.723,-552.734,-223.633,-938.477
1742115075.869,-1000.0,320.801,-276.367,-1000.0
1742115075.873,-971.68,-90.332,-286.621,-964.355
1742115075.877,-975.098,-268.066,-247.559,-980.957
1742115075.881,-1000.0,-139.648,-270.996,-995.605
1742115075.885,-1000.0,-69.824,-224.609,-1000.0
1742115075.889,293.457,635.742,-132.812,236.816
1742115075.892,999.512,159.668,-73.242,999.512
1742115075.896,897.461,-193.359,5.371,904.785
1742115075.9,972.656,701.172,37.598,969.727
1742115075.904,975.098,204.59,70.312,976.562
1742115075.908,899.414,-270.508,30.762,903.32
1742115075.925,999.512,-61.035,-3.906,999.512
1742115075.929,417.48,-421.387,13.184,468.75
1742115075.933,-950.684,-620.605,-41.992,-901.855
1742115075.937,-1000.0,-109.863,-66.406,-1000.0
1742115075.941,-954.102,-67.871,-39.551,-950.195
1742115075.945,-1000.0,-24.902,-60.547,-1000.0
1742115075.949,-927.734,-35.645,-52.246,-932.617
1742115075.952,-1000.0,-298.828,-83.984,-1000.0
1742115075.956,-613.77,389.16,-81.543,-637.207
1742115075.96,836.426,706.543,13.184,797.363
1742115075.964,999.512,-126.953,-63.477,999.512
1742115075.968,907.227,-190.918,-66.895,906.738
1742115075.925,999.512,-61.035,-3.906,999.512
1742115075.929,417.48,-421.387,13.184,468.75
1742115075.933,-950.684,-620.605,-41.992,-901.855
1742115075.937,-1000.0,-109.863,-66.406,-1000.0
1742115075.941,-954.102,-67.871,-39.551,-950.195
1742115075.945,-1000.0,-24.902,-60.547,-1000.0
1742115075.949,-927.734,-35.645,-52.246,-932.617
1742115075.952,-1000.0,-298.828,-83.984,-1000.0
1742115075.956,-613.77,389.16,-81.543,-637.207
1742115075.96,836.426,706.543,13.184,797.363
1742115075.964,999.512,-126.953,-63.477,999.512
1742115075.968,907.227,-190.918,-66.895,906.738
1742115075.955,998.047,464.844,52.246,998.535
1742115075.959,893.555,48.34,46.875,898.438
1742115075.963,999.512,14.648,53.223,999.512
1742115075.967,590.332,-207.031,-44.434,678.223
1742115075.971,-863.77,-519.043,-80.078,-781.25
1742115075.975,-1000.0,75.684,-47.852,-1000.0
1742115075.979,-940.918,48.34,-86.914,-935.059
1742115075.982,-1000.0,-163.574,-67.871,-1000.0
1742115075.986,-1000.0,-204.102,-133.301,-1000.0
1742115075.99,-958.496,-121.094,-156.25,-962.891
1742115075.994,-1000.0,38.574,-119.141,-1000.0
1742115075.998,-1000.0,119.629,-164.551,-1000.0
1742115075.955,998.047,464.844,52.246,998.535
1742115075.959,893.555,48.34,46.875,898.438
1742115075.963,999.512,14.648,53.223,999.512
1742115075.967,590.332,-207.031,-44.434,678.223
1742115075.971,-863.77,-519.043,-80.078,-781.25
1742115075.975,-1000.0,75.684,-47.852,-1000.0
1742115075.979,-940.918,48.34,-86.914,-935.059
1742115075.982,-1000.0,-163.574,-67.871,-1000.0
1742115075.986,-1000.0,-204.102,-133.301,-1000.0
1742115075.99,-958.496,-121.094,-156.25,-962.891
1742115075.994,-1000.0,38.574,-119.141,-1000.0
1742115075.998,-1000.0,119.629,-164.551,-1000.0
1742115076.001,365.234,751.953,-180.176,312.988
1742115076.005,999.512,279.785,-122.559,999.512
1742115076.009,894.531,-278.32,-106.445,898.926
1742115076.013,975.586,-240.234,-179.688,973.145
1742115076.017,970.703,-232.91,-235.352,969.727
1742115076.021,950.195,-55.664,-227.539,963.867
1742115076.025,932.129,-141.113,-193.848,916.016
1742115076.028,999.512,198.73,-141.602,999.512
1742115076.032,-34.668,-348.633,-128.906,191.406
1742115076.036,-1000.0,-778.32,-139.648,-1000.0
1742115076.04,-961.914,57.617,-109.375,-995.605
1742115076.044,-987.793,307.617,-124.512,-970.703
1742115076.001,365.234,751.953,-180.176,312.988
1742115076.005,999.512,279.785,-122.559,999.512
1742115076.009,894.531,-278.32,-106.445,898.926
1742115076.013,975.586,-240.234,-179.688,973.145
1742115076.017,970.703,-232.91,-235.352,969.727
1742115076.021,950.195,-55.664,-227.539,963.867
1742115076.025,932.129,-141.113,-193.848,916.016
1742115076.028,999.512,198.73,-141.602,999.512
1742115076.032,-34.668,-348.633,-128.906,191.406
1742115076.036,-1000.0,-778.32,-139.648,-1000.0
1742115076.04,-961.914,57.617,-109.375,-995.605
1742115076.044,-987.793,307.617,-124.512,-970.703
1742115076.046,-1000.0,-154.785,-162.109,-1000.0
1742115076.05,-934.082,-289.062,-144.531,-937.012
1742115076.054,-1000.0,-219.727,-166.992,-1000.0
1742115076.058,-792.969,-36.133,-144.531,-789.551
1742115076.062,683.105,474.609,-98.633,666.504
1742115076.066,999.512,146.484,-97.168,999.512
1742115076.07,895.508,162.109,-49.316,897.949
1742115076.073,983.398,659.18,-87.402,983.398
1742115076.077,968.75,25.391,-109.863,968.75
1742115076.081,959.473,-268.066,-64.453,968.262
1742115076.085,918.945,-84.961,-94.238,912.109
1742115076.089,999.512,-95.215,-138.672,999.512
1742115076.046,-1000.0,-154.785,-162.109,-1000.0
1742115076.05,-934.082,-289.062,-144.531,-937.012
1742115076.054,-1000.0,-219.727,-166.992,-1000.0
1742115076.058,-792.969,-36.133,-144.531,-789.551
1742115076.062,683.105,474.609,-98.633,666.504
1742115076.066,999.512,146.484,-97.168,999.512
1742115076.07,895.508,162.109,-49.316,897.949
1742115076.073,983.398,659.18,-87.402,983.398
1742115076.077,968.75,25.391,-109.863,968.75
1742115076.081,959.473,-268.066,-64.453,968.262
1742115076.085,918.945,-84.961,-94.238,912.109
1742115076.089,999.512,-95.215,-138.672,999.512
1742115076.089,113.281,-521.484,-198.73,289.062
1742115076.093,-1000.0,-622.07,-135.742,-970.215
1742115076.097,-926.27,151.855,332.031,-974.609
1742115076.101,-1000.0,96.191,719.238,-1000.0
1742115076.105,-267.578,160.156,802.246,-160.156
1742115076.109,988.77,431.641,800.781,995.117
1742115076.113,963.867,316.895,754.395,956.543
1742115076.116,950.684,83.496,778.809,957.031
1742115076.12,917.48,-323.73,726.074,920.898
1742115076.124,999.512,49.316,654.297,999.512
1742115076.128,856.934,339.355,624.512,887.207
1742115076.132,-597.656,-664.551,556.641,-549.805
1742115076.089,113.281,-521.484,-198.73,289.062
1742115076.093,-1000.0,-622.07,-135.742,-970.215
1742115076.097,-926.27,151.855,332.031,-974.609
1742115076.101,-1000.0,96.191,719.238,-1000.0
1742115076.105,-267.578,160.156,802.246,-160.156
1742115076.109,988.77,431.641,800.781,995.117
1742115076.113,963.867,316.895,754.395,956.543
1742115076.116,950.684,83.496,778.809,957.031
1742115076.12,917.48,-323.73,726.074,920.898
1742115076.124,999.512,49.316,654.297,999.512
1742115076.128,856.934,339.355,624.512,887.207
1742115076.132,-597.656,-664.551,556.641,-549.805
1742115076.089,113.281,-521.484,-198.73,289.062
1742115076.093,-1000.0,-622.07,-135.742,-970.215
1742115076.097,-926.27,151.855,332.031,-974.609
1742115076.101,-1000.0,96.191,719.238,-1000.0
1742115076.105,-267.578,160.156,802.246,-160.156
1742115076.109,988.77,431.641,800.781,995.117
1742115076.113,963.867,316.895,754.395,956.543
1742115076.116,950.684,83.496,778.809,957.031
1742115076.12,917.48,-323.73,726.074,920.898
1742115076.124,999.512,49.316,654.297,999.512
1742115076.128,856.934,339.355,624.512,887.207
1742115076.132,-597.656,-664.551,556.641,-549.805
1742115076.134,-1000.0,-519.043,490.723,-1000.0
1742115076.138,-925.781,-235.84,364.746,-925.781
1742115076.142,-1000.0,-321.777,316.895,-1000.0
1742115076.146,-942.871,-137.207,328.125,-948.73
1742115076.15,-1000.0,-238.77,311.035,-1000.0
1742115076.154,-895.02,110.352,321.777,-937.012
1742115076.158,557.129,743.164,291.504,487.305
1742115076.161,999.512,-42.969,254.883,999.512
1742115076.165,891.602,-512.207,224.121,893.555
1742115076.169,998.535,20.996,235.84,992.676
1742115076.173,895.02,64.941,242.188,903.809
1742115076.177,999.512,-203.125,219.238,999.512
1742115076.134,-1000.0,-519.043,490.723,-1000.0
1742115076.138,-925.781,-235.84,364.746,-925.781
1742115076.142,-1000.0,-321.777,316.895,-1000.0
1742115076.146,-942.871,-137.207,328.125,-948.73
1742115076.15,-1000.0,-238.77,311.035,-1000.0
1742115076.154,-895.02,110.352,321.777,-937.012
1742115076.158,557.129,743.164,291.504,487.305
1742115076.161,999.512,-42.969,254.883,999.512
1742115076.165,891.602,-512.207,224.121,893.555
1742115076.169,998.535,20.996,235.84,992.676
1742115076.173,895.02,64.941,242.188,903.809
1742115076.177,999.512,-203.125,219.238,999.512
1742115076.194,644.043,-402.344,250.977,612.305
1742115076.198,-821.777,-639.648,253.418,-802.246
1742115076.202,-1000.0,-163.574,167.48,-1000.0
1742115076.206,-937.012,-75.195,153.32,-939.941
1742115076.21,-1000.0,-55.176,234.863,-1000.0
1742115076.214,-1000.0,270.508,231.445,-1000.0
1742115076.218,-929.199,-31.738,179.199,-934.082
1742115076.221,-1000.0,-367.676,171.875,-1000.0
1742115076.225,-692.383,52.734,173.34,-725.098
1742115076.229,778.32,897.949,231.445,727.539
1742115076.233,999.512,572.266,346.68,999.512
1742115076.237,901.855,-221.191,462.891,901.367
1742115076.194,644.043,-402.344,250.977,612.305
1742115076.198,-821.777,-639.648,253.418,-802.246
1742115076.202,-1000.0,-163.574,167.48,-1000.0
1742115076.206,-937.012,-75.195,153.32,-939.941
1742115076.21,-1000.0,-55.176,234.863,-1000.0
1742115076.214,-1000.0,270.508,231.445,-1000.0
1742115076.218,-929.199,-31.738,179.199,-934.082
1742115076.221,-1000.0,-367.676,171.875,-1000.0
1742115076.225,-692.383,52.734,173.34,-725.098
1742115076.229,778.32,897.949,231.445,727.539
1742115076.233,999.512,572.266,346.68,999.512
1742115076.237,901.855,-221.191,462.891,901.367
1742115076.241,987.305,-232.422,451.66,985.84
1742115076.245,952.637,-122.559,399.902,963.379
1742115076.249,929.199,-127.441,381.836,916.504
1742115076.253,999.512,-85.938,323.73,999.512
1742115076.257,-3.906,-605.957,204.102,195.312
1742115076.261,-1000.0,-628.906,145.508,-1000.0
1742115076.265,-965.82,95.703,100.586,-997.07
1742115076.268,-997.07,-234.863,108.887,-980.957
1742115076.272,-963.379,-28.32,170.41,-970.215
1742115076.276,-1000.0,278.809,127.441,-1000.0
1742115076.28,-1000.0,-27.344,86.426,-1000.0
1742115076.284,359.863,454.102,103.027,328.613
1742115076.241,987.305,-232.422,451.66,985.84
1742115076.245,952.637,-122.559,399.902,963.379
1742115076.249,929.199,-127.441,381.836,916.504
1742115076.253,999.512,-85.938,323.73,999.512
1742115076.257,-3.906,-605.957,204.102,195.312
1742115076.261,-1000.0,-628.906,145.508,-1000.0
1742115076.265,-965.82,95.703,100.586,-997.07
1742115076.268,-997.07,-234.863,108.887,-980.957
1742115076.272,-963.379,-28.32,170.41,-970.215
1742115076.276,-1000.0,278.809,127.441,-1000.0
1742115076.28,-1000.0,-27.344,86.426,-1000.0
1742115076.284,359.863,454.102,103.027,328.613
1742115076.3,999.512,248.535,128.418,999.512
1742115076.304,894.531,-143.066,154.785,897.949
1742115076.308,975.098,-103.516,123.047,974.121
1742115076.312,977.051,-99.121,70.312,974.609
1742115076.316,926.758,-7.324,0.488,937.988
1742115076.32,975.098,10.254,18.555,956.055
1742115076.324,980.957,-56.152,65.918,999.512
1742115076.327,-369.629,-674.316,2.441,-226.562
1742115076.331,-1000.0,123.047,-31.738,-1000.0
1742115076.335,-929.688,586.914,-88.867,-942.383
1742115076.339,-1000.0,-178.223,-104.492,-1000.0
1742115076.343,-1000.0,-157.715,-88.867,-1000.0
1742115076.346,563.965,629.395,-35.156,537.598
1742115076.35,999.512,39.062,-51.758,999.512
1742115076.354,891.602,-201.172,25.391,892.09
1742115076.357,990.234,-172.852,55.664,988.77
1742115076.361,935.547,-264.648,63.477,944.336
1742115076.365,957.52,-59.082,78.125,946.289
1742115076.369,999.512,-200.684,9.277,999.512
1742115076.373,-262.695,-501.465,-21.973,-129.883
1742115076.346,563.965,629.395,-35.156,537.598
1742115076.35,999.512,39.062,-51.758,999.512
1742115076.354,891.602,-201.172,25.391,892.09
1742115076.357,990.234,-172.852,55.664,988.77
1742115076.361,935.547,-264.648,63.477,944.336
1742115076.365,957.52,-59.082,78.125,946.289
1742115076.369,999.512,-200.684,9.277,999.512
1742115076.373,-262.695,-501.465,-21.973,-129.883
1742115076.375,-1000.0,-217.773,-24.414,-1000.0
1742115076.379,-935.547,-149.902,16.113,-954.102
1742115076.383,-1000.0,-211.914,27.344,-993.164
1742115076.387,-1000.0,-80.566,-53.711,-1000.0
1742115076.391,-934.082,-237.793,-99.609,-937.988
1742115076.395,-1000.0,-233.887,-89.355,-1000.0
1742115076.399,-789.062,14.16,-58.594,-789.551
1742115076.402,687.5,783.691,21.973,660.156
1742115076.406,999.512,555.176,61.523,999.512
1742115076.41,895.996,-104.98,36.133,897.949
1742115076.414,983.398,-79.59,-24.414,982.91
1742115076.418,966.309,34.18,-111.328,967.285
1742115076.375,-1000.0,-217.773,-24.414,-1000.0
1742115076.379,-935.547,-149.902,16.113,-954.102
1742115076.383,-1000.0,-211.914,27.344,-993.164
1742115076.387,-1000.0,-80.566,-53.711,-1000.0
1742115076.391,-934.082,-237.793,-99.609,-937.988
1742115076.395,-1000.0,-233.887,-89.355,-1000.0
1742115076.399,-789.062,14.16,-58.594,-789.551
1742115076.402,687.5,783.691,21.973,660.156
1742115076.406,999.512,555.176,61.523,999.512
1742115076.41,895.996,-104.98,36.133,897.949
1742115076.414,983.398,-79.59,-24.414,982.91
1742115076.418,966.309,34.18,-111.328,967.285
1742115076.42,983.398,-181.641,-71.777,980.957
1742115076.424,895.02,-409.668,-97.656,902.344
1742115076.428,999.512,-51.758,-100.098,999.512
1742115076.432,669.434,-260.742,-56.152,688.965
1742115076.436,-803.223,-703.613,-152.832,-744.629
1742115076.44,-1000.0,-266.113,-158.691,-1000.0
1742115076.444,-935.059,228.516,-80.566,-935.547
1742115076.447,-1000.0,519.531,-98.145,-1000.0
1742115076.451,-935.059,-172.852,-66.895,-938.965
1742115076.455,-1000.0,-375.977,-63.965,-1000.0
1742115076.459,-805.664,205.566,-31.25,-837.891
1742115076.463,667.969,604.492,8.789,623.047
