timestamps,TP9,AF7,AF8,TP10
1742117488.084,999.512,97.168,132.324,999.512
1742117488.088,955.078,93.75,136.23,946.777
1742117488.092,831.543,74.219,136.719,842.285
1742117489.492,-1000.0,-92.773,-7.812,-1000.0
1742117489.496,-1000.0,-62.988,-14.16,-1000.0
1742117489.5,-964.355,-71.289,-14.16,-987.793
1742117489.504,-1000.0,-98.633,-12.695,-958.496
1742117489.508,-985.84,-73.73,-5.371,-1000.0
1742117489.512,278.809,-8.301,-6.348,-51.27
1742117489.516,999.512,-38.574,-14.16,999.512
1742117489.519,973.145,-108.887,-16.602,912.109
1742117489.523,-197.754,-149.902,-15.625,-334.473
1742117489.527,-1000.0,-113.281,-20.02,-1000.0
1742117489.531,-940.918,-61.523,-25.879,-941.406
1742117489.535,-999.023,-69.336,-31.738,-1000.0
1742117489.819,876.465,-105.957,-117.676,879.395
1742117489.823,999.512,-74.707,-119.629,999.512
1742117489.827,186.523,-135.254,-117.188,168.945
1742117489.831,-1000.0,-149.414,-111.816,-1000.0
1742117489.835,-998.535,-84.473,-113.281,-995.605
1742117489.839,-898.438,-62.988,-115.723,-905.762
1742117489.843,-1000.0,-101.562,-116.211,-1000.0
1742117489.846,-550.781,-85.938,-117.676,-626.465
1742117489.85,886.23,-16.113,-117.188,797.852
1742117489.854,999.512,-62.012,-107.91,999.512
1742117489.858,849.609,-85.449,-104.004,846.68
1742117489.862,999.512,-78.125,-108.887,999.512
1742117490.014,-671.387,-28.32,-109.375,-755.371
1742117490.018,788.574,4.883,-113.77,670.41
1742117490.022,966.797,-67.871,-122.07,990.723
1742117490.026,999.512,-77.637,-120.117,988.77
1742117490.03,661.621,-104.98,-119.141,679.688
1742117490.034,-796.387,-125.488,-126.465,-734.863
1742117490.038,-1000.0,-62.012,-116.211,-1000.0
1742117490.041,-865.234,-78.125,-109.375,-874.512
1742117490.045,-1000.0,-107.91,-119.141,-1000.0
1742117490.049,-565.43,-39.551,-117.676,-633.301
1742117490.053,872.07,17.09,-107.91,781.25
1742117490.057,999.512,-46.387,-103.027,999.512
1742117490.389,950.195,-41.992,-143.066,945.312
1742117490.393,939.453,-31.25,-140.625,944.824
1742117490.397,910.156,-59.082,-138.672,908.691
1742117490.401,999.512,-59.082,-133.301,999.512
1742117490.405,186.523,-89.355,-136.719,212.402
1742117490.409,-1000.0,-95.215,-139.16,-1000.0
1742117490.413,-920.41,-40.039,-136.719,-930.176
1742117490.416,-1000.0,-63.965,-135.742,-1000.0
1742117490.42,-752.441,-55.176,-126.953,-767.578
1742117490.424,685.547,17.09,-119.629,632.812
1742117490.428,999.512,-10.254,-122.559,999.512
1742117490.432,914.062,-43.945,-129.883,918.457
1742117491.319,166.504,8.301,-80.078,212.402
1742117491.323,-998.535,12.695,-90.332,-987.305
1742117491.327,-1000.0,27.832,-83.496,-1000.0
1742117491.331,-521.973,45.898,-76.66,-486.328
1742117491.335,880.859,90.332,-82.031,880.859
1742117491.339,999.512,47.852,-78.125,999.512
1742117491.343,912.598,9.766,-77.637,916.504
1742117491.346,983.887,-17.578,-87.402,980.957
1742117491.35,955.078,12.695,-88.379,965.82
1742117491.354,921.875,33.203,-85.938,906.738
1742117491.358,999.512,41.504,-85.449,999.512
1742117491.362,-9.766,-29.297,-92.285,145.508
1742117491.649,-1000.0,46.387,-77.637,-1000.0
1742117491.653,116.211,114.746,-79.102,32.227
1742117491.657,999.512,99.609,-77.148,999.512
1742117491.661,910.156,29.297,-80.566,920.41
1742117491.665,966.309,35.156,-87.402,959.473
1742117491.669,949.219,61.035,-84.961,958.496
1742117491.673,933.105,55.176,-82.031,914.062
1742117491.676,999.512,11.23,-84.961,999.512
1742117491.68,-94.238,-57.129,-83.496,53.711
1742117491.684,-1000.0,-48.34,-81.055,-1000.0
1742117491.688,-894.531,5.859,-82.52,-916.016
1742117491.692,-1000.0,12.207,-93.75,-1000.0
1742117493.524,999.512,-8.789,-56.641,999.512
1742117493.528,924.805,-41.504,-62.012,931.152
1742117493.532,887.207,-33.691,-62.988,887.207
1742117493.536,999.512,-23.926,-60.059,999.512
1742117493.54,438.965,-79.59,-62.988,517.578
1742117493.544,-964.844,-92.773,-62.5,-897.461
1742117493.548,-1000.0,-35.156,-61.035,-1000.0
1742117493.551,-890.625,-58.105,-62.012,-888.672
1742117493.555,-1000.0,-74.707,-63.477,-1000.0
1742117493.559,-205.078,-10.254,-62.5,-175.293
1742117493.563,999.512,21.973,-61.523,999.512
1742117493.567,958.008,-40.527,-63.477,976.562
1742117493.764,999.512,9.766,-71.289,999.512
1742117493.768,941.406,-23.926,-71.777,963.867
1742117493.772,925.781,-56.641,-70.312,867.188
1742117493.776,-390.137,-98.145,-63.965,-422.363
1742117493.78,-1000.0,-55.664,-64.941,-1000.0
1742117493.784,-935.059,-9.766,-70.312,-939.941
1742117493.788,-1000.0,-32.227,-72.266,-1000.0
1742117493.791,-937.988,-49.805,-73.73,-938.965
1742117493.795,-1000.0,-47.852,-71.289,-1000.0
1742117493.799,-216.797,-5.371,-74.219,-206.543
1742117493.803,999.512,3.906,-77.148,999.512
1742117493.807,887.207,-35.156,-76.172,895.02
1742117494.229,999.512,-31.738,-53.223,999.512
1742117494.233,432.129,-56.152,-45.41,444.336
1742117494.237,-969.727,-114.258,-41.016,-950.684
1742117494.241,-1000.0,-41.016,-37.598,-1000.0
1742117494.245,-954.102,-18.555,-39.062,-954.102
1742117494.249,-951.172,-20.508,-41.504,-950.195
1742117494.253,-1000.0,-34.668,-40.527,-1000.0
1742117494.256,-220.703,-5.859,-43.945,-229.004
1742117494.26,999.512,12.695,-51.27,999.512
1742117494.264,879.883,-28.809,-47.363,881.836
1742117494.268,999.512,-12.695,-43.945,999.512
1742117494.272,328.125,-70.801,-51.27,358.398
1742117494.844,-887.207,-51.27,-53.223,-898.926
1742117494.848,-1000.0,-60.059,-60.547,-1000.0
1742117494.852,-535.645,-29.297,-68.359,-567.871
1742117494.856,896.484,1.953,-65.43,837.891
1742117494.86,999.512,-55.664,-63.477,999.512
1742117494.864,840.332,-45.41,-65.918,847.656
1742117494.868,999.512,-33.691,-70.801,999.512
1742117494.871,546.875,-96.68,-65.43,625.488
1742117494.875,-895.996,-156.25,-55.176,-798.828
1742117494.879,-984.375,-83.008,-57.617,-999.512
1742117494.883,-1000.0,-54.688,-58.105,-1000.0
1742117494.887,-292.969,-10.254,-50.781,-323.73
1742117495.639,-926.758,-60.547,-89.355,-988.77
1742117495.643,448.73,8.789,-93.75,321.289
1742117495.647,999.512,-48.34,-91.797,999.512
1742117495.651,918.457,-83.496,-87.891,925.781
1742117495.655,941.895,-64.941,-79.102,896.973
1742117495.659,-402.832,-99.609,-74.707,-408.203
1742117495.663,-1000.0,-72.266,-80.566,-1000.0
1742117495.666,-937.988,-64.941,-85.938,-943.359
1742117495.67,-990.723,-88.379,-82.031,-993.164
1742117495.674,-963.867,-74.219,-85.938,-958.008
1742117495.678,-1000.0,-64.453,-94.238,-1000.0
1742117495.682,41.992,-14.16,-88.379,-27.832
1742117495.969,999.512,-1.953,-51.758,999.512
1742117495.973,977.051,-11.23,-46.387,986.328
1742117495.977,754.395,-21.484,-44.922,717.773
1742117495.981,-669.922,-84.473,-43.945,-663.086
1742117495.985,-1000.0,-29.297,-35.156,-1000.0
1742117495.989,-936.035,18.555,-29.297,-939.941
1742117495.993,-1000.0,-14.16,-34.668,-1000.0
1742117495.996,-940.43,-25.879,-33.203,-938.477
1742117496.0,-1000.0,-11.719,-37.109,-1000.0
1742117496.004,-188.477,26.855,-51.27,-207.031
1742117496.008,999.512,27.344,-40.527,999.512
1742117496.012,881.836,-31.25,-33.691,883.789
1742117496.331,999.512,112.305,121.094,985.84
1742117496.335,923.34,45.898,114.258,942.383
1742117496.339,941.406,41.992,117.188,933.105
1742117496.343,977.539,42.48,121.582,965.82
1742117496.347,-342.285,-1.465,123.535,-317.383
1742117496.351,-1000.0,44.922,124.023,-1000.0
1742117496.355,-950.195,56.152,119.629,-954.59
1742117496.358,-932.617,24.414,125.488,-937.988
1742117496.362,-1000.0,22.949,127.441,-1000.0
1742117496.366,-591.309,78.125,130.371,-682.129
1742117496.37,846.68,126.953,132.812,729.492
1742117496.374,999.512,67.871,128.906,999.512
1742117497.889,999.512,0.488,-24.414,999.512
1742117497.893,999.512,-23.438,-26.367,999.512
1742117497.897,510.254,-87.891,-24.414,502.441
1742117497.901,-928.223,-113.77,-25.391,-898.438
1742117497.905,-980.957,-50.781,-27.344,-989.746
1742117497.909,-1000.0,-23.926,-35.156,-1000.0
1742117497.913,-208.984,-8.789,-34.18,-145.02
1742117497.916,999.512,-24.414,-26.367,999.512
1742117497.92,957.031,-50.293,-30.762,952.637
1742117497.924,868.164,-50.293,-35.156,874.512
1742117497.928,999.512,-31.25,-23.438,999.512
1742117497.932,405.762,-66.895,-14.648,478.027
1742117498.208,-940.918,-53.223,-39.551,-938.477
1742117498.212,-1000.0,-46.387,-41.016,-1000.0
1742117498.216,-174.805,-9.277,-36.133,-200.684
1742117498.22,999.512,-10.254,-35.645,999.512
1742117498.224,946.777,-41.016,-37.109,967.285
1742117498.228,959.473,-21.484,-32.227,884.766
1742117498.232,-311.523,-78.125,-36.133,-381.836
1742117498.235,-1000.0,-82.031,-35.645,-1000.0
1742117498.239,-935.547,-49.805,-32.227,-940.43
1742117498.243,-1000.0,-43.945,-40.039,-1000.0
1742117498.247,-928.711,-20.02,-45.898,-927.246
1742117498.251,-1000.0,-52.734,-47.363,-1000.0
1742117498.684,-1000.0,-24.902,-98.633,-978.027
1742117498.688,233.887,29.785,-93.75,259.766
1742117498.692,999.512,7.324,-93.75,999.512
1742117498.696,999.512,-8.789,-96.68,999.512
1742117498.7,339.355,-27.832,-94.238,339.355
1742117498.704,-1000.0,-40.527,-94.238,-1000.0
1742117498.708,-1000.0,1.953,-90.332,-1000.0
1742117498.711,-948.242,-22.949,-79.59,-952.637
1742117498.715,-969.238,-45.41,-82.031,-961.914
1742117498.719,-1000.0,-27.344,-91.797,-1000.0
1742117498.723,2.93,29.785,-92.773,-74.707
1742117498.727,999.512,14.648,-93.75,999.512
1742117499.479,180.664,-83.496,-87.891,138.184
1742117499.483,-1000.0,-75.684,-78.613,-1000.0
1742117499.487,-916.504,-59.57,-80.078,-909.668
1742117499.491,-1000.0,-90.82,-83.496,-1000.0
1742117499.495,-288.574,-19.531,-85.938,-336.914
1742117499.499,999.512,15.625,-89.844,995.605
1742117499.503,963.379,-54.688,-85.938,977.051
1742117499.506,867.676,-85.938,-86.914,861.328
1742117499.51,999.512,-77.637,-94.238,999.512
1742117499.514,240.234,-109.375,-94.238,321.777
1742117499.518,-1000.0,-124.512,-93.75,-987.305
1742117499.522,-970.215,-75.195,-95.703,-1000.0
1742117499.661,-193.359,23.438,-77.148,-192.871
1742117499.665,999.512,23.926,-74.707,999.512
1742117499.669,949.707,-55.176,-70.801,951.172
1742117499.673,938.965,-54.199,-69.336,939.453
1742117499.677,972.656,-45.41,-60.547,976.074
1742117499.681,904.297,-19.531,-51.27,902.344
1742117499.685,999.512,-21.973,-51.758,999.512
1742117499.688,173.828,-106.445,-57.617,218.75
1742117499.692,-1000.0,-123.535,-68.848,-1000.0
1742117499.696,-1000.0,-60.059,-73.73,-1000.0
1742117499.7,-187.012,-10.254,-71.289,-118.164
1742117499.704,999.512,-9.766,-78.125,999.512
1742117500.275,192.871,-103.027,-82.52,166.992
1742117500.279,-1000.0,-104.98,-85.449,-1000.0
1742117500.283,-983.887,-47.363,-83.008,-980.957
1742117500.287,-973.145,-58.594,-75.684,-974.609
1742117500.291,-1000.0,-80.566,-77.148,-1000.0
1742117500.295,-993.164,-56.152,-73.242,-1000.0
1742117500.299,-951.172,-55.176,-65.43,-937.5
1742117500.302,-1000.0,-77.637,-66.406,-1000.0
1742117500.306,-171.875,-33.691,-72.266,-295.41
1742117500.31,999.512,-10.254,-78.125,999.512
1742117500.314,562.5,-83.008,-77.637,466.797
1742117500.318,-871.582,-127.441,-83.496,-942.871
1742117500.574,950.195,-59.57,-63.477,944.336
1742117500.578,939.941,-51.27,-65.43,944.824
1742117500.582,910.156,-41.992,-63.965,909.668
1742117500.586,999.512,-36.621,-66.895,999.512
1742117500.59,174.805,-92.285,-66.895,179.199
1742117500.594,-1000.0,-84.961,-61.523,-1000.0
1742117500.598,-1000.0,-49.316,-58.105,-1000.0
1742117500.601,-883.301,-44.922,-60.547,-848.145
1742117500.605,457.52,8.301,-71.289,473.145
1742117500.609,999.512,-18.555,-70.312,999.512
1742117500.613,899.902,-35.645,-69.336,904.297
1742117500.617,976.074,-33.203,-68.359,975.586
1742117500.98,-287.598,-87.402,-83.984,-369.629
1742117500.984,-1000.0,-52.734,-82.031,-1000.0
1742117500.988,-936.523,-37.598,-83.984,-940.918
1742117500.992,-1000.0,-53.711,-86.914,-1000.0
1742117500.996,-937.988,-35.156,-82.031,-937.988
1742117501.0,-1000.0,-18.555,-82.031,-1000.0
1742117501.004,-218.262,18.555,-78.613,-217.773
1742117501.007,999.512,9.766,-72.754,999.512
1742117501.011,899.902,-35.645,-74.707,910.156
1742117501.015,999.512,-20.02,-71.777,999.512
1742117501.019,50.293,-48.34,-65.43,8.789
1742117501.023,-1000.0,-63.965,-67.871,-1000.0
1742117501.355,933.105,-43.945,-50.781,924.805
1742117501.359,948.242,-15.137,-47.852,955.078
1742117501.363,974.121,-39.062,-51.27,970.215
1742117501.367,947.754,-65.43,-58.105,965.82
1742117501.371,937.012,-48.828,-50.781,906.25
1742117501.375,999.512,-21.973,-46.387,999.512
1742117501.379,-64.941,-61.523,-52.734,208.008
1742117501.382,-1000.0,-100.098,-56.641,-1000.0
1742117501.386,-963.379,-52.734,-55.664,-878.418
1742117501.39,306.152,12.695,-49.316,472.656
1742117501.394,999.512,-17.09,-50.293,999.512
1742117501.398,901.367,-46.875,-58.594,904.297
1742117501.879,-227.051,13.672,-56.152,-185.547
1742117501.883,999.512,9.766,-52.246,999.512
1742117501.887,627.93,-62.988,-54.688,555.664
1742117501.891,-814.941,-101.562,-53.223,-844.727
1742117501.895,-1000.0,-40.039,-46.387,-1000.0
1742117501.899,-938.965,3.418,-41.992,-944.824
1742117501.903,-1000.0,-27.832,-45.898,-1000.0
1742117501.906,-932.617,-58.594,-57.129,-927.734
1742117501.91,-1000.0,-60.547,-59.082,-1000.0
1742117501.914,-291.016,6.348,-53.711,-495.605
1742117501.918,932.129,43.457,-59.082,833.496
1742117501.922,999.512,-20.508,-65.918,999.512
1742117502.345,966.309,-39.062,-33.203,966.797
1742117502.349,966.309,-27.344,-41.016,966.797
1742117502.353,966.309,-39.062,-51.758,967.285
1742117502.357,966.309,-59.57,-52.246,967.285
1742117502.361,966.309,-66.406,-56.152,967.285
1742117502.365,966.309,-35.645,-48.828,967.285
1742117502.369,973.633,-47.363,-50.781,979.492
1742117502.372,896.484,-77.637,-63.477,911.133
1742117502.376,999.512,-67.383,-62.012,999.512
1742117502.38,320.312,-90.332,-57.129,757.324
1742117502.384,-944.824,-114.746,-62.988,-553.711
1742117502.388,-1000.0,-100.586,-67.383,-1000.0
1742117503.184,183.594,-108.398,-100.098,164.551
1742117503.188,-1000.0,-111.328,-99.609,-1000.0
1742117503.192,-1000.0,-66.406,-95.703,-1000.0
1742117503.196,-181.641,-40.527,-88.867,-12.207
1742117503.2,999.512,-30.762,-84.473,999.512
1742117503.204,962.891,-43.945,-86.426,951.66
1742117503.208,867.676,-59.082,-90.82,884.277
1742117503.211,999.512,-64.941,-89.355,999.512
1742117503.215,564.941,-93.75,-94.727,634.766
1742117503.219,-845.215,-134.277,-98.145,-747.559
1742117503.223,-1000.0,-69.824,-85.449,-1000.0
1742117503.227,-1000.0,-39.062,-88.867,-992.676
1742117504.864,931.641,13.672,-39.062,854.004
1742117504.868,931.152,-35.156,-42.969,951.172
1742117504.872,999.512,-34.18,-43.457,999.512
1742117504.876,248.535,-88.867,-41.504,291.016
1742117504.88,-1000.0,-120.117,-43.945,-1000.0
1742117504.884,-1000.0,-28.809,-46.875,-937.012
1742117504.888,187.012,-9.766,-50.293,306.641
1742117504.891,999.512,-56.641,-49.316,999.512
1742117504.895,593.75,-98.633,-47.363,574.707
1742117504.899,-784.668,-122.07,-49.805,-770.508
1742117504.903,-1000.0,-73.242,-52.246,-1000.0
1742117504.907,-875.977,-66.895,-54.688,-878.418
1742117504.97,159.18,-128.906,-79.59,182.129
1742117504.974,-1000.0,-144.531,-83.496,-1000.0
1742117504.978,-984.375,-102.051,-80.566,-988.281
1742117504.982,-973.633,-87.402,-77.637,-971.68
1742117504.986,-944.336,-84.473,-89.355,-944.824
1742117504.99,-1000.0,-62.988,-95.703,-1000.0
1742117504.994,-219.727,-21.484,-100.586,-218.262
1742117504.997,999.512,-36.133,-101.562,999.512
1742117505.001,896.973,-78.613,-94.727,908.203
1742117505.005,999.512,-61.035,-90.332,999.512
1742117505.009,98.145,-91.797,-85.938,46.875
1742117505.013,-1000.0,-103.027,-87.891,-1000.0
1742117505.284,999.512,43.457,-63.965,979.98
1742117505.288,955.566,-4.883,-61.523,972.656
1742117505.292,932.617,-37.109,-61.035,894.531
1742117505.296,-275.391,-75.195,-60.547,-296.875
1742117505.3,-1000.0,-51.27,-57.617,-1000.0
1742117505.304,-789.551,14.648,-57.617,-725.586
1742117505.308,475.586,41.992,-65.43,516.602
1742117505.311,999.512,-13.672,-62.5,999.512
1742117505.315,120.605,-109.375,-44.922,107.422
1742117505.319,-1000.0,-95.703,-38.574,-1000.0
1742117505.323,-983.887,-34.18,-47.852,-981.445
1742117505.327,-988.281,-56.152,-47.852,-988.77
1742117505.524,-995.605,-58.105,60.059,-992.676
1742117505.528,-1000.0,7.324,61.523,-1000.0
1742117505.532,-179.199,52.246,65.918,-78.613
1742117505.536,965.82,65.918,74.219,977.539
1742117505.54,999.512,29.785,71.777,999.512
1742117505.544,211.426,-14.16,68.848,258.301
1742117505.548,-1000.0,-37.598,68.359,-1000.0
1742117505.551,-998.047,-14.16,69.824,-1000.0
1742117505.555,-943.848,-0.977,76.172,-945.801
1742117505.559,-988.77,18.066,74.219,-980.957
1742117505.563,-1000.0,28.809,75.684,-1000.0
1742117505.567,170.898,66.406,84.961,97.168
1742117505.959,-973.633,-8.301,102.051,-984.863
1742117505.963,-1000.0,61.523,101.074,-1000.0
1742117505.967,-62.5,74.219,104.004,97.656
1742117505.971,999.512,67.871,103.027,999.512
1742117505.975,999.512,37.598,103.516,910.156
1742117505.979,-196.289,27.832,112.793,-293.457
1742117505.983,-1000.0,31.25,109.375,-1000.0
1742117505.986,-952.148,18.066,104.492,-958.984
1742117505.99,-925.781,33.203,108.887,-925.781
1742117505.994,-1000.0,32.715,105.469,-1000.0
1742117505.998,-416.016,77.637,99.609,-484.863
1742117506.002,974.609,123.047,101.562,934.082
1742117507.279,995.117,-49.316,-71.289,999.512
1742117507.283,999.512,-74.707,-71.289,999.512
1742117507.287,-46.387,-134.766,-65.43,-112.305
1742117507.291,-1000.0,-130.859,-65.43,-1000.0
1742117507.295,-971.191,-88.867,-76.172,-966.309
1742117507.299,-927.734,-62.988,-80.566,-943.848
1742117507.303,-1000.0,-89.355,-68.359,-1000.0
1742117507.306,-784.668,-83.008,-59.57,-909.668
1742117507.31,640.625,-42.48,-64.453,454.59
1742117507.314,993.652,-101.562,-66.406,999.512
1742117507.318,999.512,-113.281,-50.781,999.512
1742117507.322,220.215,-160.156,-36.621,251.465
1742117509.184,-933.594,-57.617,-71.289,-942.383
1742117509.188,-1000.0,-63.477,-68.848,-1000.0
1742117509.192,-574.219,-29.297,-75.684,-722.168
1742117509.196,873.535,18.066,-75.195,715.332
1742117509.2,942.871,-42.969,-72.266,974.609
1742117509.204,999.512,-27.832,-73.242,999.512
1742117509.208,399.902,-83.496,-73.242,407.715
1742117509.211,-992.676,-129.395,-68.359,-982.91
1742117509.215,-1000.0,-72.266,-67.871,-1000.0
1742117509.219,-966.309,-71.777,-70.312,-962.891
1742117509.223,-975.098,-57.129,-67.871,-985.352
1742117509.227,-1000.0,-64.941,-66.895,-986.816
1742117509.514,-575.195,-21.973,-48.34,-709.961
1742117509.518,806.641,38.086,-54.199,688.477
1742117509.522,964.355,-43.945,-56.641,985.84
1742117509.526,999.512,-66.895,-50.781,999.512
1742117509.53,207.52,-88.379,-51.27,219.727
1742117509.534,-1000.0,-79.102,-53.223,-1000.0
1742117509.538,-1000.0,-36.621,-48.828,-1000.0
1742117509.541,-115.234,-19.531,-51.27,-21.484
1742117509.545,999.512,-22.949,-52.734,999.512
1742117509.549,999.512,-50.293,-50.781,968.262
1742117509.553,-149.902,-86.426,-47.852,-213.867
1742117509.557,-1000.0,-93.75,-46.875,-1000.0
1742117509.604,999.512,-21.973,-42.969,999.512
1742117509.608,401.367,-66.406,-40.527,380.371
1742117509.612,-947.754,-115.723,-43.457,-953.125
1742117509.616,-1000.0,-84.473,-41.016,-1000.0
1742117509.62,-952.637,-56.641,-51.27,-958.496
1742117509.624,-951.172,-26.855,-50.781,-946.289
1742117509.628,-1000.0,-53.223,-49.805,-1000.0
1742117509.631,-221.191,-16.113,-53.223,-295.41
1742117509.635,999.512,3.906,-56.152,999.512
1742117509.639,876.465,-52.734,-56.641,890.625
1742117509.643,999.512,-40.527,-53.711,999.512
1742117509.647,414.551,-100.098,-53.711,442.871
1742117509.934,-1000.0,-3.906,39.551,-1000.0
1742117509.938,-1000.0,42.48,48.828,-1000.0
1742117509.942,-201.172,81.055,55.664,-85.449
1742117509.946,999.512,84.961,54.199,999.512
1742117509.95,999.512,25.879,48.828,940.43
1742117509.954,-185.059,-3.418,40.527,-271.484
1742117509.958,-1000.0,-1.953,30.762,-1000.0
1742117509.961,-955.078,-3.906,25.391,-960.449
1742117509.965,-923.828,-11.719,12.207,-924.805
1742117509.969,-1000.0,-26.367,-1.953,-1000.0
1742117509.973,-443.848,20.02,-13.184,-514.648
1742117509.977,961.914,48.34,-12.695,914.551
1742117510.309,-1000.0,-80.078,-81.543,-996.582
1742117510.313,-827.148,-50.781,-76.172,-1000.0
1742117510.317,585.938,2.93,-75.684,252.441
1742117510.321,994.141,-47.852,-75.684,999.512
1742117510.325,999.512,-70.312,-67.871,999.512
1742117510.329,600.098,-65.43,-63.965,564.453
1742117510.333,-857.422,-110.84,-60.059,-840.82
1742117510.336,-992.188,-89.355,-59.57,-987.793
1742117510.34,-1000.0,-64.453,-60.547,-1000.0
1742117510.344,-316.406,-12.695,-58.105,-346.68
1742117510.348,999.512,0.0,-53.711,990.234
1742117510.352,963.379,-47.363,-47.852,971.191
1742117511.809,999.512,-33.691,-56.641,984.863
1742117511.813,650.879,-70.801,-60.059,687.5
1742117511.817,-792.969,-112.793,-56.641,-706.055
1742117511.821,-1000.0,-61.035,-56.152,-1000.0
1742117511.825,-894.531,-52.246,-58.594,-901.367
1742117511.829,-1000.0,-36.133,-56.641,-1000.0
1742117511.833,-35.645,-0.488,-55.176,-36.133
1742117511.836,999.512,-27.832,-47.852,999.512
1742117511.84,854.004,-61.523,-41.016,867.676
1742117511.844,999.512,-35.645,-40.039,999.512
1742117511.848,580.566,-57.617,-41.992,649.902
1742117511.852,-782.715,-103.027,-50.781,-690.918
1742117511.901,898.438,-53.711,-19.043,920.898
1742117511.905,999.512,-55.664,-31.25,985.352
1742117511.909,758.301,-73.242,-32.227,789.062
1742117511.913,-673.828,-111.816,-30.273,-589.844
1742117511.917,-1000.0,-70.801,-39.551,-1000.0
1742117511.921,-1000.0,-47.363,-46.875,-1000.0
1742117511.925,-232.91,-1.953,-45.41,-154.297
1742117511.928,999.512,-10.742,-38.086,999.512
1742117511.932,938.965,-85.449,-33.691,934.082
1742117511.936,893.555,-68.848,-29.785,897.949
1742117511.94,999.512,-47.363,-29.785,999.512
1742117511.944,-5.859,-94.238,-31.738,29.297
1742117513.07,-1000.0,-90.82,-49.316,-1000.0
1742117513.074,-983.887,-24.902,-46.875,-979.98
1742117513.078,-983.887,-34.668,-44.434,-980.469
1742117513.082,-963.379,-41.016,-42.48,-982.91
1742117513.086,-1000.0,-42.48,-42.48,-979.492
1742117513.09,-937.5,-5.371,-42.969,-1000.0
1742117513.094,410.645,34.18,-38.574,142.578
1742117513.097,999.512,-18.066,-29.785,999.512
1742117513.101,999.512,-32.227,-30.762,999.512
1742117513.105,282.227,-64.453,-30.762,295.898
1742117513.109,-1000.0,-107.422,-29.785,-1000.0
1742117513.113,-998.535,-49.316,-32.715,-1000.0
1742117513.264,999.512,19.043,-12.695,999.512
1742117513.268,964.355,-9.766,-7.324,973.145
1742117513.272,850.586,-42.969,-5.859,845.215
1742117513.276,-484.863,-83.984,-10.742,-426.27
1742117513.28,-1000.0,-40.039,-11.23,-1000.0
1742117513.284,-1000.0,-2.441,-18.066,-911.133
1742117513.288,27.832,16.602,-27.344,165.527
1742117513.291,999.512,-1.953,-19.531,999.512
1742117513.295,443.359,-74.219,-12.695,432.129
1742117513.299,-935.059,-87.402,-17.09,-916.504
1742117513.303,-1000.0,-33.203,-24.902,-1000.0
1742117513.307,-958.008,-41.016,-33.203,-956.055
1742117514.435,-18.066,-1000.0,191.895,51.758
1742117514.439,-1000.0,-1000.0,178.711,-1000.0
1742117514.443,-1000.0,-1000.0,163.086,-1000.0
1742117514.447,-20.996,-1000.0,155.762,89.844
1742117514.451,999.512,-1000.0,158.691,999.512
1742117514.455,935.059,-1000.0,161.621,929.199
1742117514.459,913.086,-1000.0,163.086,928.711
1742117514.462,984.863,-1000.0,168.945,961.426
1742117514.466,940.43,-1000.0,170.41,999.512
1742117514.47,-391.113,-1000.0,161.133,-247.07
1742117514.474,-1000.0,-992.676,154.785,-1000.0
1742117514.478,-1000.0,-1000.0,146.484,-1000.0
1742117515.184,-1000.0,-497.07,-7.324,-1000.0
1742117515.188,-926.758,-679.199,-23.926,-931.641
1742117515.192,-965.332,-940.918,-19.043,-958.984
1742117515.196,-1000.0,-1000.0,-33.691,-1000.0
1742117515.2,-63.965,-990.234,-30.762,-105.469
1742117515.204,999.512,-999.023,-20.02,999.512
1742117515.208,900.879,-1000.0,-23.438,911.133
1742117515.211,999.512,-1000.0,-20.508,999.512
1742117515.215,-124.512,-1000.0,-18.066,-110.352
1742117515.219,-1000.0,-1000.0,-14.648,-1000.0
1742117515.223,-946.777,-997.07,-9.277,-953.613
1742117515.227,-1000.0,-1000.0,-6.348,-1000.0
1742117516.264,-1000.0,-21.484,-13.184,-1000.0
1742117516.268,-992.188,330.078,-19.531,-989.746
1742117516.272,-939.453,345.703,-18.555,-948.242
1742117516.276,-1000.0,315.918,-14.16,-989.746
1742117516.28,-1000.0,327.637,-13.184,-1000.0
1742117516.284,269.531,514.16,-11.23,162.109
1742117516.288,999.512,422.363,-2.441,999.512
1742117516.291,999.512,280.762,-5.859,999.512
1742117516.295,227.051,143.066,-14.648,268.555
1742117516.299,-1000.0,98.633,-18.555,-1000.0
1742117516.303,-927.734,273.438,-20.508,-942.871
1742117516.307,-1000.0,238.281,-22.461,-1000.0
1742117516.58,841.797,-78.125,-18.066,836.426
1742117516.584,999.512,-15.137,-17.578,999.512
1742117516.588,198.242,-143.066,-18.066,270.508
1742117516.592,-1000.0,-208.984,-24.902,-1000.0
1742117516.596,-987.305,-43.945,-40.039,-998.047
1742117516.6,-966.797,44.922,-57.129,-966.797
1742117516.604,-953.613,36.133,-67.871,-947.266
1742117516.607,-1000.0,-19.043,-74.219,-1000.0
1742117516.611,-113.281,205.078,-69.824,-202.637
1742117516.615,995.117,317.871,-57.129,980.469
1742117516.619,999.512,216.309,-68.359,999.512
1742117516.623,732.91,93.75,-83.984,708.008
1742117516.73,999.512,-115.723,-106.934,999.512
1742117516.734,486.816,-343.262,-115.723,491.699
1742117516.738,-953.125,-954.59,-134.277,-917.48
1742117516.742,-972.168,-1000.0,-145.996,-985.84
1742117516.746,-1000.0,-981.934,-141.113,-1000.0
1742117516.75,-725.098,-1000.0,-133.789,-781.25
1742117516.754,726.562,-988.77,-121.094,623.535
1742117516.757,999.512,-999.512,-105.469,999.512
1742117516.761,857.91,-1000.0,-105.469,865.234
1742117516.765,999.512,-1000.0,-114.258,999.512
1742117516.769,13.672,-999.512,-114.258,3.418
1742117516.773,-1000.0,-1000.0,-107.91,-1000.0
1742117517.195,932.129,-49.805,-16.602,932.129
1742117517.199,905.273,-9.277,-29.785,903.32
1742117517.203,999.512,-50.781,-40.039,999.512
1742117517.207,-90.332,-244.629,-37.598,-29.297
1742117517.211,-1000.0,-203.613,-26.367,-1000.0
1742117517.215,-948.73,-17.09,-20.996,-958.008
1742117517.219,-932.617,-50.781,-22.949,-928.223
1742117517.222,-1000.0,-149.902,-23.926,-1000.0
1742117517.226,-185.059,31.738,-26.855,-185.547
1742117517.23,974.121,53.223,-29.297,978.027
1742117517.234,999.512,-80.078,-32.227,999.512
1742117517.238,297.852,-177.246,-35.645,263.672
1742117517.764,-1000.0,-59.57,-152.344,-1000.0
1742117517.768,127.441,102.051,-148.926,108.887
1742117517.772,999.512,13.672,-149.414,999.512
1742117517.776,999.512,-122.07,-156.738,999.512
1742117517.78,-10.254,-238.77,-170.898,-48.828
1742117517.784,-1000.0,-148.926,-170.898,-1000.0
1742117517.788,-958.496,-28.809,-171.387,-959.473
1742117517.791,-988.281,-171.387,-176.27,-992.188
1742117517.795,-939.941,-103.027,-175.293,-936.523
1742117517.799,-1000.0,-279.785,-167.48,-1000.0
1742117517.803,-221.191,-154.785,-159.18,-288.574
1742117517.807,999.512,143.066,-153.32,999.512
1742117519.07,866.211,-37.109,67.383,869.629
1742117519.074,999.512,31.25,69.824,999.512
1742117519.078,179.199,-145.508,65.43,168.945
1742117519.082,-998.535,-217.285,68.848,-1000.0
1742117519.086,-1000.0,-104.004,73.73,-1000.0
1742117519.09,-411.621,85.938,80.566,-397.949
1742117519.094,941.895,203.125,87.402,942.871
1742117519.097,999.512,-20.508,86.914,999.512
1742117519.101,850.098,-124.512,92.773,864.258
1742117519.105,999.512,-43.945,100.098,999.512
1742117519.109,550.293,-105.957,99.121,734.375
1742117519.113,-797.363,-252.93,97.656,-592.285
1742117519.864,188.477,-270.508,-103.516,200.195
1742117519.868,-1000.0,-294.434,-101.074,-1000.0
1742117519.872,-921.387,-136.23,-104.492,-920.41
1742117519.876,-1000.0,-132.812,-108.398,-1000.0
1742117519.88,-229.004,42.969,-99.609,-277.832
1742117519.884,977.539,99.609,-98.633,966.797
1742117519.888,999.512,-100.098,-104.492,999.512
1742117519.891,116.699,-313.477,-109.375,74.219
1742117519.895,-1000.0,-281.25,-110.352,-1000.0
1742117519.899,-989.258,-111.328,-110.352,-986.816
1742117519.903,-969.238,-84.961,-109.375,-933.594
1742117519.907,317.383,24.902,-97.656,316.406
1742117521.605,-991.211,-131.348,-69.824,-999.023
1742117521.609,-1000.0,-16.113,-78.613,-1000.0
1742117521.613,-516.113,14.16,-83.008,-537.109
1742117521.617,883.301,118.164,-89.844,833.984
1742117521.621,999.512,-10.254,-91.309,999.512
1742117521.625,838.379,-10.254,-88.867,846.68
1742117521.629,999.512,2.441,-88.379,999.512
1742117521.632,492.188,-140.137,-89.844,602.539
1742117521.636,-932.617,-239.258,-98.633,-814.453
1742117521.64,-979.492,-117.676,-101.074,-1000.0
1742117521.644,-1000.0,-62.5,-96.68,-1000.0
1742117521.648,-192.383,67.383,-98.633,-175.293
1742117522.069,-1000.0,-115.723,-154.785,-1000.0
1742117522.073,-218.75,54.199,-155.273,-250.977
1742117522.077,999.512,65.918,-158.691,999.512
1742117522.081,956.055,-59.57,-160.156,967.285
1742117522.085,871.582,-95.215,-162.109,865.234
1742117522.089,999.512,-44.434,-160.156,999.512
1742117522.093,230.469,-162.109,-152.832,343.75
1742117522.096,-981.445,-323.242,-155.273,-933.105
1742117522.1,-1000.0,-178.223,-157.227,-1000.0
1742117522.104,-364.258,22.949,-154.297,-364.258
1742117522.108,893.555,85.449,-153.32,878.418
1742117522.112,999.512,-75.195,-152.832,999.512
1742117526.06,973.145,35.156,-152.344,966.309
1742117526.064,999.512,18.555,-162.598,999.512
1742117526.068,86.914,-2.93,-168.945,32.227
1742117526.072,-1000.0,-5.859,-159.668,-1000.0
1742117526.076,-1000.0,15.625,-145.996,-1000.0
1742117526.08,-267.578,42.48,-141.113,-332.52
1742117526.084,968.75,50.293,-148.438,958.496
1742117526.087,999.512,34.18,-153.32,999.512
1742117526.091,-39.551,14.648,-149.902,-117.188
1742117526.095,-1000.0,6.836,-152.344,-1000.0
1742117526.099,-961.914,19.043,-138.184,-966.797
1742117526.103,-921.387,14.648,-133.789,-918.945
1742117528.489,-962.402,-93.262,-103.027,-927.246
1742117528.493,159.668,-75.195,-96.191,183.594
1742117528.497,999.512,-72.266,-98.145,999.512
1742117528.501,388.672,-88.867,-104.004,393.066
1742117528.505,-956.055,-98.633,-104.492,-944.824
1742117528.509,-1000.0,-84.961,-99.121,-1000.0
1742117528.513,-966.309,-86.914,-104.492,-966.309
1742117528.516,-942.383,-97.168,-110.352,-954.59
1742117528.52,-1000.0,-97.656,-104.492,-1000.0
1742117528.524,-587.891,-92.285,-102.051,-783.203
1742117528.528,812.012,-79.59,-99.121,594.727
1742117528.532,999.512,-89.355,-97.656,999.512
1742117529.944,13.184,-53.711,-49.316,-54.199
1742117529.948,-1000.0,-57.617,-54.199,-1000.0
1742117529.952,-978.516,-58.105,-61.035,-970.703
1742117529.956,-931.152,-62.988,-65.43,-958.008
1742117529.96,-1000.0,-63.477,-57.617,-992.676
1742117529.964,-855.957,-51.27,-52.734,-1000.0
1742117529.968,524.902,-37.598,-54.688,189.453
1742117529.971,999.512,-47.363,-48.828,999.512
1742117529.975,999.512,-62.5,-55.176,999.512
1742117529.979,182.129,-71.289,-52.246,154.297
1742117529.983,-1000.0,-68.359,-48.34,-1000.0
1742117529.987,-1000.0,-64.453,-58.105,-1000.0
1742117530.604,220.215,98.145,126.953,250.977
1742117530.608,-1000.0,93.75,124.023,-1000.0
1742117530.612,-994.629,70.312,93.262,-1000.0
1742117530.616,-967.773,27.832,63.477,-964.355
1742117530.62,-1000.0,8.789,47.363,-1000.0
1742117530.624,-936.035,15.137,36.621,-969.727
1742117530.628,-1000.0,0.977,30.273,-995.117
1742117530.631,-693.359,-8.301,24.902,-1000.0
1742117530.635,637.695,7.812,19.043,157.715
1742117530.639,999.512,7.812,18.066,999.512
1742117530.643,455.078,-10.742,25.391,461.914
1742117530.647,-906.738,-32.715,29.297,-888.184
1742117531.445,-969.238,76.172,144.531,-924.316
1742117531.449,-1000.0,86.914,143.066,-1000.0
1742117531.453,-390.625,83.984,143.066,-412.598
1742117531.457,957.031,89.355,146.484,935.059
1742117531.461,913.086,73.242,138.672,921.387
1742117531.465,999.512,66.406,139.16,999.512
1742117531.469,404.785,59.082,148.926,467.773
1742117531.472,-987.793,44.922,134.277,-936.523
1742117531.476,-958.008,55.664,125.977,-978.516
1742117531.48,-1000.0,57.129,130.371,-1000.0
1742117531.484,-225.098,73.73,129.883,-167.969
1742117531.488,999.512,76.66,123.535,999.512
1742117531.729,-990.234,-59.082,30.273,-1000.0
1742117531.733,-1000.0,-59.082,23.926,-1000.0
1742117531.737,7.812,-45.898,20.996,-37.598
1742117531.741,999.512,-50.293,21.484,999.512
1742117531.745,999.512,-58.594,18.555,999.512
1742117531.749,491.699,-60.547,14.16,541.992
1742117531.753,-919.922,-72.754,17.09,-838.867
1742117531.756,-987.793,-67.871,27.344,-1000.0
1742117531.76,-1000.0,-65.43,26.367,-1000.0
1742117531.764,-138.184,-61.035,24.902,-95.703
1742117531.768,999.512,-59.57,30.762,999.512
1742117531.772,933.105,-65.43,28.32,934.57
1742117531.971,999.512,-89.844,-0.977,999.512
1742117531.975,999.512,-92.773,12.207,999.512
1742117531.979,240.234,-21.973,17.578,292.48
1742117531.983,-1000.0,-27.344,1.465,-1000.0
1742117531.987,-948.242,-106.934,3.418,-968.75
1742117531.991,-1000.0,-102.051,10.742,-1000.0
1742117531.995,-39.062,-71.289,1.953,-13.184
1742117531.998,999.512,-85.449,-7.324,999.512
1742117532.002,860.352,-105.469,-6.348,862.793
1742117532.006,999.512,-73.73,-8.789,999.512
1742117532.01,202.148,-81.055,-20.996,297.852
1742117532.014,-1000.0,-93.262,-32.715,-971.191
1742117532.99,837.891,107.91,190.43,857.422
1742117532.994,999.512,108.398,187.012,999.512
1742117532.998,708.008,105.957,189.941,795.41
1742117533.002,-698.73,100.586,196.289,-555.664
1742117533.006,-1000.0,104.492,184.082,-1000.0
1742117533.01,-1000.0,107.422,166.016,-1000.0
1742117533.014,41.016,117.188,171.875,-16.602
1742117533.017,999.512,107.91,175.293,999.512
1742117533.021,999.512,96.191,174.316,999.512
1742117533.025,176.27,94.727,175.293,153.32
1742117533.029,-1000.0,93.75,177.734,-1000.0
1742117533.033,-1000.0,96.68,178.711,-1000.0
1742117534.775,-1000.0,7.324,83.008,-1000.0
1742117534.779,-895.508,33.691,73.242,-929.199
1742117534.783,299.805,53.223,70.801,206.055
1742117534.787,999.512,30.273,77.637,999.512
1742117534.791,135.742,-11.23,108.398,116.211
1742117534.795,-1000.0,-15.625,143.066,-1000.0
1742117534.799,-1000.0,-2.441,167.48,-1000.0
1742117534.802,24.414,15.137,190.918,11.719
1742117534.806,999.512,13.184,215.332,999.512
1742117534.81,999.512,-2.441,258.301,996.582
1742117534.814,-67.871,-16.113,276.367,-80.078
1742117534.818,-1000.0,-13.184,267.09,-1000.0
1742117537.025,893.555,-307.617,-440.43,861.816
1742117537.029,999.512,-325.684,-432.617,999.512
1742117537.033,-88.867,-366.699,-435.547,-71.777
1742117537.037,-1000.0,-335.938,-437.012,-1000.0
1742117537.041,-1000.0,-299.805,-427.246,-1000.0
1742117537.045,-241.699,-337.402,-469.727,-194.824
1742117537.049,999.512,-384.766,-518.555,999.512
1742117537.052,165.039,-416.016,-501.465,209.961
1742117537.056,-1000.0,-421.875,-471.191,-1000.0
1742117537.06,-1000.0,-395.508,-444.336,-1000.0
1742117537.064,-561.035,-348.145,-426.758,-537.598
1742117537.068,778.32,-301.758,-414.062,757.812
1742117537.58,999.512,-46.875,-123.535,999.512
1742117537.584,633.789,-56.152,-111.816,645.02
1742117537.588,-682.129,-68.359,-104.004,-645.996
1742117537.592,-1000.0,-56.641,-112.305,-1000.0
1742117537.596,-451.172,-42.969,-122.559,-487.305
1742117537.6,852.051,-32.227,-125.488,823.242
1742117537.604,999.512,-47.852,-125.977,999.512
1742117537.607,-33.203,-67.871,-119.629,-81.055
1742117537.611,-1000.0,-61.035,-125.488,-1000.0
1742117537.615,-1000.0,-58.594,-129.395,-1000.0
1742117537.619,-233.398,-58.594,-121.582,-181.641
1742117537.623,999.512,-59.57,-125.977,999.512
1742117537.672,-209.961,-32.227,-127.441,-243.164
1742117537.676,974.121,-23.926,-126.953,966.797
1742117537.68,999.512,-19.531,-123.047,999.512
1742117537.684,203.613,-29.785,-134.277,151.367
1742117537.688,-1000.0,-39.062,-139.16,-1000.0
1742117537.692,-710.449,-7.812,-135.254,-748.535
1742117537.696,674.316,7.324,-129.395,607.422
1742117537.699,999.512,-2.441,-120.117,999.512
1742117537.703,76.66,-4.395,-113.77,16.113
1742117537.707,-1000.0,3.418,-114.258,-1000.0
1742117537.711,-1000.0,21.484,-124.512,-1000.0
1742117537.715,-166.016,33.691,-130.371,-173.828
1742117538.615,-152.344,37.109,18.555,-217.285
1742117538.619,-1000.0,27.832,16.602,-1000.0
1742117538.623,-352.539,39.062,16.113,-361.328
1742117538.627,962.402,58.594,25.879,954.59
1742117538.631,995.605,36.621,31.738,991.211
1742117538.635,868.652,-1.953,32.715,895.508
1742117538.639,999.512,-27.344,35.645,969.238
1742117538.642,784.18,-47.363,39.062,999.023
1742117538.646,-572.754,-67.383,44.922,-206.055
1742117538.65,-1000.0,-67.871,51.758,-1000.0
1742117538.654,-993.164,-54.688,61.523,-977.539
1742117538.658,194.336,-44.922,63.477,214.355
1742117539.47,896.484,80.566,249.023,916.992
1742117539.474,999.512,88.379,243.652,999.512
1742117539.478,549.805,83.984,232.91,838.379
1742117539.482,-808.594,64.453,228.027,-476.562
1742117539.486,-1000.0,75.195,220.703,-1000.0
1742117539.49,-147.949,100.586,224.121,-104.004
1742117539.494,999.512,103.027,232.91,999.512
1742117539.497,875.0,86.426,225.586,876.465
1742117539.501,999.512,82.031,217.773,999.512
1742117539.505,486.328,83.496,213.867,644.043
1742117539.509,-1000.0,74.219,211.914,-971.68
1742117539.513,-494.629,78.613,208.984,-476.074
1742117539.921,999.512,-122.07,-14.16,999.512
1742117539.925,296.387,-136.23,-11.719,326.66
1742117539.929,-933.594,-149.414,-14.16,-920.898
1742117539.933,-1000.0,-142.09,-9.766,-1000.0
1742117539.937,-230.469,-123.535,-11.23,-217.773
1742117539.941,999.512,-109.375,-17.578,999.512
1742117539.945,820.801,-122.07,-20.02,777.832
1742117539.948,-504.395,-145.508,-22.461,-533.691
1742117539.952,-1000.0,-138.672,-31.25,-1000.0
1742117539.956,-745.605,-115.234,-37.598,-797.363
1742117539.96,524.414,-109.375,-49.316,421.387
1742117539.964,999.512,-113.77,-44.922,999.512
1742117541.569,968.75,57.617,27.344,987.793
1742117541.573,999.512,46.387,13.184,999.512
1742117541.577,129.883,31.738,9.766,106.445
1742117541.581,-1000.0,36.133,7.324,-1000.0
1742117541.585,-784.668,55.176,4.883,-791.504
1742117541.589,533.203,73.73,0.977,494.629
1742117541.593,999.512,69.824,-9.277,999.512
1742117541.596,350.098,50.293,-0.977,391.602
1742117541.6,-902.344,45.898,2.441,-876.465
1742117541.604,-1000.0,60.547,-6.836,-1000.0
1742117541.608,-196.777,69.824,-15.625,-138.184
1742117541.612,999.512,71.289,-17.09,999.512
1742117542.035,118.164,-169.434,-165.527,69.824
1742117542.039,-1000.0,-170.41,-150.879,-1000.0
1742117542.043,-1000.0,-162.109,-148.926,-1000.0
1742117542.047,-142.578,-154.785,-153.32,-94.238
1742117542.051,999.512,-147.461,-155.762,999.512
1742117542.055,999.512,-137.695,-147.949,999.512
1742117542.059,-47.363,-148.438,-146.484,-75.684
1742117542.062,-1000.0,-157.227,-157.227,-1000.0
1742117542.066,-927.734,-138.672,-156.738,-946.777
1742117542.07,-979.492,-137.695,-155.762,-951.66
1742117542.074,-1000.0,-139.16,-165.039,-1000.0
1742117542.078,206.055,-126.953,-166.992,7.812
1742117542.32,-1000.0,-170.41,-169.434,-1000.0
1742117542.324,-177.734,-154.297,-159.18,-209.473
1742117542.328,999.512,-148.438,-155.762,999.512
1742117542.332,944.336,-158.203,-176.27,913.086
1742117542.336,-281.738,-162.598,-186.035,-304.199
1742117542.34,-1000.0,-149.902,-178.223,-1000.0
1742117542.344,-811.523,-138.672,-188.965,-855.957
1742117542.347,445.312,-136.23,-194.824,362.793
1742117542.351,999.512,-139.16,-197.754,999.512
1742117542.355,119.629,-154.785,-198.73,96.191
1742117542.359,-998.047,-145.508,-183.594,-1000.0
1742117542.363,-1000.0,-126.465,-172.363,-1000.0
1742117542.785,949.707,-106.445,-193.848,923.34
1742117542.789,999.512,-107.91,-202.148,999.512
1742117542.793,161.621,-119.629,-200.684,125.977
1742117542.797,-1000.0,-132.324,-203.613,-1000.0
1742117542.801,-1000.0,-121.582,-193.359,-1000.0
1742117542.805,38.574,-107.91,-183.105,31.25
1742117542.809,999.512,-107.422,-181.641,999.512
1742117542.812,194.336,-123.047,-179.199,245.117
1742117542.816,-993.652,-127.93,-185.059,-976.074
1742117542.82,-1000.0,-119.629,-182.617,-1000.0
1742117542.824,-256.836,-112.793,-183.105,-252.441
1742117542.828,999.512,-105.469,-196.289,999.512
1742117542.98,236.816,-145.508,-88.867,291.016
1742117542.984,-979.492,-145.02,-97.168,-963.867
1742117542.988,-1000.0,-137.695,-102.539,-1000.0
1742117542.992,-193.848,-133.301,-99.121,-140.137
1742117542.996,999.023,-121.094,-97.656,999.512
1742117543.0,999.512,-119.141,-102.051,999.512
1742117543.004,-120.117,-126.953,-110.84,-132.812
1742117543.007,-1000.0,-125.0,-131.348,-1000.0
1742117543.011,-1000.0,-120.605,-148.438,-1000.0
1742117543.015,-52.734,-115.234,-140.137,-43.457
1742117543.019,999.512,-118.164,-144.043,999.512
1742117543.023,739.258,-127.441,-154.297,760.254
1742117543.355,999.512,-86.426,-166.504,999.512
1742117543.359,785.156,-83.984,-160.645,803.711
1742117543.363,-506.836,-98.633,-173.34,-463.379
1742117543.367,-1000.0,-97.656,-176.27,-1000.0
1742117543.371,-570.312,-93.75,-174.316,-600.098
1742117543.375,717.285,-93.262,-173.828,655.762
1742117543.379,999.512,-85.449,-174.316,999.512
1742117543.382,248.047,-92.285,-163.086,290.527
1742117543.386,-933.594,-106.445,-150.879,-916.992
1742117543.39,-1000.0,-93.262,-164.551,-1000.0
1742117543.394,-431.641,-66.895,-171.875,-494.141
1742117543.398,896.973,-50.293,-161.621,852.539
1742117543.955,-652.832,-103.027,-116.699,-587.891
1742117543.959,-1000.0,-89.844,-112.305,-1000.0
1742117543.963,-222.168,-68.848,-111.328,-181.152
1742117543.967,999.512,-72.266,-113.77,999.512
1742117543.971,569.824,-92.285,-120.605,596.191
1742117543.975,-816.406,-85.938,-120.117,-752.93
1742117543.979,-1000.0,-79.102,-125.0,-1000.0
1742117543.982,-165.527,-76.172,-124.512,-151.367
1742117543.986,963.867,-66.895,-122.559,976.562
1742117543.99,999.512,-68.359,-125.977,999.512
1742117543.994,158.691,-83.496,-128.418,114.746
1742117543.998,-1000.0,-87.891,-122.07,-1000.0
1742117544.241,-48.828,-104.492,-109.863,-89.844
1742117544.245,-1000.0,-96.191,-103.516,-1000.0
1742117544.249,-378.906,-96.191,-100.098,-407.227
1742117544.253,897.461,-83.496,-100.586,884.766
1742117544.257,999.512,-75.684,-95.215,999.512
1742117544.261,129.395,-87.891,-84.473,64.453
1742117544.265,-995.605,-92.285,-89.844,-1000.0
1742117544.268,-1000.0,-98.145,-98.145,-1000.0
1742117544.272,-242.676,-89.355,-98.145,-283.203
1742117544.276,948.242,-74.707,-96.191,922.852
1742117544.28,999.512,-74.707,-91.309,999.512
1742117544.284,193.848,-94.238,-97.656,229.98
1742117544.795,919.922,-55.176,-111.816,949.707
1742117544.799,999.512,-44.434,-120.605,999.512
1742117544.803,401.855,-48.828,-134.277,492.188
1742117544.807,-925.781,-48.828,-136.719,-870.117
1742117544.811,-1000.0,-38.086,-140.137,-1000.0
1742117544.815,-766.113,-30.273,-150.879,-841.797
1742117544.819,508.789,-20.996,-145.02,368.164
1742117544.822,999.512,-38.086,-142.578,999.512
1742117544.826,267.578,-51.758,-135.742,313.965
1742117544.83,-939.941,-49.805,-125.977,-921.387
1742117544.834,-1000.0,-40.039,-122.559,-1000.0
1742117544.838,-192.871,-26.855,-120.605,-169.922
1742117545.456,143.555,-61.035,-77.148,125.977
1742117545.46,-1000.0,-61.523,-72.266,-1000.0
1742117545.464,-1000.0,-49.805,-61.035,-1000.0
1742117545.468,28.32,-55.176,-51.758,63.965
1742117545.472,999.512,-53.711,-58.105,999.512
1742117545.476,512.695,-36.133,-71.777,527.832
1742117545.48,-879.395,-33.203,-70.801,-832.52
1742117545.483,-992.676,-41.016,-74.219,-1000.0
1742117545.487,-1000.0,-32.227,-81.055,-1000.0
1742117545.491,-213.867,-0.488,-93.75,-172.363
1742117545.495,999.512,20.02,-101.074,999.512
1742117545.499,888.184,17.578,-93.262,898.438
1742117546.251,999.512,-24.902,-83.984,999.512
1742117546.255,382.812,-39.551,-79.102,431.152
1742117546.259,-884.277,-50.293,-71.777,-843.75
1742117546.263,-1000.0,-47.363,-58.105,-1000.0
1742117546.267,-192.383,-28.809,-46.387,-182.129
1742117546.271,993.652,-5.859,-44.434,996.582
1742117546.275,999.512,-21.484,-52.246,999.512
1742117546.278,-76.66,-35.156,-53.223,-93.262
1742117546.282,-1000.0,-22.949,-44.434,-1000.0
1742117546.286,-589.355,-20.02,-39.062,-625.0
1742117546.29,741.211,-22.949,-47.363,664.551
1742117546.294,999.512,-13.672,-58.594,999.512
1742117546.625,264.648,-0.977,-26.855,234.863
1742117546.629,999.512,-0.488,-19.043,999.512
1742117546.633,312.5,-11.719,-18.555,349.121
1742117546.637,-932.617,-21.484,-24.902,-918.945
1742117546.641,-1000.0,-20.02,-47.852,-1000.0
1742117546.645,-200.684,-4.395,-57.617,-165.527
1742117546.649,999.512,7.812,-58.105,999.512
1742117546.652,637.695,-9.277,-73.242,659.668
1742117546.656,-738.281,-33.203,-71.289,-668.945
1742117546.66,-1000.0,-31.25,-60.059,-1000.0
1742117546.664,-170.41,-8.789,-60.547,-208.496
1742117546.668,977.539,-3.906,-62.5,979.492
1742117547.15,-79.59,-5.371,-25.879,-126.465
1742117547.154,997.559,1.465,-25.879,985.352
1742117547.158,999.512,-5.859,-16.602,999.512
1742117547.162,375.0,-11.719,-27.344,451.66
1742117547.166,-936.523,-25.391,-29.785,-884.766
1742117547.17,-1000.0,-22.949,-26.367,-1000.0
1742117547.174,-124.512,-16.113,-30.762,-96.191
1742117547.177,999.512,-12.695,-28.32,999.512
1742117547.181,531.738,-23.438,-31.738,570.801
1742117547.185,-828.125,-34.668,-36.133,-762.695
1742117547.189,-1000.0,-24.414,-42.969,-1000.0
1742117547.193,-180.664,-2.93,-52.246,-167.48
1742117547.3,999.512,16.113,-6.348,982.422
1742117547.304,999.512,1.953,-11.23,999.512
1742117547.308,352.051,-13.672,-12.695,403.809
1742117547.312,-951.172,-16.113,-9.766,-910.156
1742117547.316,-1000.0,-8.301,-3.906,-1000.0
1742117547.32,-146.973,1.953,2.441,-219.238
1742117547.324,933.105,3.906,-0.977,899.902
1742117547.327,999.512,-13.672,-8.789,999.512
1742117547.331,182.617,-23.926,-10.254,161.621
1742117547.335,-1000.0,-20.02,-14.16,-1000.0
1742117547.339,-1000.0,-13.184,-19.043,-1000.0
1742117547.343,123.047,-8.301,-24.902,102.539
