timestamps,TP9,AF7,AF8,TP10
1742118507.523,750.488,-42.969,-125.0,740.234
1742118507.527,-546.387,-213.379,-128.906,-558.594
1742118507.53,-1000.0,-205.078,-89.355,-1000.0
1742118507.534,-800.781,-83.496,-112.793,-829.59
1742118507.538,489.746,156.25,-109.863,444.824
1742118507.542,999.512,82.52,-104.98,999.512
1742118507.546,770.508,-83.496,-101.562,789.062
1742118507.523,750.488,-42.969,-125.0,740.234
1742118507.527,-546.387,-213.379,-128.906,-558.594
1742118507.53,-1000.0,-205.078,-89.355,-1000.0
1742118507.534,-800.781,-83.496,-112.793,-829.59
1742118507.538,489.746,156.25,-109.863,444.824
1742118507.542,999.512,82.52,-104.98,999.512
1742118507.546,770.508,-83.496,-101.562,789.062
1742118507.55,-547.852,-256.836,-144.043,-541.992
1742118507.554,-1000.0,-149.902,-188.965,-1000.0
1742118507.558,-947.754,-52.246,-167.48,-996.582
1742118507.562,300.293,121.094,-126.465,51.758
1742118507.566,999.512,75.195,-130.859,998.535
1742118507.57,999.512,6.348,-147.949,999.512
1742118507.574,418.945,-15.625,-133.789,472.168
1742118507.577,-922.852,-239.746,-158.691,-837.891
1742118507.581,-1000.0,-134.277,-97.168,-1000.0
1742118507.585,-23.438,110.84,-18.555,-264.16
1742118507.589,999.512,135.742,-5.859,999.512
1742118507.593,803.223,-122.559,-20.508,852.051
1742118507.55,-547.852,-256.836,-144.043,-541.992
1742118507.554,-1000.0,-149.902,-188.965,-1000.0
1742118507.558,-947.754,-52.246,-167.48,-996.582
1742118507.562,300.293,121.094,-126.465,51.758
1742118507.566,999.512,75.195,-130.859,998.535
1742118507.57,999.512,6.348,-147.949,999.512
1742118507.574,418.945,-15.625,-133.789,472.168
1742118507.577,-922.852,-239.746,-158.691,-837.891
1742118507.581,-1000.0,-134.277,-97.168,-1000.0
1742118507.585,-23.438,110.84,-18.555,-264.16
1742118507.589,999.512,135.742,-5.859,999.512
1742118507.593,803.223,-122.559,-20.508,852.051
1742118507.593,-542.969,-334.473,-56.641,-552.246
1742118507.597,-1000.0,-130.859,-3.418,-1000.0
1742118507.601,-655.762,125.0,35.645,-697.266
1742118507.605,642.09,195.312,53.711,591.797
1742118507.609,999.512,85.449,57.617,999.512
1742118507.613,530.273,-8.301,50.781,560.547
1742118507.617,-761.719,-49.316,103.516,-701.172
1742118507.62,-1000.0,20.996,77.637,-1000.0
1742118507.624,-845.703,-52.246,-8.301,-848.145
1742118507.628,513.672,141.113,22.461,492.676
1742118507.632,999.512,151.367,-9.766,999.512
1742118507.636,-48.34,-154.785,-62.012,72.754
1742118507.593,-542.969,-334.473,-56.641,-552.246
1742118507.597,-1000.0,-130.859,-3.418,-1000.0
1742118507.601,-655.762,125.0,35.645,-697.266
1742118507.605,642.09,195.312,53.711,591.797
1742118507.609,999.512,85.449,57.617,999.512
1742118507.613,530.273,-8.301,50.781,560.547
1742118507.617,-761.719,-49.316,103.516,-701.172
1742118507.62,-1000.0,20.996,77.637,-1000.0
1742118507.624,-845.703,-52.246,-8.301,-848.145
1742118507.628,513.672,141.113,22.461,492.676
1742118507.632,999.512,151.367,-9.766,999.512
1742118507.636,-48.34,-154.785,-62.012,72.754
1742118507.64,-1000.0,-227.051,-56.641,-1000.0
1742118507.644,-883.301,-20.508,-38.574,-882.324
1742118507.648,591.309,231.445,23.926,599.609
1742118507.652,999.512,68.848,-21.484,999.512
1742118507.656,-355.469,-243.164,-70.801,-216.309
1742118507.66,-1000.0,-116.699,-3.418,-1000.0
1742118507.664,-777.832,15.137,9.277,-775.391
1742118507.667,611.816,39.551,-18.066,602.539
1742118507.671,999.512,20.508,-2.93,999.512
1742118507.675,-145.996,-229.98,-67.871,15.625
1742118507.679,-1000.0,-278.32,-73.73,-1000.0
1742118507.683,-827.148,-39.062,-2.441,-884.766
1742118507.64,-1000.0,-227.051,-56.641,-1000.0
1742118507.644,-883.301,-20.508,-38.574,-882.324
1742118507.648,591.309,231.445,23.926,599.609
1742118507.652,999.512,68.848,-21.484,999.512
1742118507.656,-355.469,-243.164,-70.801,-216.309
1742118507.66,-1000.0,-116.699,-3.418,-1000.0
1742118507.664,-777.832,15.137,9.277,-775.391
1742118507.667,611.816,39.551,-18.066,602.539
1742118507.671,999.512,20.508,-2.93,999.512
1742118507.675,-145.996,-229.98,-67.871,15.625
1742118507.679,-1000.0,-278.32,-73.73,-1000.0
1742118507.683,-827.148,-39.062,-2.441,-884.766
1742118507.683,499.023,175.293,3.906,464.355
1742118507.687,999.512,86.426,12.695,999.512
1742118507.691,524.902,-133.301,4.883,562.5
1742118507.695,-919.922,-233.887,-25.391,-869.629
1742118507.699,-964.844,-13.672,14.648,-960.938
1742118507.703,603.027,250.488,38.574,604.492
1742118507.707,999.512,50.781,-0.977,999.512
1742118507.71,-185.059,-296.387,-36.133,-48.828
1742118507.714,-1000.0,-309.082,-19.531,-1000.0
1742118507.718,-870.605,-88.867,29.785,-895.02
1742118507.722,563.965,162.109,45.898,539.062
1742118507.726,999.512,71.289,32.715,999.512
1742118507.683,499.023,175.293,3.906,464.355
1742118507.687,999.512,86.426,12.695,999.512
1742118507.691,524.902,-133.301,4.883,562.5
1742118507.695,-919.922,-233.887,-25.391,-869.629
1742118507.699,-964.844,-13.672,14.648,-960.938
1742118507.703,603.027,250.488,38.574,604.492
1742118507.707,999.512,50.781,-0.977,999.512
1742118507.71,-185.059,-296.387,-36.133,-48.828
1742118507.714,-1000.0,-309.082,-19.531,-1000.0
1742118507.718,-870.605,-88.867,29.785,-895.02
1742118507.722,563.965,162.109,45.898,539.062
1742118507.726,999.512,71.289,32.715,999.512
1742118507.73,-311.523,-291.016,-20.02,-173.34
1742118507.734,-1000.0,-231.934,-34.668,-1000.0
1742118507.738,-800.293,28.809,-2.441,-811.523
1742118507.742,503.418,187.012,26.855,529.297
1742118507.746,999.512,90.82,-0.977,999.512
1742118507.75,666.504,49.805,-9.766,643.066
1742118507.754,-628.906,-128.906,-56.152,-621.094
1742118507.757,-1000.0,-173.34,-62.988,-1000.0
1742118507.761,-586.914,41.992,-30.273,-650.391
1742118507.765,859.375,160.645,-60.547,777.832
1742118507.769,938.477,25.879,-63.965,985.84
1742118507.773,-523.926,-207.031,-92.285,-470.215
1742118507.73,-311.523,-291.016,-20.02,-173.34
1742118507.734,-1000.0,-231.934,-34.668,-1000.0
1742118507.738,-800.293,28.809,-2.441,-811.523
1742118507.742,503.418,187.012,26.855,529.297
1742118507.746,999.512,90.82,-0.977,999.512
1742118507.75,666.504,49.805,-9.766,643.066
1742118507.754,-628.906,-128.906,-56.152,-621.094
1742118507.757,-1000.0,-173.34,-62.988,-1000.0
1742118507.761,-586.914,41.992,-30.273,-650.391
1742118507.765,859.375,160.645,-60.547,777.832
1742118507.769,938.477,25.879,-63.965,985.84
1742118507.773,-523.926,-207.031,-92.285,-470.215
1742118507.788,-1000.0,-136.719,-127.441,-1000.0
1742118507.792,-552.734,176.758,-78.613,-604.98
1742118507.796,879.883,263.672,-47.363,812.012
1742118507.8,933.594,34.668,-84.961,979.492
1742118507.804,-518.066,-163.574,-75.195,-464.844
1742118507.808,-1000.0,-32.715,-62.012,-1000.0
1742118507.812,-726.562,82.031,-73.73,-733.398
1742118507.815,646.484,60.547,-47.363,610.352
1742118507.819,999.512,-57.617,-26.367,999.512
1742118507.823,-77.637,-170.41,-9.277,32.227
1742118507.827,-1000.0,-187.5,-12.207,-1000.0
1742118507.831,-848.633,-61.523,-26.367,-912.598
1742118507.848,482.422,141.602,-50.781,420.898
1742118507.852,999.512,145.02,-41.992,999.512
1742118507.856,540.039,-112.305,-63.477,566.895
1742118507.86,-903.32,-237.793,-73.242,-841.797
1742118507.864,-975.098,-33.691,-33.203,-1000.0
1742118507.868,534.18,239.258,-35.156,473.145
1742118507.872,999.512,91.797,-112.305,999.512
1742118507.875,134.277,-262.207,-132.812,240.723
1742118507.879,-1000.0,-299.805,-69.336,-1000.0
1742118507.883,-870.117,-60.547,-44.922,-917.969
1742118507.887,523.926,170.41,-53.223,489.746
1742118507.891,999.512,58.594,-82.031,999.512
1742118507.848,482.422,141.602,-50.781,420.898
1742118507.852,999.512,145.02,-41.992,999.512
1742118507.856,540.039,-112.305,-63.477,566.895
1742118507.86,-903.32,-237.793,-73.242,-841.797
1742118507.864,-975.098,-33.691,-33.203,-1000.0
1742118507.868,534.18,239.258,-35.156,473.145
1742118507.872,999.512,91.797,-112.305,999.512
1742118507.875,134.277,-262.207,-132.812,240.723
1742118507.879,-1000.0,-299.805,-69.336,-1000.0
1742118507.883,-870.117,-60.547,-44.922,-917.969
1742118507.887,523.926,170.41,-53.223,489.746
1742118507.891,999.512,58.594,-82.031,999.512
1742118507.879,376.465,-184.082,-116.699,439.941
1742118507.883,-949.707,-239.258,-85.938,-876.953
1742118507.887,-1000.0,-97.656,-68.359,-1000.0
1742118507.891,354.004,131.836,-90.332,267.578
1742118507.895,999.512,151.367,-103.027,999.512
1742118507.899,772.461,-37.598,-106.934,820.801
1742118507.903,-526.367,-280.273,-120.117,-466.309
1742118507.906,-1000.0,-212.402,-97.656,-1000.0
1742118507.91,-799.805,-86.426,-100.098,-816.895
1742118507.914,478.516,116.699,-99.609,467.773
1742118507.918,999.512,72.266,-105.469,999.512
1742118507.922,650.391,-140.625,-102.051,648.438
1742118507.879,376.465,-184.082,-116.699,439.941
1742118507.883,-949.707,-239.258,-85.938,-876.953
1742118507.887,-1000.0,-97.656,-68.359,-1000.0
1742118507.891,354.004,131.836,-90.332,267.578
1742118507.895,999.512,151.367,-103.027,999.512
1742118507.899,772.461,-37.598,-106.934,820.801
1742118507.903,-526.367,-280.273,-120.117,-466.309
1742118507.906,-1000.0,-212.402,-97.656,-1000.0
1742118507.91,-799.805,-86.426,-100.098,-816.895
1742118507.914,478.516,116.699,-99.609,467.773
1742118507.918,999.512,72.266,-105.469,999.512
1742118507.922,650.391,-140.625,-102.051,648.438
1742118507.925,-811.035,-272.461,-124.023,-745.605
1742118507.929,-1000.0,-97.168,-136.23,-1000.0
1742118507.933,474.121,175.293,-83.984,408.203
1742118507.937,999.512,57.129,-74.707,999.512
1742118507.941,467.773,-147.461,-55.176,431.152
1742118507.945,-942.383,-152.344,-0.977,-896.484
1742118507.949,-944.824,-40.527,-14.648,-981.934
1742118507.952,502.93,101.562,-74.219,440.918
1742118507.956,999.512,48.828,-81.543,999.512
1742118507.96,649.414,-75.195,-45.898,653.32
1742118507.964,-712.891,-191.406,-54.688,-661.133
1742118507.968,-1000.0,-87.891,-48.34,-1000.0
1742118507.925,-811.035,-272.461,-124.023,-745.605
1742118507.929,-1000.0,-97.168,-136.23,-1000.0
1742118507.933,474.121,175.293,-83.984,408.203
1742118507.937,999.512,57.129,-74.707,999.512
1742118507.941,467.773,-147.461,-55.176,431.152
1742118507.945,-942.383,-152.344,-0.977,-896.484
1742118507.949,-944.824,-40.527,-14.648,-981.934
1742118507.952,502.93,101.562,-74.219,440.918
1742118507.956,999.512,48.828,-81.543,999.512
1742118507.96,649.414,-75.195,-45.898,653.32
1742118507.964,-712.891,-191.406,-54.688,-661.133
1742118507.968,-1000.0,-87.891,-48.34,-1000.0
1742118507.969,8.789,127.441,-37.109,-137.695
1742118507.973,999.512,164.062,-44.434,999.512
1742118507.977,846.191,31.738,-47.363,909.18
1742118507.981,-529.297,-202.637,-41.992,-464.355
1742118507.985,-1000.0,-117.188,-27.344,-1000.0
1742118507.989,-168.945,193.359,-24.414,-268.066
1742118507.993,999.512,181.152,-38.086,999.512
1742118507.996,683.105,-132.324,-101.074,721.68
1742118508.0,-847.656,-327.148,-128.906,-788.086
1742118508.004,-1000.0,-131.348,-86.914,-1000.0
1742118508.008,413.086,157.715,-64.941,294.434
1742118508.012,999.512,108.398,-82.52,999.512
1742118507.969,8.789,127.441,-37.109,-137.695
1742118507.973,999.512,164.062,-44.434,999.512
1742118507.977,846.191,31.738,-47.363,909.18
1742118507.981,-529.297,-202.637,-41.992,-464.355
1742118507.985,-1000.0,-117.188,-27.344,-1000.0
1742118507.989,-168.945,193.359,-24.414,-268.066
1742118507.993,999.512,181.152,-38.086,999.512
1742118507.996,683.105,-132.324,-101.074,721.68
1742118508.0,-847.656,-327.148,-128.906,-788.086
1742118508.004,-1000.0,-131.348,-86.914,-1000.0
1742118508.008,413.086,157.715,-64.941,294.434
1742118508.012,999.512,108.398,-82.52,999.512
1742118508.015,-117.188,-277.832,-122.07,-17.578
1742118508.019,-1000.0,-243.652,-101.074,-1000.0
1742118508.023,-902.832,-19.531,-98.633,-964.844
1742118508.027,396.973,115.234,-122.559,305.664
1742118508.031,999.512,24.902,-111.816,999.512
1742118508.035,813.477,-22.461,-87.891,862.305
1742118508.039,-509.766,-218.262,-106.934,-449.219
1742118508.042,-1000.0,-247.559,-100.098,-1000.0
1742118508.046,-991.211,-104.98,-99.609,-1000.0
1742118508.05,-31.738,21.973,-113.281,-332.52
1742118508.054,999.512,82.031,-136.719,999.512
1742118508.058,846.68,-118.164,-212.402,851.074
1742118508.015,-117.188,-277.832,-122.07,-17.578
1742118508.019,-1000.0,-243.652,-101.074,-1000.0
1742118508.023,-902.832,-19.531,-98.633,-964.844
1742118508.027,396.973,115.234,-122.559,305.664
1742118508.031,999.512,24.902,-111.816,999.512
1742118508.035,813.477,-22.461,-87.891,862.305
1742118508.039,-509.766,-218.262,-106.934,-449.219
1742118508.042,-1000.0,-247.559,-100.098,-1000.0
1742118508.046,-991.211,-104.98,-99.609,-1000.0
1742118508.05,-31.738,21.973,-113.281,-332.52
1742118508.054,999.512,82.031,-136.719,999.512
1742118508.058,846.68,-118.164,-212.402,851.074
1742118508.059,-657.715,-304.688,-219.238,-692.871
1742118508.063,-1000.0,-105.957,-122.07,-1000.0
1742118508.067,450.684,154.785,-102.051,376.953
1742118508.071,999.512,10.742,-120.605,999.512
1742118508.075,510.742,-145.508,-81.055,506.348
1742118508.079,-927.734,-166.504,-40.039,-867.676
1742118508.083,-930.176,-25.879,-24.902,-964.844
1742118508.086,549.805,128.906,-53.711,510.742
1742118508.09,999.512,25.879,-49.316,999.512
1742118508.094,444.336,-132.324,-49.316,458.008
1742118508.098,-903.809,-194.824,-40.527,-844.727
1742118508.102,-1000.0,-34.18,-7.324,-1000.0
1742118508.571,-281.738,-87.402,-16.602,-133.301
1742118508.575,-1000.0,-150.879,-75.195,-1000.0
1742118508.579,-788.574,86.914,-43.945,-806.641
1742118508.583,536.621,244.629,7.812,558.105
1742118508.587,999.512,163.574,-37.598,999.512
1742118508.591,828.613,229.004,10.742,869.629
1742118508.595,-419.922,-45.898,63.477,-338.379
1742118508.598,-1000.0,-164.062,27.832,-1000.0
1742118508.602,-800.781,67.383,48.828,-849.121
1742118508.606,493.164,281.738,80.566,424.316
1742118508.61,999.512,199.707,72.754,999.512
1742118508.614,766.113,66.406,95.703,783.203
1742118508.629,-524.414,-77.637,118.164,-506.836
1742118508.633,-1000.0,-44.922,78.613,-1000.0
1742118508.637,-811.523,115.723,29.785,-865.234
1742118508.641,518.066,215.82,1.953,440.43
1742118508.645,999.512,148.926,16.602,999.512
1742118508.649,953.613,132.324,42.969,982.91
1742118508.653,-197.754,-83.984,6.348,58.105
1742118508.656,-1000.0,-173.828,-55.176,-991.211
1742118508.66,-1000.0,-62.012,-81.543,-1000.0
1742118508.664,-651.855,56.641,-46.875,-723.633
1742118508.668,799.316,210.938,-59.082,677.246
1742118508.672,999.512,79.59,-112.793,999.512
1742118508.629,-524.414,-77.637,118.164,-506.836
1742118508.633,-1000.0,-44.922,78.613,-1000.0
1742118508.637,-811.523,115.723,29.785,-865.234
1742118508.641,518.066,215.82,1.953,440.43
1742118508.645,999.512,148.926,16.602,999.512
1742118508.649,953.613,132.324,42.969,982.91
1742118508.653,-197.754,-83.984,6.348,58.105
1742118508.656,-1000.0,-173.828,-55.176,-991.211
1742118508.66,-1000.0,-62.012,-81.543,-1000.0
1742118508.664,-651.855,56.641,-46.875,-723.633
1742118508.668,799.316,210.938,-59.082,677.246
1742118508.672,999.512,79.59,-112.793,999.512
1742118508.689,-213.379,-151.855,-65.43,-17.09
1742118508.693,-1000.0,-85.449,-42.969,-1000.0
1742118508.697,-967.285,40.039,-134.766,-1000.0
1742118508.701,271.484,161.133,-64.941,127.441
1742118508.705,999.512,176.27,39.551,999.512
1742118508.709,945.801,117.676,-7.324,976.562
1742118508.713,-127.93,-79.59,-32.227,39.551
1742118508.716,-1000.0,-222.168,-48.34,-1000.0
1742118508.72,-815.918,22.461,21.484,-836.426
1742118508.724,505.859,239.258,65.918,535.156
1742118508.728,999.512,91.309,-7.812,999.512
1742118508.732,478.516,-129.395,-1.953,496.094
1742118508.689,-213.379,-151.855,-65.43,-17.09
1742118508.693,-1000.0,-85.449,-42.969,-1000.0
1742118508.697,-967.285,40.039,-134.766,-1000.0
1742118508.701,271.484,161.133,-64.941,127.441
1742118508.705,999.512,176.27,39.551,999.512
1742118508.709,945.801,117.676,-7.324,976.562
1742118508.713,-127.93,-79.59,-32.227,39.551
1742118508.716,-1000.0,-222.168,-48.34,-1000.0
1742118508.72,-815.918,22.461,21.484,-836.426
1742118508.724,505.859,239.258,65.918,535.156
1742118508.728,999.512,91.309,-7.812,999.512
1742118508.732,478.516,-129.395,-1.953,496.094
1742118508.718,-942.871,-240.234,-45.41,-880.371
1742118508.722,-935.547,-22.949,-41.992,-985.84
1742118508.726,521.973,221.68,-24.902,463.867
1742118508.73,999.512,40.039,-128.418,999.512
1742118508.734,572.266,-119.141,-156.25,586.426
1742118508.738,-888.672,-187.988,-131.836,-824.707
1742118508.742,-954.59,-69.336,-82.031,-992.188
1742118508.745,569.336,152.344,-0.977,507.324
1742118508.749,999.512,-7.324,-50.293,999.512
1742118508.753,189.453,-218.262,-156.25,328.125
1742118508.757,-1000.0,-251.953,-146.484,-986.816
1742118508.761,-870.117,-59.082,-64.941,-916.992
1742118508.718,-942.871,-240.234,-45.41,-880.371
1742118508.722,-935.547,-22.949,-41.992,-985.84
1742118508.726,521.973,221.68,-24.902,463.867
1742118508.73,999.512,40.039,-128.418,999.512
1742118508.734,572.266,-119.141,-156.25,586.426
1742118508.738,-888.672,-187.988,-131.836,-824.707
1742118508.742,-954.59,-69.336,-82.031,-992.188
1742118508.745,569.336,152.344,-0.977,507.324
1742118508.749,999.512,-7.324,-50.293,999.512
1742118508.753,189.453,-218.262,-156.25,328.125
1742118508.757,-1000.0,-251.953,-146.484,-986.816
1742118508.761,-870.117,-59.082,-64.941,-916.992
1742118508.718,-942.871,-240.234,-45.41,-880.371
1742118508.722,-935.547,-22.949,-41.992,-985.84
1742118508.726,521.973,221.68,-24.902,463.867
1742118508.73,999.512,40.039,-128.418,999.512
1742118508.734,572.266,-119.141,-156.25,586.426
1742118508.738,-888.672,-187.988,-131.836,-824.707
1742118508.742,-954.59,-69.336,-82.031,-992.188
1742118508.745,569.336,152.344,-0.977,507.324
1742118508.749,999.512,-7.324,-50.293,999.512
1742118508.753,189.453,-218.262,-156.25,328.125
1742118508.757,-1000.0,-251.953,-146.484,-986.816
1742118508.761,-870.117,-59.082,-64.941,-916.992
1742118508.765,534.18,96.191,-39.551,511.719
1742118508.769,999.512,30.273,-39.551,999.512
1742118508.773,784.18,-98.145,-33.203,771.484
1742118508.777,-591.797,-281.25,-115.723,-584.473
1742118508.781,-1000.0,-182.617,-96.68,-1000.0
1742118508.785,148.438,136.23,-12.207,7.324
1742118508.789,999.512,108.398,-37.109,999.512
1742118508.792,716.797,-229.004,-97.168,744.629
1742118508.796,-771.484,-391.602,-135.742,-721.191
1742118508.8,-1000.0,-149.414,-80.566,-1000.0
1742118508.804,399.414,130.371,-39.062,291.504
1742118508.808,999.512,-19.043,-102.051,999.512
1742118508.808,580.078,-243.652,-130.859,579.59
1742118508.812,-720.215,-287.598,-49.805,-682.617
1742118508.816,-1000.0,-215.82,-58.594,-1000.0
1742118508.82,-436.035,-103.516,-56.641,-509.277
1742118508.824,835.449,41.992,22.461,760.742
1742118508.828,999.512,0.0,28.809,999.512
1742118508.832,68.848,-233.398,6.836,230.957
1742118508.835,-1000.0,-364.258,-12.207,-991.699
1742118508.839,-921.387,-203.125,11.719,-991.211
1742118508.843,398.926,101.562,67.871,326.172
1742118508.847,999.512,3.906,43.945,999.512
1742118508.851,707.031,-181.152,35.645,700.684
1742118508.808,580.078,-243.652,-130.859,579.59
1742118508.812,-720.215,-287.598,-49.805,-682.617
1742118508.816,-1000.0,-215.82,-58.594,-1000.0
1742118508.82,-436.035,-103.516,-56.641,-509.277
1742118508.824,835.449,41.992,22.461,760.742
1742118508.828,999.512,0.0,28.809,999.512
1742118508.832,68.848,-233.398,6.836,230.957
1742118508.835,-1000.0,-364.258,-12.207,-991.699
1742118508.839,-921.387,-203.125,11.719,-991.211
1742118508.843,398.926,101.562,67.871,326.172
1742118508.847,999.512,3.906,43.945,999.512
1742118508.851,707.031,-181.152,35.645,700.684
1742118508.856,-614.258,-205.078,47.363,-607.422
1742118508.86,-1000.0,-204.59,17.09,-1000.0
1742118508.864,-291.016,-37.109,27.832,-388.184
1742118508.868,950.684,17.578,38.086,873.047
1742118508.872,980.469,-99.609,30.273,999.512
1742118508.876,-319.824,-159.668,4.395,-170.41
1742118508.88,-1000.0,-222.656,-46.875,-1000.0
1742118508.883,-827.148,-128.906,3.418,-824.707
1742118508.887,554.199,66.895,34.18,568.848
1742118508.891,999.512,15.625,-14.648,999.512
1742118508.895,-137.207,-225.586,-32.227,10.742
1742118508.899,-1000.0,-228.516,13.184,-1000.0
1742118508.856,-614.258,-205.078,47.363,-607.422
1742118508.86,-1000.0,-204.59,17.09,-1000.0
1742118508.864,-291.016,-37.109,27.832,-388.184
1742118508.868,950.684,17.578,38.086,873.047
1742118508.872,980.469,-99.609,30.273,999.512
1742118508.876,-319.824,-159.668,4.395,-170.41
1742118508.88,-1000.0,-222.656,-46.875,-1000.0
1742118508.883,-827.148,-128.906,3.418,-824.707
1742118508.887,554.199,66.895,34.18,568.848
1742118508.891,999.512,15.625,-14.648,999.512
1742118508.895,-137.207,-225.586,-32.227,10.742
1742118508.899,-1000.0,-228.516,13.184,-1000.0
1742118508.913,-849.121,-36.621,-5.859,-883.301
1742118508.917,522.461,120.117,-41.504,501.465
1742118508.921,999.512,58.594,-48.828,999.512
1742118508.925,125.977,-197.754,-76.66,253.418
1742118508.929,-1000.0,-225.586,-44.434,-1000.0
1742118508.933,-676.758,104.492,42.48,-701.172
1742118508.937,891.602,204.59,50.781,878.906
1742118508.94,936.523,-119.629,-9.766,912.109
1742118508.944,-646.973,-350.098,-14.648,-647.949
1742118508.948,-1000.0,-146.973,55.176,-1000.0
1742118508.952,186.523,196.777,73.73,19.043
1742118508.956,999.512,189.941,27.832,999.512
1742118508.913,-849.121,-36.621,-5.859,-883.301
1742118508.917,522.461,120.117,-41.504,501.465
1742118508.921,999.512,58.594,-48.828,999.512
1742118508.925,125.977,-197.754,-76.66,253.418
1742118508.929,-1000.0,-225.586,-44.434,-1000.0
1742118508.933,-676.758,104.492,42.48,-701.172
1742118508.937,891.602,204.59,50.781,878.906
1742118508.94,936.523,-119.629,-9.766,912.109
1742118508.944,-646.973,-350.098,-14.648,-647.949
1742118508.948,-1000.0,-146.973,55.176,-1000.0
1742118508.952,186.523,196.777,73.73,19.043
1742118508.956,999.512,189.941,27.832,999.512
1742118508.959,817.871,-20.508,33.203,880.371
1742118508.963,-480.469,-170.41,27.344,-418.945
1742118508.967,-1000.0,-87.402,18.066,-1000.0
1742118508.971,-740.723,77.148,-6.836,-742.676
1742118508.975,551.758,155.762,-18.066,554.199
1742118508.979,999.512,180.176,13.184,999.512
1742118508.983,628.906,30.762,15.625,652.344
1742118508.986,-745.117,-253.906,20.508,-675.781
1742118508.99,-1000.0,-164.551,1.953,-1000.0
1742118508.994,86.426,119.629,-4.883,-79.102
1742118508.998,999.512,125.488,-25.391,999.512
1742118509.002,841.309,-73.242,-70.312,844.238
1742118508.959,817.871,-20.508,33.203,880.371
1742118508.963,-480.469,-170.41,27.344,-418.945
1742118508.967,-1000.0,-87.402,18.066,-1000.0
1742118508.971,-740.723,77.148,-6.836,-742.676
1742118508.975,551.758,155.762,-18.066,554.199
1742118508.979,999.512,180.176,13.184,999.512
1742118508.983,628.906,30.762,15.625,652.344
1742118508.986,-745.117,-253.906,20.508,-675.781
1742118508.99,-1000.0,-164.551,1.953,-1000.0
1742118508.994,86.426,119.629,-4.883,-79.102
1742118508.998,999.512,125.488,-25.391,999.512
1742118509.002,841.309,-73.242,-70.312,844.238
1742118509.003,-641.113,-264.16,-38.574,-660.156
1742118509.007,-1000.0,-78.613,30.762,-1000.0
1742118509.011,412.598,256.836,20.508,340.82
1742118509.015,999.512,147.949,-43.945,999.512
1742118509.019,771.973,-64.941,1.953,735.84
1742118509.023,-538.574,-146.484,65.43,-567.383
1742118509.027,-1000.0,-119.141,36.133,-1000.0
1742118509.03,-322.266,70.312,5.859,-390.625
1742118509.034,995.605,146.973,-19.531,949.219
1742118509.038,851.074,-70.312,-17.578,866.211
1742118509.042,-567.383,-241.211,29.785,-575.684
1742118509.046,-1000.0,-157.715,57.617,-1000.0
1742118509.003,-641.113,-264.16,-38.574,-660.156
1742118509.007,-1000.0,-78.613,30.762,-1000.0
1742118509.011,412.598,256.836,20.508,340.82
1742118509.015,999.512,147.949,-43.945,999.512
1742118509.019,771.973,-64.941,1.953,735.84
1742118509.023,-538.574,-146.484,65.43,-567.383
1742118509.027,-1000.0,-119.141,36.133,-1000.0
1742118509.03,-322.266,70.312,5.859,-390.625
1742118509.034,995.605,146.973,-19.531,949.219
1742118509.038,851.074,-70.312,-17.578,866.211
1742118509.042,-567.383,-241.211,29.785,-575.684
1742118509.046,-1000.0,-157.715,57.617,-1000.0
1742118509.05,-719.238,-10.742,18.066,-729.492
1742118509.054,714.355,185.547,55.176,655.273
1742118509.058,999.512,58.594,52.734,999.512
1742118509.062,-385.742,-270.508,-33.691,-255.859
1742118509.066,-1000.0,-210.938,-50.293,-1000.0
1742118509.07,-344.727,150.391,0.488,-421.387
1742118509.074,991.211,208.008,-30.762,958.008
1742118509.077,894.531,-63.965,-114.746,875.0
1742118509.081,-701.172,-268.066,-92.773,-709.961
1742118509.085,-1000.0,-55.176,1.953,-1000.0
1742118509.089,462.891,238.77,-17.09,391.113
1742118509.093,999.512,69.824,-79.59,999.512
1742118509.05,-719.238,-10.742,18.066,-729.492
1742118509.054,714.355,185.547,55.176,655.273
1742118509.058,999.512,58.594,52.734,999.512
1742118509.062,-385.742,-270.508,-33.691,-255.859
1742118509.066,-1000.0,-210.938,-50.293,-1000.0
1742118509.07,-344.727,150.391,0.488,-421.387
1742118509.074,991.211,208.008,-30.762,958.008
1742118509.077,894.531,-63.965,-114.746,875.0
1742118509.081,-701.172,-268.066,-92.773,-709.961
1742118509.085,-1000.0,-55.176,1.953,-1000.0
1742118509.089,462.891,238.77,-17.09,391.113
1742118509.093,999.512,69.824,-79.59,999.512
1742118509.093,631.348,-138.672,-72.266,656.25
1742118509.097,-787.598,-130.859,-15.625,-716.797
1742118509.101,-1000.0,-1.953,15.137,-1000.0
1742118509.105,327.637,213.379,15.137,235.84
1742118509.109,999.512,252.441,45.41,999.512
1742118509.113,819.336,54.688,32.715,881.348
1742118509.117,-448.242,-186.035,18.555,-351.562
1742118509.12,-1000.0,-211.426,27.344,-1000.0
1742118509.124,-749.512,35.645,73.73,-754.883
1742118509.128,549.805,300.293,136.23,549.316
1742118509.132,999.512,220.703,129.883,999.512
1742118509.136,748.047,136.23,148.438,729.492
1742118509.093,631.348,-138.672,-72.266,656.25
1742118509.097,-787.598,-130.859,-15.625,-716.797
1742118509.101,-1000.0,-1.953,15.137,-1000.0
1742118509.105,327.637,213.379,15.137,235.84
1742118509.109,999.512,252.441,45.41,999.512
1742118509.113,819.336,54.688,32.715,881.348
1742118509.117,-448.242,-186.035,18.555,-351.562
1742118509.12,-1000.0,-211.426,27.344,-1000.0
1742118509.124,-749.512,35.645,73.73,-754.883
1742118509.128,549.805,300.293,136.23,549.316
1742118509.132,999.512,220.703,129.883,999.512
1742118509.136,748.047,136.23,148.438,729.492
1742118509.156,-604.492,93.262,193.848,-600.586
1742118509.16,-1000.0,127.441,191.406,-1000.0
1742118509.164,59.082,247.559,133.301,-68.359
1742118509.168,968.262,213.379,125.977,922.852
1742118509.172,999.512,122.559,156.738,999.512
1742118509.176,616.699,167.969,241.211,647.949
1742118509.18,-731.445,-9.277,187.012,-644.043
1742118509.183,-1000.0,-121.582,12.695,-1000.0
1742118509.187,-760.254,27.344,-2.441,-761.719
1742118509.191,550.293,250.0,50.293,543.945
1742118509.195,999.512,142.578,42.969,999.512
1742118509.199,747.07,-28.809,29.297,751.953
1742118509.156,-604.492,93.262,193.848,-600.586
1742118509.16,-1000.0,127.441,191.406,-1000.0
1742118509.164,59.082,247.559,133.301,-68.359
1742118509.168,968.262,213.379,125.977,922.852
1742118509.172,999.512,122.559,156.738,999.512
1742118509.176,616.699,167.969,241.211,647.949
1742118509.18,-731.445,-9.277,187.012,-644.043
1742118509.183,-1000.0,-121.582,12.695,-1000.0
1742118509.187,-760.254,27.344,-2.441,-761.719
1742118509.191,550.293,250.0,50.293,543.945
1742118509.195,999.512,142.578,42.969,999.512
1742118509.199,747.07,-28.809,29.297,751.953
1742118509.183,-540.527,-137.695,65.918,-529.297
1742118509.187,-1000.0,-73.242,20.508,-1000.0
1742118509.191,-708.008,74.707,-15.137,-731.934
1742118509.195,599.609,177.246,-23.926,567.871
1742118509.199,999.512,92.773,-71.777,999.512
1742118509.203,770.996,29.297,-68.359,805.176
1742118509.207,-540.039,-155.273,-59.082,-497.07
1742118509.21,-1000.0,-219.238,-73.242,-1000.0
1742118509.214,-902.344,-132.324,-104.004,-942.383
1742118509.218,369.141,172.852,-44.922,274.902
1742118509.222,999.512,190.43,44.434,999.512
1742118509.226,969.727,83.984,56.152,990.234
1742118509.183,-540.527,-137.695,65.918,-529.297
1742118509.187,-1000.0,-73.242,20.508,-1000.0
1742118509.191,-708.008,74.707,-15.137,-731.934
1742118509.195,599.609,177.246,-23.926,567.871
1742118509.199,999.512,92.773,-71.777,999.512
1742118509.203,770.996,29.297,-68.359,805.176
1742118509.207,-540.039,-155.273,-59.082,-497.07
1742118509.21,-1000.0,-219.238,-73.242,-1000.0
1742118509.214,-902.344,-132.324,-104.004,-942.383
1742118509.218,369.141,172.852,-44.922,274.902
1742118509.222,999.512,190.43,44.434,999.512
1742118509.226,969.727,83.984,56.152,990.234
1742118509.23,-16.113,-72.754,55.176,210.938
1742118509.234,-1000.0,-201.66,30.273,-993.652
1742118509.238,-996.582,-55.664,-13.672,-1000.0
1742118509.242,238.281,140.625,-37.109,96.68
1742118509.246,999.512,145.02,-17.09,999.512
1742118509.25,951.66,98.145,43.457,986.816
1742118509.254,-128.418,-66.406,34.668,20.02
1742118509.257,-1000.0,-180.664,15.137,-1000.0
1742118509.261,-846.68,-24.414,18.066,-903.32
1742118509.265,490.234,238.77,-1.953,434.57
1742118509.269,999.512,215.82,-19.531,999.512
1742118509.273,229.98,-84.961,-104.004,338.379
1742118509.23,-16.113,-72.754,55.176,210.938
1742118509.234,-1000.0,-201.66,30.273,-993.652
1742118509.238,-996.582,-55.664,-13.672,-1000.0
1742118509.242,238.281,140.625,-37.109,96.68
1742118509.246,999.512,145.02,-17.09,999.512
1742118509.25,951.66,98.145,43.457,986.816
1742118509.254,-128.418,-66.406,34.668,20.02
1742118509.257,-1000.0,-180.664,15.137,-1000.0
1742118509.261,-846.68,-24.414,18.066,-903.32
1742118509.265,490.234,238.77,-1.953,434.57
1742118509.269,999.512,215.82,-19.531,999.512
1742118509.273,229.98,-84.961,-104.004,338.379
1742118509.273,-1000.0,-259.277,-234.863,-975.098
1742118509.277,-891.602,-58.594,-204.59,-951.66
1742118509.281,516.113,157.227,-154.785,468.75
1742118509.285,999.512,8.301,-188.965,999.512
1742118509.289,413.086,-152.832,-132.324,446.777
1742118509.293,-896.973,-155.762,-67.383,-831.543
1742118509.297,-1000.0,-166.504,-125.0,-1000.0
1742118509.3,166.992,-19.043,-171.875,38.086
1742118509.304,999.512,4.883,-174.805,999.512
1742118509.308,703.613,-214.844,-177.734,737.305
1742118509.312,-756.348,-315.43,-217.285,-713.867
1742118509.316,-1000.0,-156.738,-190.918,-1000.0
1742118509.273,-1000.0,-259.277,-234.863,-975.098
1742118509.277,-891.602,-58.594,-204.59,-951.66
1742118509.281,516.113,157.227,-154.785,468.75
1742118509.285,999.512,8.301,-188.965,999.512
1742118509.289,413.086,-152.832,-132.324,446.777
1742118509.293,-896.973,-155.762,-67.383,-831.543
1742118509.297,-1000.0,-166.504,-125.0,-1000.0
1742118509.3,166.992,-19.043,-171.875,38.086
1742118509.304,999.512,4.883,-174.805,999.512
1742118509.308,703.613,-214.844,-177.734,737.305
1742118509.312,-756.348,-315.43,-217.285,-713.867
1742118509.316,-1000.0,-156.738,-190.918,-1000.0
1742118509.349,316.895,87.891,-109.375,231.445
1742118509.353,999.512,68.359,-99.609,999.512
1742118509.357,697.266,-137.695,-150.879,720.703
1742118509.361,-731.934,-250.0,-121.582,-683.594
1742118509.365,-1000.0,-144.531,-115.234,-1000.0
1742118509.369,265.625,161.133,-99.609,150.391
1742118509.373,999.512,81.543,-58.105,999.512
1742118509.376,688.477,-249.023,-80.566,710.938
1742118509.38,-787.109,-355.957,-69.824,-737.305
1742118509.384,-1000.0,-99.609,-13.184,-1000.0
1742118509.388,439.941,193.359,-15.625,366.699
1742118509.392,999.512,20.02,-129.395,999.512
1742118509.349,316.895,87.891,-109.375,231.445
1742118509.353,999.512,68.359,-99.609,999.512
1742118509.357,697.266,-137.695,-150.879,720.703
1742118509.361,-731.934,-250.0,-121.582,-683.594
1742118509.365,-1000.0,-144.531,-115.234,-1000.0
1742118509.369,265.625,161.133,-99.609,150.391
1742118509.373,999.512,81.543,-58.105,999.512
1742118509.376,688.477,-249.023,-80.566,710.938
1742118509.38,-787.109,-355.957,-69.824,-737.305
1742118509.384,-1000.0,-99.609,-13.184,-1000.0
1742118509.388,439.941,193.359,-15.625,366.699
1742118509.392,999.512,20.02,-129.395,999.512
1742118509.378,390.625,-205.078,-148.438,437.5
1742118509.382,-992.188,-245.117,-116.211,-940.43
1742118509.386,-902.344,-68.359,-57.129,-915.527
1742118509.39,542.48,129.395,-10.254,551.758
1742118509.394,999.512,65.43,-62.988,999.512
1742118509.398,640.137,-41.504,-116.699,668.945
1742118509.402,-653.809,-166.992,-52.246,-607.91
1742118509.405,-1000.0,-183.105,1.953,-1000.0
1742118509.409,-736.328,-104.492,-3.906,-752.441
1742118509.413,703.125,85.449,35.156,644.531
1742118509.417,999.512,-16.602,-4.395,999.512
1742118509.421,-374.023,-334.473,-53.711,-269.531
1742118509.378,390.625,-205.078,-148.438,437.5
1742118509.382,-992.188,-245.117,-116.211,-940.43
1742118509.386,-902.344,-68.359,-57.129,-915.527
1742118509.39,542.48,129.395,-10.254,551.758
1742118509.394,999.512,65.43,-62.988,999.512
1742118509.398,640.137,-41.504,-116.699,668.945
1742118509.402,-653.809,-166.992,-52.246,-607.91
1742118509.405,-1000.0,-183.105,1.953,-1000.0
1742118509.409,-736.328,-104.492,-3.906,-752.441
1742118509.413,703.125,85.449,35.156,644.531
1742118509.417,999.512,-16.602,-4.395,999.512
1742118509.421,-374.023,-334.473,-53.711,-269.531
1742118509.378,390.625,-205.078,-148.438,437.5
1742118509.382,-992.188,-245.117,-116.211,-940.43
1742118509.386,-902.344,-68.359,-57.129,-915.527
1742118509.39,542.48,129.395,-10.254,551.758
1742118509.394,999.512,65.43,-62.988,999.512
1742118509.398,640.137,-41.504,-116.699,668.945
1742118509.402,-653.809,-166.992,-52.246,-607.91
1742118509.405,-1000.0,-183.105,1.953,-1000.0
1742118509.409,-736.328,-104.492,-3.906,-752.441
1742118509.413,703.125,85.449,35.156,644.531
1742118509.417,999.512,-16.602,-4.395,999.512
1742118509.421,-374.023,-334.473,-53.711,-269.531
1742118509.425,-1000.0,-229.004,-4.883,-1000.0
1742118509.429,-690.918,38.086,50.781,-682.129
1742118509.433,793.945,145.508,21.973,754.395
1742118509.437,958.008,-5.371,-61.035,999.512
1742118509.441,-531.25,-276.855,-93.75,-448.242
1742118509.445,-1000.0,-142.578,-55.176,-1000.0
1742118509.449,-708.496,25.879,-100.098,-700.195
1742118509.452,670.41,35.156,-145.996,634.766
1742118509.456,999.512,-75.195,-68.359,999.512
1742118509.46,-107.91,-220.703,-27.344,33.691
1742118509.464,-1000.0,-221.68,-27.344,-1000.0
1742118509.468,-869.629,-62.988,-19.043,-874.512
1742118509.425,-1000.0,-229.004,-4.883,-1000.0
1742118509.429,-690.918,38.086,50.781,-682.129
1742118509.433,793.945,145.508,21.973,754.395
1742118509.437,958.008,-5.371,-61.035,999.512
1742118509.441,-531.25,-276.855,-93.75,-448.242
1742118509.445,-1000.0,-142.578,-55.176,-1000.0
1742118509.449,-708.496,25.879,-100.098,-700.195
1742118509.452,670.41,35.156,-145.996,634.766
1742118509.456,999.512,-75.195,-68.359,999.512
1742118509.46,-107.91,-220.703,-27.344,33.691
1742118509.464,-1000.0,-221.68,-27.344,-1000.0
1742118509.468,-869.629,-62.988,-19.043,-874.512
1742118509.468,551.758,144.043,-54.688,561.035
1742118509.472,999.512,49.316,-130.371,999.512
1742118509.476,-177.734,-220.703,-187.988,-15.625
1742118509.48,-1000.0,-196.289,-195.312,-1000.0
1742118509.484,-840.82,-36.621,-173.828,-848.633
1742118509.488,567.871,168.945,-89.355,577.148
1742118509.492,999.512,70.312,-44.434,999.512
1742118509.495,-152.832,-289.551,-104.98,-1.953
1742118509.499,-1000.0,-298.828,-143.066,-1000.0
1742118509.503,-857.91,-12.695,-111.328,-925.781
1742118509.507,448.242,145.02,-85.938,379.883
1742118509.511,999.512,84.473,-55.664,999.512
1742118509.515,677.734,-86.914,-29.785,688.965
1742118509.519,-662.598,-192.383,-33.203,-626.953
1742118509.523,-1000.0,-126.465,-29.785,-1000.0
1742118509.527,-159.18,19.043,-23.438,-283.691
1742118509.531,999.512,92.285,-31.738,956.055
1742118509.535,882.324,16.113,-42.48,946.777
1742118509.539,-473.633,-185.547,-57.129,-405.273
1742118509.542,-1000.0,-208.496,-54.199,-1000.0
1742118509.546,-800.293,-117.188,-41.992,-847.168
1742118509.55,480.957,80.566,-27.832,423.828
1742118509.554,999.512,31.25,-48.828,999.512
1742118509.558,613.77,-141.113,-37.109,585.449
1742118509.515,677.734,-86.914,-29.785,688.965
1742118509.519,-662.598,-192.383,-33.203,-626.953
1742118509.523,-1000.0,-126.465,-29.785,-1000.0
1742118509.527,-159.18,19.043,-23.438,-283.691
1742118509.531,999.512,92.285,-31.738,956.055
1742118509.535,882.324,16.113,-42.48,946.777
1742118509.539,-473.633,-185.547,-57.129,-405.273
1742118509.542,-1000.0,-208.496,-54.199,-1000.0
1742118509.546,-800.293,-117.188,-41.992,-847.168
1742118509.55,480.957,80.566,-27.832,423.828
1742118509.554,999.512,31.25,-48.828,999.512
1742118509.558,613.77,-141.113,-37.109,585.449
1742118509.573,-761.23,-230.957,0.0,-717.285
1742118509.577,-1000.0,-135.742,-25.879,-1000.0
1742118509.581,117.676,91.309,-50.781,-26.855
1742118509.585,999.512,68.848,-62.5,999.512
1742118509.589,790.039,-126.465,-100.586,780.762
1742118509.593,-548.34,-193.359,-79.102,-561.035
1742118509.597,-1000.0,-126.465,-50.293,-1000.0
1742118509.6,-825.195,-114.258,-124.023,-877.93
1742118509.604,450.684,27.832,-146.973,362.793
1742118509.608,999.512,37.109,-157.715,999.512
1742118509.612,762.207,-101.074,-115.723,773.926
1742118509.616,-519.531,-236.816,-56.152,-508.789
1742118509.573,-761.23,-230.957,0.0,-717.285
1742118509.577,-1000.0,-135.742,-25.879,-1000.0
1742118509.581,117.676,91.309,-50.781,-26.855
1742118509.585,999.512,68.848,-62.5,999.512
1742118509.589,790.039,-126.465,-100.586,780.762
1742118509.593,-548.34,-193.359,-79.102,-561.035
1742118509.597,-1000.0,-126.465,-50.293,-1000.0
1742118509.6,-825.195,-114.258,-124.023,-877.93
1742118509.604,450.684,27.832,-146.973,362.793
1742118509.608,999.512,37.109,-157.715,999.512
1742118509.612,762.207,-101.074,-115.723,773.926
1742118509.616,-519.531,-236.816,-56.152,-508.789
1742118509.605,-1000.0,-154.297,-50.781,-1000.0
1742118509.609,-709.961,51.758,-37.598,-731.934
1742118509.613,654.785,187.012,-36.621,590.82
1742118509.617,999.512,65.43,-101.562,999.512
1742118509.621,-107.91,-189.941,-97.168,100.098
1742118509.625,-1000.0,-88.867,-16.602,-953.613
1742118509.629,-1000.0,22.949,-13.672,-1000.0
1742118509.632,-913.086,-86.914,-60.059,-958.984
1742118509.636,466.797,122.559,-56.641,352.051
1742118509.64,999.512,80.078,-27.344,999.512
1742118509.644,957.031,-12.695,-20.02,983.887
1742118509.648,-123.047,-203.613,-28.32,89.355
1742118509.605,-1000.0,-154.297,-50.781,-1000.0
1742118509.609,-709.961,51.758,-37.598,-731.934
1742118509.613,654.785,187.012,-36.621,590.82
1742118509.617,999.512,65.43,-101.562,999.512
1742118509.621,-107.91,-189.941,-97.168,100.098
1742118509.625,-1000.0,-88.867,-16.602,-953.613
1742118509.629,-1000.0,22.949,-13.672,-1000.0
1742118509.632,-913.086,-86.914,-60.059,-958.984
1742118509.636,466.797,122.559,-56.641,352.051
1742118509.64,999.512,80.078,-27.344,999.512
1742118509.644,957.031,-12.695,-20.02,983.887
1742118509.648,-123.047,-203.613,-28.32,89.355
1742118509.663,-1000.0,-280.762,-43.945,-1000.0
1742118509.667,-1000.0,-49.805,-29.785,-1000.0
1742118509.671,159.18,125.488,-22.461,-8.301
1742118509.675,999.512,68.848,-29.297,969.238
1742118509.679,999.512,-69.824,2.441,999.512
1742118509.683,285.156,-108.398,68.359,425.781
1742118509.687,-930.176,-192.871,66.895,-837.891
1742118509.69,-1000.0,-197.754,63.477,-1000.0
1742118509.694,-390.137,-90.332,106.445,-439.941
1742118509.698,965.82,84.961,151.367,898.438
1742118509.702,947.754,-66.895,141.602,999.512
1742118509.706,-555.664,-348.145,81.543,-458.496
1742118509.663,-1000.0,-280.762,-43.945,-1000.0
1742118509.667,-1000.0,-49.805,-29.785,-1000.0
1742118509.671,159.18,125.488,-22.461,-8.301
1742118509.675,999.512,68.848,-29.297,969.238
1742118509.679,999.512,-69.824,2.441,999.512
1742118509.683,285.156,-108.398,68.359,425.781
1742118509.687,-930.176,-192.871,66.895,-837.891
1742118509.69,-1000.0,-197.754,63.477,-1000.0
1742118509.694,-390.137,-90.332,106.445,-439.941
1742118509.698,965.82,84.961,151.367,898.438
1742118509.702,947.754,-66.895,141.602,999.512
1742118509.706,-555.664,-348.145,81.543,-458.496
1742118509.698,-1000.0,-189.453,80.078,-1000.0
1742118509.702,230.469,237.305,111.816,114.746
1742118509.706,999.512,150.391,79.59,999.512
1742118509.71,808.105,-99.609,78.125,832.031
1742118509.714,-559.082,-241.699,63.965,-538.086
1742118509.718,-1000.0,-112.305,26.855,-1000.0
1742118509.722,38.574,144.043,50.293,-78.125
1742118509.725,977.539,100.098,96.68,928.711
1742118509.729,999.512,8.301,142.09,999.512
1742118509.733,319.824,0.488,169.922,437.012
1742118509.737,-1000.0,-77.637,177.246,-972.168
1742118509.741,-881.348,62.5,183.105,-892.578
1742118509.698,-1000.0,-189.453,80.078,-1000.0
1742118509.702,230.469,237.305,111.816,114.746
1742118509.706,999.512,150.391,79.59,999.512
1742118509.71,808.105,-99.609,78.125,832.031
1742118509.714,-559.082,-241.699,63.965,-538.086
1742118509.718,-1000.0,-112.305,26.855,-1000.0
1742118509.722,38.574,144.043,50.293,-78.125
1742118509.725,977.539,100.098,96.68,928.711
1742118509.729,999.512,8.301,142.09,999.512
1742118509.733,319.824,0.488,169.922,437.012
1742118509.737,-1000.0,-77.637,177.246,-972.168
1742118509.741,-881.348,62.5,183.105,-892.578
1742118509.753,531.25,210.449,162.109,568.359
1742118509.757,999.512,136.719,93.75,999.512
1742118509.761,599.609,-11.23,51.758,651.855
1742118509.765,-868.652,-99.121,72.754,-801.27
1742118509.769,-981.445,99.609,112.793,-958.496
1742118509.773,654.297,288.574,59.57,666.992
1742118509.777,999.512,77.148,-30.273,999.512
1742118509.78,-382.324,-312.5,-67.383,-259.766
1742118509.784,-1000.0,-260.742,-25.391,-1000.0
1742118509.788,-770.508,3.906,8.301,-774.902
1742118509.792,543.457,100.098,17.09,553.711
1742118509.796,999.512,18.066,32.227,999.512
1742118509.8,370.117,-122.559,-30.273,442.871
1742118509.804,-999.512,-202.148,-70.801,-939.941
1742118509.808,-898.926,-12.207,-7.324,-924.316
1742118509.812,547.852,152.832,24.414,537.598
1742118509.816,999.512,52.734,-2.441,999.512
1742118509.82,744.141,-21.484,-41.992,738.281
1742118509.824,-540.527,-186.523,-62.988,-552.246
1742118509.827,-1000.0,-189.453,-64.453,-1000.0
1742118509.831,-683.105,-64.453,-79.102,-700.195
1742118509.835,623.047,101.562,-30.762,586.426
1742118509.839,999.512,67.871,-1.465,999.512
1742118509.843,460.449,-60.059,-33.203,539.062
1742118509.8,370.117,-122.559,-30.273,442.871
1742118509.804,-999.512,-202.148,-70.801,-939.941
1742118509.808,-898.926,-12.207,-7.324,-924.316
1742118509.812,547.852,152.832,24.414,537.598
1742118509.816,999.512,52.734,-2.441,999.512
1742118509.82,744.141,-21.484,-41.992,738.281
1742118509.824,-540.527,-186.523,-62.988,-552.246
1742118509.827,-1000.0,-189.453,-64.453,-1000.0
1742118509.831,-683.105,-64.453,-79.102,-700.195
1742118509.835,623.047,101.562,-30.762,586.426
1742118509.839,999.512,67.871,-1.465,999.512
1742118509.843,460.449,-60.059,-33.203,539.062
1742118509.843,-953.125,-168.457,-35.645,-889.16
1742118509.847,-942.871,-10.742,24.414,-931.152
1742118509.851,580.078,187.012,115.723,597.168
1742118509.855,999.512,37.109,112.793,999.512
1742118509.859,-11.719,-168.945,104.004,197.266
1742118509.863,-1000.0,-155.762,83.008,-1000.0
1742118509.867,-880.371,-27.344,55.176,-885.254
1742118509.87,581.543,100.098,55.176,608.887
1742118509.874,999.512,11.719,40.039,999.512
1742118509.878,-284.18,-240.234,10.742,-155.273
1742118509.882,-1000.0,-250.0,-13.184,-1000.0
1742118509.886,-951.172,-126.465,1.953,-1000.0
1742118509.89,223.633,67.383,20.996,52.734
1742118509.894,999.512,99.609,-12.207,999.512
1742118509.898,661.133,-100.586,-38.574,615.234
1742118509.902,-738.77,-242.676,-27.344,-725.586
1742118509.906,-1000.0,-190.918,-3.906,-1000.0
1742118509.91,197.754,159.18,17.09,-26.367
1742118509.914,999.512,124.023,-54.688,999.512
1742118509.917,-116.211,-307.129,-137.695,2.441
1742118509.921,-1000.0,-332.52,-115.234,-1000.0
1742118509.925,-885.254,-90.82,-107.422,-921.875
1742118509.929,590.332,155.762,-87.891,539.062
1742118509.933,999.512,47.363,-96.68,999.512
1742118509.89,223.633,67.383,20.996,52.734
1742118509.894,999.512,99.609,-12.207,999.512
1742118509.898,661.133,-100.586,-38.574,615.234
1742118509.902,-738.77,-242.676,-27.344,-725.586
1742118509.906,-1000.0,-190.918,-3.906,-1000.0
1742118509.91,197.754,159.18,17.09,-26.367
1742118509.914,999.512,124.023,-54.688,999.512
1742118509.917,-116.211,-307.129,-137.695,2.441
1742118509.921,-1000.0,-332.52,-115.234,-1000.0
1742118509.925,-885.254,-90.82,-107.422,-921.875
1742118509.929,590.332,155.762,-87.891,539.062
1742118509.933,999.512,47.363,-96.68,999.512
1742118509.949,-442.871,-301.27,-161.133,-379.883
1742118509.953,-1000.0,-185.059,-125.488,-1000.0
1742118509.957,-802.246,2.93,-85.938,-808.594
1742118509.961,483.398,75.195,-121.094,491.211
1742118509.965,999.512,32.227,-166.992,999.512
1742118509.969,515.625,-69.824,-183.594,521.973
1742118509.973,-770.508,-161.621,-165.527,-731.445
1742118509.976,-1000.0,-177.246,-169.434,-1000.0
1742118509.98,-812.5,-131.348,-190.918,-812.988
1742118509.984,543.945,87.402,-162.109,538.086
1742118509.988,999.512,40.527,-155.762,999.512
1742118509.992,-55.176,-213.867,-195.312,34.668
1742118509.949,-442.871,-301.27,-161.133,-379.883
1742118509.953,-1000.0,-185.059,-125.488,-1000.0
1742118509.957,-802.246,2.93,-85.938,-808.594
1742118509.961,483.398,75.195,-121.094,491.211
1742118509.965,999.512,32.227,-166.992,999.512
1742118509.969,515.625,-69.824,-183.594,521.973
1742118509.973,-770.508,-161.621,-165.527,-731.445
1742118509.976,-1000.0,-177.246,-169.434,-1000.0
1742118509.98,-812.5,-131.348,-190.918,-812.988
1742118509.984,543.945,87.402,-162.109,538.086
1742118509.988,999.512,40.527,-155.762,999.512
1742118509.992,-55.176,-213.867,-195.312,34.668
1742118509.981,-992.676,-209.473,-181.152,-949.707
1742118509.985,-1000.0,-36.621,-153.32,-1000.0
1742118509.989,-737.793,-37.109,-172.852,-854.492
1742118509.993,807.129,84.961,-210.938,682.617
1742118509.997,933.594,-49.316,-264.16,947.754
1742118510.001,-671.387,-218.262,-206.543,-690.43
1742118510.005,-1000.0,-63.965,-153.809,-1000.0
1742118510.008,-1000.0,-112.305,-202.148,-1000.0
1742118510.012,-489.258,-53.223,-181.152,-755.859
1742118510.016,827.148,123.047,-106.445,655.273
1742118510.02,999.512,8.789,-62.5,999.512
1742118510.024,315.43,-143.066,-50.293,350.098
1742118509.981,-992.676,-209.473,-181.152,-949.707
1742118509.985,-1000.0,-36.621,-153.32,-1000.0
1742118509.989,-737.793,-37.109,-172.852,-854.492
1742118509.993,807.129,84.961,-210.938,682.617
1742118509.997,933.594,-49.316,-264.16,947.754
1742118510.001,-671.387,-218.262,-206.543,-690.43
1742118510.005,-1000.0,-63.965,-153.809,-1000.0
1742118510.008,-1000.0,-112.305,-202.148,-1000.0
1742118510.012,-489.258,-53.223,-181.152,-755.859
1742118510.016,827.148,123.047,-106.445,655.273
1742118510.02,999.512,8.789,-62.5,999.512
1742118510.024,315.43,-143.066,-50.293,350.098
1742118510.023,-892.578,-197.266,-80.078,-839.844
1742118510.027,-1000.0,-95.215,-68.848,-1000.0
1742118510.031,-858.887,-72.266,-50.781,-931.641
1742118510.035,442.383,143.066,-47.363,291.992
1742118510.039,999.512,133.789,-74.219,999.512
1742118510.043,690.43,-120.117,-126.953,679.199
1742118510.047,-615.234,-244.141,-150.879,-621.582
1742118510.05,-1000.0,-216.309,-151.367,-1000.0
1742118510.054,-823.73,-93.75,-108.398,-866.211
1742118510.058,496.094,186.035,-52.246,419.922
1742118510.062,999.512,127.93,-77.637,999.512
1742118510.066,92.285,-201.172,-161.621,189.941
1742118510.084,-971.68,-254.395,-171.875,-912.598
1742118510.088,-1000.0,-145.996,-162.109,-1000.0
1742118510.092,-254.395,-14.648,-142.578,-451.172
1742118510.096,999.512,81.055,-128.418,939.453
1742118510.1,837.891,-101.562,-154.785,897.461
1742118510.104,-582.031,-225.586,-144.043,-570.312
1742118510.108,-1000.0,-188.477,-134.766,-1000.0
1742118510.111,-888.184,-180.664,-139.16,-937.5
1742118510.115,320.801,-52.246,-126.953,184.082
1742118510.119,999.512,-4.395,-121.582,999.512
1742118510.123,647.949,-184.57,-125.488,637.207
1742118510.127,-675.293,-281.738,-98.633,-664.551
1742118510.084,-971.68,-254.395,-171.875,-912.598
1742118510.088,-1000.0,-145.996,-162.109,-1000.0
1742118510.092,-254.395,-14.648,-142.578,-451.172
1742118510.096,999.512,81.055,-128.418,939.453
1742118510.1,837.891,-101.562,-154.785,897.461
1742118510.104,-582.031,-225.586,-144.043,-570.312
1742118510.108,-1000.0,-188.477,-134.766,-1000.0
1742118510.111,-888.184,-180.664,-139.16,-937.5
1742118510.115,320.801,-52.246,-126.953,184.082
1742118510.119,999.512,-4.395,-121.582,999.512
1742118510.123,647.949,-184.57,-125.488,637.207
1742118510.127,-675.293,-281.738,-98.633,-664.551
1742118510.128,-1000.0,-170.898,-65.43,-1000.0
1742118510.132,-371.582,-36.621,-128.418,-469.238
1742118510.136,975.586,14.648,-178.711,911.133
1742118510.14,874.512,-165.527,-148.438,870.117
1742118510.144,-591.309,-327.148,-138.184,-617.676
1742118510.148,-1000.0,-172.363,-151.855,-1000.0
1742118510.152,-213.379,1.465,-170.898,-356.445
1742118510.155,999.512,-20.996,-200.195,964.355
1742118510.159,851.074,-185.547,-200.195,774.902
1742118510.163,-644.043,-309.082,-188.965,-696.289
1742118510.167,-1000.0,-201.66,-168.457,-1000.0
1742118510.171,179.199,87.402,-140.137,28.809
1742118510.128,-1000.0,-170.898,-65.43,-1000.0
1742118510.132,-371.582,-36.621,-128.418,-469.238
1742118510.136,975.586,14.648,-178.711,911.133
1742118510.14,874.512,-165.527,-148.438,870.117
1742118510.144,-591.309,-327.148,-138.184,-617.676
1742118510.148,-1000.0,-172.363,-151.855,-1000.0
1742118510.152,-213.379,1.465,-170.898,-356.445
1742118510.155,999.512,-20.996,-200.195,964.355
1742118510.159,851.074,-185.547,-200.195,774.902
1742118510.163,-644.043,-309.082,-188.965,-696.289
1742118510.167,-1000.0,-201.66,-168.457,-1000.0
1742118510.171,179.199,87.402,-140.137,28.809
1742118510.175,999.512,104.004,-120.605,999.512
1742118510.179,783.203,-58.105,-96.68,821.777
1742118510.183,-537.109,-236.328,-104.98,-520.996
1742118510.187,-1000.0,-202.637,-91.797,-1000.0
1742118510.191,-811.523,-40.527,-60.547,-804.688
1742118510.195,651.367,187.5,-46.875,628.906
1742118510.199,997.07,-6.836,-83.984,999.512
1742118510.202,-518.555,-361.816,-112.793,-443.848
1742118510.206,-1000.0,-255.859,-89.844,-1000.0
1742118510.21,-741.699,-46.387,-71.777,-749.023
1742118510.214,718.75,106.445,-43.457,667.969
1742118510.218,999.512,9.766,-31.25,999.512
1742118510.175,999.512,104.004,-120.605,999.512
1742118510.179,783.203,-58.105,-96.68,821.777
1742118510.183,-537.109,-236.328,-104.98,-520.996
1742118510.187,-1000.0,-202.637,-91.797,-1000.0
1742118510.191,-811.523,-40.527,-60.547,-804.688
1742118510.195,651.367,187.5,-46.875,628.906
1742118510.199,997.07,-6.836,-83.984,999.512
1742118510.202,-518.555,-361.816,-112.793,-443.848
1742118510.206,-1000.0,-255.859,-89.844,-1000.0
1742118510.21,-741.699,-46.387,-71.777,-749.023
1742118510.214,718.75,106.445,-43.457,667.969
1742118510.218,999.512,9.766,-31.25,999.512
1742118510.219,-465.82,-307.129,-63.477,-372.07
1742118510.223,-1000.0,-198.242,-33.203,-1000.0
1742118510.227,-736.816,14.648,19.043,-736.816
1742118510.231,563.477,62.5,9.766,568.848
1742118510.235,999.512,23.438,9.277,999.512
1742118510.239,468.75,-67.383,21.484,527.832
1742118510.243,-814.941,-178.223,-9.766,-738.77
1742118510.246,-1000.0,-183.105,-6.348,-1000.0
1742118510.25,-249.023,-42.969,4.395,-354.004
1742118510.254,999.512,73.242,-9.766,961.914
1742118510.258,842.773,-74.219,-17.578,883.301
1742118510.262,-560.059,-268.066,-9.277,-540.527
1742118510.219,-465.82,-307.129,-63.477,-372.07
1742118510.223,-1000.0,-198.242,-33.203,-1000.0
1742118510.227,-736.816,14.648,19.043,-736.816
1742118510.231,563.477,62.5,9.766,568.848
1742118510.235,999.512,23.438,9.277,999.512
1742118510.239,468.75,-67.383,21.484,527.832
1742118510.243,-814.941,-178.223,-9.766,-738.77
1742118510.246,-1000.0,-183.105,-6.348,-1000.0
1742118510.25,-249.023,-42.969,4.395,-354.004
1742118510.254,999.512,73.242,-9.766,961.914
1742118510.258,842.773,-74.219,-17.578,883.301
1742118510.262,-560.059,-268.066,-9.277,-540.527
1742118510.266,-1000.0,-205.078,-47.852,-1000.0
1742118510.27,-483.887,62.012,-44.922,-521.973
1742118510.274,916.504,146.973,-38.086,870.605
1742118510.278,939.453,-72.754,-85.938,937.012
1742118510.282,-660.156,-275.879,-32.227,-654.297
1742118510.286,-1000.0,-51.27,70.801,-1000.0
1742118510.29,462.402,224.609,91.309,375.0
1742118510.293,999.512,-9.277,35.645,999.512
1742118510.297,-268.555,-313.477,16.113,-123.535
1742118510.301,-1000.0,-167.969,63.477,-1000.0
1742118510.305,-812.5,33.691,62.988,-829.59
1742118510.309,503.906,156.738,62.012,512.207
1742118510.266,-1000.0,-205.078,-47.852,-1000.0
1742118510.27,-483.887,62.012,-44.922,-521.973
1742118510.274,916.504,146.973,-38.086,870.605
1742118510.278,939.453,-72.754,-85.938,937.012
1742118510.282,-660.156,-275.879,-32.227,-654.297
1742118510.286,-1000.0,-51.27,70.801,-1000.0
1742118510.29,462.402,224.609,91.309,375.0
1742118510.293,999.512,-9.277,35.645,999.512
1742118510.297,-268.555,-313.477,16.113,-123.535
1742118510.301,-1000.0,-167.969,63.477,-1000.0
1742118510.305,-812.5,33.691,62.988,-829.59
1742118510.309,503.906,156.738,62.012,512.207
1742118510.323,999.512,152.344,104.004,999.512
1742118510.327,801.27,78.125,142.09,779.297
1742118510.331,-573.242,-112.305,169.922,-578.613
1742118510.335,-1000.0,-11.719,172.852,-1000.0
1742118510.339,168.457,311.523,194.336,38.086
1742118510.343,999.512,300.781,184.082,999.512
1742118510.347,806.641,86.914,123.047,830.566
1742118510.35,-551.27,-163.086,81.543,-541.504
1742118510.354,-1000.0,-109.863,98.633,-1000.0
1742118510.358,-149.414,202.637,127.93,-250.0
1742118510.362,999.512,294.434,96.68,967.773
1742118510.366,875.977,125.977,64.453,939.453
1742118510.323,999.512,152.344,104.004,999.512
1742118510.327,801.27,78.125,142.09,779.297
1742118510.331,-573.242,-112.305,169.922,-578.613
1742118510.335,-1000.0,-11.719,172.852,-1000.0
1742118510.339,168.457,311.523,194.336,38.086
1742118510.343,999.512,300.781,184.082,999.512
1742118510.347,806.641,86.914,123.047,830.566
1742118510.35,-551.27,-163.086,81.543,-541.504
1742118510.354,-1000.0,-109.863,98.633,-1000.0
1742118510.358,-149.414,202.637,127.93,-250.0
1742118510.362,999.512,294.434,96.68,967.773
1742118510.366,875.977,125.977,64.453,939.453
1742118510.37,-474.609,-136.719,60.059,-406.738
1742118510.374,-1000.0,-46.387,82.52,-1000.0
1742118510.378,-494.629,177.246,89.355,-506.836
1742118510.382,779.297,219.238,42.969,747.559
1742118510.386,999.512,177.734,7.324,999.512
1742118510.39,269.531,82.52,6.836,357.422
1742118510.394,-891.602,-5.859,-22.461,-820.801
1742118510.397,-1000.0,-41.504,-70.312,-1000.0
1742118510.401,-505.859,28.809,-41.992,-536.133
1742118510.405,839.355,232.91,7.324,771.484
1742118510.409,999.512,123.047,3.906,999.512
1742118510.413,-72.754,-46.387,7.324,125.977
1742118510.37,-474.609,-136.719,60.059,-406.738
1742118510.374,-1000.0,-46.387,82.52,-1000.0
1742118510.378,-494.629,177.246,89.355,-506.836
1742118510.382,779.297,219.238,42.969,747.559
1742118510.386,999.512,177.734,7.324,999.512
1742118510.39,269.531,82.52,6.836,357.422
1742118510.394,-891.602,-5.859,-22.461,-820.801
1742118510.397,-1000.0,-41.504,-70.312,-1000.0
1742118510.401,-505.859,28.809,-41.992,-536.133
1742118510.405,839.355,232.91,7.324,771.484
1742118510.409,999.512,123.047,3.906,999.512
1742118510.413,-72.754,-46.387,7.324,125.977
1742118510.398,-1000.0,-70.801,15.625,-1000.0
1742118510.402,-844.238,64.453,37.598,-861.328
1742118510.406,525.879,257.324,75.195,553.223
1742118510.41,999.512,159.668,90.82,999.512
1742118510.414,223.633,-15.137,107.422,378.418
1742118510.418,-1000.0,26.367,110.352,-928.223
1742118510.422,-886.719,118.652,83.008,-959.473
1742118510.425,525.391,207.031,29.297,470.215
1742118510.429,999.512,152.832,16.113,999.512
1742118510.433,766.113,108.398,67.871,804.199
1742118510.437,-523.438,-147.461,11.23,-463.867
1742118510.441,-1000.0,-145.508,-0.488,-1000.0
1742118510.398,-1000.0,-70.801,15.625,-1000.0
1742118510.402,-844.238,64.453,37.598,-861.328
1742118510.406,525.879,257.324,75.195,553.223
1742118510.41,999.512,159.668,90.82,999.512
1742118510.414,223.633,-15.137,107.422,378.418
1742118510.418,-1000.0,26.367,110.352,-928.223
1742118510.422,-886.719,118.652,83.008,-959.473
1742118510.425,525.391,207.031,29.297,470.215
1742118510.429,999.512,152.832,16.113,999.512
1742118510.433,766.113,108.398,67.871,804.199
1742118510.437,-523.438,-147.461,11.23,-463.867
1742118510.441,-1000.0,-145.508,-0.488,-1000.0
1742118510.459,-788.086,68.848,61.035,-783.203
1742118510.463,500.0,212.891,66.895,511.23
1742118510.467,999.512,149.414,38.574,999.512
1742118510.471,730.469,-51.27,-14.16,720.703
1742118510.475,-604.492,-211.426,-28.809,-584.473
1742118510.479,-1000.0,-5.859,0.488,-1000.0
1742118510.483,-63.477,211.914,4.395,-232.91
1742118510.486,949.707,167.48,25.391,887.207
1742118510.49,988.77,94.238,70.312,991.699
1742118510.494,859.375,113.281,105.469,917.969
1742118510.498,-464.844,-49.805,96.68,-314.941
1742118510.502,-1000.0,9.766,81.055,-1000.0
1742118510.459,-788.086,68.848,61.035,-783.203
1742118510.463,500.0,212.891,66.895,511.23
1742118510.467,999.512,149.414,38.574,999.512
1742118510.471,730.469,-51.27,-14.16,720.703
1742118510.475,-604.492,-211.426,-28.809,-584.473
1742118510.479,-1000.0,-5.859,0.488,-1000.0
1742118510.483,-63.477,211.914,4.395,-232.91
1742118510.486,949.707,167.48,25.391,887.207
1742118510.49,988.77,94.238,70.312,991.699
1742118510.494,859.375,113.281,105.469,917.969
1742118510.498,-464.844,-49.805,96.68,-314.941
1742118510.502,-1000.0,9.766,81.055,-1000.0
1742118510.504,-807.617,113.77,73.242,-864.258
1742118510.508,485.352,267.578,108.398,414.551
1742118510.512,999.512,235.84,149.414,999.512
1742118510.516,796.387,44.434,122.559,849.609
1742118510.52,-470.215,-117.188,85.449,-382.812
1742118510.524,-1000.0,1.953,108.398,-1000.0
1742118510.528,-487.793,208.496,132.812,-505.371
1742118510.531,822.754,184.082,104.98,768.555
1742118510.535,999.512,54.688,93.75,999.512
1742118510.539,-47.363,-57.617,101.074,148.926
1742118510.543,-1000.0,-89.355,80.078,-1000.0
1742118510.547,-846.68,99.121,75.195,-920.898
1742118510.552,500.0,273.438,63.477,439.453
1742118510.556,999.512,231.934,43.945,999.512
1742118510.56,807.617,99.121,10.254,800.781
1742118510.564,-575.684,-121.094,-31.738,-562.988
1742118510.568,-1000.0,-28.809,16.602,-1000.0
1742118510.572,223.145,355.957,68.848,89.355
1742118510.576,999.512,304.199,44.434,999.512
1742118510.579,835.449,37.109,50.781,895.996
1742118510.583,-433.594,-139.648,68.848,-361.816
1742118510.587,-1000.0,-68.359,62.988,-1000.0
1742118510.591,-664.062,167.969,108.887,-678.223
1742118510.595,719.727,258.789,79.102,663.574
1742118510.552,500.0,273.438,63.477,439.453
1742118510.556,999.512,231.934,43.945,999.512
1742118510.56,807.617,99.121,10.254,800.781
1742118510.564,-575.684,-121.094,-31.738,-562.988
1742118510.568,-1000.0,-28.809,16.602,-1000.0
1742118510.572,223.145,355.957,68.848,89.355
1742118510.576,999.512,304.199,44.434,999.512
1742118510.579,835.449,37.109,50.781,895.996
1742118510.583,-433.594,-139.648,68.848,-361.816
1742118510.587,-1000.0,-68.359,62.988,-1000.0
1742118510.591,-664.062,167.969,108.887,-678.223
1742118510.595,719.727,258.789,79.102,663.574
1742118510.593,999.512,120.117,-5.371,999.512
1742118510.597,-130.371,-69.336,-23.438,29.785
1742118510.601,-1000.0,-105.469,-6.348,-1000.0
1742118510.605,-559.082,107.422,51.27,-575.195
1742118510.609,758.789,267.578,78.125,749.512
1742118510.613,999.512,139.16,12.695,999.512
1742118510.617,560.547,5.859,6.836,639.648
1742118510.62,-879.883,-141.602,3.906,-784.668
1742118510.624,-1000.0,-79.102,-39.062,-1000.0
1742118510.628,447.266,200.195,-81.055,395.508
1742118510.632,999.512,125.488,-100.586,999.512
1742118510.636,766.602,-87.402,-105.469,801.758
1742118510.64,-515.625,-242.188,-117.188,-474.609
1742118510.644,-1000.0,-115.723,-57.129,-1000.0
1742118510.648,-671.875,48.34,-51.758,-694.824
1742118510.652,783.691,168.945,-96.191,710.938
1742118510.656,980.957,80.078,-134.277,999.512
1742118510.66,-488.77,-121.094,-151.367,-412.109
1742118510.664,-1000.0,-58.105,-113.281,-1000.0
1742118510.667,-750.488,48.828,-117.188,-747.07
1742118510.671,642.578,117.676,-115.723,613.281
1742118510.675,999.512,79.59,-62.5,999.512
1742118510.679,-207.031,-124.512,-44.922,-75.195
1742118510.683,-1000.0,-139.648,-62.988,-1000.0
1742118510.683,-838.867,19.043,-87.891,-857.422
1742118510.687,520.508,201.66,-70.312,524.902
1742118510.691,999.512,124.023,-41.992,999.512
1742118510.695,113.77,-119.141,-49.805,220.215
1742118510.699,-1000.0,-125.0,-16.113,-1000.0
1742118510.703,-904.297,83.008,11.23,-911.133
1742118510.707,669.434,251.953,30.273,676.758
1742118510.71,966.309,-2.93,0.0,990.234
1742118510.714,-579.102,-303.223,-42.48,-527.832
1742118510.718,-1000.0,-72.266,-0.977,-1000.0
1742118510.722,-797.363,48.828,32.227,-789.551
1742118510.726,581.055,163.574,58.594,567.383
1742118510.683,-838.867,19.043,-87.891,-857.422
1742118510.687,520.508,201.66,-70.312,524.902
1742118510.691,999.512,124.023,-41.992,999.512
1742118510.695,113.77,-119.141,-49.805,220.215
1742118510.699,-1000.0,-125.0,-16.113,-1000.0
1742118510.703,-904.297,83.008,11.23,-911.133
1742118510.707,669.434,251.953,30.273,676.758
1742118510.71,966.309,-2.93,0.0,990.234
1742118510.714,-579.102,-303.223,-42.48,-527.832
1742118510.718,-1000.0,-72.266,-0.977,-1000.0
1742118510.722,-797.363,48.828,32.227,-789.551
1742118510.726,581.055,163.574,58.594,567.383
1742118510.73,999.512,109.863,36.621,999.512
1742118510.734,-180.176,-169.922,2.93,-34.18
1742118510.738,-1000.0,-157.227,23.438,-1000.0
1742118510.742,-821.777,34.668,33.203,-842.285
1742118510.746,497.559,215.82,67.383,513.184
1742118510.75,999.512,262.695,90.82,999.512
1742118510.754,536.133,17.578,37.109,583.984
1742118510.757,-869.141,-190.918,14.16,-793.457
1742118510.761,-1000.0,-38.574,27.832,-1000.0
1742118510.765,362.305,204.102,24.414,251.465
1742118510.769,999.512,149.414,14.648,999.512
1742118510.773,769.043,-33.203,8.301,770.996
1742118510.73,999.512,109.863,36.621,999.512
1742118510.734,-180.176,-169.922,2.93,-34.18
1742118510.738,-1000.0,-157.227,23.438,-1000.0
1742118510.742,-821.777,34.668,33.203,-842.285
1742118510.746,497.559,215.82,67.383,513.184
1742118510.75,999.512,262.695,90.82,999.512
1742118510.754,536.133,17.578,37.109,583.984
1742118510.757,-869.141,-190.918,14.16,-793.457
1742118510.761,-1000.0,-38.574,27.832,-1000.0
1742118510.765,362.305,204.102,24.414,251.465
1742118510.769,999.512,149.414,14.648,999.512
1742118510.773,769.043,-33.203,8.301,770.996
1742118510.774,-527.344,-228.027,-7.324,-538.574
1742118510.778,-1000.0,-150.879,11.23,-1000.0
1742118510.782,-756.836,-2.441,-30.273,-720.703
1742118510.786,530.762,75.195,-42.48,553.711
1742118510.79,999.512,43.457,-2.441,999.512
1742118510.794,625.0,-51.758,-44.434,661.621
1742118510.798,-683.594,-220.215,-103.027,-627.93
1742118510.801,-1000.0,-257.324,-116.699,-1000.0
1742118510.805,-784.668,-141.602,-112.793,-780.273
1742118510.809,512.207,91.309,-66.895,517.09
1742118510.813,999.512,83.984,-37.109,999.512
1742118510.817,761.719,-69.336,-59.57,737.305
1742118510.835,-619.629,-260.254,-66.406,-600.586
1742118510.839,-1000.0,-113.77,-33.691,-1000.0
1742118510.843,161.133,190.43,-6.836,-42.969
1742118510.847,999.512,76.66,-62.012,999.512
1742118510.851,799.316,-150.391,-71.289,812.5
1742118510.855,-611.816,-150.391,-18.555,-607.422
1742118510.859,-1000.0,-25.391,-33.203,-1000.0
1742118510.862,-1000.0,-75.684,-107.422,-1000.0
1742118510.866,-460.449,10.254,-121.582,-605.469
1742118510.87,840.332,87.891,-69.824,748.047
1742118510.874,999.512,-31.738,-76.172,999.512
1742118510.878,457.52,-122.559,-87.891,524.902
1742118510.835,-619.629,-260.254,-66.406,-600.586
1742118510.839,-1000.0,-113.77,-33.691,-1000.0
1742118510.843,161.133,190.43,-6.836,-42.969
1742118510.847,999.512,76.66,-62.012,999.512
1742118510.851,799.316,-150.391,-71.289,812.5
1742118510.855,-611.816,-150.391,-18.555,-607.422
1742118510.859,-1000.0,-25.391,-33.203,-1000.0
1742118510.862,-1000.0,-75.684,-107.422,-1000.0
1742118510.866,-460.449,10.254,-121.582,-605.469
1742118510.87,840.332,87.891,-69.824,748.047
1742118510.874,999.512,-31.738,-76.172,999.512
1742118510.878,457.52,-122.559,-87.891,524.902
1742118510.879,-818.359,-194.824,-44.922,-737.793
1742118510.883,-1000.0,-93.75,-55.176,-1000.0
1742118510.887,-734.863,1.465,-102.539,-752.93
1742118510.891,584.961,91.309,-84.961,553.711
1742118510.895,999.512,41.016,-75.195,999.512
1742118510.899,424.316,-110.84,-105.957,490.723
1742118510.903,-819.824,-210.938,-123.535,-755.371
1742118510.906,-1000.0,-144.531,-97.168,-1000.0
1742118510.91,-773.438,-117.676,-69.336,-781.25
1742118510.914,603.027,98.633,-55.664,564.941
1742118510.918,999.512,86.426,-76.66,999.512
1742118510.922,0.488,-169.922,-98.633,150.879
1742118510.925,-1000.0,-217.285,-88.379,-1000.0
1742118510.929,-846.68,-11.719,-70.801,-908.203
1742118510.933,509.766,179.199,-70.801,472.656
1742118510.937,999.512,82.031,-100.098,999.512
1742118510.941,471.191,-73.73,-139.648,495.117
1742118510.945,-864.746,59.082,-170.898,-798.828
1742118510.949,-1000.0,204.59,-211.914,-1000.0
1742118510.952,150.879,315.918,-175.293,-17.09
1742118510.956,999.512,280.762,-82.52,999.512
1742118510.96,791.992,76.66,-66.895,804.199
1742118510.964,-541.016,-71.777,-106.934,-571.289
1742118510.968,-1000.0,-2.441,-107.91,-1000.0
1742118510.925,-1000.0,-217.285,-88.379,-1000.0
1742118510.929,-846.68,-11.719,-70.801,-908.203
1742118510.933,509.766,179.199,-70.801,472.656
1742118510.937,999.512,82.031,-100.098,999.512
1742118510.941,471.191,-73.73,-139.648,495.117
1742118510.945,-864.746,59.082,-170.898,-798.828
1742118510.949,-1000.0,204.59,-211.914,-1000.0
1742118510.952,150.879,315.918,-175.293,-17.09
1742118510.956,999.512,280.762,-82.52,999.512
1742118510.96,791.992,76.66,-66.895,804.199
1742118510.964,-541.016,-71.777,-106.934,-571.289
1742118510.968,-1000.0,-2.441,-107.91,-1000.0
1742118510.968,-350.098,179.199,-97.168,-375.977
1742118510.972,926.758,259.766,-117.676,863.77
1742118510.976,999.512,132.324,-128.906,999.512
1742118510.98,-312.988,-120.605,-90.332,-107.91
1742118510.984,-1000.0,-100.586,-50.781,-1000.0
1742118510.988,-387.207,189.453,-38.086,-422.363
1742118510.992,980.469,234.375,-35.645,966.797
1742118510.995,891.602,0.488,-58.594,885.742
1742118510.999,-609.863,-254.883,-89.844,-615.234
1742118511.003,-1000.0,-64.941,-89.355,-1000.0
1742118511.007,22.461,182.129,-88.867,-70.801
1742118511.011,999.512,128.906,-89.844,999.512
1742118510.968,-350.098,179.199,-97.168,-375.977
1742118510.972,926.758,259.766,-117.676,863.77
1742118510.976,999.512,132.324,-128.906,999.512
1742118510.98,-312.988,-120.605,-90.332,-107.91
1742118510.984,-1000.0,-100.586,-50.781,-1000.0
1742118510.988,-387.207,189.453,-38.086,-422.363
1742118510.992,980.469,234.375,-35.645,966.797
1742118510.995,891.602,0.488,-58.594,885.742
1742118510.999,-609.863,-254.883,-89.844,-615.234
1742118511.003,-1000.0,-64.941,-89.355,-1000.0
1742118511.007,22.461,182.129,-88.867,-70.801
1742118511.011,999.512,128.906,-89.844,999.512
1742118511.015,770.508,-64.453,-108.887,763.184
1742118511.019,-585.938,-174.316,-117.676,-611.328
1742118511.023,-1000.0,-87.402,-124.023,-1000.0
1742118511.027,-449.219,42.48,-101.074,-490.234
1742118511.031,869.141,124.512,-61.523,801.758
1742118511.035,999.512,108.398,-56.152,999.512
1742118511.039,-234.863,-149.902,-82.031,-42.969
1742118511.042,-1000.0,-305.176,-82.031,-1000.0
1742118511.046,-825.195,-121.094,-40.039,-834.961
1742118511.05,510.254,91.309,-49.805,535.156
1742118511.054,999.512,-20.996,-108.398,999.512
1742118511.058,241.211,-239.746,-94.727,377.441
1742118511.015,770.508,-64.453,-108.887,763.184
1742118511.019,-585.938,-174.316,-117.676,-611.328
1742118511.023,-1000.0,-87.402,-124.023,-1000.0
1742118511.027,-449.219,42.48,-101.074,-490.234
1742118511.031,869.141,124.512,-61.523,801.758
1742118511.035,999.512,108.398,-56.152,999.512
1742118511.039,-234.863,-149.902,-82.031,-42.969
1742118511.042,-1000.0,-305.176,-82.031,-1000.0
1742118511.046,-825.195,-121.094,-40.039,-834.961
1742118511.05,510.254,91.309,-49.805,535.156
1742118511.054,999.512,-20.996,-108.398,999.512
1742118511.058,241.211,-239.746,-94.727,377.441
1742118511.523,-1000.0,-226.562,-16.113,-1000.0
1742118511.527,-903.32,-72.266,-17.09,-964.844
1742118511.531,409.668,93.262,-21.484,204.59
1742118511.535,999.512,-2.93,-23.926,999.512
1742118511.539,951.66,-42.48,1.953,967.285
1742118511.543,836.426,11.719,13.672,830.566
1742118511.547,-558.105,-212.891,-60.547,-547.363
1742118511.55,-1000.0,-257.324,-50.293,-1000.0
1742118511.554,-809.57,-87.402,8.789,-803.711
1742118511.558,495.117,206.543,27.832,498.535
1742118511.562,999.512,142.09,32.715,999.512
1742118511.566,262.695,-195.312,-18.555,364.746
1742118511.059,-1000.0,-246.094,-204.102,-953.125
1742118511.063,-914.551,-104.98,-231.445,-965.82
1742118511.067,551.27,109.863,-115.723,495.117
1742118511.071,999.512,9.277,-170.41,999.512
1742118511.075,-5.859,-256.348,-213.867,170.898
1742118511.079,-1000.0,-171.875,-151.855,-1000.0
1742118511.083,-760.742,4.395,-112.793,-775.879
1742118511.086,613.281,0.0,-146.973,623.047
1742118511.09,999.512,-45.898,-94.238,999.512
1742118511.094,413.574,-146.484,-55.664,456.543
1742118511.098,-881.348,-277.344,-118.652,-820.801
1742118511.102,-1000.0,-169.434,-112.793,-1000.0
1742118511.059,-1000.0,-246.094,-204.102,-953.125
1742118511.063,-914.551,-104.98,-231.445,-965.82
1742118511.067,551.27,109.863,-115.723,495.117
1742118511.071,999.512,9.277,-170.41,999.512
1742118511.075,-5.859,-256.348,-213.867,170.898
1742118511.079,-1000.0,-171.875,-151.855,-1000.0
1742118511.083,-760.742,4.395,-112.793,-775.879
1742118511.086,613.281,0.0,-146.973,623.047
1742118511.09,999.512,-45.898,-94.238,999.512
1742118511.094,413.574,-146.484,-55.664,456.543
1742118511.098,-881.348,-277.344,-118.652,-820.801
1742118511.102,-1000.0,-169.434,-112.793,-1000.0
1742118511.105,59.082,16.113,-92.773,-88.379
1742118511.109,999.512,91.797,-89.355,999.512
1742118511.113,851.074,-29.785,-79.59,910.645
1742118511.117,-445.312,-277.832,-95.703,-388.184
1742118511.121,-1000.0,-248.535,-308.105,-1000.0
1742118511.125,-584.473,79.102,-264.648,-657.227
1742118511.129,895.996,166.504,-52.246,833.008
1742118511.132,850.586,-151.855,-82.52,832.031
1742118511.136,-642.09,-269.043,-40.039,-674.805
1742118511.14,-1000.0,-115.234,61.035,-1000.0
1742118511.144,-721.68,-27.344,58.105,-753.906
1742118511.148,742.188,77.637,37.598,665.527
1742118511.105,59.082,16.113,-92.773,-88.379
1742118511.109,999.512,91.797,-89.355,999.512
1742118511.113,851.074,-29.785,-79.59,910.645
1742118511.117,-445.312,-277.832,-95.703,-388.184
1742118511.121,-1000.0,-248.535,-308.105,-1000.0
1742118511.125,-584.473,79.102,-264.648,-657.227
1742118511.129,895.996,166.504,-52.246,833.008
1742118511.132,850.586,-151.855,-82.52,832.031
1742118511.136,-642.09,-269.043,-40.039,-674.805
1742118511.14,-1000.0,-115.234,61.035,-1000.0
1742118511.144,-721.68,-27.344,58.105,-753.906
1742118511.148,742.188,77.637,37.598,665.527
1742118511.105,59.082,16.113,-92.773,-88.379
1742118511.109,999.512,91.797,-89.355,999.512
1742118511.113,851.074,-29.785,-79.59,910.645
1742118511.117,-445.312,-277.832,-95.703,-388.184
1742118511.121,-1000.0,-248.535,-308.105,-1000.0
1742118511.125,-584.473,79.102,-264.648,-657.227
1742118511.129,895.996,166.504,-52.246,833.008
1742118511.132,850.586,-151.855,-82.52,832.031
1742118511.136,-642.09,-269.043,-40.039,-674.805
1742118511.14,-1000.0,-115.234,61.035,-1000.0
1742118511.144,-721.68,-27.344,58.105,-753.906
1742118511.148,742.188,77.637,37.598,665.527
1742118511.148,990.234,-64.453,-7.812,999.512
1742118511.152,-499.023,-291.016,-67.383,-415.527
1742118511.156,-1000.0,-215.82,-57.129,-1000.0
1742118511.16,-813.477,-48.828,-44.922,-807.617
1742118511.164,584.961,118.164,-38.574,576.172
1742118511.168,999.512,136.719,-37.109,999.512
1742118511.172,-273.926,-91.309,-50.781,-147.461
1742118511.175,-1000.0,-174.805,-48.34,-1000.0
1742118511.179,-869.629,-75.684,-43.457,-928.711
1742118511.183,497.559,134.277,-45.898,422.363
1742118511.187,999.512,96.68,-76.172,999.512
1742118511.191,-92.773,-130.859,-99.609,-12.207
1742118511.148,990.234,-64.453,-7.812,999.512
1742118511.152,-499.023,-291.016,-67.383,-415.527
1742118511.156,-1000.0,-215.82,-57.129,-1000.0
1742118511.16,-813.477,-48.828,-44.922,-807.617
1742118511.164,584.961,118.164,-38.574,576.172
1742118511.168,999.512,136.719,-37.109,999.512
1742118511.172,-273.926,-91.309,-50.781,-147.461
1742118511.175,-1000.0,-174.805,-48.34,-1000.0
1742118511.179,-869.629,-75.684,-43.457,-928.711
1742118511.183,497.559,134.277,-45.898,422.363
1742118511.187,999.512,96.68,-76.172,999.512
1742118511.191,-92.773,-130.859,-99.609,-12.207
1742118511.209,-1000.0,-131.836,-84.473,-1000.0
1742118511.213,-885.742,61.035,-41.992,-918.457
1742118511.217,579.102,247.07,-80.566,544.434
1742118511.221,999.512,105.957,-138.672,999.512
1742118511.225,-367.676,-181.641,-146.484,-318.848
1742118511.229,-1000.0,-81.543,-165.527,-1000.0
1742118511.233,-867.188,83.496,-142.09,-917.48
1742118511.236,562.5,254.395,-102.539,477.539
1742118511.24,999.512,92.285,-145.02,999.512
1742118511.244,-413.574,-256.836,-166.504,-373.535
1742118511.248,-1000.0,-153.809,-113.281,-1000.0
1742118511.252,-863.77,49.316,-105.469,-934.082
1742118511.209,-1000.0,-131.836,-84.473,-1000.0
1742118511.213,-885.742,61.035,-41.992,-918.457
1742118511.217,579.102,247.07,-80.566,544.434
1742118511.221,999.512,105.957,-138.672,999.512
1742118511.225,-367.676,-181.641,-146.484,-318.848
1742118511.229,-1000.0,-81.543,-165.527,-1000.0
1742118511.233,-867.188,83.496,-142.09,-917.48
1742118511.236,562.5,254.395,-102.539,477.539
1742118511.24,999.512,92.285,-145.02,999.512
1742118511.244,-413.574,-256.836,-166.504,-373.535
1742118511.248,-1000.0,-153.809,-113.281,-1000.0
1742118511.252,-863.77,49.316,-105.469,-934.082
1742118511.253,398.438,232.91,-139.648,258.789
1742118511.257,999.512,199.219,-151.367,999.512
1742118511.261,406.738,-72.754,-152.344,408.203
1742118511.265,-977.051,-171.387,-123.535,-936.035
1742118511.269,-955.566,46.387,-81.055,-1000.0
1742118511.273,551.758,266.113,-80.078,458.496
1742118511.277,999.512,141.113,-106.934,999.512
1742118511.28,-68.848,-200.195,-161.133,4.395
1742118511.284,-1000.0,-228.027,-145.508,-1000.0
1742118511.288,-875.0,74.219,-73.73,-881.348
1742118511.292,591.797,225.586,-83.984,587.402
1742118511.296,999.512,40.527,-130.371,999.512
1742118511.253,398.438,232.91,-139.648,258.789
1742118511.257,999.512,199.219,-151.367,999.512
1742118511.261,406.738,-72.754,-152.344,408.203
1742118511.265,-977.051,-171.387,-123.535,-936.035
1742118511.269,-955.566,46.387,-81.055,-1000.0
1742118511.273,551.758,266.113,-80.078,458.496
1742118511.277,999.512,141.113,-106.934,999.512
1742118511.28,-68.848,-200.195,-161.133,4.395
1742118511.284,-1000.0,-228.027,-145.508,-1000.0
1742118511.288,-875.0,74.219,-73.73,-881.348
1742118511.292,591.797,225.586,-83.984,587.402
1742118511.296,999.512,40.527,-130.371,999.512
1742118511.765,-1000.0,-74.219,24.902,-1000.0
1742118511.769,-867.188,219.727,40.039,-918.457
1742118511.773,510.254,375.977,31.738,432.129
1742118511.777,999.512,250.488,18.066,999.512
1742118511.781,-104.004,-33.691,-24.902,6.348
1742118511.785,-1000.0,26.855,23.926,-1000.0
1742118511.789,-780.762,181.641,47.852,-783.691
1742118511.792,740.234,256.348,13.184,708.984
1742118511.796,987.305,142.578,10.254,999.512
1742118511.8,-515.625,-148.438,15.625,-414.551
1742118511.804,-1000.0,-36.621,9.766,-1000.0
1742118511.808,-845.703,113.77,-16.602,-845.215
1742118511.3,-359.863,-239.258,-153.809,-257.324
1742118511.304,-1000.0,-184.082,-119.629,-1000.0
1742118511.308,-906.25,-31.25,-95.215,-959.473
1742118511.312,319.824,96.68,-102.539,201.66
1742118511.316,999.512,82.52,-117.188,999.512
1742118511.32,768.066,25.391,-101.562,806.641
1742118511.324,-522.461,-207.52,-128.418,-488.281
1742118511.327,-1000.0,-286.621,-171.875,-1000.0
1742118511.331,-745.605,-86.426,-138.672,-767.09
1742118511.335,638.672,82.031,-93.75,590.82
1742118511.339,999.512,-26.855,-69.336,999.512
1742118511.343,-171.387,-202.637,-46.387,-39.062
1742118511.3,-359.863,-239.258,-153.809,-257.324
1742118511.304,-1000.0,-184.082,-119.629,-1000.0
1742118511.308,-906.25,-31.25,-95.215,-959.473
1742118511.312,319.824,96.68,-102.539,201.66
1742118511.316,999.512,82.52,-117.188,999.512
1742118511.32,768.066,25.391,-101.562,806.641
1742118511.324,-522.461,-207.52,-128.418,-488.281
1742118511.327,-1000.0,-286.621,-171.875,-1000.0
1742118511.331,-745.605,-86.426,-138.672,-767.09
1742118511.335,638.672,82.031,-93.75,590.82
1742118511.339,999.512,-26.855,-69.336,999.512
1742118511.343,-171.387,-202.637,-46.387,-39.062
1742118511.343,-1000.0,-187.012,-47.363,-1000.0
1742118511.347,-857.422,-89.844,-65.43,-913.086
1742118511.351,528.809,114.258,-44.434,457.52
1742118511.355,999.512,61.035,-52.734,999.512
1742118511.359,-42.969,-168.457,-62.988,134.766
1742118511.363,-1000.0,-147.461,-54.199,-1000.0
1742118511.367,-820.801,12.207,-62.5,-839.844
1742118511.37,529.785,64.453,-86.914,563.965
1742118511.374,999.512,-82.031,-69.824,999.512
1742118511.378,645.508,-107.422,-36.133,682.617
1742118511.382,-828.125,-181.641,-30.762,-746.094
1742118511.386,-976.074,-78.125,-15.137,-1000.0
1742118511.343,-1000.0,-187.012,-47.363,-1000.0
1742118511.347,-857.422,-89.844,-65.43,-913.086
1742118511.351,528.809,114.258,-44.434,457.52
1742118511.355,999.512,61.035,-52.734,999.512
1742118511.359,-42.969,-168.457,-62.988,134.766
1742118511.363,-1000.0,-147.461,-54.199,-1000.0
1742118511.367,-820.801,12.207,-62.5,-839.844
1742118511.37,529.785,64.453,-86.914,563.965
1742118511.374,999.512,-82.031,-69.824,999.512
1742118511.378,645.508,-107.422,-36.133,682.617
1742118511.382,-828.125,-181.641,-30.762,-746.094
1742118511.386,-976.074,-78.125,-15.137,-1000.0
1742118511.39,532.715,157.227,17.578,470.215
1742118511.394,999.512,90.82,1.465,999.512
1742118511.398,820.312,-24.902,-70.312,816.406
1742118511.402,-604.004,-243.164,-80.078,-572.266
1742118511.406,-1000.0,-189.453,-25.879,-1000.0
1742118511.41,375.488,198.73,6.348,308.594
1742118511.414,999.512,100.586,-45.41,999.512
1742118511.417,615.234,-152.344,-69.336,604.004
1742118511.421,-759.277,-267.09,-51.758,-715.82
1742118511.425,-1000.0,-127.441,-29.785,-1000.0
1742118511.429,32.715,89.355,-43.945,-149.902
1742118511.433,999.512,87.891,-52.246,999.512
1742118511.39,532.715,157.227,17.578,470.215
1742118511.394,999.512,90.82,1.465,999.512
1742118511.398,820.312,-24.902,-70.312,816.406
1742118511.402,-604.004,-243.164,-80.078,-572.266
1742118511.406,-1000.0,-189.453,-25.879,-1000.0
1742118511.41,375.488,198.73,6.348,308.594
1742118511.414,999.512,100.586,-45.41,999.512
1742118511.417,615.234,-152.344,-69.336,604.004
1742118511.421,-759.277,-267.09,-51.758,-715.82
1742118511.425,-1000.0,-127.441,-29.785,-1000.0
1742118511.429,32.715,89.355,-43.945,-149.902
1742118511.433,999.512,87.891,-52.246,999.512
1742118511.433,825.684,-83.984,-47.852,893.555
1742118511.437,-543.457,-238.77,-29.785,-476.562
1742118511.441,-1000.0,-144.531,2.93,-1000.0
1742118511.445,-204.102,89.844,-7.812,-299.805
1742118511.449,990.723,155.762,-3.906,921.875
1742118511.453,952.637,63.477,-6.836,999.512
1742118511.457,-362.793,-152.344,-12.207,-248.047
1742118511.46,-1000.0,-167.969,25.879,-1000.0
1742118511.464,-855.957,-98.145,23.438,-907.227
1742118511.468,412.109,95.703,-13.184,343.262
1742118511.472,999.512,82.52,-39.551,999.512
1742118511.476,777.832,-100.098,-6.836,795.898
1742118511.433,825.684,-83.984,-47.852,893.555
1742118511.437,-543.457,-238.77,-29.785,-476.562
1742118511.441,-1000.0,-144.531,2.93,-1000.0
1742118511.445,-204.102,89.844,-7.812,-299.805
1742118511.449,990.723,155.762,-3.906,921.875
1742118511.453,952.637,63.477,-6.836,999.512
1742118511.457,-362.793,-152.344,-12.207,-248.047
1742118511.46,-1000.0,-167.969,25.879,-1000.0
1742118511.464,-855.957,-98.145,23.438,-907.227
1742118511.468,412.109,95.703,-13.184,343.262
1742118511.472,999.512,82.52,-39.551,999.512
1742118511.476,777.832,-100.098,-6.836,795.898
1742118511.48,-521.973,-219.238,42.969,-494.141
1742118511.484,-1000.0,-141.602,13.672,-1000.0
1742118511.488,-349.121,68.359,0.977,-391.113
1742118511.492,964.844,120.605,22.461,899.414
1742118511.496,913.574,-58.594,7.812,982.422
1742118511.5,-495.117,-167.969,5.859,-384.766
1742118511.504,-1000.0,-103.516,8.789,-1000.0
1742118511.507,-848.145,-51.27,-61.523,-916.992
1742118511.511,413.574,61.035,-105.469,271.484
1742118511.515,999.512,32.715,-40.039,999.512
1742118511.519,770.508,-98.145,-0.488,819.336
1742118511.523,-539.062,-269.531,-10.742,-496.582
1742118511.48,-521.973,-219.238,42.969,-494.141
1742118511.484,-1000.0,-141.602,13.672,-1000.0
1742118511.488,-349.121,68.359,0.977,-391.113
1742118511.492,964.844,120.605,22.461,899.414
1742118511.496,913.574,-58.594,7.812,982.422
1742118511.5,-495.117,-167.969,5.859,-384.766
1742118511.504,-1000.0,-103.516,8.789,-1000.0
1742118511.507,-848.145,-51.27,-61.523,-916.992
1742118511.511,413.574,61.035,-105.469,271.484
1742118511.515,999.512,32.715,-40.039,999.512
1742118511.519,770.508,-98.145,-0.488,819.336
1742118511.523,-539.062,-269.531,-10.742,-496.582
1742118511.584,-1000.0,-242.188,4.883,-929.688
1742118511.588,-962.402,-21.973,59.57,-1000.0
1742118511.592,486.328,211.426,46.387,416.992
1742118511.596,999.512,107.91,28.32,999.512
1742118511.6,989.746,-10.254,-4.395,989.746
1742118511.604,217.285,-46.875,-20.996,414.062
1742118511.608,-1000.0,-189.941,5.371,-946.289
1742118511.611,-981.445,-131.348,-14.16,-1000.0
1742118511.615,307.617,95.215,-1.465,250.488
1742118511.619,999.512,115.723,4.395,999.512
1742118511.623,745.117,-107.91,-25.879,737.793
1742118511.627,-751.953,-264.16,-15.625,-724.609
1742118511.584,-1000.0,-242.188,4.883,-929.688
1742118511.588,-962.402,-21.973,59.57,-1000.0
1742118511.592,486.328,211.426,46.387,416.992
1742118511.596,999.512,107.91,28.32,999.512
1742118511.6,989.746,-10.254,-4.395,989.746
1742118511.604,217.285,-46.875,-20.996,414.062
1742118511.608,-1000.0,-189.941,5.371,-946.289
1742118511.611,-981.445,-131.348,-14.16,-1000.0
1742118511.615,307.617,95.215,-1.465,250.488
1742118511.619,999.512,115.723,4.395,999.512
1742118511.623,745.117,-107.91,-25.879,737.793
1742118511.627,-751.953,-264.16,-15.625,-724.609
1742118511.63,-987.793,-77.148,23.438,-1000.0
1742118511.634,541.016,190.918,26.855,472.168
1742118511.638,999.512,81.055,7.324,999.512
1742118511.642,667.969,-88.379,-8.301,696.289
1742118511.646,-770.508,-177.246,-24.414,-702.637
1742118511.65,-1000.0,-67.383,-66.406,-1000.0
1742118511.654,378.418,185.547,-47.363,322.266
1742118511.657,999.512,80.078,-32.227,999.512
1742118511.661,683.594,-173.34,-37.598,664.551
1742118511.665,-753.906,-203.613,-16.602,-713.867
1742118511.669,-1000.0,-86.426,3.418,-1000.0
1742118511.673,345.215,158.203,39.062,243.652
1742118511.63,-987.793,-77.148,23.438,-1000.0
1742118511.634,541.016,190.918,26.855,472.168
1742118511.638,999.512,81.055,7.324,999.512
1742118511.642,667.969,-88.379,-8.301,696.289
1742118511.646,-770.508,-177.246,-24.414,-702.637
1742118511.65,-1000.0,-67.383,-66.406,-1000.0
1742118511.654,378.418,185.547,-47.363,322.266
1742118511.657,999.512,80.078,-32.227,999.512
1742118511.661,683.594,-173.34,-37.598,664.551
1742118511.665,-753.906,-203.613,-16.602,-713.867
1742118511.669,-1000.0,-86.426,3.418,-1000.0
1742118511.673,345.215,158.203,39.062,243.652
1742118511.675,999.512,130.371,40.039,999.512
1742118511.679,767.578,-124.023,0.0,782.227
1742118511.683,-522.949,-241.699,-0.488,-526.855
1742118511.687,-1000.0,-112.793,29.785,-1000.0
1742118511.691,-700.684,13.184,31.25,-720.703
1742118511.695,759.277,233.887,41.504,696.289
1742118511.699,994.629,63.477,5.859,999.512
1742118511.702,-473.145,-320.312,-51.758,-389.648
1742118511.706,-1000.0,-224.609,-29.297,-1000.0
1742118511.71,-727.051,13.672,1.465,-737.305
1742118511.714,703.125,119.629,6.348,652.344
1742118511.718,999.512,-9.766,-12.207,999.512
1742118511.675,999.512,130.371,40.039,999.512
1742118511.679,767.578,-124.023,0.0,782.227
1742118511.683,-522.949,-241.699,-0.488,-526.855
1742118511.687,-1000.0,-112.793,29.785,-1000.0
1742118511.691,-700.684,13.184,31.25,-720.703
1742118511.695,759.277,233.887,41.504,696.289
1742118511.699,994.629,63.477,5.859,999.512
1742118511.702,-473.145,-320.312,-51.758,-389.648
1742118511.706,-1000.0,-224.609,-29.297,-1000.0
1742118511.71,-727.051,13.672,1.465,-737.305
1742118511.714,703.125,119.629,6.348,652.344
1742118511.718,999.512,-9.766,-12.207,999.512
1742118511.719,-352.539,-243.164,-20.508,-218.262
1742118511.723,-1000.0,-160.645,16.113,-1000.0
1742118511.727,-800.293,35.645,-27.344,-795.898
1742118511.731,499.512,170.898,-84.473,533.203
1742118511.735,999.512,109.863,-47.852,999.512
1742118511.739,690.43,9.277,-27.832,699.219
1742118511.743,-603.516,-113.77,-52.246,-590.82
1742118511.746,-1000.0,-75.684,-18.555,-1000.0
1742118511.75,-734.375,-3.418,11.23,-748.047
1742118511.754,666.992,143.555,3.906,614.746
1742118511.758,999.512,136.23,-16.113,999.512
1742118511.762,-245.605,-115.234,-10.742,-153.809
1742118511.719,-352.539,-243.164,-20.508,-218.262
1742118511.723,-1000.0,-160.645,16.113,-1000.0
1742118511.727,-800.293,35.645,-27.344,-795.898
1742118511.731,499.512,170.898,-84.473,533.203
1742118511.735,999.512,109.863,-47.852,999.512
1742118511.739,690.43,9.277,-27.832,699.219
1742118511.743,-603.516,-113.77,-52.246,-590.82
1742118511.746,-1000.0,-75.684,-18.555,-1000.0
1742118511.75,-734.375,-3.418,11.23,-748.047
1742118511.754,666.992,143.555,3.906,614.746
1742118511.758,999.512,136.23,-16.113,999.512
1742118511.762,-245.605,-115.234,-10.742,-153.809
1742118511.809,559.082,214.355,-27.344,548.34
1742118511.813,999.512,174.316,-32.715,999.512
1742118511.817,-339.355,-104.492,-64.941,-245.117
1742118511.821,-1000.0,-87.891,-48.34,-1000.0
1742118511.825,-569.336,166.016,-15.625,-586.914
1742118511.829,677.246,282.715,-32.715,652.832
1742118511.833,999.512,167.48,-59.082,999.512
1742118511.836,24.414,-80.078,-107.91,206.543
1742118511.84,-1000.0,-233.398,-123.535,-990.723
1742118511.844,-942.383,-49.805,-80.566,-1000.0
1742118511.848,340.82,248.047,-62.5,249.023
1742118511.852,999.512,146.973,-64.941,999.512
1742118511.809,559.082,214.355,-27.344,548.34
1742118511.813,999.512,174.316,-32.715,999.512
1742118511.817,-339.355,-104.492,-64.941,-245.117
1742118511.821,-1000.0,-87.891,-48.34,-1000.0
1742118511.825,-569.336,166.016,-15.625,-586.914
1742118511.829,677.246,282.715,-32.715,652.832
1742118511.833,999.512,167.48,-59.082,999.512
1742118511.836,24.414,-80.078,-107.91,206.543
1742118511.84,-1000.0,-233.398,-123.535,-990.723
1742118511.844,-942.383,-49.805,-80.566,-1000.0
1742118511.848,340.82,248.047,-62.5,249.023
1742118511.852,999.512,146.973,-64.941,999.512
1742118511.855,599.121,-98.145,-42.969,612.793
1742118511.859,-877.93,-138.672,-1.953,-813.477
1742118511.863,-944.336,31.738,9.277,-984.375
1742118511.867,562.5,271.973,14.16,509.277
1742118511.871,999.512,241.211,-33.691,999.512
1742118511.875,765.625,300.293,-69.824,777.832
1742118511.879,-519.531,234.863,-33.203,-490.723
1742118511.882,-1000.0,170.41,13.184,-1000.0
1742118511.886,-763.672,299.316,22.949,-756.836
1742118511.89,562.988,501.465,39.551,554.199
1742118511.894,999.512,442.383,25.391,999.512
1742118511.898,166.016,190.918,-26.367,305.176
1742118511.855,599.121,-98.145,-42.969,612.793
1742118511.859,-877.93,-138.672,-1.953,-813.477
1742118511.863,-944.336,31.738,9.277,-984.375
1742118511.867,562.5,271.973,14.16,509.277
1742118511.871,999.512,241.211,-33.691,999.512
1742118511.875,765.625,300.293,-69.824,777.832
1742118511.879,-519.531,234.863,-33.203,-490.723
1742118511.882,-1000.0,170.41,13.184,-1000.0
1742118511.886,-763.672,299.316,22.949,-756.836
1742118511.89,562.988,501.465,39.551,554.199
1742118511.894,999.512,442.383,25.391,999.512
1742118511.898,166.016,190.918,-26.367,305.176
1742118511.914,-1000.0,113.281,-21.973,-960.938
1742118511.918,-906.738,312.5,26.367,-991.699
1742118511.922,468.262,491.211,14.648,371.094
1742118511.926,999.512,375.488,11.719,999.512
1742118511.93,764.648,227.539,29.785,676.758
1742118511.934,-623.047,162.109,-11.719,-671.387
1742118511.938,-1000.0,200.195,-46.875,-1000.0
1742118511.941,-1000.0,118.652,-81.055,-1000.0
1742118511.945,-752.93,137.207,-71.777,-839.355
1742118511.949,665.527,395.996,18.066,576.66
1742118511.953,999.512,336.426,20.996,999.512
1742118511.957,796.387,226.074,23.438,846.191
1742118511.914,-1000.0,113.281,-21.973,-960.938
1742118511.918,-906.738,312.5,26.367,-991.699
1742118511.922,468.262,491.211,14.648,371.094
1742118511.926,999.512,375.488,11.719,999.512
1742118511.93,764.648,227.539,29.785,676.758
1742118511.934,-623.047,162.109,-11.719,-671.387
1742118511.938,-1000.0,200.195,-46.875,-1000.0
1742118511.941,-1000.0,118.652,-81.055,-1000.0
1742118511.945,-752.93,137.207,-71.777,-839.355
1742118511.949,665.527,395.996,18.066,576.66
1742118511.953,999.512,336.426,20.996,999.512
1742118511.957,796.387,226.074,23.438,846.191
1742118511.959,-507.812,61.035,34.18,-427.246
1742118511.963,-1000.0,84.961,30.762,-1000.0
1742118511.967,-903.32,216.797,48.34,-958.496
1742118511.971,312.988,413.574,74.707,156.738
1742118511.975,999.512,313.965,34.668,999.512
1742118511.979,809.57,195.312,-13.184,865.723
1742118511.983,-461.914,-28.32,-62.988,-382.324
1742118511.986,-1000.0,-116.699,-72.266,-1000.0
1742118511.99,-796.875,125.488,-3.906,-792.969
1742118511.994,509.766,299.805,11.719,519.531
1742118511.998,999.512,184.082,-55.176,999.512
1742118512.002,293.945,-0.488,-63.477,374.512
1742118511.959,-507.812,61.035,34.18,-427.246
1742118511.963,-1000.0,84.961,30.762,-1000.0
1742118511.967,-903.32,216.797,48.34,-958.496
1742118511.971,312.988,413.574,74.707,156.738
1742118511.975,999.512,313.965,34.668,999.512
1742118511.979,809.57,195.312,-13.184,865.723
1742118511.983,-461.914,-28.32,-62.988,-382.324
1742118511.986,-1000.0,-116.699,-72.266,-1000.0
1742118511.99,-796.875,125.488,-3.906,-792.969
1742118511.994,509.766,299.805,11.719,519.531
1742118511.998,999.512,184.082,-55.176,999.512
1742118512.002,293.945,-0.488,-63.477,374.512
1742118512.004,-1000.0,-61.035,-32.715,-955.566
1742118512.008,-886.719,131.348,-7.812,-939.453
1742118512.012,541.504,327.148,0.0,501.465
1742118512.016,999.512,200.195,-10.742,999.512
1742118512.02,744.141,68.359,0.0,673.828
1742118512.024,-553.223,-23.438,-9.277,-585.449
1742118512.028,-1000.0,33.203,-13.672,-1000.0
1742118512.031,-393.555,188.965,-17.09,-451.172
1742118512.035,948.73,157.227,-25.391,882.812
1742118512.039,916.016,11.23,3.418,973.633
1742118512.043,-483.887,-175.293,-14.16,-407.227
1742118512.047,-1000.0,-108.887,-41.992,-1000.0
1742118512.004,-1000.0,-61.035,-32.715,-955.566
1742118512.008,-886.719,131.348,-7.812,-939.453
1742118512.012,541.504,327.148,0.0,501.465
1742118512.016,999.512,200.195,-10.742,999.512
1742118512.02,744.141,68.359,0.0,673.828
1742118512.024,-553.223,-23.438,-9.277,-585.449
1742118512.028,-1000.0,33.203,-13.672,-1000.0
1742118512.031,-393.555,188.965,-17.09,-451.172
1742118512.035,948.73,157.227,-25.391,882.812
1742118512.039,916.016,11.23,3.418,973.633
1742118512.043,-483.887,-175.293,-14.16,-407.227
1742118512.047,-1000.0,-108.887,-41.992,-1000.0
1742118512.05,-662.109,102.539,0.0,-668.457
1742118512.054,689.941,287.598,35.156,641.602
1742118512.058,999.512,177.246,-9.766,999.512
1742118512.062,76.66,-79.59,-60.547,244.141
1742118512.066,-1000.0,-83.496,-51.27,-1000.0
1742118512.07,-625.488,259.766,43.457,-666.504
1742118512.074,788.574,293.945,34.18,752.441
1742118512.077,999.512,64.941,-17.09,999.512
1742118512.081,86.914,-7.812,6.836,261.719
1742118512.085,-1000.0,-84.473,34.668,-1000.0
1742118512.089,-850.586,116.211,93.262,-873.535
1742118512.093,520.996,333.496,97.168,554.688
1742118512.05,-662.109,102.539,0.0,-668.457
1742118512.054,689.941,287.598,35.156,641.602
1742118512.058,999.512,177.246,-9.766,999.512
1742118512.062,76.66,-79.59,-60.547,244.141
1742118512.066,-1000.0,-83.496,-51.27,-1000.0
1742118512.07,-625.488,259.766,43.457,-666.504
1742118512.074,788.574,293.945,34.18,752.441
1742118512.077,999.512,64.941,-17.09,999.512
1742118512.081,86.914,-7.812,6.836,261.719
1742118512.085,-1000.0,-84.473,34.668,-1000.0
1742118512.089,-850.586,116.211,93.262,-873.535
1742118512.093,520.996,333.496,97.168,554.688
1742118512.094,999.512,191.895,58.105,999.512
1742118512.098,665.039,21.973,56.152,683.594
1742118512.102,-738.281,-92.773,72.266,-676.27
1742118512.106,-1000.0,21.973,81.543,-1000.0
1742118512.11,226.074,251.465,93.75,117.676
1742118512.114,999.512,261.719,65.918,999.512
1742118512.118,793.457,66.895,25.391,855.469
1742118512.121,-502.441,-181.152,12.695,-437.012
1742118512.125,-1000.0,-110.352,-6.836,-1000.0
1742118512.129,-708.008,128.906,19.531,-736.328
1742118512.133,753.906,294.434,53.223,687.012
1742118512.137,994.141,139.648,16.602,999.512
1742118512.094,999.512,191.895,58.105,999.512
1742118512.098,665.039,21.973,56.152,683.594
1742118512.102,-738.281,-92.773,72.266,-676.27
1742118512.106,-1000.0,21.973,81.543,-1000.0
1742118512.11,226.074,251.465,93.75,117.676
1742118512.114,999.512,261.719,65.918,999.512
1742118512.118,793.457,66.895,25.391,855.469
1742118512.121,-502.441,-181.152,12.695,-437.012
1742118512.125,-1000.0,-110.352,-6.836,-1000.0
1742118512.129,-708.008,128.906,19.531,-736.328
1742118512.133,753.906,294.434,53.223,687.012
1742118512.137,994.141,139.648,16.602,999.512
1742118512.14,-486.328,-127.441,1.953,-403.809
1742118512.144,-1000.0,-4.395,45.41,-1000.0
1742118512.148,-778.809,122.559,38.086,-777.344
1742118512.152,525.391,193.359,24.414,541.992
1742118512.156,999.512,148.926,34.18,999.512
1742118512.16,292.48,41.016,30.762,314.453
1742118512.164,-875.0,-63.477,-5.371,-830.566
1742118512.167,-1000.0,-85.449,-32.715,-1000.0
1742118512.171,-631.348,10.254,-13.184,-698.242
1742118512.175,760.254,200.195,14.16,665.527
1742118512.179,999.512,116.211,-0.977,999.512
1742118512.183,-83.008,-109.863,-3.906,66.406
1742118512.14,-486.328,-127.441,1.953,-403.809
1742118512.144,-1000.0,-4.395,45.41,-1000.0
1742118512.148,-778.809,122.559,38.086,-777.344
1742118512.152,525.391,193.359,24.414,541.992
1742118512.156,999.512,148.926,34.18,999.512
1742118512.16,292.48,41.016,30.762,314.453
1742118512.164,-875.0,-63.477,-5.371,-830.566
1742118512.167,-1000.0,-85.449,-32.715,-1000.0
1742118512.171,-631.348,10.254,-13.184,-698.242
1742118512.175,760.254,200.195,14.16,665.527
1742118512.179,999.512,116.211,-0.977,999.512
1742118512.183,-83.008,-109.863,-3.906,66.406
1742118512.184,-1000.0,-147.461,7.324,-1000.0
1742118512.188,-831.055,108.398,-10.254,-875.488
1742118512.192,519.531,217.285,-12.207,510.742
1742118512.196,999.512,95.703,29.785,999.512
1742118512.2,361.328,-5.859,29.297,352.539
1742118512.204,-918.945,-51.758,13.184,-851.074
1742118512.208,-1000.0,49.316,23.926,-1000.0
1742118512.211,167.48,148.438,44.434,-114.746
1742118512.215,999.512,140.625,53.223,999.512
1742118512.219,816.406,55.664,55.664,905.273
1742118512.223,-487.793,-155.762,27.344,-412.109
1742118512.227,-1000.0,-150.391,16.113,-1000.0
1742118512.23,-788.574,38.086,40.039,-793.457
1742118512.234,507.812,223.145,58.594,515.137
1742118512.238,999.512,143.066,41.016,999.512
1742118512.242,772.949,35.645,33.691,796.875
1742118512.246,-519.531,-156.25,16.602,-469.238
1742118512.25,-1000.0,-66.895,39.062,-1000.0
1742118512.254,-837.402,51.758,24.414,-863.77
1742118512.257,459.473,184.57,-10.254,400.879
1742118512.261,999.512,137.695,6.836,999.512
1742118512.265,894.043,5.371,39.551,949.707
1742118512.269,-292.48,-145.02,14.648,-74.707
1742118512.273,-1000.0,-144.043,30.762,-1000.0
1742118512.23,-788.574,38.086,40.039,-793.457
1742118512.234,507.812,223.145,58.594,515.137
1742118512.238,999.512,143.066,41.016,999.512
1742118512.242,772.949,35.645,33.691,796.875
1742118512.246,-519.531,-156.25,16.602,-469.238
1742118512.25,-1000.0,-66.895,39.062,-1000.0
1742118512.254,-837.402,51.758,24.414,-863.77
1742118512.257,459.473,184.57,-10.254,400.879
1742118512.261,999.512,137.695,6.836,999.512
1742118512.265,894.043,5.371,39.551,949.707
1742118512.269,-292.48,-145.02,14.648,-74.707
1742118512.273,-1000.0,-144.043,30.762,-1000.0
1742118512.273,-870.117,55.664,116.699,-948.73
1742118512.277,390.625,210.449,133.789,270.996
1742118512.281,999.512,163.574,123.535,999.512
1742118512.285,766.113,-39.551,119.629,774.902
1742118512.289,-515.625,-174.316,112.305,-522.949
1742118512.293,-1000.0,-63.965,97.656,-1000.0
1742118512.297,-683.594,74.707,125.0,-720.703
1742118512.3,714.355,130.371,140.625,642.09
1742118512.304,999.512,-18.066,123.047,999.512
1742118512.308,-229.004,-189.453,109.375,-97.168
1742118512.312,-1000.0,-186.035,90.82,-1000.0
1742118512.316,-854.004,-14.16,111.328,-921.387
1742118512.273,-870.117,55.664,116.699,-948.73
1742118512.277,390.625,210.449,133.789,270.996
1742118512.281,999.512,163.574,123.535,999.512
1742118512.285,766.113,-39.551,119.629,774.902
1742118512.289,-515.625,-174.316,112.305,-522.949
1742118512.293,-1000.0,-63.965,97.656,-1000.0
1742118512.297,-683.594,74.707,125.0,-720.703
1742118512.3,714.355,130.371,140.625,642.09
1742118512.304,999.512,-18.066,123.047,999.512
1742118512.308,-229.004,-189.453,109.375,-97.168
1742118512.312,-1000.0,-186.035,90.82,-1000.0
1742118512.316,-854.004,-14.16,111.328,-921.387
1742118512.334,458.984,176.758,126.953,392.578
1742118512.338,999.512,99.121,113.281,999.512
1742118512.342,841.309,-29.785,113.281,889.648
1742118512.346,-415.039,-227.539,58.594,-310.059
1742118512.35,-1000.0,-174.316,29.297,-1000.0
1742118512.354,-348.633,197.266,78.125,-446.289
1742118512.358,999.512,221.191,55.664,945.801
1742118512.361,825.195,-121.094,-5.859,831.543
1742118512.365,-613.281,-240.234,5.859,-633.301
1742118512.369,-1000.0,-145.996,9.766,-1000.0
1742118512.373,-418.945,-57.129,-13.184,-440.918
1742118512.377,831.055,-14.16,0.977,787.598
1742118512.334,458.984,176.758,126.953,392.578
1742118512.338,999.512,99.121,113.281,999.512
1742118512.342,841.309,-29.785,113.281,889.648
1742118512.346,-415.039,-227.539,58.594,-310.059
1742118512.35,-1000.0,-174.316,29.297,-1000.0
1742118512.354,-348.633,197.266,78.125,-446.289
1742118512.358,999.512,221.191,55.664,945.801
1742118512.361,825.195,-121.094,-5.859,831.543
1742118512.365,-613.281,-240.234,5.859,-633.301
1742118512.369,-1000.0,-145.996,9.766,-1000.0
1742118512.373,-418.945,-57.129,-13.184,-440.918
1742118512.377,831.055,-14.16,0.977,787.598
1742118512.379,999.512,-107.91,31.25,999.512
1742118512.383,169.922,-205.078,34.18,316.406
1742118512.387,-1000.0,-284.668,20.508,-1000.0
1742118512.391,-876.465,-111.816,38.086,-909.668
1742118512.395,529.785,138.672,81.543,524.902
1742118512.399,999.512,104.004,47.852,999.512
1742118512.403,263.184,-165.527,-27.832,356.445
1742118512.406,-945.312,-264.16,-31.738,-868.164
1742118512.41,-1000.0,-172.852,-20.02,-1000.0
1742118512.414,58.105,-13.672,-18.066,-110.84
1742118512.418,999.512,72.266,1.953,999.512
1742118512.422,795.41,-54.688,9.277,867.188
1742118512.379,999.512,-107.91,31.25,999.512
1742118512.383,169.922,-205.078,34.18,316.406
1742118512.387,-1000.0,-284.668,20.508,-1000.0
1742118512.391,-876.465,-111.816,38.086,-909.668
1742118512.395,529.785,138.672,81.543,524.902
1742118512.399,999.512,104.004,47.852,999.512
1742118512.403,263.184,-165.527,-27.832,356.445
1742118512.406,-945.312,-264.16,-31.738,-868.164
1742118512.41,-1000.0,-172.852,-20.02,-1000.0
1742118512.414,58.105,-13.672,-18.066,-110.84
1742118512.418,999.512,72.266,1.953,999.512
1742118512.422,795.41,-54.688,9.277,867.188
1742118512.425,-534.668,-270.508,-14.648,-490.723
1742118512.429,-1000.0,-152.344,-5.859,-1000.0
1742118512.433,-579.102,36.133,-1.953,-569.336
1742118512.437,833.496,102.051,-17.09,775.391
1742118512.441,995.605,-6.348,-53.711,999.512
1742118512.445,-423.828,-99.121,-40.527,-275.391
1742118512.449,-1000.0,-136.719,-32.227,-1000.0
1742118512.452,-805.664,-96.191,-44.922,-804.688
1742118512.456,492.676,91.797,-33.691,523.926
1742118512.46,999.512,64.941,-41.016,999.512
1742118512.464,375.0,-121.582,-62.5,416.992
1742118512.468,-890.625,-186.523,-83.008,-814.941
1742118512.425,-534.668,-270.508,-14.648,-490.723
1742118512.429,-1000.0,-152.344,-5.859,-1000.0
1742118512.433,-579.102,36.133,-1.953,-569.336
1742118512.437,833.496,102.051,-17.09,775.391
1742118512.441,995.605,-6.348,-53.711,999.512
1742118512.445,-423.828,-99.121,-40.527,-275.391
1742118512.449,-1000.0,-136.719,-32.227,-1000.0
1742118512.452,-805.664,-96.191,-44.922,-804.688
1742118512.456,492.676,91.797,-33.691,523.926
1742118512.46,999.512,64.941,-41.016,999.512
1742118512.464,375.0,-121.582,-62.5,416.992
1742118512.468,-890.625,-186.523,-83.008,-814.941
1742118512.469,-1000.0,-101.074,-80.566,-1000.0
1742118512.473,24.414,137.207,-76.66,-167.48
1742118512.477,999.512,146.973,-99.609,999.512
1742118512.481,595.703,-138.184,-123.535,568.359
1742118512.485,-916.992,-170.41,-145.02,-917.48
1742118512.489,-990.234,15.137,-111.328,-983.398
1742118512.493,645.02,188.477,-69.824,618.652
1742118512.496,999.512,-16.113,-76.172,999.512
1742118512.5,-450.684,-309.57,-91.797,-388.184
1742118512.504,-1000.0,-165.039,-80.078,-1000.0
1742118512.508,-818.848,9.766,-82.52,-800.781
1742118512.512,535.156,110.84,-70.801,546.387
1742118512.469,-1000.0,-101.074,-80.566,-1000.0
1742118512.473,24.414,137.207,-76.66,-167.48
1742118512.477,999.512,146.973,-99.609,999.512
1742118512.481,595.703,-138.184,-123.535,568.359
1742118512.485,-916.992,-170.41,-145.02,-917.48
1742118512.489,-990.234,15.137,-111.328,-983.398
1742118512.493,645.02,188.477,-69.824,618.652
1742118512.496,999.512,-16.113,-76.172,999.512
1742118512.5,-450.684,-309.57,-91.797,-388.184
1742118512.504,-1000.0,-165.039,-80.078,-1000.0
1742118512.508,-818.848,9.766,-82.52,-800.781
1742118512.512,535.156,110.84,-70.801,546.387
1742118512.515,999.512,0.488,-91.797,999.512
1742118512.519,-26.367,-185.059,-128.906,120.605
1742118512.523,-1000.0,-208.496,-119.141,-1000.0
1742118512.527,-868.164,-19.531,-93.75,-872.559
1742118512.531,562.5,153.809,-66.406,582.031
1742118512.535,999.512,8.301,-66.895,999.512
1742118512.539,-125.0,-229.98,-111.816,-2.441
1742118512.542,-1000.0,-277.832,-151.367,-1000.0
1742118512.546,-855.469,-113.281,-104.98,-929.199
1742118512.55,458.008,162.598,-54.688,380.371
1742118512.554,999.512,118.652,-80.078,999.512
1742118512.558,579.59,-89.844,-79.102,581.543
1742118512.515,999.512,0.488,-91.797,999.512
1742118512.519,-26.367,-185.059,-128.906,120.605
1742118512.523,-1000.0,-208.496,-119.141,-1000.0
1742118512.527,-868.164,-19.531,-93.75,-872.559
1742118512.531,562.5,153.809,-66.406,582.031
1742118512.535,999.512,8.301,-66.895,999.512
1742118512.539,-125.0,-229.98,-111.816,-2.441
1742118512.542,-1000.0,-277.832,-151.367,-1000.0
1742118512.546,-855.469,-113.281,-104.98,-929.199
1742118512.55,458.008,162.598,-54.688,380.371
1742118512.554,999.512,118.652,-80.078,999.512
1742118512.558,579.59,-89.844,-79.102,581.543
1742118512.559,-777.832,-192.871,-76.66,-729.98
1742118512.563,-1000.0,-138.672,-85.938,-1000.0
1742118512.567,24.902,44.922,-106.445,-125.977
1742118512.571,999.512,22.461,-143.555,999.512
1742118512.575,809.082,-157.715,-147.461,726.562
1742118512.579,-588.867,-254.395,-127.93,-648.438
1742118512.583,-1000.0,-194.336,-88.379,-1000.0
1742118512.586,-78.125,-6.348,-47.363,-273.438
1742118512.59,999.512,15.625,-26.855,999.512
1742118512.594,812.012,-93.75,-3.906,813.477
1742118512.598,-592.773,-222.656,-14.16,-625.0
1742118512.602,-1000.0,-169.434,-49.805,-1000.0
1742118512.559,-777.832,-192.871,-76.66,-729.98
1742118512.563,-1000.0,-138.672,-85.938,-1000.0
1742118512.567,24.902,44.922,-106.445,-125.977
1742118512.571,999.512,22.461,-143.555,999.512
1742118512.575,809.082,-157.715,-147.461,726.562
1742118512.579,-588.867,-254.395,-127.93,-648.438
1742118512.583,-1000.0,-194.336,-88.379,-1000.0
1742118512.586,-78.125,-6.348,-47.363,-273.438
1742118512.59,999.512,15.625,-26.855,999.512
1742118512.594,812.012,-93.75,-3.906,813.477
1742118512.598,-592.773,-222.656,-14.16,-625.0
1742118512.602,-1000.0,-169.434,-49.805,-1000.0
1742118512.605,-202.637,9.766,-58.594,-330.566
1742118512.609,999.512,44.434,-83.984,979.492
1742118512.613,861.816,-136.719,-95.215,860.352
1742118512.617,-596.191,-316.895,-88.379,-613.77
1742118512.621,-1000.0,-200.684,-77.637,-1000.0
1742118512.625,6.836,159.668,-38.086,-147.461
1742118512.629,999.512,128.418,-79.59,999.512
1742118512.632,380.371,-259.766,-155.273,428.223
1742118512.636,-904.785,-270.02,-121.094,-871.582
1742118512.64,-1000.0,-86.914,-103.027,-1000.0
1742118512.644,-291.016,-2.441,-106.445,-451.66
1742118512.648,999.512,48.828,-98.145,946.289
1742118512.605,-202.637,9.766,-58.594,-330.566
1742118512.609,999.512,44.434,-83.984,979.492
1742118512.613,861.816,-136.719,-95.215,860.352
1742118512.617,-596.191,-316.895,-88.379,-613.77
1742118512.621,-1000.0,-200.684,-77.637,-1000.0
1742118512.625,6.836,159.668,-38.086,-147.461
1742118512.629,999.512,128.418,-79.59,999.512
1742118512.632,380.371,-259.766,-155.273,428.223
1742118512.636,-904.785,-270.02,-121.094,-871.582
1742118512.64,-1000.0,-86.914,-103.027,-1000.0
1742118512.644,-291.016,-2.441,-106.445,-451.66
1742118512.648,999.512,48.828,-98.145,946.289
1742118512.663,835.938,-151.855,-112.793,826.66
1742118512.667,-570.801,-306.152,-107.91,-625.0
1742118512.671,-1000.0,-185.059,-85.938,-1000.0
1742118512.675,-718.262,-70.801,-77.148,-750.0
1742118512.679,687.5,66.406,-60.059,618.164
1742118512.683,999.512,66.406,-65.918,999.512
1742118512.687,-302.246,-203.613,-119.629,-188.477
1742118512.69,-1000.0,-233.887,-121.582,-1000.0
1742118512.694,-1000.0,-156.738,-135.742,-1000.0
1742118512.698,6.836,-19.531,-120.117,-207.52
1742118512.702,999.512,74.219,-84.961,999.512
1742118512.706,794.434,-92.773,-67.871,839.355
1742118512.663,835.938,-151.855,-112.793,826.66
1742118512.667,-570.801,-306.152,-107.91,-625.0
1742118512.671,-1000.0,-185.059,-85.938,-1000.0
1742118512.675,-718.262,-70.801,-77.148,-750.0
1742118512.679,687.5,66.406,-60.059,618.164
1742118512.683,999.512,66.406,-65.918,999.512
1742118512.687,-302.246,-203.613,-119.629,-188.477
1742118512.69,-1000.0,-233.887,-121.582,-1000.0
1742118512.694,-1000.0,-156.738,-135.742,-1000.0
1742118512.698,6.836,-19.531,-120.117,-207.52
1742118512.702,999.512,74.219,-84.961,999.512
1742118512.706,794.434,-92.773,-67.871,839.355
1742118512.697,-536.133,-327.637,-41.016,-546.875
1742118512.701,-1000.0,-212.891,17.578,-1000.0
1742118512.705,-687.988,-27.832,25.391,-715.332
1742118512.709,800.781,49.316,-29.785,734.863
1742118512.713,918.945,-104.492,-53.711,940.43
1742118512.717,-604.98,-226.562,-15.137,-579.59
1742118512.721,-1000.0,-146.973,-6.348,-1000.0
1742118512.724,-831.055,-114.258,-16.602,-852.539
1742118512.728,512.207,40.527,-2.93,467.773
1742118512.732,999.512,14.648,-28.809,999.512
1742118512.736,-29.785,-194.336,-41.992,74.707
1742118512.74,-1000.0,-196.777,-21.484,-1000.0
1742118512.697,-536.133,-327.637,-41.016,-546.875
1742118512.701,-1000.0,-212.891,17.578,-1000.0
1742118512.705,-687.988,-27.832,25.391,-715.332
1742118512.709,800.781,49.316,-29.785,734.863
1742118512.713,918.945,-104.492,-53.711,940.43
1742118512.717,-604.98,-226.562,-15.137,-579.59
1742118512.721,-1000.0,-146.973,-6.348,-1000.0
1742118512.724,-831.055,-114.258,-16.602,-852.539
1742118512.728,512.207,40.527,-2.93,467.773
1742118512.732,999.512,14.648,-28.809,999.512
1742118512.736,-29.785,-194.336,-41.992,74.707
1742118512.74,-1000.0,-196.777,-21.484,-1000.0
1742118512.753,-874.023,-64.453,-1.953,-870.605
1742118512.757,557.617,162.109,40.039,577.148
1742118512.761,999.512,89.844,27.832,999.512
1742118512.765,-140.625,-209.473,3.418,-1.953
1742118512.769,-1000.0,-166.992,53.711,-1000.0
1742118512.773,-586.914,107.91,76.66,-614.258
1742118512.777,911.621,176.758,39.551,891.602
1742118512.78,905.273,-109.375,-11.23,871.094
1742118512.784,-671.387,-315.918,-34.18,-679.199
1742118512.788,-1000.0,-122.559,-29.297,-1000.0
1742118512.792,162.598,128.906,-11.23,22.461
1742118512.796,999.512,131.836,1.953,999.512
1742118512.753,-874.023,-64.453,-1.953,-870.605
1742118512.757,557.617,162.109,40.039,577.148
1742118512.761,999.512,89.844,27.832,999.512
1742118512.765,-140.625,-209.473,3.418,-1.953
1742118512.769,-1000.0,-166.992,53.711,-1000.0
1742118512.773,-586.914,107.91,76.66,-614.258
1742118512.777,911.621,176.758,39.551,891.602
1742118512.78,905.273,-109.375,-11.23,871.094
1742118512.784,-671.387,-315.918,-34.18,-679.199
1742118512.788,-1000.0,-122.559,-29.297,-1000.0
1742118512.792,162.598,128.906,-11.23,22.461
1742118512.796,999.512,131.836,1.953,999.512
1742118512.8,772.461,-96.68,-15.625,764.648
1742118512.804,-556.152,-215.82,-16.113,-593.262
1742118512.808,-1000.0,-124.512,5.371,-1000.0
1742118512.812,-462.891,-0.977,23.926,-525.391
1742118512.816,915.527,147.461,22.949,840.332
1742118512.82,932.129,10.742,0.0,986.328
1742118512.824,-496.094,-280.762,-9.766,-417.48
1742118512.827,-1000.0,-270.996,-17.578,-1000.0
1742118512.831,-819.824,-87.402,-18.555,-813.477
1742118512.835,511.23,115.234,-11.719,517.578
1742118512.839,999.512,52.734,-23.926,999.512
1742118512.843,75.195,-210.938,-43.457,170.898
1742118512.8,772.461,-96.68,-15.625,764.648
1742118512.804,-556.152,-215.82,-16.113,-593.262
1742118512.808,-1000.0,-124.512,5.371,-1000.0
1742118512.812,-462.891,-0.977,23.926,-525.391
1742118512.816,915.527,147.461,22.949,840.332
1742118512.82,932.129,10.742,0.0,986.328
1742118512.824,-496.094,-280.762,-9.766,-417.48
1742118512.827,-1000.0,-270.996,-17.578,-1000.0
1742118512.831,-819.824,-87.402,-18.555,-813.477
1742118512.835,511.23,115.234,-11.719,517.578
1742118512.839,999.512,52.734,-23.926,999.512
1742118512.843,75.195,-210.938,-43.457,170.898
1742118512.844,-1000.0,-299.805,-53.223,-1000.0
1742118512.848,-910.645,-76.66,-41.016,-978.516
1742118512.852,436.035,178.711,-33.691,354.492
1742118512.856,999.512,56.152,-74.707,999.512
1742118512.86,430.176,-145.02,-83.008,479.492
1742118512.864,-932.129,-177.246,-71.777,-846.191
1742118512.868,-1000.0,-98.633,-97.656,-1000.0
1742118512.871,388.672,106.934,-108.398,306.152
1742118512.875,999.512,0.0,-126.953,999.512
1742118512.879,587.891,-167.969,-135.742,586.426
1742118512.883,-842.773,-247.559,-132.812,-798.34
1742118512.887,-1000.0,-127.93,-92.773,-1000.0
1742118512.844,-1000.0,-299.805,-53.223,-1000.0
1742118512.848,-910.645,-76.66,-41.016,-978.516
1742118512.852,436.035,178.711,-33.691,354.492
1742118512.856,999.512,56.152,-74.707,999.512
1742118512.86,430.176,-145.02,-83.008,479.492
1742118512.864,-932.129,-177.246,-71.777,-846.191
1742118512.868,-1000.0,-98.633,-97.656,-1000.0
1742118512.871,388.672,106.934,-108.398,306.152
1742118512.875,999.512,0.0,-126.953,999.512
1742118512.879,587.891,-167.969,-135.742,586.426
1742118512.883,-842.773,-247.559,-132.812,-798.34
1742118512.887,-1000.0,-127.93,-92.773,-1000.0
1742118512.89,371.582,117.676,-29.785,280.762
1742118512.894,999.512,66.895,-9.277,999.512
1742118512.898,761.719,-141.602,-43.457,763.184
1742118512.902,-654.297,-355.469,-107.91,-632.812
1742118512.906,-1000.0,-221.68,-86.914,-1000.0
1742118512.91,278.32,136.23,-59.57,129.395
1742118512.914,999.512,71.777,-82.52,999.512
1742118512.917,764.16,-236.816,-82.031,772.949
1742118512.921,-541.016,-366.699,-43.457,-567.871
1742118512.925,-1000.0,-171.875,-11.719,-1000.0
1742118512.929,-505.371,-49.316,-44.434,-542.48
1742118512.933,882.812,16.602,-55.664,812.988
1742118512.89,371.582,117.676,-29.785,280.762
1742118512.894,999.512,66.895,-9.277,999.512
1742118512.898,761.719,-141.602,-43.457,763.184
1742118512.902,-654.297,-355.469,-107.91,-632.812
1742118512.906,-1000.0,-221.68,-86.914,-1000.0
1742118512.91,278.32,136.23,-59.57,129.395
1742118512.914,999.512,71.777,-82.52,999.512
1742118512.917,764.16,-236.816,-82.031,772.949
1742118512.921,-541.016,-366.699,-43.457,-567.871
1742118512.925,-1000.0,-171.875,-11.719,-1000.0
1742118512.929,-505.371,-49.316,-44.434,-542.48
1742118512.933,882.812,16.602,-55.664,812.988
1742118513.414,-1000.0,-328.613,-244.629,-1000.0
1742118513.418,-790.527,-100.098,-267.578,-804.688
1742118513.422,595.703,81.055,-273.926,624.512
1742118513.426,999.512,-72.754,-266.602,999.512
1742118513.43,869.629,-155.273,-269.531,928.223
1742118513.434,-382.812,-305.664,-292.48,-217.773
1742118513.438,-1000.0,-289.062,-270.02,-1000.0
1742118513.441,-974.609,-206.055,-243.652,-1000.0
1742118513.445,215.332,-149.414,-233.398,-62.5
1742118513.449,999.512,-123.535,-200.684,966.309
1742118513.453,955.078,-174.805,-172.363,976.562
1742118513.457,858.398,-195.801,-141.602,888.672
1742118512.933,967.773,-71.289,-38.086,999.512
1742118512.937,-437.5,-292.969,-40.527,-353.516
1742118512.941,-1000.0,-227.539,-20.996,-1000.0
1742118512.945,-729.492,-44.434,-14.16,-731.445
1742118512.949,624.023,85.449,-13.184,599.121
1742118512.953,999.512,60.547,3.906,999.512
1742118512.957,62.988,-154.297,-3.418,197.754
1742118512.96,-1000.0,-299.805,-7.324,-1000.0
1742118512.964,-857.422,-153.32,17.578,-927.734
1742118512.968,507.812,142.09,6.836,458.984
1742118512.972,999.512,92.285,-3.418,999.512
1742118512.976,594.727,-83.984,4.883,598.145
1742118512.933,967.773,-71.289,-38.086,999.512
1742118512.937,-437.5,-292.969,-40.527,-353.516
1742118512.941,-1000.0,-227.539,-20.996,-1000.0
1742118512.945,-729.492,-44.434,-14.16,-731.445
1742118512.949,624.023,85.449,-13.184,599.121
1742118512.953,999.512,60.547,3.906,999.512
1742118512.957,62.988,-154.297,-3.418,197.754
1742118512.96,-1000.0,-299.805,-7.324,-1000.0
1742118512.964,-857.422,-153.32,17.578,-927.734
1742118512.968,507.812,142.09,6.836,458.984
1742118512.972,999.512,92.285,-3.418,999.512
1742118512.976,594.727,-83.984,4.883,598.145
1742118512.981,-852.539,-232.91,-6.836,-779.297
1742118512.985,-1000.0,-100.586,7.324,-1000.0
1742118512.989,495.117,165.039,-1.953,405.762
1742118512.993,999.512,54.199,-55.664,999.512
1742118512.997,182.617,-198.73,-111.328,282.227
1742118513.001,-1000.0,-155.762,-74.219,-1000.0
1742118513.005,-897.461,18.555,-38.574,-918.457
1742118513.008,554.199,91.309,-80.078,544.434
1742118513.012,999.512,-9.766,-103.027,999.512
1742118513.016,-33.203,-242.676,-100.098,57.617
1742118513.02,-1000.0,-232.91,-94.238,-965.82
1742118513.024,-1000.0,-121.582,-112.305,-1000.0
1742118512.981,-852.539,-232.91,-6.836,-779.297
1742118512.985,-1000.0,-100.586,7.324,-1000.0
1742118512.989,495.117,165.039,-1.953,405.762
1742118512.993,999.512,54.199,-55.664,999.512
1742118512.997,182.617,-198.73,-111.328,282.227
1742118513.001,-1000.0,-155.762,-74.219,-1000.0
1742118513.005,-897.461,18.555,-38.574,-918.457
1742118513.008,554.199,91.309,-80.078,544.434
1742118513.012,999.512,-9.766,-103.027,999.512
1742118513.016,-33.203,-242.676,-100.098,57.617
1742118513.02,-1000.0,-232.91,-94.238,-965.82
1742118513.024,-1000.0,-121.582,-112.305,-1000.0
1742118513.024,-64.941,12.207,-103.027,-256.836
1742118513.028,999.512,146.484,-81.055,997.559
1742118513.032,873.047,32.715,-52.734,939.453
1742118513.036,-569.336,-260.742,-68.848,-500.977
1742118513.04,-1000.0,-188.477,-44.434,-1000.0
1742118513.044,215.82,190.43,22.949,113.77
1742118513.048,999.512,148.438,-8.789,999.512
1742118513.051,598.145,-151.367,-60.547,638.184
1742118513.055,-892.578,-272.461,-57.617,-837.402
1742118513.059,-959.473,-6.348,-30.273,-999.512
1742118513.063,531.25,299.805,21.484,479.004
1742118513.067,999.512,160.156,26.367,999.512
1742118513.024,-64.941,12.207,-103.027,-256.836
1742118513.028,999.512,146.484,-81.055,997.559
1742118513.032,873.047,32.715,-52.734,939.453
1742118513.036,-569.336,-260.742,-68.848,-500.977
1742118513.04,-1000.0,-188.477,-44.434,-1000.0
1742118513.044,215.82,190.43,22.949,113.77
1742118513.048,999.512,148.438,-8.789,999.512
1742118513.051,598.145,-151.367,-60.547,638.184
1742118513.055,-892.578,-272.461,-57.617,-837.402
1742118513.059,-959.473,-6.348,-30.273,-999.512
1742118513.063,531.25,299.805,21.484,479.004
1742118513.067,999.512,160.156,26.367,999.512
1742118513.083,467.773,-98.633,-23.926,531.25
1742118513.087,-951.66,-155.762,-28.32,-875.488
1742118513.091,-916.504,22.949,3.906,-961.914
1742118513.095,553.711,263.672,29.785,510.742
1742118513.099,999.512,174.805,30.273,999.512
1742118513.103,720.215,-5.859,21.484,724.609
1742118513.107,-568.848,-163.086,0.488,-566.895
1742118513.11,-1000.0,-160.645,-5.859,-1000.0
1742118513.114,-718.262,-54.688,6.348,-749.023
1742118513.118,682.617,105.469,-2.441,616.699
1742118513.122,999.512,28.32,-25.391,999.512
1742118513.126,-231.934,-190.918,-15.137,-101.074
1742118513.083,467.773,-98.633,-23.926,531.25
1742118513.087,-951.66,-155.762,-28.32,-875.488
1742118513.091,-916.504,22.949,3.906,-961.914
1742118513.095,553.711,263.672,29.785,510.742
1742118513.099,999.512,174.805,30.273,999.512
1742118513.103,720.215,-5.859,21.484,724.609
1742118513.107,-568.848,-163.086,0.488,-566.895
1742118513.11,-1000.0,-160.645,-5.859,-1000.0
1742118513.114,-718.262,-54.688,6.348,-749.023
1742118513.118,682.617,105.469,-2.441,616.699
1742118513.122,999.512,28.32,-25.391,999.512
1742118513.126,-231.934,-190.918,-15.137,-101.074
1742118513.128,-1000.0,-202.148,0.977,-1000.0
1742118513.132,-840.332,-8.301,16.113,-840.332
1742118513.136,566.406,186.523,23.438,571.289
1742118513.14,999.512,89.844,1.953,999.512
1742118513.144,-187.5,-126.953,-24.902,6.348
1742118513.148,-1000.0,-82.031,-31.738,-1000.0
1742118513.152,-806.641,10.254,-13.672,-820.312
1742118513.155,532.227,144.043,20.02,565.43
1742118513.159,999.512,50.781,11.23,999.512
1742118513.163,341.797,-109.375,17.578,389.648
1742118513.167,-974.609,-150.391,38.574,-901.855
1742118513.171,-984.375,-20.02,45.898,-1000.0
1742118513.175,388.184,202.637,53.223,281.738
1742118513.179,999.512,135.742,29.297,999.512
1742118513.183,493.652,-139.16,-43.945,517.578
1742118513.187,-941.895,-284.18,-64.941,-895.508
1742118513.191,-957.52,-103.516,2.441,-996.582
1742118513.195,590.332,235.84,26.855,520.996
1742118513.199,999.512,78.125,-27.344,999.512
1742118513.202,-118.164,-316.406,-54.688,4.883
1742118513.206,-1000.0,-330.078,-35.645,-1000.0
1742118513.21,-827.637,-36.621,-2.93,-831.543
1742118513.214,569.336,64.941,-10.742,579.102
1742118513.218,999.512,-98.633,-37.109,999.512
1742118513.175,388.184,202.637,53.223,281.738
1742118513.179,999.512,135.742,29.297,999.512
1742118513.183,493.652,-139.16,-43.945,517.578
1742118513.187,-941.895,-284.18,-64.941,-895.508
1742118513.191,-957.52,-103.516,2.441,-996.582
1742118513.195,590.332,235.84,26.855,520.996
1742118513.199,999.512,78.125,-27.344,999.512
1742118513.202,-118.164,-316.406,-54.688,4.883
1742118513.206,-1000.0,-330.078,-35.645,-1000.0
1742118513.21,-827.637,-36.621,-2.93,-831.543
1742118513.214,569.336,64.941,-10.742,579.102
1742118513.218,999.512,-98.633,-37.109,999.512
1742118513.219,5.371,-285.156,-47.363,142.578
1742118513.223,-1000.0,-304.688,-41.504,-1000.0
1742118513.227,-843.262,-103.027,-23.438,-881.348
1742118513.231,517.09,70.312,2.441,510.742
1742118513.235,999.512,13.672,24.902,999.512
1742118513.239,697.754,-133.301,-0.488,698.73
1742118513.243,-600.586,-297.363,-23.926,-586.914
1742118513.246,-1000.0,-285.645,-52.734,-1000.0
1742118513.25,-766.602,-181.641,-78.613,-768.555
1742118513.254,547.852,23.926,-36.621,542.48
1742118513.258,999.512,-48.34,-27.832,999.512
1742118513.262,279.785,-234.863,-24.902,363.77
1742118513.219,5.371,-285.156,-47.363,142.578
1742118513.223,-1000.0,-304.688,-41.504,-1000.0
1742118513.227,-843.262,-103.027,-23.438,-881.348
1742118513.231,517.09,70.312,2.441,510.742
1742118513.235,999.512,13.672,24.902,999.512
1742118513.239,697.754,-133.301,-0.488,698.73
1742118513.243,-600.586,-297.363,-23.926,-586.914
1742118513.246,-1000.0,-285.645,-52.734,-1000.0
1742118513.25,-766.602,-181.641,-78.613,-768.555
1742118513.254,547.852,23.926,-36.621,542.48
1742118513.258,999.512,-48.34,-27.832,999.512
1742118513.262,279.785,-234.863,-24.902,363.77
1742118513.265,-1000.0,-312.988,-30.762,-916.992
1742118513.269,-954.59,-180.664,-40.527,-1000.0
1742118513.273,417.969,119.141,-36.621,344.727
1742118513.277,999.512,62.5,-77.637,999.512
1742118513.281,583.496,-99.609,-87.402,567.383
1742118513.285,-835.938,-45.41,-53.223,-772.949
1742118513.289,-1000.0,33.691,-64.453,-1000.0
1742118513.292,367.676,173.828,-54.199,254.395
1742118513.296,999.512,152.344,-60.059,999.512
