timestamps,TP9,AF7,AF8,TP10
1742118447.56,914.062,-292.969,-1000.0,919.922
1742118447.563,898.438,-176.27,-1000.0,902.832
1742118447.567,999.512,18.555,-1000.0,999.512
1742118447.571,479.492,-330.566,-1000.0,538.086
1742118447.575,-943.359,-698.73,-1000.0,-879.883
1742118447.579,-973.145,-19.043,-997.559,-982.91
1742118447.579,-1000.0,-178.711,-1000.0,-1000.0
1742118447.583,-255.859,208.496,-956.055,-302.734
1742118447.587,999.512,767.09,-793.457,999.512
1742118447.591,953.613,-97.168,-713.867,962.402
1742118447.595,937.988,-249.512,-795.41,933.105
1742118447.599,911.133,9.277,-812.012,916.016
1742118447.603,999.512,37.598,-636.719,999.512
1742118447.606,187.012,-499.023,-587.402,154.785
1742118447.61,-1000.0,-647.461,-608.398,-1000.0
1742118447.614,-910.645,-24.414,-434.57,-907.715
1742118447.618,-1000.0,-10.254,-494.141,-1000.0
1742118447.622,-461.426,352.051,-576.172,-497.07
1742118447.579,-1000.0,-178.711,-1000.0,-1000.0
1742118447.583,-255.859,208.496,-956.055,-302.734
1742118447.587,999.512,767.09,-793.457,999.512
1742118447.591,953.613,-97.168,-713.867,962.402
1742118447.595,937.988,-249.512,-795.41,933.105
1742118447.599,911.133,9.277,-812.012,916.016
1742118447.603,999.512,37.598,-636.719,999.512
1742118447.606,187.012,-499.023,-587.402,154.785
1742118447.61,-1000.0,-647.461,-608.398,-1000.0
1742118447.614,-910.645,-24.414,-434.57,-907.715
1742118447.618,-1000.0,-10.254,-494.141,-1000.0
1742118447.622,-461.426,352.051,-576.172,-497.07
1742118447.628,875.0,616.699,-473.633,844.238
1742118447.632,999.512,211.914,-328.125,999.512
1742118447.636,172.852,-493.164,-353.516,170.898
1742118447.64,-1000.0,-658.691,-363.281,-1000.0
1742118447.644,-998.047,77.148,-286.133,-997.07
1742118447.648,-899.414,171.387,-417.48,-905.762
1742118447.652,-1000.0,-112.793,-305.176,-1000.0
1742118447.655,-389.648,147.461,-164.551,-416.504
1742118447.659,970.703,644.531,-202.637,928.223
1742118447.663,991.699,149.414,-116.211,999.512
1742118447.667,875.977,-45.41,-131.836,875.488
1742118447.671,999.512,69.336,-165.039,999.512
1742118447.684,866.211,-39.062,-63.477,808.594
1742118447.688,-512.695,-484.863,-5.859,-528.32
1742118447.692,-1000.0,2.93,-77.148,-1000.0
1742118447.696,-933.594,293.457,-181.152,-940.918
1742118447.7,-1000.0,-83.008,-51.27,-1000.0
1742118447.704,-1000.0,68.359,-8.301,-1000.0
1742118447.708,-1000.0,131.836,-97.656,-1000.0
1742118447.711,-1000.0,-116.699,-257.324,-1000.0
1742118447.715,-1000.0,-182.129,-273.926,-1000.0
1742118447.719,-971.68,-68.359,-314.941,-980.469
1742118447.723,-989.258,97.168,-332.52,-973.145
1742118447.727,-1000.0,-28.32,-243.164,-1000.0
1742118447.684,866.211,-39.062,-63.477,808.594
1742118447.688,-512.695,-484.863,-5.859,-528.32
1742118447.692,-1000.0,2.93,-77.148,-1000.0
1742118447.696,-933.594,293.457,-181.152,-940.918
1742118447.7,-1000.0,-83.008,-51.27,-1000.0
1742118447.704,-1000.0,68.359,-8.301,-1000.0
1742118447.708,-1000.0,131.836,-97.656,-1000.0
1742118447.711,-1000.0,-116.699,-257.324,-1000.0
1742118447.715,-1000.0,-182.129,-273.926,-1000.0
1742118447.719,-971.68,-68.359,-314.941,-980.469
1742118447.723,-989.258,97.168,-332.52,-973.145
1742118447.727,-1000.0,-28.32,-243.164,-1000.0
1742118447.744,207.52,385.742,-266.602,87.402
1742118447.748,999.512,412.109,-171.875,999.512
1742118447.752,999.512,2.93,-161.621,999.512
1742118447.756,236.816,-531.738,-237.305,221.191
1742118447.76,-1000.0,-686.035,-342.773,-1000.0
1742118447.764,-992.188,163.574,-372.07,-991.211
1742118447.768,-969.238,173.828,-232.91,-969.727
1742118447.771,-1000.0,-166.992,-315.43,-1000.0
1742118447.775,-960.938,-126.465,-296.875,-974.121
1742118447.779,-1000.0,-59.57,-256.836,-986.816
1742118447.783,-976.074,24.902,-331.055,-1000.0
1742118447.787,326.172,509.766,-318.848,142.578
1742118447.744,207.52,385.742,-266.602,87.402
1742118447.748,999.512,412.109,-171.875,999.512
1742118447.752,999.512,2.93,-161.621,999.512
1742118447.756,236.816,-531.738,-237.305,221.191
1742118447.76,-1000.0,-686.035,-342.773,-1000.0
1742118447.764,-992.188,163.574,-372.07,-991.211
1742118447.768,-969.238,173.828,-232.91,-969.727
1742118447.771,-1000.0,-166.992,-315.43,-1000.0
1742118447.775,-960.938,-126.465,-296.875,-974.121
1742118447.779,-1000.0,-59.57,-256.836,-986.816
1742118447.783,-976.074,24.902,-331.055,-1000.0
1742118447.787,326.172,509.766,-318.848,142.578
1742118447.775,999.512,295.41,-210.938,999.512
1742118447.779,987.793,-21.484,-224.609,885.254
1742118447.783,-27.344,-265.137,-315.43,-217.773
1742118447.787,-1000.0,-481.445,-346.68,-1000.0
1742118447.791,-712.891,21.484,-297.363,-678.223
1742118447.795,671.875,638.672,-395.02,677.246
1742118447.799,999.512,47.852,-348.633,999.512
1742118447.802,902.344,-324.219,-150.391,906.738
1742118447.806,980.957,212.402,-155.273,979.004
1742118447.81,903.809,-17.09,-190.918,906.25
1742118447.814,999.512,-144.043,-224.121,999.512
1742118447.818,177.246,-452.148,-209.473,162.109
1742118447.775,999.512,295.41,-210.938,999.512
1742118447.779,987.793,-21.484,-224.609,885.254
1742118447.783,-27.344,-265.137,-315.43,-217.773
1742118447.787,-1000.0,-481.445,-346.68,-1000.0
1742118447.791,-712.891,21.484,-297.363,-678.223
1742118447.795,671.875,638.672,-395.02,677.246
1742118447.799,999.512,47.852,-348.633,999.512
1742118447.802,902.344,-324.219,-150.391,906.738
1742118447.806,980.957,212.402,-155.273,979.004
1742118447.81,903.809,-17.09,-190.918,906.25
1742118447.814,999.512,-144.043,-224.121,999.512
1742118447.818,177.246,-452.148,-209.473,162.109
1742118447.834,-1000.0,-662.598,-370.117,-1000.0
1742118447.838,-960.938,-64.453,-317.383,-978.027
1742118447.842,-1000.0,45.898,-199.707,-977.539
1742118447.846,97.656,524.902,-145.996,184.082
1742118447.85,999.512,466.797,-20.02,999.512
1742118447.854,917.48,-196.777,-54.688,878.906
1742118447.858,-333.984,-563.477,-127.441,-359.375
1742118447.861,-1000.0,-337.891,-287.598,-1000.0
1742118447.865,-922.852,-26.855,-214.844,-930.664
1742118447.869,-962.891,-33.691,-117.676,-957.031
1742118447.873,-1000.0,-19.531,-84.473,-1000.0
1742118447.877,-7.812,528.809,-56.152,-65.918
1742118447.864,999.512,218.75,-86.426,999.512
1742118447.868,859.375,-200.684,-67.383,872.07
1742118447.872,999.512,362.793,-136.719,999.512
1742118447.876,188.965,-371.582,-168.945,160.156
1742118447.88,-1000.0,-604.492,-214.844,-1000.0
1742118447.884,-983.887,292.48,-142.09,-979.98
1742118447.888,-973.145,-14.16,-19.531,-975.098
1742118447.891,-1000.0,-240.723,-78.613,-1000.0
1742118447.895,-985.84,-83.008,-252.93,-991.211
1742118447.899,-960.938,47.363,-262.695,-953.613
1742118447.903,-1000.0,9.277,-201.66,-1000.0
1742118447.907,-59.082,468.75,-247.559,-144.531
1742118447.864,999.512,218.75,-86.426,999.512
1742118447.868,859.375,-200.684,-67.383,872.07
1742118447.872,999.512,362.793,-136.719,999.512
1742118447.876,188.965,-371.582,-168.945,160.156
1742118447.88,-1000.0,-604.492,-214.844,-1000.0
1742118447.884,-983.887,292.48,-142.09,-979.98
1742118447.888,-973.145,-14.16,-19.531,-975.098
1742118447.891,-1000.0,-240.723,-78.613,-1000.0
1742118447.895,-985.84,-83.008,-252.93,-991.211
1742118447.899,-960.938,47.363,-262.695,-953.613
1742118447.903,-1000.0,9.277,-201.66,-1000.0
1742118447.907,-59.082,468.75,-247.559,-144.531
1742118447.912,999.512,560.059,-172.852,999.512
1742118447.916,526.855,-206.055,-183.105,423.828
1742118447.92,-870.605,-522.461,-276.367,-936.523
1742118447.924,-1000.0,168.945,-393.066,-983.887
1742118447.928,-1000.0,456.055,-349.121,-1000.0
1742118447.932,-77.637,581.055,-224.121,-87.891
1742118447.936,999.512,522.949,-282.227,999.512
1742118447.939,999.512,272.461,-271.973,999.512
1742118447.943,171.387,-48.34,-306.641,151.855
1742118447.947,-1000.0,-60.059,-151.367,-1000.0
1742118447.951,-991.211,495.117,-19.531,-988.281
1742118447.955,-944.336,430.176,-180.176,-945.801
1742118447.954,-995.117,394.043,-207.52,-997.559
1742118447.958,-1000.0,326.66,-174.805,-1000.0
1742118447.962,205.566,640.625,-309.082,205.566
1742118447.966,999.512,587.402,-337.402,999.512
1742118447.97,904.297,321.777,-327.148,909.18
1742118447.974,967.773,266.602,-273.438,967.285
1742118447.978,964.844,152.344,-136.719,965.332
1742118447.981,906.25,110.84,-241.211,908.691
1742118447.985,999.512,345.703,-236.816,999.512
1742118447.989,151.855,-276.367,-184.082,140.137
1742118447.993,-1000.0,-389.16,-318.848,-1000.0
1742118447.997,-979.004,221.68,-368.652,-978.027
1742118448.001,-975.586,251.953,-229.004,-975.586
1742118448.005,-1000.0,140.137,-250.488,-1000.0
1742118448.009,-1000.0,169.434,-271.973,-1000.0
1742118448.013,-937.5,352.051,-287.598,-859.863
1742118448.017,-1000.0,180.176,-345.215,-1000.0
1742118448.021,-219.238,595.703,-350.098,-245.605
1742118448.025,999.512,767.578,-325.195,999.512
1742118448.028,902.832,83.496,-282.715,924.805
1742118448.032,999.512,-75.684,-181.641,999.512
1742118448.036,33.691,-477.051,-155.273,-50.781
1742118448.04,-1000.0,-230.957,-178.711,-1000.0
1742118448.044,-1000.0,145.02,-208.496,-1000.0
1742118448.001,-975.586,251.953,-229.004,-975.586
1742118448.005,-1000.0,140.137,-250.488,-1000.0
1742118448.009,-1000.0,169.434,-271.973,-1000.0
1742118448.013,-937.5,352.051,-287.598,-859.863
1742118448.017,-1000.0,180.176,-345.215,-1000.0
1742118448.021,-219.238,595.703,-350.098,-245.605
1742118448.025,999.512,767.578,-325.195,999.512
1742118448.028,902.832,83.496,-282.715,924.805
1742118448.032,999.512,-75.684,-181.641,999.512
1742118448.036,33.691,-477.051,-155.273,-50.781
1742118448.04,-1000.0,-230.957,-178.711,-1000.0
1742118448.044,-1000.0,145.02,-208.496,-1000.0
1742118448.06,-67.383,287.598,-260.742,10.742
1742118448.064,999.512,478.027,-259.277,999.512
1742118448.068,999.512,233.398,-272.461,980.469
1742118448.072,-44.434,-366.699,-230.957,-149.414
1742118448.076,-1000.0,-399.902,-255.371,-1000.0
1742118448.08,-970.215,199.707,-192.383,-964.844
1742118448.084,-932.129,-84.961,-62.5,-946.289
1742118448.087,-1000.0,-301.758,-153.32,-1000.0
1742118448.091,-827.148,162.109,-193.359,-910.156
1742118448.095,582.52,532.227,-171.387,438.965
1742118448.099,999.512,46.387,-117.676,999.512
1742118448.103,999.512,16.113,-168.457,999.512
1742118448.06,-67.383,287.598,-260.742,10.742
1742118448.064,999.512,478.027,-259.277,999.512
1742118448.068,999.512,233.398,-272.461,980.469
1742118448.072,-44.434,-366.699,-230.957,-149.414
1742118448.076,-1000.0,-399.902,-255.371,-1000.0
1742118448.08,-970.215,199.707,-192.383,-964.844
1742118448.084,-932.129,-84.961,-62.5,-946.289
1742118448.087,-1000.0,-301.758,-153.32,-1000.0
1742118448.091,-827.148,162.109,-193.359,-910.156
1742118448.095,582.52,532.227,-171.387,438.965
1742118448.099,999.512,46.387,-117.676,999.512
1742118448.103,999.512,16.113,-168.457,999.512
1742118448.104,224.609,-312.5,-140.137,158.691
1742118448.108,-1000.0,-500.488,83.496,-1000.0
1742118448.112,-1000.0,-115.234,57.129,-976.074
1742118448.116,171.875,417.48,-71.289,240.234
1742118448.12,999.512,338.379,-21.484,999.512
1742118448.124,999.512,-44.922,-40.527,946.289
1742118448.128,-41.016,-331.055,12.207,-155.273
1742118448.131,-1000.0,-451.172,-37.109,-1000.0
1742118448.135,-955.078,-137.207,-233.398,-955.078
1742118448.139,-991.211,73.73,-72.754,-997.559
1742118448.143,-938.477,185.059,-13.672,-935.059
1742118448.147,-1000.0,0.488,-91.309,-1000.0
1742118448.104,224.609,-312.5,-140.137,158.691
1742118448.108,-1000.0,-500.488,83.496,-1000.0
1742118448.112,-1000.0,-115.234,57.129,-976.074
1742118448.116,171.875,417.48,-71.289,240.234
1742118448.12,999.512,338.379,-21.484,999.512
1742118448.124,999.512,-44.922,-40.527,946.289
1742118448.128,-41.016,-331.055,12.207,-155.273
1742118448.131,-1000.0,-451.172,-37.109,-1000.0
1742118448.135,-955.078,-137.207,-233.398,-955.078
1742118448.139,-991.211,73.73,-72.754,-997.559
1742118448.143,-938.477,185.059,-13.672,-935.059
1742118448.147,-1000.0,0.488,-91.309,-1000.0
1742118448.149,-238.77,374.023,-245.117,-310.059
1742118448.153,968.262,552.246,-263.672,944.336
1742118448.157,999.512,270.996,-203.125,999.512
1742118448.161,158.203,-412.598,-186.035,135.254
1742118448.165,-1000.0,-471.191,-24.414,-1000.0
1742118448.169,-1000.0,66.406,-19.531,-1000.0
1742118448.173,-176.758,335.449,-97.656,-145.02
1742118448.176,999.512,445.801,-218.262,999.512
1742118448.18,884.277,-128.418,-195.312,878.906
1742118448.184,999.512,107.422,62.012,999.512
1742118448.188,204.59,-361.328,-100.098,240.723
1742118448.192,-1000.0,-582.031,-274.902,-1000.0
1742118448.149,-238.77,374.023,-245.117,-310.059
1742118448.153,968.262,552.246,-263.672,944.336
1742118448.157,999.512,270.996,-203.125,999.512
1742118448.161,158.203,-412.598,-186.035,135.254
1742118448.165,-1000.0,-471.191,-24.414,-1000.0
1742118448.169,-1000.0,66.406,-19.531,-1000.0
1742118448.173,-176.758,335.449,-97.656,-145.02
1742118448.176,999.512,445.801,-218.262,999.512
1742118448.18,884.277,-128.418,-195.312,878.906
1742118448.184,999.512,107.422,62.012,999.512
1742118448.188,204.59,-361.328,-100.098,240.723
1742118448.192,-1000.0,-582.031,-274.902,-1000.0
1742118448.197,-988.281,87.402,-186.523,-997.07
1742118448.201,-907.715,-92.285,-181.152,-901.855
1742118448.205,-1000.0,-173.828,-174.805,-1000.0
1742118448.209,-250.977,476.562,-122.559,-302.734
1742118448.213,999.512,729.492,-122.07,999.512
1742118448.217,883.789,76.172,-132.324,895.508
1742118448.221,999.512,110.84,-251.465,999.512
1742118448.224,350.586,-249.512,-133.789,348.633
1742118448.228,-1000.0,-789.062,77.148,-1000.0
1742118448.232,-999.512,-227.539,-58.594,-998.047
1742118448.236,-915.527,121.582,-172.363,-923.34
1742118448.24,-1000.0,117.188,-197.266,-1000.0
1742118448.197,-988.281,87.402,-186.523,-997.07
1742118448.201,-907.715,-92.285,-181.152,-901.855
1742118448.205,-1000.0,-173.828,-174.805,-1000.0
1742118448.209,-250.977,476.562,-122.559,-302.734
1742118448.213,999.512,729.492,-122.07,999.512
1742118448.217,883.789,76.172,-132.324,895.508
1742118448.221,999.512,110.84,-251.465,999.512
1742118448.224,350.586,-249.512,-133.789,348.633
1742118448.228,-1000.0,-789.062,77.148,-1000.0
1742118448.232,-999.512,-227.539,-58.594,-998.047
1742118448.236,-915.527,121.582,-172.363,-923.34
1742118448.24,-1000.0,117.188,-197.266,-1000.0
1742118448.254,-33.203,552.734,-81.543,-12.695
1742118448.258,999.512,335.938,-32.227,999.512
1742118448.262,862.305,150.391,-136.719,874.023
1742118448.266,999.512,270.02,-159.18,999.512
1742118448.27,176.758,-593.262,-181.152,119.629
1742118448.274,-1000.0,-387.207,-177.734,-1000.0
1742118448.278,-1000.0,131.348,-86.914,-1000.0
1742118448.281,-867.188,-43.457,-161.133,-833.496
1742118448.285,485.352,461.426,-156.738,505.859
1742118448.289,999.512,160.156,-76.172,999.512
1742118448.293,999.512,-31.25,-37.109,999.512
1742118448.297,281.738,-334.473,-100.098,302.246
1742118448.286,-1000.0,-562.012,-280.762,-1000.0
1742118448.29,-998.047,53.711,-165.039,-1000.0
1742118448.294,-966.797,-116.699,-62.012,-963.867
1742118448.298,-947.266,-83.008,-6.348,-949.707
1742118448.302,-1000.0,-25.391,-4.883,-1000.0
1742118448.306,-214.844,436.035,-197.754,-197.754
1742118448.31,976.074,749.512,-193.359,985.352
1742118448.313,999.512,236.816,-15.625,999.512
1742118448.317,186.523,-547.852,-212.402,148.926
1742118448.321,-1000.0,-611.816,-249.512,-1000.0
1742118448.325,-1000.0,223.145,-23.438,-990.234
1742118448.329,153.32,515.625,18.555,184.57
1742118448.286,-1000.0,-562.012,-280.762,-1000.0
1742118448.29,-998.047,53.711,-165.039,-1000.0
1742118448.294,-966.797,-116.699,-62.012,-963.867
1742118448.298,-947.266,-83.008,-6.348,-949.707
1742118448.302,-1000.0,-25.391,-4.883,-1000.0
1742118448.306,-214.844,436.035,-197.754,-197.754
1742118448.31,976.074,749.512,-193.359,985.352
1742118448.313,999.512,236.816,-15.625,999.512
1742118448.317,186.523,-547.852,-212.402,148.926
1742118448.321,-1000.0,-611.816,-249.512,-1000.0
1742118448.325,-1000.0,223.145,-23.438,-990.234
1742118448.329,153.32,515.625,18.555,184.57
1742118448.329,999.512,551.27,4.883,999.512
1742118448.333,801.27,206.055,-127.93,750.488
1742118448.337,-520.996,-395.996,-179.199,-548.34
1742118448.341,-1000.0,-179.688,-98.633,-1000.0
1742118448.345,-1000.0,129.883,-80.078,-1000.0
1742118448.349,-226.562,645.508,-126.953,-161.133
1742118448.353,999.512,640.137,-82.52,999.512
1742118448.356,962.891,28.809,-10.742,955.566
1742118448.36,864.746,261.23,-12.695,874.512
1742118448.364,999.512,443.848,-20.508,999.512
1742118448.368,493.164,-72.266,-74.219,530.273
1742118448.372,-934.57,-423.828,-109.863,-884.766
1742118448.329,999.512,551.27,4.883,999.512
1742118448.333,801.27,206.055,-127.93,750.488
1742118448.337,-520.996,-395.996,-179.199,-548.34
1742118448.341,-1000.0,-179.688,-98.633,-1000.0
1742118448.345,-1000.0,129.883,-80.078,-1000.0
1742118448.349,-226.562,645.508,-126.953,-161.133
1742118448.353,999.512,640.137,-82.52,999.512
1742118448.356,962.891,28.809,-10.742,955.566
1742118448.36,864.746,261.23,-12.695,874.512
1742118448.364,999.512,443.848,-20.508,999.512
1742118448.368,493.164,-72.266,-74.219,530.273
1742118448.372,-934.57,-423.828,-109.863,-884.766
1742118448.376,-1000.0,255.859,-108.887,-1000.0
1742118448.38,-886.23,360.84,-70.312,-906.738
1742118448.384,-1000.0,141.113,-101.074,-1000.0
1742118448.388,-212.891,516.602,-139.16,-63.477
1742118448.392,999.512,719.238,-147.949,999.512
1742118448.396,915.527,404.785,-180.176,906.25
1742118448.4,937.988,296.387,19.531,951.66
1742118448.403,999.512,44.922,65.43,963.867
1742118448.407,-296.875,-434.57,-138.184,-307.129
1742118448.411,-1000.0,-371.094,-250.977,-1000.0
1742118448.415,-936.523,20.02,-297.363,-942.383
1742118448.419,-1000.0,395.508,-273.926,-1000.0
1742118448.434,-1000.0,229.492,-84.961,-1000.0
1742118448.438,-1000.0,-93.262,-19.531,-1000.0
1742118448.442,-927.734,316.406,-113.77,-938.965
1742118448.446,-1000.0,-75.195,-218.262,-1000.0
1742118448.45,-599.121,50.293,-234.863,-756.348
1742118448.454,847.168,852.539,-63.965,665.039
1742118448.458,993.164,161.133,1.953,999.512
1742118448.461,895.508,-136.23,31.25,902.344
1742118448.465,999.512,58.105,-4.883,970.703
1742118448.469,-152.344,-496.582,-92.285,-192.871
1742118448.473,-1000.0,-281.25,-195.312,-1000.0
1742118448.477,-292.48,604.004,-107.422,-297.363
1742118448.434,-1000.0,229.492,-84.961,-1000.0
1742118448.438,-1000.0,-93.262,-19.531,-1000.0
1742118448.442,-927.734,316.406,-113.77,-938.965
1742118448.446,-1000.0,-75.195,-218.262,-1000.0
1742118448.45,-599.121,50.293,-234.863,-756.348
1742118448.454,847.168,852.539,-63.965,665.039
1742118448.458,993.164,161.133,1.953,999.512
1742118448.461,895.508,-136.23,31.25,902.344
1742118448.465,999.512,58.105,-4.883,970.703
1742118448.469,-152.344,-496.582,-92.285,-192.871
1742118448.473,-1000.0,-281.25,-195.312,-1000.0
1742118448.477,-292.48,604.004,-107.422,-297.363
1742118448.48,934.082,708.008,44.922,964.355
1742118448.484,999.512,100.586,-7.324,999.512
1742118448.488,76.172,-371.094,-14.648,-80.566
1742118448.492,-1000.0,-357.422,-226.562,-1000.0
1742118448.496,-974.121,225.586,-299.805,-966.309
1742118448.5,-993.164,411.133,0.488,-998.047
1742118448.504,-942.383,94.727,6.836,-951.172
1742118448.507,-1000.0,-87.891,-110.352,-1000.0
1742118448.511,-754.395,160.645,-70.312,-844.238
1742118448.515,676.758,739.746,-34.668,541.992
1742118448.519,999.512,337.891,-198.73,999.512
1742118448.523,834.473,-112.305,-181.641,834.473
1742118448.48,934.082,708.008,44.922,964.355
1742118448.484,999.512,100.586,-7.324,999.512
1742118448.488,76.172,-371.094,-14.648,-80.566
1742118448.492,-1000.0,-357.422,-226.562,-1000.0
1742118448.496,-974.121,225.586,-299.805,-966.309
1742118448.5,-993.164,411.133,0.488,-998.047
1742118448.504,-942.383,94.727,6.836,-951.172
1742118448.507,-1000.0,-87.891,-110.352,-1000.0
1742118448.511,-754.395,160.645,-70.312,-844.238
1742118448.515,676.758,739.746,-34.668,541.992
1742118448.519,999.512,337.891,-198.73,999.512
1742118448.523,834.473,-112.305,-181.641,834.473
1742118448.524,999.512,244.629,-18.066,999.512
1742118448.528,277.344,-247.559,12.207,295.41
1742118448.532,-1000.0,-313.477,-15.625,-1000.0
1742118448.536,-1000.0,251.465,-45.41,-1000.0
1742118448.54,-899.414,306.641,-122.559,-904.785
1742118448.544,-1000.0,125.0,-329.102,-1000.0
1742118448.548,-716.797,230.469,-215.82,-769.531
1742118448.551,722.168,683.105,-33.203,636.719
1742118448.555,999.512,136.719,44.922,999.512
1742118448.559,903.809,-70.801,66.895,904.297
1742118448.563,981.934,159.668,-136.719,980.957
1742118448.567,903.32,101.562,-198.242,902.832
1742118448.524,999.512,244.629,-18.066,999.512
1742118448.528,277.344,-247.559,12.207,295.41
1742118448.532,-1000.0,-313.477,-15.625,-1000.0
1742118448.536,-1000.0,251.465,-45.41,-1000.0
1742118448.54,-899.414,306.641,-122.559,-904.785
1742118448.544,-1000.0,125.0,-329.102,-1000.0
1742118448.548,-716.797,230.469,-215.82,-769.531
1742118448.551,722.168,683.105,-33.203,636.719
1742118448.555,999.512,136.719,44.922,999.512
1742118448.559,903.809,-70.801,66.895,904.297
1742118448.563,981.934,159.668,-136.719,980.957
1742118448.567,903.32,101.562,-198.242,902.832
1742118448.569,999.512,59.57,-196.289,999.512
1742118448.573,187.012,-458.008,-48.828,208.496
1742118448.577,-1000.0,-512.207,82.031,-1000.0
1742118448.581,-984.863,177.246,-37.598,-984.375
1742118448.585,-910.156,25.879,-73.242,-916.016
1742118448.589,-1000.0,140.625,9.277,-1000.0
1742118448.593,-220.703,621.094,-30.273,-160.645
1742118448.596,999.512,310.059,-142.578,999.512
1742118448.6,950.684,-208.984,-175.781,946.777
1742118448.604,936.523,7.324,-27.344,935.547
1742118448.608,915.039,118.652,56.152,925.293
1742118448.612,999.512,152.344,-10.254,999.512
1742118448.614,126.953,-410.645,-57.129,59.082
1742118448.618,-1000.0,-487.793,-11.719,-1000.0
1742118448.622,-950.684,95.703,-164.062,-954.59
1742118448.626,-1000.0,-98.633,-198.242,-1000.0
1742118448.63,83.984,409.18,-12.207,98.633
1742118448.634,999.512,483.398,-3.906,999.512
1742118448.638,971.191,-57.129,73.73,878.906
1742118448.641,-226.562,-410.645,91.797,-363.281
1742118448.645,-1000.0,-256.348,17.09,-1000.0
1742118448.649,-891.113,64.453,-38.574,-895.508
1742118448.653,-1000.0,-56.641,-32.715,-1000.0
1742118448.657,-907.227,221.191,-98.633,-880.859
1742118448.66,469.727,577.637,-84.473,455.566
1742118448.664,999.512,372.07,43.945,999.512
1742118448.668,833.496,-12.695,84.961,837.891
1742118448.672,999.512,158.691,81.055,999.512
1742118448.676,241.211,-266.113,25.879,287.109
1742118448.68,-1000.0,-563.477,-57.617,-1000.0
1742118448.684,-958.008,107.91,8.789,-989.746
1742118448.687,-1000.0,100.586,154.297,-980.957
1742118448.691,36.621,569.336,16.602,144.531
1742118448.695,999.512,472.656,-31.25,999.512
1742118448.699,916.504,143.066,182.129,920.41
1742118448.703,973.145,427.246,274.414,973.145
1742118448.66,469.727,577.637,-84.473,455.566
1742118448.664,999.512,372.07,43.945,999.512
1742118448.668,833.496,-12.695,84.961,837.891
1742118448.672,999.512,158.691,81.055,999.512
1742118448.676,241.211,-266.113,25.879,287.109
1742118448.68,-1000.0,-563.477,-57.617,-1000.0
1742118448.684,-958.008,107.91,8.789,-989.746
1742118448.687,-1000.0,100.586,154.297,-980.957
1742118448.691,36.621,569.336,16.602,144.531
1742118448.695,999.512,472.656,-31.25,999.512
1742118448.699,916.504,143.066,182.129,920.41
1742118448.703,973.145,427.246,274.414,973.145
1742118448.705,902.832,296.875,302.734,916.016
1742118448.709,999.512,346.191,296.387,999.512
1742118448.713,683.105,209.473,284.668,793.945
1742118448.717,-666.992,-503.418,240.234,-513.672
1742118448.721,-1000.0,-26.855,92.285,-1000.0
1742118448.725,-639.16,578.125,195.801,-521.484
1742118448.729,727.539,689.453,325.195,797.852
1742118448.732,999.512,360.84,229.004,999.512
1742118448.736,866.699,129.395,242.188,875.977
1742118448.74,999.512,211.914,199.219,999.512
1742118448.744,-56.152,-158.691,130.371,0.0
1742118448.748,-1000.0,-100.098,250.0,-1000.0
1742118448.705,902.832,296.875,302.734,916.016
1742118448.709,999.512,346.191,296.387,999.512
1742118448.713,683.105,209.473,284.668,793.945
1742118448.717,-666.992,-503.418,240.234,-513.672
1742118448.721,-1000.0,-26.855,92.285,-1000.0
1742118448.725,-639.16,578.125,195.801,-521.484
1742118448.729,727.539,689.453,325.195,797.852
1742118448.732,999.512,360.84,229.004,999.512
1742118448.736,866.699,129.395,242.188,875.977
1742118448.74,999.512,211.914,199.219,999.512
1742118448.744,-56.152,-158.691,130.371,0.0
1742118448.748,-1000.0,-100.098,250.0,-1000.0
1742118448.752,-964.355,313.477,242.676,-977.051
1742118448.756,-917.969,72.754,154.297,-912.598
1742118448.76,-1000.0,25.391,63.477,-1000.0
1742118448.764,-412.109,482.91,21.484,-413.574
1742118448.768,962.402,758.301,219.238,956.543
1742118448.772,982.91,327.148,360.352,984.863
1742118448.776,923.828,179.199,225.098,924.316
1742118448.779,982.91,113.77,187.012,986.328
1742118448.783,898.926,11.23,206.543,896.973
1742118448.787,999.512,238.281,219.727,999.512
1742118448.791,263.672,-274.902,281.738,331.055
1742118448.795,-1000.0,-553.223,240.723,-1000.0
1742118448.752,-964.355,313.477,242.676,-977.051
1742118448.756,-917.969,72.754,154.297,-912.598
1742118448.76,-1000.0,25.391,63.477,-1000.0
1742118448.764,-412.109,482.91,21.484,-413.574
1742118448.768,962.402,758.301,219.238,956.543
1742118448.772,982.91,327.148,360.352,984.863
1742118448.776,923.828,179.199,225.098,924.316
1742118448.779,982.91,113.77,187.012,986.328
1742118448.783,898.926,11.23,206.543,896.973
1742118448.787,999.512,238.281,219.727,999.512
1742118448.791,263.672,-274.902,281.738,331.055
1742118448.795,-1000.0,-553.223,240.723,-1000.0
1742118448.809,-935.547,215.332,187.012,-950.684
1742118448.813,-1000.0,91.309,236.816,-1000.0
1742118448.817,-210.938,498.047,260.254,-186.523
1742118448.821,999.512,518.066,222.168,999.512
1742118448.825,947.266,63.477,309.082,944.824
1742118448.829,940.43,371.582,327.148,942.871
1742118448.833,972.656,328.613,282.227,972.656
1742118448.836,966.309,13.672,235.84,966.797
1742118448.84,966.309,4.883,231.934,966.797
1742118448.844,966.309,10.742,335.449,967.285
1742118448.848,968.75,40.527,311.523,971.191
1742118448.852,901.367,36.621,270.508,899.902
1742118448.809,-935.547,215.332,187.012,-950.684
1742118448.813,-1000.0,91.309,236.816,-1000.0
1742118448.817,-210.938,498.047,260.254,-186.523
1742118448.821,999.512,518.066,222.168,999.512
1742118448.825,947.266,63.477,309.082,944.824
1742118448.829,940.43,371.582,327.148,942.871
1742118448.833,972.656,328.613,282.227,972.656
1742118448.836,966.309,13.672,235.84,966.797
1742118448.84,966.309,4.883,231.934,966.797
1742118448.844,966.309,10.742,335.449,967.285
1742118448.848,968.75,40.527,311.523,971.191
1742118448.852,901.367,36.621,270.508,899.902
1742118448.854,999.512,208.496,323.73,999.512
1742118448.858,217.773,-201.66,342.773,262.207
1742118448.862,-1000.0,-469.238,347.168,-1000.0
1742118448.866,-931.152,296.875,363.77,-940.918
1742118448.87,-1000.0,287.109,328.613,-1000.0
1742118448.874,-176.758,560.547,266.113,-157.715
1742118448.878,999.512,523.926,95.703,999.512
1742118448.881,942.383,171.875,210.449,941.406
1742118448.885,942.871,139.648,358.887,944.824
1742118448.889,978.516,38.086,298.34,977.051
1742118448.893,938.477,128.418,250.0,945.312
1742118448.897,952.637,275.391,224.609,944.336
1742118448.854,999.512,208.496,323.73,999.512
1742118448.858,217.773,-201.66,342.773,262.207
1742118448.862,-1000.0,-469.238,347.168,-1000.0
1742118448.866,-931.152,296.875,363.77,-940.918
1742118448.87,-1000.0,287.109,328.613,-1000.0
1742118448.874,-176.758,560.547,266.113,-157.715
1742118448.878,999.512,523.926,95.703,999.512
1742118448.881,942.383,171.875,210.449,941.406
1742118448.885,942.871,139.648,358.887,944.824
1742118448.889,978.516,38.086,298.34,977.051
1742118448.893,938.477,128.418,250.0,945.312
1742118448.897,952.637,275.391,224.609,944.336
1742118448.9,999.512,271.973,214.844,999.512
1742118448.904,-223.633,-297.363,196.289,-144.531
1742118448.908,-1000.0,-47.363,142.09,-1000.0
1742118448.912,-940.43,270.02,65.43,-950.195
1742118448.916,-1000.0,139.648,169.922,-995.117
1742118448.92,-1000.0,221.191,292.969,-994.629
1742118448.924,-939.453,123.047,327.148,-940.43
1742118448.927,-1000.0,-19.043,291.992,-1000.0
1742118448.931,-201.172,376.953,175.293,-174.316
1742118448.935,999.512,650.879,115.723,999.512
1742118448.939,947.266,-50.293,71.289,944.824
1742118448.943,940.918,-198.73,18.066,942.871
1742118448.944,973.145,-153.32,77.148,977.051
1742118448.948,903.809,-203.613,74.219,900.391
1742118448.952,999.512,76.172,60.547,999.512
1742118448.956,185.059,-396.484,39.062,249.512
1742118448.96,-1000.0,-698.73,0.977,-1000.0
1742118448.964,-936.035,-136.23,3.906,-978.516
1742118448.968,-1000.0,-145.508,-69.336,-995.117
1742118448.971,-68.359,130.859,-65.43,104.492
1742118448.975,999.512,-90.332,-130.371,999.512
1742118448.979,928.223,-523.438,-232.91,924.805
1742118448.983,950.684,-144.043,-79.59,958.008
1742118448.987,973.145,182.129,98.145,973.145
1742118448.991,947.266,118.164,276.855,950.195
1742118448.995,934.082,11.23,292.48,934.57
1742118448.999,999.512,193.359,286.621,999.512
1742118449.003,-41.016,-448.73,282.715,-10.254
1742118449.007,-1000.0,-574.707,234.863,-1000.0
1742118449.011,-211.426,640.137,218.75,-219.238
1742118449.015,999.512,509.766,210.938,999.512
1742118449.018,955.566,-343.262,194.336,955.566
1742118449.022,935.547,-239.746,111.328,936.035
1742118449.026,989.258,-126.465,79.102,986.328
1742118449.03,900.391,-160.645,67.871,909.18
1742118449.034,999.512,-126.953,-5.371,999.512
1742118449.035,680.176,-224.609,64.941,693.848
1742118449.039,-755.859,-869.629,230.469,-691.406
1742118449.043,-1000.0,-446.777,256.348,-1000.0
1742118449.047,-1000.0,-180.664,-16.602,-1000.0
1742118449.051,-245.605,188.965,23.438,-277.832
1742118449.055,999.512,609.375,215.82,999.512
1742118449.059,951.66,-137.695,164.551,958.496
1742118449.062,948.73,-294.922,148.926,943.359
1742118449.066,931.641,-221.191,125.488,943.848
1742118449.07,985.84,-175.781,86.914,965.82
1742118449.074,929.199,-207.52,8.301,972.656
1742118449.078,-405.762,-751.953,-15.137,-275.391
1742118449.035,680.176,-224.609,64.941,693.848
1742118449.039,-755.859,-869.629,230.469,-691.406
1742118449.043,-1000.0,-446.777,256.348,-1000.0
1742118449.047,-1000.0,-180.664,-16.602,-1000.0
1742118449.051,-245.605,188.965,23.438,-277.832
1742118449.055,999.512,609.375,215.82,999.512
1742118449.059,951.66,-137.695,164.551,958.496
1742118449.062,948.73,-294.922,148.926,943.359
1742118449.066,931.641,-221.191,125.488,943.848
1742118449.07,985.84,-175.781,86.914,965.82
1742118449.074,929.199,-207.52,8.301,972.656
1742118449.078,-405.762,-751.953,-15.137,-275.391
1742118449.079,-1000.0,-681.641,-76.66,-1000.0
1742118449.083,-1000.0,-378.418,-111.328,-1000.0
1742118449.087,-204.102,289.551,-3.906,-143.555
1742118449.091,999.512,373.535,108.887,999.512
1742118449.095,949.219,-241.699,62.5,943.359
1742118449.099,928.711,-5.859,52.246,934.57
1742118449.103,929.199,73.73,46.875,929.688
1742118449.106,999.512,-217.285,-62.5,999.512
1742118449.11,-13.184,-797.363,-63.965,16.602
1742118449.114,-1000.0,-363.77,22.461,-1000.0
1742118449.118,-1000.0,-136.23,-20.996,-1000.0
1742118449.122,-208.496,284.18,-140.625,-192.383
1742118449.079,-1000.0,-681.641,-76.66,-1000.0
1742118449.083,-1000.0,-378.418,-111.328,-1000.0
1742118449.087,-204.102,289.551,-3.906,-143.555
1742118449.091,999.512,373.535,108.887,999.512
1742118449.095,949.219,-241.699,62.5,943.359
1742118449.099,928.711,-5.859,52.246,934.57
1742118449.103,929.199,73.73,46.875,929.688
1742118449.106,999.512,-217.285,-62.5,999.512
1742118449.11,-13.184,-797.363,-63.965,16.602
1742118449.114,-1000.0,-363.77,22.461,-1000.0
1742118449.118,-1000.0,-136.23,-20.996,-1000.0
1742118449.122,-208.496,284.18,-140.625,-192.383
1742118449.126,999.512,672.363,4.883,999.512
1742118449.13,949.707,-217.773,132.324,949.219
1742118449.134,938.965,-247.07,27.344,940.43
1742118449.138,973.145,-38.086,13.184,973.633
1742118449.142,966.309,-253.418,-69.336,966.797
1742118449.146,966.309,-352.051,-250.0,966.797
1742118449.15,966.309,-253.906,-148.926,967.285
1742118449.153,966.309,25.391,-14.648,966.797
1742118449.157,976.074,-37.598,-179.688,974.609
1742118449.161,926.758,-339.844,-134.766,934.57
1742118449.165,980.957,-229.492,41.992,969.238
1742118449.169,945.312,-43.945,94.727,962.891
1742118449.126,999.512,672.363,4.883,999.512
1742118449.13,949.707,-217.773,132.324,949.219
1742118449.134,938.965,-247.07,27.344,940.43
1742118449.138,973.145,-38.086,13.184,973.633
1742118449.142,966.309,-253.418,-69.336,966.797
1742118449.146,966.309,-352.051,-250.0,966.797
1742118449.15,966.309,-253.906,-148.926,967.285
1742118449.153,966.309,25.391,-14.648,966.797
1742118449.157,976.074,-37.598,-179.688,974.609
1742118449.161,926.758,-339.844,-134.766,934.57
1742118449.165,980.957,-229.492,41.992,969.238
1742118449.169,945.312,-43.945,94.727,962.891
1742118449.199,-380.859,-263.184,97.656,-298.34
1742118449.203,-1000.0,-161.621,67.871,-1000.0
1742118449.207,-872.559,357.91,27.344,-886.719
1742118449.211,-1000.0,105.957,-37.109,-1000.0
1742118449.215,-240.234,453.125,-179.199,-182.129
1742118449.219,999.512,634.277,-181.152,999.512
1742118449.223,999.512,-157.715,-90.332,984.375
1742118449.226,-143.555,-638.184,-110.352,-223.145
1742118449.23,-1000.0,-361.816,-108.398,-1000.0
1742118449.234,-950.684,-122.07,-122.559,-950.195
1742118449.238,-976.562,-191.406,-351.562,-983.398
1742118449.242,-968.75,-156.738,-581.055,-963.867
1742118449.199,-380.859,-263.184,97.656,-298.34
1742118449.203,-1000.0,-161.621,67.871,-1000.0
1742118449.207,-872.559,357.91,27.344,-886.719
1742118449.211,-1000.0,105.957,-37.109,-1000.0
1742118449.215,-240.234,453.125,-179.199,-182.129
1742118449.219,999.512,634.277,-181.152,999.512
1742118449.223,999.512,-157.715,-90.332,984.375
1742118449.226,-143.555,-638.184,-110.352,-223.145
1742118449.23,-1000.0,-361.816,-108.398,-1000.0
1742118449.234,-950.684,-122.07,-122.559,-950.195
1742118449.238,-976.562,-191.406,-351.562,-983.398
1742118449.242,-968.75,-156.738,-581.055,-963.867
1742118449.739,-1000.0,16.602,-10.254,-1000.0
1742118449.743,-733.398,-3.418,29.785,-716.797
1742118449.747,716.309,669.922,-48.34,700.195
1742118449.751,999.512,277.832,-63.965,999.512
1742118449.755,914.062,-276.855,79.102,915.039
1742118449.759,908.203,-33.691,15.625,912.598
1742118449.763,999.512,171.875,-78.613,999.512
1742118449.766,400.879,-368.164,-76.172,361.816
1742118449.77,-983.398,-696.289,19.531,-984.863
1742118449.774,-1000.0,-269.043,-6.348,-1000.0
1742118449.778,-937.5,113.281,3.418,-938.477
1742118449.782,-980.469,70.801,-53.711,-987.305
1742118449.199,-380.859,-263.184,97.656,-298.34
1742118449.203,-1000.0,-161.621,67.871,-1000.0
1742118449.207,-872.559,357.91,27.344,-886.719
1742118449.211,-1000.0,105.957,-37.109,-1000.0
1742118449.215,-240.234,453.125,-179.199,-182.129
1742118449.219,999.512,634.277,-181.152,999.512
1742118449.223,999.512,-157.715,-90.332,984.375
1742118449.226,-143.555,-638.184,-110.352,-223.145
1742118449.23,-1000.0,-361.816,-108.398,-1000.0
1742118449.234,-950.684,-122.07,-122.559,-950.195
1742118449.238,-976.562,-191.406,-351.562,-983.398
1742118449.242,-968.75,-156.738,-581.055,-963.867
1742118449.229,-1000.0,-332.52,-289.062,-1000.0
1742118449.233,27.344,8.301,-185.547,-55.664
1742118449.237,999.512,9.766,-325.684,999.512
1742118449.241,891.602,-354.98,-306.152,767.09
1742118449.245,-309.57,-661.621,-431.152,-479.004
1742118449.249,-1000.0,-382.812,-546.875,-1000.0
1742118449.253,-700.195,-49.805,-426.758,-690.918
1742118449.256,565.43,28.32,-266.113,550.781
1742118449.26,999.512,-181.641,-390.137,999.512
1742118449.264,473.633,-726.074,-328.613,456.055
1742118449.268,-886.23,-815.918,-275.879,-874.512
1742118449.272,-1000.0,-321.777,-454.102,-1000.0
1742118449.229,-1000.0,-332.52,-289.062,-1000.0
1742118449.233,27.344,8.301,-185.547,-55.664
1742118449.237,999.512,9.766,-325.684,999.512
1742118449.241,891.602,-354.98,-306.152,767.09
1742118449.245,-309.57,-661.621,-431.152,-479.004
1742118449.249,-1000.0,-382.812,-546.875,-1000.0
1742118449.253,-700.195,-49.805,-426.758,-690.918
1742118449.256,565.43,28.32,-266.113,550.781
1742118449.26,999.512,-181.641,-390.137,999.512
1742118449.264,473.633,-726.074,-328.613,456.055
1742118449.268,-886.23,-815.918,-275.879,-874.512
1742118449.272,-1000.0,-321.777,-454.102,-1000.0
1742118449.229,-1000.0,-332.52,-289.062,-1000.0
1742118449.233,27.344,8.301,-185.547,-55.664
1742118449.237,999.512,9.766,-325.684,999.512
1742118449.241,891.602,-354.98,-306.152,767.09
1742118449.245,-309.57,-661.621,-431.152,-479.004
1742118449.249,-1000.0,-382.812,-546.875,-1000.0
1742118449.253,-700.195,-49.805,-426.758,-690.918
1742118449.256,565.43,28.32,-266.113,550.781
1742118449.26,999.512,-181.641,-390.137,999.512
1742118449.264,473.633,-726.074,-328.613,456.055
1742118449.268,-886.23,-815.918,-275.879,-874.512
1742118449.272,-1000.0,-321.777,-454.102,-1000.0
1742118449.229,-1000.0,-332.52,-289.062,-1000.0
1742118449.233,27.344,8.301,-185.547,-55.664
1742118449.237,999.512,9.766,-325.684,999.512
1742118449.241,891.602,-354.98,-306.152,767.09
1742118449.245,-309.57,-661.621,-431.152,-479.004
1742118449.249,-1000.0,-382.812,-546.875,-1000.0
1742118449.253,-700.195,-49.805,-426.758,-690.918
1742118449.256,565.43,28.32,-266.113,550.781
1742118449.26,999.512,-181.641,-390.137,999.512
1742118449.264,473.633,-726.074,-328.613,456.055
1742118449.268,-886.23,-815.918,-275.879,-874.512
1742118449.272,-1000.0,-321.777,-454.102,-1000.0
1742118449.274,-945.312,-50.293,-387.207,-948.242
1742118449.278,-1000.0,-211.914,-320.312,-1000.0
1742118449.282,-989.746,-297.363,-360.352,-998.535
1742118449.286,-954.59,-379.883,-394.043,-940.918
1742118449.29,-1000.0,-427.734,-415.039,-1000.0
1742118449.294,-94.238,152.344,-339.355,-241.211
1742118449.298,999.512,318.848,-251.465,999.512
1742118449.301,807.129,-272.461,-227.539,632.812
1742118449.305,-556.152,-718.262,-87.891,-749.512
1742118449.309,-1000.0,-454.59,-173.34,-1000.0
1742118449.313,-1000.0,-167.969,-220.703,-1000.0
1742118449.317,-231.934,491.211,-96.191,-232.91
1742118449.274,-945.312,-50.293,-387.207,-948.242
1742118449.278,-1000.0,-211.914,-320.312,-1000.0
1742118449.282,-989.746,-297.363,-360.352,-998.535
1742118449.286,-954.59,-379.883,-394.043,-940.918
1742118449.29,-1000.0,-427.734,-415.039,-1000.0
1742118449.294,-94.238,152.344,-339.355,-241.211
1742118449.298,999.512,318.848,-251.465,999.512
1742118449.301,807.129,-272.461,-227.539,632.812
1742118449.305,-556.152,-718.262,-87.891,-749.512
1742118449.309,-1000.0,-454.59,-173.34,-1000.0
1742118449.313,-1000.0,-167.969,-220.703,-1000.0
1742118449.317,-231.934,491.211,-96.191,-232.91
1742118449.319,999.512,457.031,-113.281,999.512
1742118449.323,941.895,-314.453,-145.508,944.336
1742118449.327,889.16,42.48,-193.848,890.137
1742118449.331,999.512,218.262,-52.734,999.512
1742118449.335,43.457,-608.887,-77.148,62.012
1742118449.339,-1000.0,-595.215,-203.613,-1000.0
1742118449.343,-964.355,56.641,-78.125,-969.238
1742118449.346,-983.887,36.621,-34.668,-981.934
1742118449.35,-1000.0,13.672,64.941,-1000.0
1742118449.354,-980.957,-24.414,145.996,-982.422
1742118449.358,-969.727,63.477,71.777,-971.68
1742118449.362,-1000.0,74.219,51.758,-1000.0
1742118449.319,999.512,457.031,-113.281,999.512
1742118449.323,941.895,-314.453,-145.508,944.336
1742118449.327,889.16,42.48,-193.848,890.137
1742118449.331,999.512,218.262,-52.734,999.512
1742118449.335,43.457,-608.887,-77.148,62.012
1742118449.339,-1000.0,-595.215,-203.613,-1000.0
1742118449.343,-964.355,56.641,-78.125,-969.238
1742118449.346,-983.887,36.621,-34.668,-981.934
1742118449.35,-1000.0,13.672,64.941,-1000.0
1742118449.354,-980.957,-24.414,145.996,-982.422
1742118449.358,-969.727,63.477,71.777,-971.68
1742118449.362,-1000.0,74.219,51.758,-1000.0
1742118449.364,79.102,430.176,17.578,51.27
1742118449.368,999.512,191.406,-23.438,999.512
1742118449.372,999.512,76.172,-16.113,999.512
1742118449.376,180.664,-315.43,-33.203,113.281
1742118449.38,-1000.0,-540.039,28.32,-1000.0
1742118449.384,-983.887,62.012,111.816,-975.586
1742118449.388,-973.145,55.664,103.027,-977.539
1742118449.391,-1000.0,-4.883,-5.371,-1000.0
1742118449.395,-1000.0,-226.074,-49.805,-1000.0
1742118449.399,-933.105,-105.957,-42.48,-928.711
1742118449.403,-1000.0,-41.504,-15.625,-1000.0
1742118449.407,-312.5,421.387,-9.766,-458.984
1742118449.364,79.102,430.176,17.578,51.27
1742118449.368,999.512,191.406,-23.438,999.512
1742118449.372,999.512,76.172,-16.113,999.512
1742118449.376,180.664,-315.43,-33.203,113.281
1742118449.38,-1000.0,-540.039,28.32,-1000.0
1742118449.384,-983.887,62.012,111.816,-975.586
1742118449.388,-973.145,55.664,103.027,-977.539
1742118449.391,-1000.0,-4.883,-5.371,-1000.0
1742118449.395,-1000.0,-226.074,-49.805,-1000.0
1742118449.399,-933.105,-105.957,-42.48,-928.711
1742118449.403,-1000.0,-41.504,-15.625,-1000.0
1742118449.407,-312.5,421.387,-9.766,-458.984
1742118449.41,961.426,609.863,-2.93,926.27
1742118449.414,999.512,-123.535,-26.367,999.512
1742118449.418,-34.18,-546.875,-53.223,-204.59
1742118449.422,-1000.0,-347.168,-45.41,-1000.0
1742118449.426,-1000.0,-85.938,-95.215,-1000.0
1742118449.43,-725.098,167.48,2.93,-804.688
1742118449.434,615.723,435.547,-15.625,470.703
1742118449.437,999.512,165.039,-48.828,999.512
1742118449.441,124.512,-470.703,31.25,84.961
1742118449.445,-1000.0,-749.023,113.77,-1000.0
1742118449.449,-990.234,-23.438,102.051,-983.887
1742118449.453,-946.777,11.719,-35.156,-953.613
1742118449.41,961.426,609.863,-2.93,926.27
1742118449.414,999.512,-123.535,-26.367,999.512
1742118449.418,-34.18,-546.875,-53.223,-204.59
1742118449.422,-1000.0,-347.168,-45.41,-1000.0
1742118449.426,-1000.0,-85.938,-95.215,-1000.0
1742118449.43,-725.098,167.48,2.93,-804.688
1742118449.434,615.723,435.547,-15.625,470.703
1742118449.437,999.512,165.039,-48.828,999.512
1742118449.441,124.512,-470.703,31.25,84.961
1742118449.445,-1000.0,-749.023,113.77,-1000.0
1742118449.449,-990.234,-23.438,102.051,-983.887
1742118449.453,-946.777,11.719,-35.156,-953.613
1742118449.455,-990.234,-127.441,-53.711,-983.398
1742118449.459,-1000.0,71.289,28.32,-1000.0
1742118449.463,172.852,640.137,120.605,120.117
1742118449.467,999.512,342.285,192.871,999.512
1742118449.471,887.695,-227.539,140.625,899.414
1742118449.475,934.57,146.484,23.438,926.27
1742118449.479,999.512,35.156,-74.707,999.512
1742118449.482,-110.84,-772.949,-31.738,-43.945
1742118449.486,-1000.0,-556.641,0.977,-1000.0
1742118449.49,-939.453,-127.441,-51.27,-950.684
1742118449.494,-945.312,-107.91,-82.52,-940.918
1742118449.498,-1000.0,-176.27,-61.035,-1000.0
1742118449.455,-990.234,-127.441,-53.711,-983.398
1742118449.459,-1000.0,71.289,28.32,-1000.0
1742118449.463,172.852,640.137,120.605,120.117
1742118449.467,999.512,342.285,192.871,999.512
1742118449.471,887.695,-227.539,140.625,899.414
1742118449.475,934.57,146.484,23.438,926.27
1742118449.479,999.512,35.156,-74.707,999.512
1742118449.482,-110.84,-772.949,-31.738,-43.945
1742118449.486,-1000.0,-556.641,0.977,-1000.0
1742118449.49,-939.453,-127.441,-51.27,-950.684
1742118449.494,-945.312,-107.91,-82.52,-940.918
1742118449.498,-1000.0,-176.27,-61.035,-1000.0
1742118449.502,-68.848,339.844,31.738,-79.102
1742118449.506,999.512,212.891,-60.059,999.512
1742118449.51,873.047,-226.074,27.832,881.348
1742118449.514,999.512,104.492,118.652,999.512
1742118449.518,120.117,-509.277,-4.883,102.051
1742118449.522,-1000.0,-458.984,46.387,-1000.0
1742118449.526,-974.609,-14.16,-9.277,-974.609
1742118449.529,-978.516,-271.484,-80.566,-977.539
1742118449.533,-943.359,-221.68,-125.977,-937.012
1742118449.537,-1000.0,-308.594,-73.242,-1000.0
1742118449.541,-214.844,307.617,-51.758,-199.707
1742118449.545,999.512,485.84,-98.633,999.512
1742118449.502,-68.848,339.844,31.738,-79.102
1742118449.506,999.512,212.891,-60.059,999.512
1742118449.51,873.047,-226.074,27.832,881.348
1742118449.514,999.512,104.492,118.652,999.512
1742118449.518,120.117,-509.277,-4.883,102.051
1742118449.522,-1000.0,-458.984,46.387,-1000.0
1742118449.526,-974.609,-14.16,-9.277,-974.609
1742118449.529,-978.516,-271.484,-80.566,-977.539
1742118449.533,-943.359,-221.68,-125.977,-937.012
1742118449.537,-1000.0,-308.594,-73.242,-1000.0
1742118449.541,-214.844,307.617,-51.758,-199.707
1742118449.545,999.512,485.84,-98.633,999.512
1742118449.559,956.055,-167.969,-197.266,954.59
1742118449.563,870.117,-216.797,-197.754,872.07
1742118449.567,999.512,19.531,-109.863,999.512
1742118449.571,313.477,-425.781,-106.445,325.195
1742118449.575,-1000.0,-702.148,-13.672,-1000.0
1742118449.579,-1000.0,-52.734,-47.363,-1000.0
1742118449.583,-946.777,-190.43,-29.785,-944.824
1742118449.586,-974.121,-208.008,-43.457,-979.98
1742118449.59,-1000.0,-119.629,-169.434,-1000.0
1742118449.594,50.293,258.301,-172.852,50.781
1742118449.598,999.512,102.539,-90.332,999.512
1742118449.602,939.941,-98.633,-43.945,952.637
1742118449.559,956.055,-167.969,-197.266,954.59
1742118449.563,870.117,-216.797,-197.754,872.07
1742118449.567,999.512,19.531,-109.863,999.512
1742118449.571,313.477,-425.781,-106.445,325.195
1742118449.575,-1000.0,-702.148,-13.672,-1000.0
1742118449.579,-1000.0,-52.734,-47.363,-1000.0
1742118449.583,-946.777,-190.43,-29.785,-944.824
1742118449.586,-974.121,-208.008,-43.457,-979.98
1742118449.59,-1000.0,-119.629,-169.434,-1000.0
1742118449.594,50.293,258.301,-172.852,50.781
1742118449.598,999.512,102.539,-90.332,999.512
1742118449.602,939.941,-98.633,-43.945,952.637
1742118449.604,912.598,-28.809,-10.254,875.0
1742118449.608,-423.828,-559.082,-77.148,-443.359
1742118449.612,-1000.0,-327.148,-60.059,-1000.0
1742118449.616,-934.57,2.441,-77.637,-937.988
1742118449.62,-1000.0,-255.371,-187.988,-1000.0
1742118449.624,-937.012,-9.277,-57.617,-934.082
1742118449.628,-1000.0,-165.039,-87.891,-1000.0
1742118449.631,-219.238,160.645,-87.402,-270.508
1742118449.635,990.234,526.855,41.016,969.727
1742118449.639,977.051,-151.367,-26.855,999.023
1742118449.643,884.277,-190.918,-50.293,817.871
1742118449.647,-438.477,-544.922,-53.711,-495.117
1742118449.604,912.598,-28.809,-10.254,875.0
1742118449.608,-423.828,-559.082,-77.148,-443.359
1742118449.612,-1000.0,-327.148,-60.059,-1000.0
1742118449.616,-934.57,2.441,-77.637,-937.988
1742118449.62,-1000.0,-255.371,-187.988,-1000.0
1742118449.624,-937.012,-9.277,-57.617,-934.082
1742118449.628,-1000.0,-165.039,-87.891,-1000.0
1742118449.631,-219.238,160.645,-87.402,-270.508
1742118449.635,990.234,526.855,41.016,969.727
1742118449.639,977.051,-151.367,-26.855,999.023
1742118449.643,884.277,-190.918,-50.293,817.871
1742118449.647,-438.477,-544.922,-53.711,-495.117
1742118449.65,-1000.0,-187.988,-48.828,-1000.0
1742118449.654,-1000.0,-110.84,-50.781,-1000.0
1742118449.658,-312.012,312.5,-109.375,-351.074
1742118449.662,999.512,570.801,-74.707,989.746
1742118449.666,964.355,-100.098,-16.113,973.633
1742118449.67,928.223,-149.414,-104.98,922.363
1742118449.674,918.945,-97.656,-62.5,928.711
1742118449.677,999.512,-18.066,120.605,999.512
1742118449.681,112.305,-652.344,109.375,64.941
1742118449.685,-1000.0,-496.094,44.434,-1000.0
1742118449.689,-917.969,93.75,50.293,-933.594
1742118449.693,-1000.0,-51.27,77.637,-1000.0
1742118449.65,-1000.0,-187.988,-48.828,-1000.0
1742118449.654,-1000.0,-110.84,-50.781,-1000.0
1742118449.658,-312.012,312.5,-109.375,-351.074
1742118449.662,999.512,570.801,-74.707,989.746
1742118449.666,964.355,-100.098,-16.113,973.633
1742118449.67,928.223,-149.414,-104.98,922.363
1742118449.674,918.945,-97.656,-62.5,928.711
1742118449.677,999.512,-18.066,120.605,999.512
1742118449.681,112.305,-652.344,109.375,64.941
1742118449.685,-1000.0,-496.094,44.434,-1000.0
1742118449.689,-917.969,93.75,50.293,-933.594
1742118449.693,-1000.0,-51.27,77.637,-1000.0
1742118449.694,-207.52,376.953,61.523,-87.891
1742118449.698,999.512,447.266,46.387,999.512
1742118449.702,207.031,-581.543,-70.312,121.582
1742118449.706,-1000.0,-537.598,21.973,-1000.0
1742118449.71,-896.484,197.754,218.262,-846.191
1742118449.714,481.445,485.84,62.012,500.0
1742118449.718,999.512,99.121,-20.508,999.512
1742118449.721,829.102,-183.594,81.543,833.496
1742118449.725,999.512,65.43,96.68,999.512
1742118449.729,326.66,-570.801,65.43,363.77
1742118449.733,-1000.0,-762.695,40.039,-1000.0
1742118449.737,-941.895,18.555,68.359,-953.125
1742118449.694,-207.52,376.953,61.523,-87.891
1742118449.698,999.512,447.266,46.387,999.512
1742118449.702,207.031,-581.543,-70.312,121.582
1742118449.706,-1000.0,-537.598,21.973,-1000.0
1742118449.71,-896.484,197.754,218.262,-846.191
1742118449.714,481.445,485.84,62.012,500.0
1742118449.718,999.512,99.121,-20.508,999.512
1742118449.721,829.102,-183.594,81.543,833.496
1742118449.725,999.512,65.43,96.68,999.512
1742118449.729,326.66,-570.801,65.43,363.77
1742118449.733,-1000.0,-762.695,40.039,-1000.0
1742118449.737,-941.895,18.555,68.359,-953.125
1742118449.785,-1000.0,-235.352,-182.129,-1000.0
1742118449.789,66.406,355.957,-221.191,88.379
1742118449.793,999.512,337.891,-168.945,999.512
1742118449.797,915.039,-155.762,-84.961,920.898
1742118449.801,961.426,-34.18,-63.477,965.82
1742118449.805,903.32,22.461,-39.551,899.414
1742118449.809,999.512,-41.504,-72.266,999.512
1742118449.812,199.707,-585.938,-57.129,311.523
1742118449.816,-988.77,-681.641,-56.641,-947.754
1742118449.82,-1000.0,-226.074,-124.023,-1000.0
1742118449.824,-458.008,283.691,7.812,-387.695
1742118449.828,903.809,702.637,-5.859,921.387
1742118449.831,953.125,40.527,-98.145,955.566
1742118449.835,999.512,7.324,-14.648,987.305
1742118449.839,88.379,-295.898,73.242,41.016
1742118449.843,-1000.0,-722.656,32.227,-1000.0
1742118449.847,-478.027,123.535,-9.277,-399.902
1742118449.851,918.945,550.781,-150.879,956.543
1742118449.855,999.512,-39.551,-95.703,985.84
1742118449.858,923.34,-119.629,-77.148,928.711
1742118449.862,945.801,-118.652,-68.848,950.684
1742118449.866,969.238,-194.824,84.473,958.984
1742118449.87,980.957,-170.898,23.438,998.047
1742118449.874,-321.289,-565.43,-19.531,-240.723
1742118449.831,953.125,40.527,-98.145,955.566
1742118449.835,999.512,7.324,-14.648,987.305
1742118449.839,88.379,-295.898,73.242,41.016
1742118449.843,-1000.0,-722.656,32.227,-1000.0
1742118449.847,-478.027,123.535,-9.277,-399.902
1742118449.851,918.945,550.781,-150.879,956.543
1742118449.855,999.512,-39.551,-95.703,985.84
1742118449.858,923.34,-119.629,-77.148,928.711
1742118449.862,945.801,-118.652,-68.848,950.684
1742118449.866,969.238,-194.824,84.473,958.984
1742118449.87,980.957,-170.898,23.438,998.047
1742118449.874,-321.289,-565.43,-19.531,-240.723
1742118449.876,-1000.0,-353.516,-42.969,-1000.0
1742118449.88,-913.086,70.801,-82.52,-916.016
1742118449.884,-980.469,-5.859,-54.199,-1000.0
1742118449.888,-1000.0,74.707,-129.395,-909.668
1742118449.892,124.023,443.848,-85.938,270.508
1742118449.896,999.512,246.582,132.812,999.512
1742118449.9,849.609,-308.105,107.422,873.535
1742118449.903,999.512,-136.23,105.957,999.512
1742118449.907,162.109,-478.516,17.09,72.754
1742118449.911,-1000.0,-617.676,-68.359,-1000.0
1742118449.915,-980.469,56.641,-177.246,-972.656
1742118449.919,-975.098,39.062,-247.559,-979.98
1742118449.876,-1000.0,-353.516,-42.969,-1000.0
1742118449.88,-913.086,70.801,-82.52,-916.016
1742118449.884,-980.469,-5.859,-54.199,-1000.0
1742118449.888,-1000.0,74.707,-129.395,-909.668
1742118449.892,124.023,443.848,-85.938,270.508
1742118449.896,999.512,246.582,132.812,999.512
1742118449.9,849.609,-308.105,107.422,873.535
1742118449.903,999.512,-136.23,105.957,999.512
1742118449.907,162.109,-478.516,17.09,72.754
1742118449.911,-1000.0,-617.676,-68.359,-1000.0
1742118449.915,-980.469,56.641,-177.246,-972.656
1742118449.919,-975.098,39.062,-247.559,-979.98
1742118449.934,-1000.0,-53.223,28.32,-1000.0
1742118449.938,-1000.0,-80.078,84.961,-1000.0
1742118449.942,-982.422,101.074,32.715,-987.793
1742118449.946,-966.797,-58.105,-55.664,-958.496
1742118449.95,-1000.0,-194.824,-227.051,-1000.0
1742118449.954,51.27,493.652,-115.723,-33.203
1742118449.958,999.512,450.195,-98.145,999.512
1742118449.961,999.512,-214.844,-125.488,999.512
1742118449.965,24.414,-674.316,-113.281,-57.617
1742118449.969,-1000.0,-482.422,-314.453,-1000.0
1742118449.973,-1000.0,-61.523,-248.535,-1000.0
1742118449.977,-152.344,388.672,-213.867,-86.426
1742118449.934,-1000.0,-53.223,28.32,-1000.0
1742118449.938,-1000.0,-80.078,84.961,-1000.0
1742118449.942,-982.422,101.074,32.715,-987.793
1742118449.946,-966.797,-58.105,-55.664,-958.496
1742118449.95,-1000.0,-194.824,-227.051,-1000.0
1742118449.954,51.27,493.652,-115.723,-33.203
1742118449.958,999.512,450.195,-98.145,999.512
1742118449.961,999.512,-214.844,-125.488,999.512
1742118449.965,24.414,-674.316,-113.281,-57.617
1742118449.969,-1000.0,-482.422,-314.453,-1000.0
1742118449.973,-1000.0,-61.523,-248.535,-1000.0
1742118449.977,-152.344,388.672,-213.867,-86.426
1742118449.979,988.77,295.41,-291.992,999.512
1742118449.983,999.512,-173.828,-414.551,999.512
1742118449.987,191.895,-522.949,-349.609,91.797
1742118449.991,-1000.0,-558.594,-215.332,-1000.0
1742118449.995,-309.57,426.27,-312.988,-257.324
1742118449.999,999.512,613.77,-275.879,999.512
1742118450.003,999.512,-115.234,-253.418,999.512
1742118450.006,-155.273,-683.594,-395.508,-150.391
1742118450.01,-1000.0,-251.953,-331.543,-1000.0
1742118450.014,-140.137,487.305,-244.141,33.203
1742118450.018,999.512,246.582,-295.898,999.512
1742118450.022,883.789,-120.117,-307.617,870.117
1742118449.979,988.77,295.41,-291.992,999.512
1742118449.983,999.512,-173.828,-414.551,999.512
1742118449.987,191.895,-522.949,-349.609,91.797
1742118449.991,-1000.0,-558.594,-215.332,-1000.0
1742118449.995,-309.57,426.27,-312.988,-257.324
1742118449.999,999.512,613.77,-275.879,999.512
1742118450.003,999.512,-115.234,-253.418,999.512
1742118450.006,-155.273,-683.594,-395.508,-150.391
1742118450.01,-1000.0,-251.953,-331.543,-1000.0
1742118450.014,-140.137,487.305,-244.141,33.203
1742118450.018,999.512,246.582,-295.898,999.512
1742118450.022,883.789,-120.117,-307.617,870.117
1742118450.024,999.512,149.414,-198.73,999.512
1742118450.028,189.941,-476.562,-160.645,162.109
1742118450.032,-1000.0,-314.453,-240.723,-1000.0
1742118450.036,-956.543,249.023,-122.07,-937.988
1742118450.04,-958.496,-154.297,-186.035,-1000.0
1742118450.044,-1000.0,-104.98,-329.59,-859.375
1742118450.048,186.523,429.199,-275.391,443.359
1742118450.051,999.512,282.227,-140.137,999.512
1742118450.055,905.273,-83.984,-54.199,911.133
1742118450.059,965.82,-109.863,-133.789,971.191
1742118450.063,966.797,-62.988,-214.355,967.773
1742118450.067,966.309,113.281,-130.859,967.285
1742118450.024,999.512,149.414,-198.73,999.512
1742118450.028,189.941,-476.562,-160.645,162.109
1742118450.032,-1000.0,-314.453,-240.723,-1000.0
1742118450.036,-956.543,249.023,-122.07,-937.988
1742118450.04,-958.496,-154.297,-186.035,-1000.0
1742118450.044,-1000.0,-104.98,-329.59,-859.375
1742118450.048,186.523,429.199,-275.391,443.359
1742118450.051,999.512,282.227,-140.137,999.512
1742118450.055,905.273,-83.984,-54.199,911.133
1742118450.059,965.82,-109.863,-133.789,971.191
1742118450.063,966.797,-62.988,-214.355,967.773
1742118450.067,966.309,113.281,-130.859,967.285
1742118450.069,904.785,-103.027,-66.895,904.785
1742118450.073,999.512,-86.426,-126.465,999.512
1742118450.077,174.316,-512.207,-163.086,183.105
1742118450.081,-1000.0,-542.48,-119.141,-1000.0
1742118450.085,-919.434,-57.129,-102.539,-922.363
1742118450.089,-1000.0,-267.578,-104.98,-1000.0
1742118450.093,-227.539,409.668,-171.387,-208.496
1742118450.096,999.512,559.082,-98.145,999.512
1742118450.1,962.402,-47.363,-55.176,973.145
1742118450.104,889.648,-204.59,-72.266,855.957
1742118450.108,999.512,-2.93,20.02,919.922
1742118450.112,865.723,57.129,78.125,870.605
1742118450.069,904.785,-103.027,-66.895,904.785
1742118450.073,999.512,-86.426,-126.465,999.512
1742118450.077,174.316,-512.207,-163.086,183.105
1742118450.081,-1000.0,-542.48,-119.141,-1000.0
1742118450.085,-919.434,-57.129,-102.539,-922.363
1742118450.089,-1000.0,-267.578,-104.98,-1000.0
1742118450.093,-227.539,409.668,-171.387,-208.496
1742118450.096,999.512,559.082,-98.145,999.512
1742118450.1,962.402,-47.363,-55.176,973.145
1742118450.104,889.648,-204.59,-72.266,855.957
1742118450.108,999.512,-2.93,20.02,919.922
1742118450.112,865.723,57.129,78.125,870.605
1742118450.116,-514.16,-619.629,45.898,-471.68
1742118450.12,-1000.0,-260.742,50.293,-1000.0
1742118450.124,-862.305,265.137,36.133,-865.234
1742118450.128,-1000.0,-157.715,-76.172,-1000.0
1742118450.132,-388.184,108.398,-114.746,-425.781
1742118450.136,909.18,791.016,-42.48,892.09
1742118450.14,999.512,281.25,79.59,999.512
1742118450.143,145.996,-532.715,57.617,100.098
1742118450.147,-1000.0,-586.914,-51.27,-1000.0
1742118450.151,-999.023,-131.836,11.23,-990.723
1742118450.155,-907.227,76.172,3.418,-922.363
1742118450.159,-1000.0,80.078,-15.625,-1000.0
1742118450.16,-712.891,135.742,50.781,-829.59
1742118450.164,734.375,610.352,91.797,564.453
1742118450.168,970.215,188.477,157.715,995.605
1742118450.172,999.512,200.195,99.121,999.512
1742118450.176,422.363,-220.215,15.137,366.699
1742118450.18,-900.391,-564.941,92.285,-926.27
1742118450.184,-1000.0,-102.051,119.141,-1000.0
1742118450.187,-531.25,65.43,76.66,-609.375
1742118450.191,860.352,588.867,139.16,763.672
1742118450.195,942.383,7.812,115.723,962.402
1742118450.199,999.512,25.879,70.801,999.512
1742118450.203,439.453,-127.441,112.793,372.559
1742118450.16,-712.891,135.742,50.781,-829.59
1742118450.164,734.375,610.352,91.797,564.453
1742118450.168,970.215,188.477,157.715,995.605
1742118450.172,999.512,200.195,99.121,999.512
1742118450.176,422.363,-220.215,15.137,366.699
1742118450.18,-900.391,-564.941,92.285,-926.27
1742118450.184,-1000.0,-102.051,119.141,-1000.0
1742118450.187,-531.25,65.43,76.66,-609.375
1742118450.191,860.352,588.867,139.16,763.672
1742118450.195,942.383,7.812,115.723,962.402
1742118450.199,999.512,25.879,70.801,999.512
1742118450.203,439.453,-127.441,112.793,372.559
1742118450.204,-973.145,-693.359,112.793,-996.582
1742118450.208,-1000.0,73.73,144.043,-1000.0
1742118450.212,-954.59,312.5,192.871,-960.449
1742118450.216,-950.684,-198.73,106.445,-948.242
1742118450.22,-1000.0,-103.516,83.496,-1000.0
1742118450.224,-220.703,527.832,-6.348,-229.492
1742118450.228,999.512,567.383,8.301,999.512
1742118450.231,887.207,-10.254,172.363,895.996
1742118450.235,999.512,-113.281,158.203,999.512
1742118450.239,193.359,-491.699,99.121,150.391
1742118450.243,-1000.0,-601.074,97.656,-1000.0
1742118450.247,-983.887,102.051,35.156,-980.469
1742118450.204,-973.145,-693.359,112.793,-996.582
1742118450.208,-1000.0,73.73,144.043,-1000.0
1742118450.212,-954.59,312.5,192.871,-960.449
1742118450.216,-950.684,-198.73,106.445,-948.242
1742118450.22,-1000.0,-103.516,83.496,-1000.0
1742118450.224,-220.703,527.832,-6.348,-229.492
1742118450.228,999.512,567.383,8.301,999.512
1742118450.231,887.207,-10.254,172.363,895.996
1742118450.235,999.512,-113.281,158.203,999.512
1742118450.239,193.359,-491.699,99.121,150.391
1742118450.243,-1000.0,-601.074,97.656,-1000.0
1742118450.247,-983.887,102.051,35.156,-980.469
1742118450.251,-985.352,149.414,10.254,-989.258
1742118450.255,-933.105,-133.301,-19.531,-936.035
1742118450.259,-1000.0,-186.523,-11.23,-1000.0
1742118450.263,-472.656,298.828,-25.391,-577.637
1742118450.267,911.133,777.832,6.348,813.965
1742118450.271,960.938,318.359,152.344,999.512
1742118450.275,999.512,-16.113,26.367,941.406
1742118450.278,-75.684,-539.062,59.082,-196.289
1742118450.282,-1000.0,-454.59,120.605,-1000.0
1742118450.286,-949.707,99.609,-43.457,-948.242
1742118450.29,-993.652,-87.891,-44.922,-997.07
1742118450.294,-998.047,-3.418,2.93,-1000.0
1742118450.251,-985.352,149.414,10.254,-989.258
1742118450.255,-933.105,-133.301,-19.531,-936.035
1742118450.259,-1000.0,-186.523,-11.23,-1000.0
1742118450.263,-472.656,298.828,-25.391,-577.637
1742118450.267,911.133,777.832,6.348,813.965
1742118450.271,960.938,318.359,152.344,999.512
1742118450.275,999.512,-16.113,26.367,941.406
1742118450.278,-75.684,-539.062,59.082,-196.289
1742118450.282,-1000.0,-454.59,120.605,-1000.0
1742118450.286,-949.707,99.609,-43.457,-948.242
1742118450.29,-993.652,-87.891,-44.922,-997.07
1742118450.294,-998.047,-3.418,2.93,-1000.0
1742118450.309,-943.848,86.426,-24.902,-941.406
1742118450.313,-1000.0,-125.0,-50.293,-1000.0
1742118450.317,-149.902,428.711,-120.605,-179.688
1742118450.321,999.512,375.488,-141.113,999.512
1742118450.325,901.855,-219.727,-76.172,906.738
1742118450.329,955.078,186.035,-46.387,962.891
1742118450.333,962.402,-23.438,48.828,895.508
1742118450.336,-376.465,-648.438,19.043,-410.645
1742118450.34,-1000.0,-359.863,-75.684,-1000.0
1742118450.344,-1000.0,-126.953,-55.176,-1000.0
1742118450.348,-706.055,167.969,-116.699,-646.973
1742118450.352,739.258,711.914,-198.242,752.93
1742118450.309,-943.848,86.426,-24.902,-941.406
1742118450.313,-1000.0,-125.0,-50.293,-1000.0
1742118450.317,-149.902,428.711,-120.605,-179.688
1742118450.321,999.512,375.488,-141.113,999.512
1742118450.325,901.855,-219.727,-76.172,906.738
1742118450.329,955.078,186.035,-46.387,962.891
1742118450.333,962.402,-23.438,48.828,895.508
1742118450.336,-376.465,-648.438,19.043,-410.645
1742118450.34,-1000.0,-359.863,-75.684,-1000.0
1742118450.344,-1000.0,-126.953,-55.176,-1000.0
1742118450.348,-706.055,167.969,-116.699,-646.973
1742118450.352,739.258,711.914,-198.242,752.93
1742118450.357,978.516,71.289,-109.863,974.121
1742118450.361,999.512,-213.379,-14.648,999.512
1742118450.365,201.66,-469.238,-11.719,144.043
1742118450.369,-1000.0,-461.914,48.828,-1000.0
1742118450.373,-911.621,134.277,6.836,-910.156
1742118450.377,-1000.0,16.602,-167.969,-1000.0
1742118450.381,-601.562,228.027,-233.398,-616.211
1742118450.384,769.043,490.723,-47.363,723.633
1742118450.388,999.512,52.734,-1.465,999.512
1742118450.392,263.184,-518.555,-46.875,268.555
1742118450.396,-1000.0,-594.727,-78.613,-1000.0
1742118450.4,-973.145,54.688,-163.086,-973.633
1742118450.357,978.516,71.289,-109.863,974.121
1742118450.361,999.512,-213.379,-14.648,999.512
1742118450.365,201.66,-469.238,-11.719,144.043
1742118450.369,-1000.0,-461.914,48.828,-1000.0
1742118450.373,-911.621,134.277,6.836,-910.156
1742118450.377,-1000.0,16.602,-167.969,-1000.0
1742118450.381,-601.562,228.027,-233.398,-616.211
1742118450.384,769.043,490.723,-47.363,723.633
1742118450.388,999.512,52.734,-1.465,999.512
1742118450.392,263.184,-518.555,-46.875,268.555
1742118450.396,-1000.0,-594.727,-78.613,-1000.0
1742118450.4,-973.145,54.688,-163.086,-973.633
1742118450.4,-961.426,-40.039,-208.984,-967.773
1742118450.404,-1000.0,84.961,-82.031,-992.676
1742118450.408,264.16,705.566,91.797,267.09
1742118450.412,999.512,105.957,-0.977,999.512
1742118450.416,999.512,-313.477,-88.867,958.984
1742118450.42,148.438,-491.699,-149.902,-19.043
1742118450.424,-1000.0,-547.852,-37.598,-1000.0
1742118450.427,-1000.0,0.0,101.562,-911.621
1742118450.431,267.09,386.719,43.945,346.191
1742118450.435,999.512,80.566,24.414,999.512
1742118450.439,999.512,-257.324,-71.777,966.797
1742118450.443,-77.148,-512.207,-257.324,-141.602
1742118450.4,-961.426,-40.039,-208.984,-967.773
1742118450.404,-1000.0,84.961,-82.031,-992.676
1742118450.408,264.16,705.566,91.797,267.09
1742118450.412,999.512,105.957,-0.977,999.512
1742118450.416,999.512,-313.477,-88.867,958.984
1742118450.42,148.438,-491.699,-149.902,-19.043
1742118450.424,-1000.0,-547.852,-37.598,-1000.0
1742118450.427,-1000.0,0.0,101.562,-911.621
1742118450.431,267.09,386.719,43.945,346.191
1742118450.435,999.512,80.566,24.414,999.512
1742118450.439,999.512,-257.324,-71.777,966.797
1742118450.443,-77.148,-512.207,-257.324,-141.602
1742118450.446,-1000.0,-289.062,-186.523,-1000.0
1742118450.45,-1000.0,-94.727,51.27,-1000.0
1742118450.454,-265.137,180.176,14.16,-312.988
1742118450.458,999.512,731.445,16.113,999.023
1742118450.462,959.961,21.973,-10.742,971.68
1742118450.466,871.094,-95.703,-87.402,865.723
1742118450.47,999.512,114.258,-111.816,999.512
1742118450.473,200.195,-593.262,-64.453,254.395
1742118450.477,-1000.0,-702.148,48.34,-1000.0
1742118450.481,-982.91,-132.812,-63.965,-987.305
1742118450.485,-915.039,4.883,-59.082,-920.41
1742118450.489,-1000.0,57.617,57.617,-1000.0
1742118450.446,-1000.0,-289.062,-186.523,-1000.0
1742118450.45,-1000.0,-94.727,51.27,-1000.0
1742118450.454,-265.137,180.176,14.16,-312.988
1742118450.458,999.512,731.445,16.113,999.023
1742118450.462,959.961,21.973,-10.742,971.68
1742118450.466,871.094,-95.703,-87.402,865.723
1742118450.47,999.512,114.258,-111.816,999.512
1742118450.473,200.195,-593.262,-64.453,254.395
1742118450.477,-1000.0,-702.148,48.34,-1000.0
1742118450.481,-982.91,-132.812,-63.965,-987.305
1742118450.485,-915.039,4.883,-59.082,-920.41
1742118450.489,-1000.0,57.617,57.617,-1000.0
1742118450.489,-175.293,311.523,18.066,-113.77
1742118450.493,999.512,249.023,-88.867,999.512
1742118450.497,999.512,-5.859,-107.91,987.793
1742118450.501,-67.383,-492.188,-19.531,-124.512
1742118450.505,-1000.0,-476.562,82.52,-1000.0
1742118450.509,-275.391,352.539,66.406,-265.625
1742118450.513,999.512,602.539,1.953,999.512
1742118450.516,966.797,-170.41,-84.961,956.055
1742118450.52,868.652,-440.918,-60.059,892.578
1742118450.524,999.512,-83.984,16.602,999.512
1742118450.528,174.805,-569.336,-0.977,28.809
1742118450.532,-1000.0,-490.234,-41.016,-1000.0
1742118450.489,-175.293,311.523,18.066,-113.77
1742118450.493,999.512,249.023,-88.867,999.512
1742118450.497,999.512,-5.859,-107.91,987.793
1742118450.501,-67.383,-492.188,-19.531,-124.512
1742118450.505,-1000.0,-476.562,82.52,-1000.0
1742118450.509,-275.391,352.539,66.406,-265.625
1742118450.513,999.512,602.539,1.953,999.512
1742118450.516,966.797,-170.41,-84.961,956.055
1742118450.52,868.652,-440.918,-60.059,892.578
1742118450.524,999.512,-83.984,16.602,999.512
1742118450.528,174.805,-569.336,-0.977,28.809
1742118450.532,-1000.0,-490.234,-41.016,-1000.0
1742118450.535,-982.91,36.621,25.391,-972.656
1742118450.539,-911.621,-17.09,-4.883,-920.898
1742118450.543,-1000.0,-145.508,-68.359,-1000.0
1742118450.547,-215.82,388.184,-14.16,-189.941
1742118450.551,999.512,447.754,-22.461,999.512
1742118450.555,882.324,-169.922,-6.348,877.93
1742118450.559,999.512,-101.562,25.391,999.512
1742118450.562,264.16,-521.973,46.875,334.961
1742118450.566,-975.586,-619.629,4.395,-946.777
1742118450.57,-1000.0,-288.574,-46.875,-1000.0
1742118450.574,-282.715,100.098,-271.973,-211.426
1742118450.578,982.91,396.973,-241.211,985.352
1742118450.535,-982.91,36.621,25.391,-972.656
1742118450.539,-911.621,-17.09,-4.883,-920.898
1742118450.543,-1000.0,-145.508,-68.359,-1000.0
1742118450.547,-215.82,388.184,-14.16,-189.941
1742118450.551,999.512,447.754,-22.461,999.512
1742118450.555,882.324,-169.922,-6.348,877.93
1742118450.559,999.512,-101.562,25.391,999.512
1742118450.562,264.16,-521.973,46.875,334.961
1742118450.566,-975.586,-619.629,4.395,-946.777
1742118450.57,-1000.0,-288.574,-46.875,-1000.0
1742118450.574,-282.715,100.098,-271.973,-211.426
1742118450.578,982.91,396.973,-241.211,985.352
1742118451.059,999.512,25.879,966.797,999.512
1742118451.063,292.969,-470.703,966.797,310.059
1742118451.067,-1000.0,-486.816,967.285,-1000.0
1742118451.071,-937.988,43.457,967.285,-946.289
1742118451.075,-1000.0,-156.25,964.844,-1000.0
1742118451.079,-214.844,395.508,969.238,-174.805
1742118451.083,979.492,450.684,956.543,997.559
1742118451.086,999.512,27.344,877.441,999.512
1742118451.09,210.938,-548.34,847.168,144.531
1742118451.094,-1000.0,-872.559,818.359,-1000.0
1742118451.098,-200.684,331.055,749.023,-165.039
1742118451.102,999.512,546.875,730.469,999.512
1742118450.595,919.922,-15.625,163.574,947.266
1742118450.599,999.512,-63.477,230.469,942.871
1742118450.603,19.531,-397.949,118.652,-173.34
1742118450.607,-1000.0,-460.938,25.391,-1000.0
1742118450.611,-1000.0,-274.414,5.859,-1000.0
1742118450.615,-206.543,426.758,14.16,-191.895
1742118450.619,999.512,472.168,-77.148,999.512
1742118450.622,888.184,-313.477,-29.297,892.578
1742118450.626,999.512,-35.645,29.297,999.512
1742118450.63,183.105,-438.965,-32.227,125.0
1742118450.634,-1000.0,-688.965,5.859,-1000.0
1742118450.638,-993.164,6.836,19.043,-984.863
1742118450.595,919.922,-15.625,163.574,947.266
1742118450.599,999.512,-63.477,230.469,942.871
1742118450.603,19.531,-397.949,118.652,-173.34
1742118450.607,-1000.0,-460.938,25.391,-1000.0
1742118450.611,-1000.0,-274.414,5.859,-1000.0
1742118450.615,-206.543,426.758,14.16,-191.895
1742118450.619,999.512,472.168,-77.148,999.512
1742118450.622,888.184,-313.477,-29.297,892.578
1742118450.626,999.512,-35.645,29.297,999.512
1742118450.63,183.105,-438.965,-32.227,125.0
1742118450.634,-1000.0,-688.965,5.859,-1000.0
1742118450.638,-993.164,6.836,19.043,-984.863
1742118450.627,-931.641,59.082,3.418,-938.965
1742118450.631,-1000.0,-363.281,25.391,-1000.0
1742118450.635,-958.496,-138.184,-54.199,-960.449
1742118450.639,384.766,505.859,-70.312,345.215
1742118450.643,999.512,279.297,-51.758,999.512
1742118450.647,907.715,-155.273,-95.215,912.598
1742118450.651,942.383,-90.82,-62.012,941.406
1742118450.654,960.938,-78.125,-10.742,962.891
1742118450.658,999.512,-335.938,-38.574,982.422
1742118450.662,-272.949,-567.383,-64.453,-256.348
1742118450.666,-1000.0,-218.262,49.316,-1000.0
1742118450.67,-938.477,-7.324,55.664,-944.336
1742118450.627,-931.641,59.082,3.418,-938.965
1742118450.631,-1000.0,-363.281,25.391,-1000.0
1742118450.635,-958.496,-138.184,-54.199,-960.449
1742118450.639,384.766,505.859,-70.312,345.215
1742118450.643,999.512,279.297,-51.758,999.512
1742118450.647,907.715,-155.273,-95.215,912.598
1742118450.651,942.383,-90.82,-62.012,941.406
1742118450.654,960.938,-78.125,-10.742,962.891
1742118450.658,999.512,-335.938,-38.574,982.422
1742118450.662,-272.949,-567.383,-64.453,-256.348
1742118450.666,-1000.0,-218.262,49.316,-1000.0
1742118450.67,-938.477,-7.324,55.664,-944.336
1742118450.685,-939.941,-79.59,-56.152,-937.988
1742118450.689,-1000.0,-170.41,-72.754,-1000.0
1742118450.693,-217.773,406.25,19.043,-203.613
1742118450.697,999.512,528.32,33.691,999.512
1742118450.701,943.848,-339.355,-133.301,941.406
1742118450.705,885.254,-234.375,-99.121,890.625
1742118450.709,999.512,-7.324,35.645,999.512
1742118450.712,86.426,-525.879,10.254,69.336
1742118450.716,-1000.0,-485.352,55.664,-1000.0
1742118450.72,-970.215,-97.656,-45.41,-970.215
1742118450.724,-981.445,-113.77,-66.895,-980.957
1742118450.728,-941.895,113.281,49.316,-943.359
1742118450.685,-939.941,-79.59,-56.152,-937.988
1742118450.689,-1000.0,-170.41,-72.754,-1000.0
1742118450.693,-217.773,406.25,19.043,-203.613
1742118450.697,999.512,528.32,33.691,999.512
1742118450.701,943.848,-339.355,-133.301,941.406
1742118450.705,885.254,-234.375,-99.121,890.625
1742118450.709,999.512,-7.324,35.645,999.512
1742118450.712,86.426,-525.879,10.254,69.336
1742118450.716,-1000.0,-485.352,55.664,-1000.0
1742118450.72,-970.215,-97.656,-45.41,-970.215
1742118450.724,-981.445,-113.77,-66.895,-980.957
1742118450.728,-941.895,113.281,49.316,-943.359
1742118450.729,-1000.0,-73.242,44.434,-1000.0
1742118450.733,-218.75,305.176,31.738,-206.055
1742118450.737,999.512,531.25,37.109,999.512
1742118450.741,949.707,-7.324,43.945,948.73
1742118450.745,939.453,79.102,9.766,941.895
1742118450.749,973.145,25.391,7.324,969.238
1742118450.753,904.297,-158.203,14.648,911.133
1742118450.756,999.512,-41.016,16.113,999.512
1742118450.76,175.781,-588.867,-41.992,120.117
1742118450.764,-1000.0,-667.48,-26.855,-1000.0
1742118450.768,-993.164,-4.883,93.75,-988.281
1742118450.772,-901.367,140.137,104.492,-907.227
1742118450.729,-1000.0,-73.242,44.434,-1000.0
1742118450.733,-218.75,305.176,31.738,-206.055
1742118450.737,999.512,531.25,37.109,999.512
1742118450.741,949.707,-7.324,43.945,948.73
1742118450.745,939.453,79.102,9.766,941.895
1742118450.749,973.145,25.391,7.324,969.238
1742118450.753,904.297,-158.203,14.648,911.133
1742118450.756,999.512,-41.016,16.113,999.512
1742118450.76,175.781,-588.867,-41.992,120.117
1742118450.764,-1000.0,-667.48,-26.855,-1000.0
1742118450.768,-993.164,-4.883,93.75,-988.281
1742118450.772,-901.367,140.137,104.492,-907.227
1742118450.789,-1000.0,-98.145,9.277,-1000.0
1742118450.793,-435.547,298.34,7.812,-540.039
1742118450.797,949.219,779.785,87.891,867.676
1742118450.801,987.305,-83.008,48.828,999.512
1742118450.805,936.035,-195.801,-44.434,926.27
1742118450.809,920.41,104.004,35.645,934.082
1742118450.813,999.512,-120.605,33.203,999.512
1742118450.816,774.414,-318.848,-20.508,861.816
1742118450.82,-640.625,-759.277,-94.238,-490.234
1742118450.824,-1000.0,-410.645,-31.738,-1000.0
1742118450.828,-935.059,-26.367,47.852,-937.012
1742118450.832,-1000.0,-46.387,62.988,-1000.0
1742118450.789,-1000.0,-98.145,9.277,-1000.0
1742118450.793,-435.547,298.34,7.812,-540.039
1742118450.797,949.219,779.785,87.891,867.676
1742118450.801,987.305,-83.008,48.828,999.512
1742118450.805,936.035,-195.801,-44.434,926.27
1742118450.809,920.41,104.004,35.645,934.082
1742118450.813,999.512,-120.605,33.203,999.512
1742118450.816,774.414,-318.848,-20.508,861.816
1742118450.82,-640.625,-759.277,-94.238,-490.234
1742118450.824,-1000.0,-410.645,-31.738,-1000.0
1742118450.828,-935.059,-26.367,47.852,-937.012
1742118450.832,-1000.0,-46.387,62.988,-1000.0
1742118450.82,-935.059,5.371,293.945,-940.43
1742118450.824,-1000.0,-111.816,350.098,-1000.0
1742118450.828,-729.98,52.246,130.859,-755.371
1742118450.832,707.031,558.105,136.23,650.879
1742118450.836,999.512,51.758,248.047,999.512
1742118450.84,903.32,-220.703,694.336,905.273
1742118450.844,985.84,36.621,998.535,986.816
1742118450.847,898.438,-104.492,950.684,897.461
1742118450.851,999.512,-81.543,964.844,999.512
1742118450.855,270.996,-408.691,967.773,321.777
1742118450.859,-1000.0,-698.73,967.285,-1000.0
1742118450.863,-998.047,-221.191,967.285,-1000.0
1742118450.82,-935.059,5.371,293.945,-940.43
1742118450.824,-1000.0,-111.816,350.098,-1000.0
1742118450.828,-729.98,52.246,130.859,-755.371
1742118450.832,707.031,558.105,136.23,650.879
1742118450.836,999.512,51.758,248.047,999.512
1742118450.84,903.32,-220.703,694.336,905.273
1742118450.844,985.84,36.621,998.535,986.816
1742118450.847,898.438,-104.492,950.684,897.461
1742118450.851,999.512,-81.543,964.844,999.512
1742118450.855,270.996,-408.691,967.773,321.777
1742118450.859,-1000.0,-698.73,967.285,-1000.0
1742118450.863,-998.047,-221.191,967.285,-1000.0
1742118450.864,-966.309,27.832,973.633,-962.402
1742118450.868,-1000.0,109.863,941.406,-1000.0
1742118450.872,-1000.0,135.742,973.145,-1000.0
1742118450.876,-1000.0,-29.785,915.039,-1000.0
1742118450.88,-932.617,-137.207,-53.711,-931.641
1742118450.884,-1000.0,-93.262,-880.371,-1000.0
1742118450.888,-305.664,394.043,-965.332,-340.82
1742118450.891,945.312,464.844,-925.781,939.941
1742118450.895,999.512,-61.523,-820.801,999.512
1742118450.899,173.828,-411.133,-812.988,93.75
1742118450.903,-1000.0,-510.254,-880.371,-1000.0
1742118450.907,-1000.0,212.402,-742.188,-973.633
1742118450.864,-966.309,27.832,973.633,-962.402
1742118450.868,-1000.0,109.863,941.406,-1000.0
1742118450.872,-1000.0,135.742,973.145,-1000.0
1742118450.876,-1000.0,-29.785,915.039,-1000.0
1742118450.88,-932.617,-137.207,-53.711,-931.641
1742118450.884,-1000.0,-93.262,-880.371,-1000.0
1742118450.888,-305.664,394.043,-965.332,-340.82
1742118450.891,945.312,464.844,-925.781,939.941
1742118450.895,999.512,-61.523,-820.801,999.512
1742118450.899,173.828,-411.133,-812.988,93.75
1742118450.903,-1000.0,-510.254,-880.371,-1000.0
1742118450.907,-1000.0,212.402,-742.188,-973.633
1742118450.912,194.336,528.809,-751.953,211.914
1742118450.916,999.512,150.879,-796.387,999.512
1742118450.92,680.664,-230.957,-633.789,571.777
1742118450.924,-616.699,-502.441,-623.047,-680.176
1742118450.928,-1000.0,-317.383,-560.547,-1000.0
1742118450.932,-156.25,521.973,-562.5,-184.082
1742118450.936,999.512,424.316,-524.414,999.512
1742118450.939,887.695,-238.281,-469.238,902.344
1742118450.943,999.512,48.34,-389.16,999.512
1742118450.947,187.012,-358.398,-289.062,102.051
1742118450.951,-1000.0,-482.91,-351.562,-1000.0
1742118450.955,-968.75,61.523,-365.234,-961.426
1742118450.971,-933.594,10.742,-348.633,-937.988
1742118450.975,-1000.0,-165.039,-374.512,-1000.0
1742118450.979,11.719,491.699,-36.621,-12.695
1742118450.983,999.512,496.582,189.941,999.512
1742118450.987,926.27,-247.559,230.957,930.664
1742118450.991,928.711,-47.852,737.793,926.758
1742118450.995,953.613,134.277,999.512,964.844
1742118450.998,999.512,-92.773,947.266,955.566
1742118451.002,-220.215,-549.805,967.285,-240.234
1742118451.006,-1000.0,-374.512,967.773,-1000.0
1742118451.01,-949.219,80.566,967.285,-960.938
1742118451.014,-928.711,151.367,967.285,-924.805
1742118450.971,-933.594,10.742,-348.633,-937.988
1742118450.975,-1000.0,-165.039,-374.512,-1000.0
1742118450.979,11.719,491.699,-36.621,-12.695
1742118450.983,999.512,496.582,189.941,999.512
1742118450.987,926.27,-247.559,230.957,930.664
1742118450.991,928.711,-47.852,737.793,926.758
1742118450.995,953.613,134.277,999.512,964.844
1742118450.998,999.512,-92.773,947.266,955.566
1742118451.002,-220.215,-549.805,967.285,-240.234
1742118451.006,-1000.0,-374.512,967.773,-1000.0
1742118451.01,-949.219,80.566,967.285,-960.938
1742118451.014,-928.711,151.367,967.285,-924.805
1742118451.001,-1000.0,-54.688,967.285,-1000.0
1742118451.005,-381.348,273.926,967.285,-415.527
1742118451.009,958.008,699.219,967.285,926.27
1742118451.013,940.43,151.855,966.797,979.004
1742118451.017,999.512,49.805,966.797,915.527
1742118451.021,-53.711,-226.562,966.797,-199.707
1742118451.025,-1000.0,-241.699,967.285,-1000.0
1742118451.028,-879.883,-87.891,967.285,-884.277
1742118451.032,-1000.0,-296.875,967.285,-1000.0
1742118451.036,-415.527,284.18,966.797,-427.734
1742118451.04,965.332,695.312,966.797,953.125
1742118451.044,915.527,132.324,966.797,919.434
1742118451.001,-1000.0,-54.688,967.285,-1000.0
1742118451.005,-381.348,273.926,967.285,-415.527
1742118451.009,958.008,699.219,967.285,926.27
1742118451.013,940.43,151.855,966.797,979.004
1742118451.017,999.512,49.805,966.797,915.527
1742118451.021,-53.711,-226.562,966.797,-199.707
1742118451.025,-1000.0,-241.699,967.285,-1000.0
1742118451.028,-879.883,-87.891,967.285,-884.277
1742118451.032,-1000.0,-296.875,967.285,-1000.0
1742118451.036,-415.527,284.18,966.797,-427.734
1742118451.04,965.332,695.312,966.797,953.125
1742118451.044,915.527,132.324,966.797,919.434
1742118451.105,900.391,-76.66,786.133,905.762
1742118451.109,999.512,-72.754,715.82,999.512
1742118451.113,-9.766,-610.84,574.707,-27.832
1742118451.117,-1000.0,-461.914,626.465,-1000.0
1742118451.121,-1000.0,24.414,735.352,-1000.0
1742118451.125,-260.742,578.125,758.301,-289.551
1742118451.129,999.512,577.637,732.91,999.512
1742118451.132,921.875,-210.449,665.527,928.223
1742118451.136,941.895,-59.57,669.434,944.336
1742118451.14,976.074,153.809,513.672,945.312
1742118451.144,-331.543,-441.406,356.445,-333.984
1742118451.148,-1000.0,-409.668,503.906,-1000.0
1742118451.105,900.391,-76.66,786.133,905.762
1742118451.109,999.512,-72.754,715.82,999.512
1742118451.113,-9.766,-610.84,574.707,-27.832
1742118451.117,-1000.0,-461.914,626.465,-1000.0
1742118451.121,-1000.0,24.414,735.352,-1000.0
1742118451.125,-260.742,578.125,758.301,-289.551
1742118451.129,999.512,577.637,732.91,999.512
1742118451.132,921.875,-210.449,665.527,928.223
1742118451.136,941.895,-59.57,669.434,944.336
1742118451.14,976.074,153.809,513.672,945.312
1742118451.144,-331.543,-441.406,356.445,-333.984
1742118451.148,-1000.0,-409.668,503.906,-1000.0
1742118451.15,-1000.0,36.133,483.398,-1000.0
1742118451.154,-45.898,452.148,416.504,40.527
1742118451.158,999.512,538.574,448.73,999.512
1742118451.162,860.84,-173.828,458.984,864.258
1742118451.166,999.512,-114.746,505.371,999.512
1742118451.17,696.289,-41.504,513.184,681.152
1742118451.174,-739.746,-533.691,432.129,-707.52
1742118451.177,-1000.0,-342.773,401.367,-1000.0
1742118451.181,-863.281,57.617,453.613,-870.605
1742118451.185,-1000.0,-73.73,455.566,-1000.0
1742118451.189,-505.371,209.961,427.734,-493.652
1742118451.193,916.992,747.07,419.434,909.668
1742118451.15,-1000.0,36.133,483.398,-1000.0
1742118451.154,-45.898,452.148,416.504,40.527
1742118451.158,999.512,538.574,448.73,999.512
1742118451.162,860.84,-173.828,458.984,864.258
1742118451.166,999.512,-114.746,505.371,999.512
1742118451.17,696.289,-41.504,513.184,681.152
1742118451.174,-739.746,-533.691,432.129,-707.52
1742118451.177,-1000.0,-342.773,401.367,-1000.0
1742118451.181,-863.281,57.617,453.613,-870.605
1742118451.185,-1000.0,-73.73,455.566,-1000.0
1742118451.189,-505.371,209.961,427.734,-493.652
1742118451.193,916.992,747.07,419.434,909.668
1742118451.194,981.934,204.102,401.367,975.098
1742118451.198,885.254,-388.184,306.152,906.25
1742118451.202,999.512,-123.535,316.406,999.512
1742118451.206,-115.234,-379.395,406.738,-200.684
1742118451.21,-1000.0,-276.367,287.598,-1000.0
1742118451.214,-943.848,89.355,-114.746,-943.359
1742118451.218,-937.012,-56.641,-462.891,-943.848
1742118451.221,-1000.0,-131.348,-531.25,-1000.0
1742118451.225,-159.668,328.125,-495.605,-122.07
1742118451.229,999.512,371.582,-457.031,999.512
1742118451.233,941.406,-167.48,-440.918,939.941
1742118451.237,956.543,-79.102,-432.129,951.172
1742118451.194,981.934,204.102,401.367,975.098
1742118451.198,885.254,-388.184,306.152,906.25
1742118451.202,999.512,-123.535,316.406,999.512
1742118451.206,-115.234,-379.395,406.738,-200.684
1742118451.21,-1000.0,-276.367,287.598,-1000.0
1742118451.214,-943.848,89.355,-114.746,-943.359
1742118451.218,-937.012,-56.641,-462.891,-943.848
1742118451.221,-1000.0,-131.348,-531.25,-1000.0
1742118451.225,-159.668,328.125,-495.605,-122.07
1742118451.229,999.512,371.582,-457.031,999.512
1742118451.233,941.406,-167.48,-440.918,939.941
1742118451.237,956.543,-79.102,-432.129,951.172
1742118451.241,919.434,-175.293,-357.91,931.152
1742118451.245,999.512,-200.684,-256.348,998.047
1742118451.249,836.914,95.703,-176.27,666.992
1742118451.253,-552.734,-406.25,-127.441,-608.887
1742118451.257,-1000.0,-568.848,-106.934,-1000.0
1742118451.261,-864.258,42.48,-27.832,-876.465
1742118451.265,-1000.0,-132.812,238.77,-1000.0
1742118451.268,-355.469,131.836,466.309,-375.488
1742118451.272,987.305,590.82,603.027,976.074
1742118451.276,972.656,-90.82,760.742,977.539
1742118451.28,928.223,-170.41,859.863,927.246
1742118451.284,977.051,-13.672,856.445,978.027
1742118451.241,919.434,-175.293,-357.91,931.152
1742118451.245,999.512,-200.684,-256.348,998.047
1742118451.249,836.914,95.703,-176.27,666.992
1742118451.253,-552.734,-406.25,-127.441,-608.887
1742118451.257,-1000.0,-568.848,-106.934,-1000.0
1742118451.261,-864.258,42.48,-27.832,-876.465
1742118451.265,-1000.0,-132.812,238.77,-1000.0
1742118451.268,-355.469,131.836,466.309,-375.488
1742118451.272,987.305,590.82,603.027,976.074
1742118451.276,972.656,-90.82,760.742,977.539
1742118451.28,928.223,-170.41,859.863,927.246
1742118451.284,977.051,-13.672,856.445,978.027
1742118451.285,968.75,36.621,873.047,976.074
1742118451.289,901.367,-147.461,937.012,895.996
1742118451.293,999.512,8.301,961.426,999.512
1742118451.297,223.145,-302.734,954.102,366.211
1742118451.301,-1000.0,-559.57,985.352,-997.559
1742118451.305,-989.746,162.109,785.156,-1000.0
1742118451.309,-972.168,309.082,385.254,-962.891
1742118451.312,-996.582,133.301,70.312,-992.188
1742118451.316,-955.566,-6.348,-238.281,-973.633
1742118451.32,-1000.0,36.621,-408.203,-1000.0
1742118451.324,-31.25,541.504,-423.34,81.055
1742118451.328,999.512,578.125,-428.223,999.512
1742118451.285,968.75,36.621,873.047,976.074
1742118451.289,901.367,-147.461,937.012,895.996
1742118451.293,999.512,8.301,961.426,999.512
1742118451.297,223.145,-302.734,954.102,366.211
1742118451.301,-1000.0,-559.57,985.352,-997.559
1742118451.305,-989.746,162.109,785.156,-1000.0
1742118451.309,-972.168,309.082,385.254,-962.891
1742118451.312,-996.582,133.301,70.312,-992.188
1742118451.316,-955.566,-6.348,-238.281,-973.633
1742118451.32,-1000.0,36.621,-408.203,-1000.0
1742118451.324,-31.25,541.504,-423.34,81.055
1742118451.328,999.512,578.125,-428.223,999.512
1742118451.329,924.805,107.91,-426.758,918.945
1742118451.333,953.125,205.566,-385.254,958.984
1742118451.337,968.75,323.73,-320.312,969.238
1742118451.341,977.539,175.293,-342.773,974.609
1742118451.345,921.387,123.047,-316.406,929.199
1742118451.349,994.629,289.551,-269.043,984.375
1742118451.353,891.113,107.422,-249.023,880.371
1742118451.356,-403.809,-209.473,-141.113,-350.098
1742118451.36,-1000.0,-51.27,-83.496,-1000.0
1742118451.364,-847.168,139.648,-32.715,-843.262
1742118451.368,452.148,654.785,63.477,442.871
1742118451.372,999.512,544.922,157.715,999.512
1742118451.329,924.805,107.91,-426.758,918.945
1742118451.333,953.125,205.566,-385.254,958.984
1742118451.337,968.75,323.73,-320.312,969.238
1742118451.341,977.539,175.293,-342.773,974.609
1742118451.345,921.387,123.047,-316.406,929.199
1742118451.349,994.629,289.551,-269.043,984.375
1742118451.353,891.113,107.422,-249.023,880.371
1742118451.356,-403.809,-209.473,-141.113,-350.098
1742118451.36,-1000.0,-51.27,-83.496,-1000.0
1742118451.364,-847.168,139.648,-32.715,-843.262
1742118451.368,452.148,654.785,63.477,442.871
1742118451.372,999.512,544.922,157.715,999.512
1742118451.376,900.391,166.016,324.707,905.762
1742118451.38,972.168,173.828,377.93,966.797
1742118451.384,909.668,172.363,366.699,919.434
1742118451.388,999.512,264.648,310.547,999.512
1742118451.392,114.746,-254.883,236.328,54.688
1742118451.396,-1000.0,-347.168,189.941,-1000.0
1742118451.4,-900.391,135.742,58.594,-898.438
1742118451.403,-1000.0,-87.891,42.969,-1000.0
1742118451.407,-461.914,195.312,97.168,-524.902
1742118451.411,939.941,583.008,125.488,883.789
1742118451.415,991.699,42.969,57.129,999.512
1742118451.419,919.922,-58.594,38.086,916.504
1742118451.376,900.391,166.016,324.707,905.762
1742118451.38,972.168,173.828,377.93,966.797
1742118451.384,909.668,172.363,366.699,919.434
1742118451.388,999.512,264.648,310.547,999.512
1742118451.392,114.746,-254.883,236.328,54.688
1742118451.396,-1000.0,-347.168,189.941,-1000.0
1742118451.4,-900.391,135.742,58.594,-898.438
1742118451.403,-1000.0,-87.891,42.969,-1000.0
1742118451.407,-461.914,195.312,97.168,-524.902
1742118451.411,939.941,583.008,125.488,883.789
1742118451.415,991.699,42.969,57.129,999.512
1742118451.419,919.922,-58.594,38.086,916.504
1742118451.434,994.141,-41.504,4.395,992.676
1742118451.438,894.043,-4.883,-42.48,899.902
1742118451.442,999.512,197.754,57.129,999.512
1742118451.446,573.73,-309.57,112.793,559.082
1742118451.45,-852.051,-704.102,63.965,-826.66
1742118451.454,-1000.0,123.535,-0.977,-1000.0
1742118451.458,-1000.0,-29.785,-8.789,-1000.0
1742118451.461,-29.785,167.969,68.848,-17.578
1742118451.465,999.512,371.582,99.609,999.512
1742118451.469,923.34,-123.047,84.473,931.641
1742118451.473,954.102,-98.633,64.453,952.637
1742118451.477,968.75,-67.383,71.777,970.703
1742118451.434,994.141,-41.504,4.395,992.676
1742118451.438,894.043,-4.883,-42.48,899.902
1742118451.442,999.512,197.754,57.129,999.512
1742118451.446,573.73,-309.57,112.793,559.082
1742118451.45,-852.051,-704.102,63.965,-826.66
1742118451.454,-1000.0,123.535,-0.977,-1000.0
1742118451.458,-1000.0,-29.785,-8.789,-1000.0
1742118451.461,-29.785,167.969,68.848,-17.578
1742118451.465,999.512,371.582,99.609,999.512
1742118451.469,923.34,-123.047,84.473,931.641
1742118451.473,954.102,-98.633,64.453,952.637
1742118451.477,968.75,-67.383,71.777,970.703
1742118451.48,966.309,29.785,3.418,967.285
1742118451.484,966.309,-230.957,-61.035,966.797
1742118451.488,978.027,-188.477,-12.695,975.098
1742118451.492,918.457,-124.512,-2.441,932.617
1742118451.496,999.512,-146.973,-9.766,972.656
1742118451.5,876.953,-200.195,-2.441,959.473
1742118451.504,-494.629,-624.512,19.531,-320.801
1742118451.507,-1000.0,-520.508,-17.09,-1000.0
1742118451.511,-869.141,-263.672,-103.516,-875.977
1742118451.515,-1000.0,-293.945,-108.887,-1000.0
1742118451.519,-255.859,213.867,-126.953,-262.695
1742118451.523,999.512,432.129,-109.375,999.512
1742118451.48,966.309,29.785,3.418,967.285
1742118451.484,966.309,-230.957,-61.035,966.797
1742118451.488,978.027,-188.477,-12.695,975.098
1742118451.492,918.457,-124.512,-2.441,932.617
1742118451.496,999.512,-146.973,-9.766,972.656
1742118451.5,876.953,-200.195,-2.441,959.473
1742118451.504,-494.629,-624.512,19.531,-320.801
1742118451.507,-1000.0,-520.508,-17.09,-1000.0
1742118451.511,-869.141,-263.672,-103.516,-875.977
1742118451.515,-1000.0,-293.945,-108.887,-1000.0
1742118451.519,-255.859,213.867,-126.953,-262.695
1742118451.523,999.512,432.129,-109.375,999.512
1742118451.524,964.844,-172.363,-69.336,965.332
1742118451.528,898.926,-311.523,-53.711,905.762
1742118451.532,982.422,-19.043,32.227,970.703
1742118451.536,965.332,-40.527,27.832,989.258
1742118451.54,-364.746,-751.465,6.836,-277.832
1742118451.544,-1000.0,-346.191,56.641,-1000.0
1742118451.548,-1000.0,-166.504,105.957,-1000.0
1742118451.551,-704.102,-181.152,73.73,-627.441
1742118451.555,652.832,350.586,43.945,695.312
1742118451.559,999.512,20.02,39.551,999.512
1742118451.563,421.875,-439.453,36.133,416.504
1742118451.567,-924.316,-757.812,11.719,-912.109
1742118451.569,-1000.0,-348.633,-28.809,-1000.0
1742118451.573,-949.219,-244.141,-75.684,-950.684
1742118451.577,-1000.0,-186.523,-32.227,-1000.0
1742118451.581,-937.012,-3.906,76.66,-933.105
1742118451.585,-1000.0,-221.191,74.219,-1000.0
1742118451.589,-215.332,352.051,51.27,-292.48
1742118451.593,966.797,721.68,54.688,941.406
1742118451.596,999.512,-157.715,26.855,999.512
1742118451.6,639.16,-595.703,17.09,551.27
1742118451.604,-765.625,-798.828,-6.348,-804.688
1742118451.608,-1000.0,-223.145,-3.906,-1000.0
1742118451.612,-873.047,128.906,-11.23,-874.512
1742118451.569,-1000.0,-348.633,-28.809,-1000.0
1742118451.573,-949.219,-244.141,-75.684,-950.684
1742118451.577,-1000.0,-186.523,-32.227,-1000.0
1742118451.581,-937.012,-3.906,76.66,-933.105
1742118451.585,-1000.0,-221.191,74.219,-1000.0
1742118451.589,-215.332,352.051,51.27,-292.48
1742118451.593,966.797,721.68,54.688,941.406
1742118451.596,999.512,-157.715,26.855,999.512
1742118451.6,639.16,-595.703,17.09,551.27
1742118451.604,-765.625,-798.828,-6.348,-804.688
1742118451.608,-1000.0,-223.145,-3.906,-1000.0
1742118451.612,-873.047,128.906,-11.23,-874.512
1742118451.615,-1000.0,-323.242,-104.98,-1000.0
1742118451.619,-264.648,128.906,-88.867,-397.461
1742118451.623,999.512,791.992,-19.043,965.332
1742118451.627,972.168,52.734,-80.078,993.164
1742118451.631,861.328,-252.441,-123.535,855.469
1742118451.635,999.512,218.75,35.645,999.512
1742118451.639,546.875,-176.27,141.602,472.168
1742118451.642,-894.043,-641.602,168.945,-918.945
1742118451.646,-992.188,-94.238,199.219,-979.492
1742118451.65,-1000.0,-188.477,179.199,-1000.0
1742118451.654,-187.988,355.469,173.34,-182.129
1742118451.658,999.512,573.73,173.828,999.512
1742118451.615,-1000.0,-323.242,-104.98,-1000.0
1742118451.619,-264.648,128.906,-88.867,-397.461
1742118451.623,999.512,791.992,-19.043,965.332
1742118451.627,972.168,52.734,-80.078,993.164
1742118451.631,861.328,-252.441,-123.535,855.469
1742118451.635,999.512,218.75,35.645,999.512
1742118451.639,546.875,-176.27,141.602,472.168
1742118451.642,-894.043,-641.602,168.945,-918.945
1742118451.646,-992.188,-94.238,199.219,-979.492
1742118451.65,-1000.0,-188.477,179.199,-1000.0
1742118451.654,-187.988,355.469,173.34,-182.129
1742118451.658,999.512,573.73,173.828,999.512
1742118451.661,952.148,-70.801,176.758,953.125
1742118451.665,906.25,-137.207,181.641,904.297
1742118451.669,977.539,1.953,176.758,991.211
1742118451.673,973.633,19.531,106.445,913.086
1742118451.677,-336.426,-633.789,35.645,-391.602
1742118451.681,-1000.0,-221.191,-8.301,-1000.0
1742118451.685,-880.859,293.945,-34.18,-887.695
1742118451.688,-1000.0,-201.172,-74.219,-1000.0
1742118451.692,-131.836,271.484,-69.824,-121.582
1742118451.696,999.512,296.387,-72.266,999.512
1742118451.7,937.5,-102.539,-108.398,938.965
1742118451.704,945.801,-24.414,-136.23,946.777
1742118451.661,952.148,-70.801,176.758,953.125
1742118451.665,906.25,-137.207,181.641,904.297
1742118451.669,977.539,1.953,176.758,991.211
1742118451.673,973.633,19.531,106.445,913.086
1742118451.677,-336.426,-633.789,35.645,-391.602
1742118451.681,-1000.0,-221.191,-8.301,-1000.0
1742118451.685,-880.859,293.945,-34.18,-887.695
1742118451.688,-1000.0,-201.172,-74.219,-1000.0
1742118451.692,-131.836,271.484,-69.824,-121.582
1742118451.696,999.512,296.387,-72.266,999.512
1742118451.7,937.5,-102.539,-108.398,938.965
1742118451.704,945.801,-24.414,-136.23,946.777
1742118451.705,972.168,-14.16,-191.406,975.098
1742118451.709,902.832,-194.824,-165.527,900.879
1742118451.713,999.512,-71.289,-14.648,999.512
1742118451.717,197.266,-472.168,-9.766,245.117
1742118451.721,-1000.0,-797.363,-99.121,-1000.0
1742118451.725,-987.793,-109.863,-43.457,-995.117
1742118451.729,-960.449,-171.875,5.371,-961.914
1742118451.732,-963.867,-367.188,-58.594,-957.031
1742118451.736,-1000.0,-253.906,-22.461,-1000.0
1742118451.74,-22.949,165.527,61.035,-109.375
1742118451.744,999.512,228.516,40.039,999.512
1742118451.748,923.828,-116.211,76.172,936.523
1742118451.705,972.168,-14.16,-191.406,975.098
1742118451.709,902.832,-194.824,-165.527,900.879
1742118451.713,999.512,-71.289,-14.648,999.512
1742118451.717,197.266,-472.168,-9.766,245.117
1742118451.721,-1000.0,-797.363,-99.121,-1000.0
1742118451.725,-987.793,-109.863,-43.457,-995.117
1742118451.729,-960.449,-171.875,5.371,-961.914
1742118451.732,-963.867,-367.188,-58.594,-957.031
1742118451.736,-1000.0,-253.906,-22.461,-1000.0
1742118451.74,-22.949,165.527,61.035,-109.375
1742118451.744,999.512,228.516,40.039,999.512
1742118451.748,923.828,-116.211,76.172,936.523
1742118451.753,962.891,-115.723,82.52,957.031
1742118451.757,931.641,-177.246,52.734,931.152
1742118451.761,974.609,-274.902,48.828,989.258
1742118451.765,965.82,-273.438,72.266,900.879
1742118451.769,-348.633,-703.613,66.406,-409.18
1742118451.773,-1000.0,-586.914,32.715,-1000.0
1742118451.777,-936.035,-159.18,51.27,-940.43
1742118451.78,-942.871,-138.672,144.043,-942.383
1742118451.784,-1000.0,-244.629,238.77,-1000.0
1742118451.788,-219.238,259.766,299.316,-217.773
1742118451.792,999.512,514.648,656.25,999.512
1742118451.796,949.707,118.164,975.098,950.195
1742118451.753,962.891,-115.723,82.52,957.031
1742118451.757,931.641,-177.246,52.734,931.152
1742118451.761,974.609,-274.902,48.828,989.258
1742118451.765,965.82,-273.438,72.266,900.879
1742118451.769,-348.633,-703.613,66.406,-409.18
1742118451.773,-1000.0,-586.914,32.715,-1000.0
1742118451.777,-936.035,-159.18,51.27,-940.43
1742118451.78,-942.871,-138.672,144.043,-942.383
1742118451.784,-1000.0,-244.629,238.77,-1000.0
1742118451.788,-219.238,259.766,299.316,-217.773
1742118451.792,999.512,514.648,656.25,999.512
1742118451.796,949.707,118.164,975.098,950.195
1742118451.809,938.965,0.977,961.426,939.941
1742118451.813,987.305,-7.812,960.449,985.84
1742118451.817,892.578,172.363,969.238,899.902
1742118451.821,999.512,155.762,966.797,999.512
1742118451.825,530.762,-350.098,966.797,552.246
1742118451.829,-904.785,-535.645,967.285,-849.121
1742118451.833,-1000.0,-152.344,967.285,-1000.0
1742118451.836,-945.801,-219.238,967.285,-946.777
1742118451.84,-1000.0,-117.676,967.285,-1000.0
1742118451.844,-952.148,1.953,967.285,-952.148
1742118451.848,-1000.0,-120.605,967.285,-1000.0
1742118451.852,-910.645,19.043,967.285,-872.07
1742118451.869,464.355,559.57,966.797,481.445
1742118451.873,999.512,15.137,966.797,999.512
1742118451.877,999.512,-103.027,967.285,999.512
1742118451.881,255.859,-242.188,967.285,243.652
1742118451.885,-1000.0,-594.238,967.285,-1000.0
1742118451.889,-789.551,89.355,966.797,-584.961
1742118451.893,641.602,571.289,966.797,820.312
1742118451.896,993.164,173.34,966.797,952.637
1742118451.9,999.512,-184.082,967.285,999.512
1742118451.904,200.195,-492.676,967.285,222.656
1742118451.908,-1000.0,-626.465,967.285,-1000.0
1742118451.912,-997.07,40.039,967.285,-999.023
1742118451.869,464.355,559.57,966.797,481.445
1742118451.873,999.512,15.137,966.797,999.512
1742118451.877,999.512,-103.027,967.285,999.512
1742118451.881,255.859,-242.188,967.285,243.652
1742118451.885,-1000.0,-594.238,967.285,-1000.0
1742118451.889,-789.551,89.355,966.797,-584.961
1742118451.893,641.602,571.289,966.797,820.312
1742118451.896,993.164,173.34,966.797,952.637
1742118451.9,999.512,-184.082,967.285,999.512
1742118451.904,200.195,-492.676,967.285,222.656
1742118451.908,-1000.0,-626.465,967.285,-1000.0
1742118451.912,-997.07,40.039,967.285,-999.023
1742118451.915,-898.926,59.082,966.797,-899.902
1742118451.919,-1000.0,-253.906,967.285,-1000.0
1742118451.923,-500.0,342.285,965.332,-474.609
1742118451.927,916.016,674.805,969.727,916.016
1742118451.931,999.023,-47.363,945.312,997.559
1742118451.935,855.957,-60.059,895.508,857.91
1742118451.939,999.512,58.105,854.98,999.512
1742118451.942,168.457,-484.863,732.91,193.359
1742118451.946,-1000.0,-636.23,612.793,-1000.0
1742118451.95,-1000.0,-286.621,574.219,-1000.0
1742118451.954,-113.77,303.223,583.008,3.906
1742118451.958,999.512,429.199,594.238,999.512
1742118451.915,-898.926,59.082,966.797,-899.902
1742118451.919,-1000.0,-253.906,967.285,-1000.0
1742118451.923,-500.0,342.285,965.332,-474.609
1742118451.927,916.016,674.805,969.727,916.016
1742118451.931,999.023,-47.363,945.312,997.559
1742118451.935,855.957,-60.059,895.508,857.91
1742118451.939,999.512,58.105,854.98,999.512
1742118451.942,168.457,-484.863,732.91,193.359
1742118451.946,-1000.0,-636.23,612.793,-1000.0
1742118451.95,-1000.0,-286.621,574.219,-1000.0
1742118451.954,-113.77,303.223,583.008,3.906
1742118451.958,999.512,429.199,594.238,999.512
1742118451.944,970.703,-144.043,493.164,926.758
1742118451.948,-292.969,-640.625,402.344,-298.34
1742118451.952,-1000.0,-417.969,419.434,-1000.0
1742118451.956,-875.488,89.355,443.359,-885.742
1742118451.96,-1000.0,-155.273,425.293,-1000.0
1742118451.964,-764.648,191.406,445.801,-762.207
1742118451.968,655.273,750.977,511.719,618.164
1742118451.971,999.512,109.375,471.68,999.512
1742118451.975,999.512,-235.84,443.359,999.512
1742118451.979,72.266,-496.582,406.738,38.086
1742118451.983,-1000.0,-430.176,466.797,-1000.0
1742118451.987,-966.309,-62.5,488.77,-965.332
1742118451.944,970.703,-144.043,493.164,926.758
1742118451.948,-292.969,-640.625,402.344,-298.34
1742118451.952,-1000.0,-417.969,419.434,-1000.0
1742118451.956,-875.488,89.355,443.359,-885.742
1742118451.96,-1000.0,-155.273,425.293,-1000.0
1742118451.964,-764.648,191.406,445.801,-762.207
1742118451.968,655.273,750.977,511.719,618.164
1742118451.971,999.512,109.375,471.68,999.512
1742118451.975,999.512,-235.84,443.359,999.512
1742118451.979,72.266,-496.582,406.738,38.086
1742118451.983,-1000.0,-430.176,466.797,-1000.0
1742118451.987,-966.309,-62.5,488.77,-965.332
1742118451.989,-982.91,-193.359,377.93,-983.887
1742118451.993,-1000.0,-136.719,398.438,-1000.0
1742118451.997,-931.152,53.223,327.637,-940.43
1742118452.001,-1000.0,-17.09,378.906,-1000.0
1742118452.005,-670.898,-129.395,523.438,-735.84
1742118452.009,775.391,227.051,473.145,668.457
1742118452.013,970.215,-20.996,452.637,981.934
1742118452.016,999.512,-306.641,504.883,999.512
1742118452.02,237.305,-691.895,422.363,270.508
1742118452.024,-1000.0,-869.629,274.902,-1000.0
1742118452.028,-927.246,-297.852,143.066,-938.965
1742118452.032,-1000.0,-164.551,169.434,-1000.0
1742118451.989,-982.91,-193.359,377.93,-983.887
1742118451.993,-1000.0,-136.719,398.438,-1000.0
1742118451.997,-931.152,53.223,327.637,-940.43
1742118452.001,-1000.0,-17.09,378.906,-1000.0
1742118452.005,-670.898,-129.395,523.438,-735.84
1742118452.009,775.391,227.051,473.145,668.457
1742118452.013,970.215,-20.996,452.637,981.934
1742118452.016,999.512,-306.641,504.883,999.512
1742118452.02,237.305,-691.895,422.363,270.508
1742118452.024,-1000.0,-869.629,274.902,-1000.0
1742118452.028,-927.246,-297.852,143.066,-938.965
1742118452.032,-1000.0,-164.551,169.434,-1000.0
1742118452.037,-228.516,386.23,375.977,-175.293
1742118452.041,999.512,461.914,505.859,999.512
1742118452.045,912.598,-281.25,519.531,907.715
1742118452.049,948.242,-155.273,508.789,953.613
1742118452.053,969.727,-118.164,481.445,949.219
1742118452.057,-353.516,-577.637,427.734,-343.262
1742118452.061,-1000.0,-455.078,423.34,-1000.0
1742118452.064,-872.559,-188.477,370.605,-875.977
1742118452.068,-1000.0,-300.781,307.129,-1000.0
1742118452.072,-223.145,309.082,434.082,-252.93
1742118452.076,999.512,405.273,493.164,999.512
1742118452.08,955.078,-110.352,530.273,959.961
1742118452.037,-228.516,386.23,375.977,-175.293
1742118452.041,999.512,461.914,505.859,999.512
1742118452.045,912.598,-281.25,519.531,907.715
1742118452.049,948.242,-155.273,508.789,953.613
1742118452.053,969.727,-118.164,481.445,949.219
1742118452.057,-353.516,-577.637,427.734,-343.262
1742118452.061,-1000.0,-455.078,423.34,-1000.0
1742118452.064,-872.559,-188.477,370.605,-875.977
1742118452.068,-1000.0,-300.781,307.129,-1000.0
1742118452.072,-223.145,309.082,434.082,-252.93
1742118452.076,999.512,405.273,493.164,999.512
1742118452.08,955.078,-110.352,530.273,959.961
1742118452.08,917.969,-139.648,477.539,919.434
1742118452.084,945.312,-69.824,500.0,943.848
1742118452.088,999.512,105.469,413.574,999.512
1742118452.092,-142.578,-524.902,244.629,-92.285
1742118452.096,-1000.0,-525.879,256.348,-1000.0
1742118452.1,-1000.0,-251.465,265.137,-1000.0
1742118452.104,-359.375,17.578,329.59,-350.586
1742118452.107,956.055,403.32,322.266,946.289
1742118452.111,953.613,-77.637,288.574,975.098
1742118452.115,999.512,-238.281,354.98,929.199
1742118452.119,-168.457,-627.93,331.543,-255.371
1742118452.123,-1000.0,-384.277,277.832,-1000.0
1742118452.08,917.969,-139.648,477.539,919.434
1742118452.084,945.312,-69.824,500.0,943.848
1742118452.088,999.512,105.469,413.574,999.512
1742118452.092,-142.578,-524.902,244.629,-92.285
1742118452.096,-1000.0,-525.879,256.348,-1000.0
1742118452.1,-1000.0,-251.465,265.137,-1000.0
1742118452.104,-359.375,17.578,329.59,-350.586
1742118452.107,956.055,403.32,322.266,946.289
1742118452.111,953.613,-77.637,288.574,975.098
1742118452.115,999.512,-238.281,354.98,929.199
1742118452.119,-168.457,-627.93,331.543,-255.371
1742118452.123,-1000.0,-384.277,277.832,-1000.0
1742118452.141,-1000.0,-8.789,292.969,-1000.0
1742118452.145,-218.262,215.82,236.816,-147.461
1742118452.149,999.512,336.914,208.008,999.512
1742118452.153,887.207,-132.324,193.848,911.133
1742118452.157,999.512,-147.949,149.414,996.582
1742118452.161,193.359,-567.383,145.02,4.395
1742118452.165,-1000.0,-569.824,132.324,-1000.0
1742118452.168,-979.98,-101.074,87.891,-965.82
1742118452.172,-916.992,-232.91,16.602,-937.5
1742118452.176,-1000.0,-119.141,20.996,-1000.0
1742118452.18,-145.02,400.879,81.543,-81.543
1742118452.184,995.117,326.172,25.391,999.512
1742118452.141,-1000.0,-8.789,292.969,-1000.0
1742118452.145,-218.262,215.82,236.816,-147.461
1742118452.149,999.512,336.914,208.008,999.512
1742118452.153,887.207,-132.324,193.848,911.133
1742118452.157,999.512,-147.949,149.414,996.582
1742118452.161,193.359,-567.383,145.02,4.395
1742118452.165,-1000.0,-569.824,132.324,-1000.0
1742118452.168,-979.98,-101.074,87.891,-965.82
1742118452.172,-916.992,-232.91,16.602,-937.5
1742118452.176,-1000.0,-119.141,20.996,-1000.0
1742118452.18,-145.02,400.879,81.543,-81.543
1742118452.184,995.117,326.172,25.391,999.512
1742118452.184,999.512,-83.984,58.594,999.512
1742118452.188,166.992,-452.148,53.223,79.59
1742118452.192,-1000.0,-378.418,-9.277,-1000.0
1742118452.196,-1000.0,-33.203,-15.137,-1000.0
1742118452.2,108.887,258.301,0.488,211.914
1742118452.204,999.512,417.48,140.137,999.512
1742118452.208,940.918,-49.316,125.0,927.734
1742118452.211,899.902,-197.754,23.438,918.945
1742118452.215,-446.289,-525.391,-68.359,-376.465
1742118452.219,-1000.0,-394.043,-77.637,-1000.0
1742118452.223,-885.254,-124.023,19.531,-889.648
1742118452.227,-1000.0,-173.828,72.266,-1000.0
1742118452.229,-902.344,75.684,121.094,-832.52
1742118452.233,475.586,404.297,92.773,523.926
1742118452.237,999.512,136.719,5.859,999.512
1742118452.241,906.25,-47.363,11.23,912.109
1742118452.245,948.73,-73.242,16.113,950.684
1742118452.249,952.148,110.352,143.555,951.172
1742118452.253,999.512,94.238,181.641,999.512
1742118452.256,-223.145,-666.504,40.039,-194.336
1742118452.26,-1000.0,-551.27,-11.23,-1000.0
1742118452.264,-955.078,-184.082,22.461,-958.984
1742118452.268,-931.152,-23.926,34.18,-934.082
1742118452.272,-1000.0,91.309,-0.488,-1000.0
1742118452.229,-902.344,75.684,121.094,-832.52
1742118452.233,475.586,404.297,92.773,523.926
1742118452.237,999.512,136.719,5.859,999.512
1742118452.241,906.25,-47.363,11.23,912.109
1742118452.245,948.73,-73.242,16.113,950.684
1742118452.249,952.148,110.352,143.555,951.172
1742118452.253,999.512,94.238,181.641,999.512
1742118452.256,-223.145,-666.504,40.039,-194.336
1742118452.26,-1000.0,-551.27,-11.23,-1000.0
1742118452.264,-955.078,-184.082,22.461,-958.984
1742118452.268,-931.152,-23.926,34.18,-934.082
1742118452.272,-1000.0,91.309,-0.488,-1000.0
1742118452.739,958.984,-55.176,-622.07,963.379
1742118452.743,867.676,-251.465,-667.48,867.188
1742118452.747,999.512,143.555,-600.098,999.512
1742118452.751,357.422,-273.438,-675.293,401.367
1742118452.755,-1000.0,-709.473,-779.297,-978.027
1742118452.759,-1000.0,-49.805,-709.473,-1000.0
1742118452.763,-896.484,90.82,-683.105,-894.531
1742118452.766,-1000.0,-162.598,-632.324,-1000.0
1742118452.77,-221.191,358.398,-539.551,-201.66
1742118452.774,999.512,566.895,-515.137,999.512
1742118452.778,950.195,-266.602,-523.926,948.73
1742118452.782,953.613,-222.168,-521.973,946.777
1742118453.025,-1000.0,-619.141,-71.289,-1000.0
1742118453.029,-1000.0,-47.363,-38.086,-1000.0
1742118453.033,-229.98,509.766,-63.965,-233.887
1742118453.037,999.512,421.875,-74.219,999.512
1742118453.041,913.574,-209.473,-70.801,921.875
1742118453.045,999.512,110.84,-52.734,999.512
1742118453.049,-11.23,-459.961,-48.828,-29.785
1742118453.052,-1000.0,-605.957,11.719,-1000.0
1742118453.056,-957.031,30.762,51.758,-960.449
1742118453.06,-988.281,25.391,-14.16,-987.793
1742118453.064,-1000.0,-73.242,-30.273,-1000.0
1742118453.068,-937.5,14.16,-8.789,-934.082
1742118452.785,911.621,-28.32,-490.723,929.199
1742118452.789,999.512,-22.949,-514.16,999.512
1742118452.793,744.141,-177.734,-469.727,648.438
1742118452.797,-695.312,-566.406,-493.652,-662.598
1742118452.801,-1000.0,-286.133,-518.555,-1000.0
1742118452.805,-1000.0,-9.766,-354.98,-1000.0
1742118452.809,-663.574,85.938,-415.039,-675.781
1742118452.812,771.973,514.648,-387.207,709.473
1742118452.816,999.023,89.355,-284.18,999.512
1742118452.82,999.512,-83.984,-340.82,894.531
1742118452.824,-87.402,-477.539,-363.281,-254.883
1742118452.828,-1000.0,-298.828,-382.812,-1000.0
1742118452.785,911.621,-28.32,-490.723,929.199
1742118452.789,999.512,-22.949,-514.16,999.512
1742118452.793,744.141,-177.734,-469.727,648.438
1742118452.797,-695.312,-566.406,-493.652,-662.598
1742118452.801,-1000.0,-286.133,-518.555,-1000.0
1742118452.805,-1000.0,-9.766,-354.98,-1000.0
1742118452.809,-663.574,85.938,-415.039,-675.781
1742118452.812,771.973,514.648,-387.207,709.473
1742118452.816,999.023,89.355,-284.18,999.512
1742118452.82,999.512,-83.984,-340.82,894.531
1742118452.824,-87.402,-477.539,-363.281,-254.883
1742118452.828,-1000.0,-298.828,-382.812,-1000.0
1742118452.83,-882.324,13.184,-360.84,-879.395
1742118452.834,-1000.0,-328.125,-372.07,-1000.0
1742118452.838,-270.02,430.176,-356.934,-346.68
1742118452.842,999.512,521.484,-328.613,972.656
1742118452.846,902.832,-117.676,-323.242,938.965
1742118452.85,999.512,-0.977,-221.68,999.512
1742118452.854,108.398,-541.504,-215.82,-26.855
1742118452.857,-1000.0,-606.445,-256.836,-1000.0
1742118452.861,-909.18,-38.574,-177.734,-898.926
1742118452.865,-1000.0,-287.109,-162.109,-1000.0
1742118452.869,-225.098,289.551,-177.246,-255.371
1742118452.873,974.609,653.32,-219.727,971.68
1742118452.83,-882.324,13.184,-360.84,-879.395
1742118452.834,-1000.0,-328.125,-372.07,-1000.0
1742118452.838,-270.02,430.176,-356.934,-346.68
1742118452.842,999.512,521.484,-328.613,972.656
1742118452.846,902.832,-117.676,-323.242,938.965
1742118452.85,999.512,-0.977,-221.68,999.512
1742118452.854,108.398,-541.504,-215.82,-26.855
1742118452.857,-1000.0,-606.445,-256.836,-1000.0
1742118452.861,-909.18,-38.574,-177.734,-898.926
1742118452.865,-1000.0,-287.109,-162.109,-1000.0
1742118452.869,-225.098,289.551,-177.246,-255.371
1742118452.873,974.609,653.32,-219.727,971.68
1742118452.877,999.512,49.316,-183.594,999.512
1742118452.881,158.691,-301.758,-123.047,103.516
1742118452.885,-1000.0,-500.0,-125.488,-1000.0
1742118452.889,-1000.0,-280.762,-137.695,-1000.0
1742118452.893,-187.012,343.262,-131.348,-144.531
1742118452.897,999.512,483.398,-77.148,999.512
1742118452.901,936.035,-64.453,-63.965,956.055
1742118452.904,996.582,-155.273,-144.531,885.254
1742118452.908,-215.82,-545.41,-158.203,-333.984
1742118452.912,-1000.0,-441.406,-83.008,-1000.0
1742118452.916,-905.762,-9.277,-71.777,-915.039
1742118452.92,-1000.0,40.527,-58.105,-998.047
1742118452.877,999.512,49.316,-183.594,999.512
1742118452.881,158.691,-301.758,-123.047,103.516
1742118452.885,-1000.0,-500.0,-125.488,-1000.0
1742118452.889,-1000.0,-280.762,-137.695,-1000.0
1742118452.893,-187.012,343.262,-131.348,-144.531
1742118452.897,999.512,483.398,-77.148,999.512
1742118452.901,936.035,-64.453,-63.965,956.055
1742118452.904,996.582,-155.273,-144.531,885.254
1742118452.908,-215.82,-545.41,-158.203,-333.984
1742118452.912,-1000.0,-441.406,-83.008,-1000.0
1742118452.916,-905.762,-9.277,-71.777,-915.039
1742118452.92,-1000.0,40.527,-58.105,-998.047
1742118452.934,-1000.0,10.742,-31.738,-1000.0
1742118452.938,246.582,357.91,-30.273,203.125
1742118452.942,999.512,408.203,-5.371,999.512
1742118452.946,916.992,-116.211,-49.316,850.586
1742118452.95,-317.871,-593.75,-94.238,-406.738
1742118452.954,-1000.0,-148.438,-46.875,-1000.0
1742118452.958,-935.547,-90.82,-61.035,-938.477
1742118452.961,-1000.0,-340.82,12.207,-1000.0
1742118452.965,-975.586,-81.543,70.801,-980.957
1742118452.969,-979.98,-82.52,-12.207,-972.168
1742118452.973,-1000.0,-101.074,-96.191,-1000.0
1742118452.977,167.48,426.758,29.297,91.309
1742118452.934,-1000.0,10.742,-31.738,-1000.0
1742118452.938,246.582,357.91,-30.273,203.125
1742118452.942,999.512,408.203,-5.371,999.512
1742118452.946,916.992,-116.211,-49.316,850.586
1742118452.95,-317.871,-593.75,-94.238,-406.738
1742118452.954,-1000.0,-148.438,-46.875,-1000.0
1742118452.958,-935.547,-90.82,-61.035,-938.477
1742118452.961,-1000.0,-340.82,12.207,-1000.0
1742118452.965,-975.586,-81.543,70.801,-980.957
1742118452.969,-979.98,-82.52,-12.207,-972.168
1742118452.973,-1000.0,-101.074,-96.191,-1000.0
1742118452.977,167.48,426.758,29.297,91.309
1742118452.979,999.512,232.422,58.594,999.512
1742118452.983,999.512,-231.445,-45.898,999.512
1742118452.987,640.625,-315.43,-3.418,597.656
1742118452.991,-708.984,-577.148,30.762,-701.172
1742118452.995,-1000.0,-308.105,-2.441,-1000.0
1742118452.999,-571.777,212.402,-14.648,-518.066
1742118453.003,795.41,643.066,-42.48,811.035
1742118453.006,999.512,-60.059,-124.023,999.512
1742118453.01,908.203,-337.891,-135.742,913.574
1742118453.014,918.945,-111.328,-106.445,918.457
1742118453.018,999.512,22.949,-150.391,999.512
1742118453.022,184.082,-439.453,-161.133,169.922
1742118452.979,999.512,232.422,58.594,999.512
1742118452.983,999.512,-231.445,-45.898,999.512
1742118452.987,640.625,-315.43,-3.418,597.656
1742118452.991,-708.984,-577.148,30.762,-701.172
1742118452.995,-1000.0,-308.105,-2.441,-1000.0
1742118452.999,-571.777,212.402,-14.648,-518.066
1742118453.003,795.41,643.066,-42.48,811.035
1742118453.006,999.512,-60.059,-124.023,999.512
1742118453.01,908.203,-337.891,-135.742,913.574
1742118453.014,918.945,-111.328,-106.445,918.457
1742118453.018,999.512,22.949,-150.391,999.512
1742118453.022,184.082,-439.453,-161.133,169.922
1742118453.084,-1000.0,-72.266,-99.121,-1000.0
1742118453.088,-220.703,236.328,-215.82,-285.156
1742118453.092,999.512,500.488,-128.418,999.512
1742118453.096,949.707,69.336,-17.09,961.426
1742118453.1,952.637,1.465,-55.176,946.289
1742118453.104,916.504,-106.445,-80.078,926.27
1742118453.108,999.512,113.281,-14.16,999.512
1742118453.111,793.945,-38.086,-10.742,839.355
1742118453.115,-626.465,-687.012,-74.219,-535.645
1742118453.119,-1000.0,-191.406,-125.0,-1000.0
1742118453.123,-1000.0,-36.621,-187.5,-1000.0
1742118453.127,-481.445,344.238,-174.805,-485.84
1742118453.114,934.082,661.621,-133.301,922.363
1742118453.118,993.652,-96.191,-93.262,997.07
1742118453.122,918.945,2.441,-26.855,918.945
1742118453.126,993.652,-1.465,-99.609,994.141
1742118453.13,891.602,-148.926,-79.59,896.973
1742118453.134,999.512,84.961,-23.926,999.512
1742118453.138,493.652,-289.062,-52.246,559.082
1742118453.141,-934.082,-761.23,-58.105,-863.281
1742118453.145,-1000.0,-197.266,-43.945,-1000.0
1742118453.149,-948.242,-46.387,-85.938,-944.824
1742118453.153,-1000.0,-35.645,-57.129,-1000.0
1742118453.157,-998.047,133.301,29.785,-999.023
1742118453.114,934.082,661.621,-133.301,922.363
1742118453.118,993.652,-96.191,-93.262,997.07
1742118453.122,918.945,2.441,-26.855,918.945
1742118453.126,993.652,-1.465,-99.609,994.141
1742118453.13,891.602,-148.926,-79.59,896.973
1742118453.134,999.512,84.961,-23.926,999.512
1742118453.138,493.652,-289.062,-52.246,559.082
1742118453.141,-934.082,-761.23,-58.105,-863.281
1742118453.145,-1000.0,-197.266,-43.945,-1000.0
1742118453.149,-948.242,-46.387,-85.938,-944.824
1742118453.153,-1000.0,-35.645,-57.129,-1000.0
1742118453.157,-998.047,133.301,29.785,-999.023
1742118453.162,-941.895,47.852,-60.059,-940.43
1742118453.166,-1000.0,-130.371,-91.309,-1000.0
1742118453.17,-173.34,410.645,-32.715,-188.477
1742118453.174,999.512,455.566,-121.582,999.512
1742118453.178,943.359,-202.637,-340.332,945.801
1742118453.182,942.871,164.062,-254.395,941.895
1742118453.186,985.84,192.871,-147.461,987.305
1742118453.189,892.09,-259.277,-247.559,888.184
1742118453.193,999.512,-156.25,-191.406,999.512
1742118453.197,489.746,-373.047,-35.645,554.688
1742118453.201,-936.035,-651.367,36.621,-868.164
1742118453.205,-1000.0,-24.414,69.336,-1000.0
1742118453.162,-941.895,47.852,-60.059,-940.43
1742118453.166,-1000.0,-130.371,-91.309,-1000.0
1742118453.17,-173.34,410.645,-32.715,-188.477
1742118453.174,999.512,455.566,-121.582,999.512
1742118453.178,943.359,-202.637,-340.332,945.801
1742118453.182,942.871,164.062,-254.395,941.895
1742118453.186,985.84,192.871,-147.461,987.305
1742118453.189,892.09,-259.277,-247.559,888.184
1742118453.193,999.512,-156.25,-191.406,999.512
1742118453.197,489.746,-373.047,-35.645,554.688
1742118453.201,-936.035,-651.367,36.621,-868.164
1742118453.205,-1000.0,-24.414,69.336,-1000.0
1742118453.204,-948.73,31.738,240.723,-945.312
1742118453.208,-1000.0,-90.82,460.938,-1000.0
1742118453.212,-1000.0,142.09,418.945,-1000.0
1742118453.216,-927.246,-94.727,61.035,-934.57
1742118453.22,-1000.0,-128.906,-175.293,-1000.0
1742118453.224,-584.473,312.012,-195.801,-628.906
1742118453.228,867.676,472.656,-170.898,790.039
1742118453.231,945.312,17.09,-144.043,962.891
1742118453.235,999.512,-58.105,-125.0,999.512
1742118453.239,577.148,-277.344,-200.195,607.91
1742118453.243,-875.0,-774.902,-328.613,-808.105
1742118453.247,-1000.0,-359.863,-491.211,-1000.0
1742118453.204,-948.73,31.738,240.723,-945.312
1742118453.208,-1000.0,-90.82,460.938,-1000.0
1742118453.212,-1000.0,142.09,418.945,-1000.0
1742118453.216,-927.246,-94.727,61.035,-934.57
1742118453.22,-1000.0,-128.906,-175.293,-1000.0
1742118453.224,-584.473,312.012,-195.801,-628.906
1742118453.228,867.676,472.656,-170.898,790.039
1742118453.231,945.312,17.09,-144.043,962.891
1742118453.235,999.512,-58.105,-125.0,999.512
1742118453.239,577.148,-277.344,-200.195,607.91
1742118453.243,-875.0,-774.902,-328.613,-808.105
1742118453.247,-1000.0,-359.863,-491.211,-1000.0
1742118453.251,-944.336,-61.035,-612.793,-944.824
1742118453.255,-1000.0,-138.672,-465.332,-1000.0
1742118453.259,-937.5,-10.742,-317.871,-936.523
1742118453.263,-1000.0,-32.227,-359.375,-1000.0
1742118453.267,-220.703,381.348,-392.578,-234.863
1742118453.271,999.512,559.082,-371.582,999.512
1742118453.275,949.707,-125.488,-380.859,953.613
1742118453.278,944.336,-114.258,-286.133,943.848
1742118453.282,904.785,-182.617,-180.176,907.227
1742118453.286,999.512,-194.336,-108.398,999.512
1742118453.29,273.438,-554.199,-47.852,286.621
1742118453.294,-974.609,-641.602,79.102,-963.379
1742118453.251,-944.336,-61.035,-612.793,-944.824
1742118453.255,-1000.0,-138.672,-465.332,-1000.0
1742118453.259,-937.5,-10.742,-317.871,-936.523
1742118453.263,-1000.0,-32.227,-359.375,-1000.0
1742118453.267,-220.703,381.348,-392.578,-234.863
1742118453.271,999.512,559.082,-371.582,999.512
1742118453.275,949.707,-125.488,-380.859,953.613
1742118453.278,944.336,-114.258,-286.133,943.848
1742118453.282,904.785,-182.617,-180.176,907.227
1742118453.286,999.512,-194.336,-108.398,999.512
1742118453.29,273.438,-554.199,-47.852,286.621
1742118453.294,-974.609,-641.602,79.102,-963.379
1742118453.309,-1000.0,-303.223,287.598,-1000.0
1742118453.313,-214.844,238.281,358.887,-209.473
1742118453.317,999.512,586.914,385.742,999.512
1742118453.321,955.078,-218.75,444.336,956.543
1742118453.325,936.035,-177.246,524.902,931.641
1742118453.329,913.086,141.113,557.617,924.805
1742118453.333,999.512,7.324,607.422,999.512
1742118453.336,163.574,-625.0,646.973,86.426
1742118453.34,-1000.0,-637.695,610.352,-1000.0
1742118453.344,-982.91,0.488,635.254,-979.98
1742118453.348,-910.645,61.035,701.172,-911.621
1742118453.352,-1000.0,-25.391,670.898,-1000.0
1742118453.309,-1000.0,-303.223,287.598,-1000.0
1742118453.313,-214.844,238.281,358.887,-209.473
1742118453.317,999.512,586.914,385.742,999.512
1742118453.321,955.078,-218.75,444.336,956.543
1742118453.325,936.035,-177.246,524.902,931.641
1742118453.329,913.086,141.113,557.617,924.805
1742118453.333,999.512,7.324,607.422,999.512
1742118453.336,163.574,-625.0,646.973,86.426
1742118453.34,-1000.0,-637.695,610.352,-1000.0
1742118453.344,-982.91,0.488,635.254,-979.98
1742118453.348,-910.645,61.035,701.172,-911.621
1742118453.352,-1000.0,-25.391,670.898,-1000.0
1742118453.354,-231.934,490.234,699.219,-292.48
1742118453.358,957.52,573.242,756.348,939.453
1742118453.362,999.512,128.906,725.586,999.512
1742118453.366,560.547,-119.629,707.52,513.672
1742118453.37,-768.555,-544.434,683.594,-775.391
1742118453.374,-1000.0,-1.465,629.395,-1000.0
1742118453.378,-693.359,301.27,525.391,-616.699
1742118453.381,599.121,261.23,385.742,648.926
1742118453.385,999.512,-10.742,318.848,999.512
1742118453.389,162.109,-536.621,327.148,124.023
1742118453.393,-1000.0,-586.426,392.09,-1000.0
1742118453.397,-933.105,103.027,424.805,-874.023
1742118453.354,-231.934,490.234,699.219,-292.48
1742118453.358,957.52,573.242,756.348,939.453
1742118453.362,999.512,128.906,725.586,999.512
1742118453.366,560.547,-119.629,707.52,513.672
1742118453.37,-768.555,-544.434,683.594,-775.391
1742118453.374,-1000.0,-1.465,629.395,-1000.0
1742118453.378,-693.359,301.27,525.391,-616.699
1742118453.381,599.121,261.23,385.742,648.926
1742118453.385,999.512,-10.742,318.848,999.512
1742118453.389,162.109,-536.621,327.148,124.023
1742118453.393,-1000.0,-586.426,392.09,-1000.0
1742118453.397,-933.105,103.027,424.805,-874.023
1742118453.4,430.664,542.48,407.227,479.492
1742118453.404,999.512,-30.762,425.781,999.512
1742118453.408,911.133,-55.664,425.293,916.016
1742118453.412,900.879,-10.254,376.465,902.832
1742118453.416,999.512,-104.004,324.707,999.512
1742118453.42,421.387,-268.066,306.152,479.492
1742118453.424,-974.609,-670.41,321.777,-930.176
1742118453.427,-1000.0,-205.566,317.383,-1000.0
1742118453.431,-954.102,13.672,329.59,-949.707
1742118453.435,-1000.0,129.883,321.289,-1000.0
1742118453.439,-1000.0,7.324,282.227,-1000.0
1742118453.443,-952.637,1.953,225.586,-959.473
1742118453.4,430.664,542.48,407.227,479.492
1742118453.404,999.512,-30.762,425.781,999.512
1742118453.408,911.133,-55.664,425.293,916.016
1742118453.412,900.879,-10.254,376.465,902.832
1742118453.416,999.512,-104.004,324.707,999.512
1742118453.42,421.387,-268.066,306.152,479.492
1742118453.424,-974.609,-670.41,321.777,-930.176
1742118453.427,-1000.0,-205.566,317.383,-1000.0
1742118453.431,-954.102,13.672,329.59,-949.707
