timestamps,TP9,AF7,AF8,TP10
1742123389.375,999.512,999.512,328.125,999.512
1742123389.379,906.738,131.348,-210.449,906.738
1742123389.383,928.223,-833.008,-634.277,908.203
1742123389.387,999.512,752.93,-291.992,999.512
1742123389.391,888.184,559.082,-125.488,899.414
1742123389.394,-549.316,-980.957,-840.332,-536.621
1742123389.398,-1000.0,-1000.0,-962.891,-1000.0
1742123389.402,-867.676,-931.641,-769.531,-867.188
1742123389.406,-1000.0,-9.766,-650.879,-1000.0
1742123389.41,-909.18,927.734,13.184,-903.809
1742123389.413,532.715,999.512,485.84,568.359
1742123389.417,999.512,781.25,185.547,999.512
1742123389.421,-154.785,-761.23,-401.855,-267.09
1742123389.425,-1000.0,-964.355,-491.699,-1000.0
1742123389.429,-954.59,655.273,-133.301,-947.754
1742123389.433,-991.211,999.512,-21.973,-997.07
1742123389.437,-1000.0,-204.102,-54.688,-1000.0
1742123389.44,-1000.0,-1000.0,-506.348,-1000.0
1742123389.444,-1000.0,-898.926,-711.914,-1000.0
1742123389.448,-1000.0,487.793,-290.527,-1000.0
1742123389.452,-1000.0,-330.078,-247.07,-1000.0
1742123389.456,-1000.0,-1000.0,-585.938,-1000.0
1742123389.413,532.715,999.512,485.84,568.359
1742123389.417,999.512,781.25,185.547,999.512
1742123389.421,-154.785,-761.23,-401.855,-267.09
1742123389.425,-1000.0,-964.355,-491.699,-1000.0
1742123389.429,-954.59,655.273,-133.301,-947.754
1742123389.433,-991.211,999.512,-21.973,-997.07
1742123389.437,-1000.0,-204.102,-54.688,-1000.0
1742123389.44,-1000.0,-1000.0,-506.348,-1000.0
1742123389.444,-1000.0,-898.926,-711.914,-1000.0
1742123389.448,-1000.0,487.793,-290.527,-1000.0
1742123389.452,-1000.0,-330.078,-247.07,-1000.0
1742123389.456,-1000.0,-1000.0,-585.938,-1000.0
1742123389.472,-1000.0,787.598,-924.316,-1000.0
1742123389.476,-1000.0,411.133,-1000.0,-1000.0
1742123389.48,-1000.0,-499.512,-929.199,-1000.0
1742123389.484,-1000.0,675.293,-950.684,-1000.0
1742123389.488,-1000.0,-641.113,-1000.0,-1000.0
1742123389.492,-1000.0,-150.879,-1000.0,-1000.0
1742123389.496,-1000.0,961.914,-958.008,-1000.0
1742123389.499,-1000.0,-846.191,-550.293,-1000.0
1742123389.503,-1000.0,-926.27,-370.605,-1000.0
1742123389.507,-1000.0,802.246,-708.984,-1000.0
1742123389.511,-1000.0,30.273,-975.098,-1000.0
1742123389.515,-1000.0,-1000.0,-1000.0,-1000.0
1742123389.472,-1000.0,787.598,-924.316,-1000.0
1742123389.476,-1000.0,411.133,-1000.0,-1000.0
1742123389.48,-1000.0,-499.512,-929.199,-1000.0
1742123389.484,-1000.0,675.293,-950.684,-1000.0
1742123389.488,-1000.0,-641.113,-1000.0,-1000.0
1742123389.492,-1000.0,-150.879,-1000.0,-1000.0
1742123389.496,-1000.0,961.914,-958.008,-1000.0
1742123389.499,-1000.0,-846.191,-550.293,-1000.0
1742123389.503,-1000.0,-926.27,-370.605,-1000.0
1742123389.507,-1000.0,802.246,-708.984,-1000.0
1742123389.511,-1000.0,30.273,-975.098,-1000.0
1742123389.515,-1000.0,-1000.0,-1000.0,-1000.0
1742123389.517,-1000.0,-304.199,-979.004,-1000.0
1742123389.521,-1000.0,906.738,-984.375,-1000.0
1742123389.525,-1000.0,-276.367,-992.188,-1000.0
1742123389.529,-1000.0,-1000.0,-1000.0,-1000.0
1742123389.533,-1000.0,-472.168,-972.168,-1000.0
1742123389.537,-1000.0,703.613,-813.477,-1000.0
1742123389.541,-1000.0,-421.875,-899.902,-1000.0
1742123389.544,-1000.0,-1000.0,-889.16,-1000.0
1742123389.548,-975.586,-271.484,-895.508,-984.375
1742123389.552,-980.469,693.359,-931.641,-966.797
1742123389.556,-1000.0,-562.012,-835.449,-1000.0
1742123389.56,114.746,325.684,-433.594,-37.109
1742123389.517,-1000.0,-304.199,-979.004,-1000.0
1742123389.521,-1000.0,906.738,-984.375,-1000.0
1742123389.525,-1000.0,-276.367,-992.188,-1000.0
1742123389.529,-1000.0,-1000.0,-1000.0,-1000.0
1742123389.533,-1000.0,-472.168,-972.168,-1000.0
1742123389.537,-1000.0,703.613,-813.477,-1000.0
1742123389.541,-1000.0,-421.875,-899.902,-1000.0
1742123389.544,-1000.0,-1000.0,-889.16,-1000.0
1742123389.548,-975.586,-271.484,-895.508,-984.375
1742123389.552,-980.469,693.359,-931.641,-966.797
1742123389.556,-1000.0,-562.012,-835.449,-1000.0
1742123389.56,114.746,325.684,-433.594,-37.109
1742123389.562,999.512,999.512,-546.387,999.512
1742123389.566,969.238,-610.84,-998.047,917.969
1742123389.57,-256.836,-1000.0,-997.07,-417.48
1742123389.574,-1000.0,-1000.0,-992.188,-1000.0
1742123389.578,-935.547,-854.98,-1000.0,-930.176
1742123389.582,-1000.0,502.93,-832.52,-1000.0
1742123389.586,-1000.0,-336.426,-823.73,-1000.0
1742123389.589,-927.734,-1000.0,-979.492,-930.176
1742123389.593,-1000.0,-587.891,-1000.0,-1000.0
1742123389.597,-667.969,696.777,-470.703,-700.684
1742123389.601,894.043,999.512,-43.945,868.164
1742123389.605,915.039,138.672,-691.406,896.484
1742123389.562,999.512,999.512,-546.387,999.512
1742123389.566,969.238,-610.84,-998.047,917.969
1742123389.57,-256.836,-1000.0,-997.07,-417.48
1742123389.574,-1000.0,-1000.0,-992.188,-1000.0
1742123389.578,-935.547,-854.98,-1000.0,-930.176
1742123389.582,-1000.0,502.93,-832.52,-1000.0
1742123389.586,-1000.0,-336.426,-823.73,-1000.0
1742123389.589,-927.734,-1000.0,-979.492,-930.176
1742123389.593,-1000.0,-587.891,-1000.0,-1000.0
1742123389.597,-667.969,696.777,-470.703,-700.684
1742123389.601,894.043,999.512,-43.945,868.164
1742123389.605,915.039,138.672,-691.406,896.484
1742123389.608,-656.25,-953.125,-1000.0,-689.941
1742123389.612,-1000.0,-1000.0,-1000.0,-1000.0
1742123389.616,-925.781,157.715,-570.801,-926.758
1742123389.62,-1000.0,892.09,-355.469,-1000.0
1742123389.624,-1000.0,-800.781,-835.449,-1000.0
1742123389.628,-1000.0,164.551,-1000.0,-1000.0
1742123389.632,-1000.0,999.512,-981.445,-1000.0
1742123389.635,-1000.0,-550.293,-739.746,-1000.0
1742123389.639,-1000.0,-1000.0,-846.191,-1000.0
1742123389.643,-1000.0,-274.902,-1000.0,-1000.0
1742123389.647,-1000.0,776.855,-986.328,-1000.0
1742123389.651,-1000.0,-780.762,-1000.0,-1000.0
1742123389.608,-656.25,-953.125,-1000.0,-689.941
1742123389.612,-1000.0,-1000.0,-1000.0,-1000.0
1742123389.616,-925.781,157.715,-570.801,-926.758
1742123389.62,-1000.0,892.09,-355.469,-1000.0
1742123389.624,-1000.0,-800.781,-835.449,-1000.0
1742123389.628,-1000.0,164.551,-1000.0,-1000.0
1742123389.632,-1000.0,999.512,-981.445,-1000.0
1742123389.635,-1000.0,-550.293,-739.746,-1000.0
1742123389.639,-1000.0,-1000.0,-846.191,-1000.0
1742123389.643,-1000.0,-274.902,-1000.0,-1000.0
1742123389.647,-1000.0,776.855,-986.328,-1000.0
1742123389.651,-1000.0,-780.762,-1000.0,-1000.0
1742123389.652,-1000.0,-161.621,-1000.0,-1000.0
1742123389.656,-1000.0,825.684,-1000.0,-1000.0
1742123389.66,-1000.0,-353.027,-1000.0,-1000.0
1742123389.664,-1000.0,275.391,-1000.0,-1000.0
1742123389.668,-928.711,-323.73,-1000.0,-936.035
1742123389.672,-1000.0,312.012,-1000.0,-1000.0
1742123389.676,-679.199,999.512,-990.234,-679.199
1742123389.679,788.086,774.902,-997.559,751.953
1742123389.683,999.512,-639.16,-1000.0,999.512
1742123389.687,865.723,-1000.0,-639.648,863.77
1742123389.691,987.793,558.105,-339.844,995.117
1742123389.695,992.188,938.965,-802.246,971.191
1742123389.652,-1000.0,-161.621,-1000.0,-1000.0
1742123389.656,-1000.0,825.684,-1000.0,-1000.0
1742123389.66,-1000.0,-353.027,-1000.0,-1000.0
1742123389.664,-1000.0,275.391,-1000.0,-1000.0
1742123389.668,-928.711,-323.73,-1000.0,-936.035
1742123389.672,-1000.0,312.012,-1000.0,-1000.0
1742123389.676,-679.199,999.512,-990.234,-679.199
1742123389.679,788.086,774.902,-997.559,751.953
1742123389.683,999.512,-639.16,-1000.0,999.512
1742123389.687,865.723,-1000.0,-639.648,863.77
1742123389.691,987.793,558.105,-339.844,995.117
1742123389.695,992.188,938.965,-802.246,971.191
1742123389.698,-347.168,-610.352,-1000.0,-385.254
1742123389.702,-1000.0,-1000.0,-970.703,-1000.0
1742123389.706,-930.176,-764.648,-1000.0,-929.688
1742123389.71,-1000.0,637.695,-982.422,-1000.0
1742123389.714,-1000.0,999.512,-824.219,-1000.0
1742123389.718,-1000.0,141.602,-403.32,-1000.0
1742123389.722,-1000.0,-197.266,367.188,-1000.0
1742123389.725,-1000.0,-837.402,275.391,-1000.0
1742123389.729,-1000.0,-1000.0,193.359,-1000.0
1742123389.733,-1000.0,587.891,337.891,-1000.0
1742123389.737,-937.5,-98.633,191.895,-931.641
1742123389.741,-1000.0,-1000.0,631.348,-1000.0
1742123389.698,-347.168,-610.352,-1000.0,-385.254
1742123389.702,-1000.0,-1000.0,-970.703,-1000.0
1742123389.706,-930.176,-764.648,-1000.0,-929.688
1742123389.71,-1000.0,637.695,-982.422,-1000.0
1742123389.714,-1000.0,999.512,-824.219,-1000.0
1742123389.718,-1000.0,141.602,-403.32,-1000.0
1742123389.722,-1000.0,-197.266,367.188,-1000.0
1742123389.725,-1000.0,-837.402,275.391,-1000.0
1742123389.729,-1000.0,-1000.0,193.359,-1000.0
1742123389.733,-1000.0,587.891,337.891,-1000.0
1742123389.737,-937.5,-98.633,191.895,-931.641
1742123389.741,-1000.0,-1000.0,631.348,-1000.0
1742123389.742,-395.996,575.684,961.426,-731.445
1742123389.746,949.707,999.512,951.66,739.746
1742123389.75,914.062,923.828,960.449,995.117
1742123389.754,999.512,635.254,963.867,999.512
1742123389.758,605.957,-742.676,636.23,340.82
1742123389.762,-864.258,-1000.0,333.008,-964.844
1742123389.766,-1000.0,-497.07,566.895,-1000.0
1742123389.769,-940.43,824.707,389.648,-960.449
1742123389.773,-1000.0,-523.926,-192.871,-1000.0
1742123389.777,-1000.0,-780.762,-212.891,-1000.0
1742123389.781,-929.688,742.188,-205.566,-931.641
1742123389.785,-1000.0,-583.984,-166.504,-1000.0
1742123389.742,-395.996,575.684,961.426,-731.445
1742123389.746,949.707,999.512,951.66,739.746
1742123389.75,914.062,923.828,960.449,995.117
1742123389.754,999.512,635.254,963.867,999.512
1742123389.758,605.957,-742.676,636.23,340.82
1742123389.762,-864.258,-1000.0,333.008,-964.844
1742123389.766,-1000.0,-497.07,566.895,-1000.0
1742123389.769,-940.43,824.707,389.648,-960.449
1742123389.773,-1000.0,-523.926,-192.871,-1000.0
1742123389.777,-1000.0,-780.762,-212.891,-1000.0
1742123389.781,-929.688,742.188,-205.566,-931.641
1742123389.785,-1000.0,-583.984,-166.504,-1000.0
1742123390.272,999.512,799.316,-915.039,999.512
1742123390.276,-421.387,-696.289,-1000.0,-374.023
1742123390.28,-1000.0,-1000.0,-985.84,-1000.0
1742123390.284,-738.281,590.332,-373.047,-685.059
1742123390.288,590.332,999.512,-215.82,642.578
1742123390.292,999.512,968.75,-929.688,999.512
1742123390.296,857.91,235.84,-1000.0,871.582
1742123390.299,-458.496,-965.332,-972.168,-433.105
1742123390.303,-1000.0,-951.66,-1000.0,-1000.0
1742123390.307,-926.27,-1000.0,-1000.0,-927.734
1742123390.311,-1000.0,-196.289,-1000.0,-1000.0
1742123390.315,-935.547,999.512,-988.77,-935.059
1742123389.742,-395.996,575.684,961.426,-731.445
1742123389.746,949.707,999.512,951.66,739.746
1742123389.75,914.062,923.828,960.449,995.117
1742123389.754,999.512,635.254,963.867,999.512
1742123389.758,605.957,-742.676,636.23,340.82
1742123389.762,-864.258,-1000.0,333.008,-964.844
1742123389.766,-1000.0,-497.07,566.895,-1000.0
1742123389.769,-940.43,824.707,389.648,-960.449
1742123389.773,-1000.0,-523.926,-192.871,-1000.0
1742123389.777,-1000.0,-780.762,-212.891,-1000.0
1742123389.781,-929.688,742.188,-205.566,-931.641
1742123389.785,-1000.0,-583.984,-166.504,-1000.0
1742123389.788,-713.867,-90.332,163.086,-721.68
1742123389.792,762.207,999.512,-125.977,745.605
1742123389.796,999.512,953.125,-312.012,999.512
1742123389.8,900.391,-411.621,207.52,902.344
1742123389.804,997.559,-1000.0,590.82,991.699
1742123389.808,894.531,713.379,924.316,904.785
1742123389.812,999.512,439.941,616.699,999.512
1742123389.815,506.836,-997.07,-224.121,403.32
1742123389.819,-833.008,-967.285,-217.773,-857.422
1742123389.823,-1000.0,-1000.0,261.23,-1000.0
1742123389.827,-646.484,-217.285,644.531,-641.602
1742123389.831,758.789,999.512,976.562,766.602
1742123389.788,-713.867,-90.332,163.086,-721.68
1742123389.792,762.207,999.512,-125.977,745.605
1742123389.796,999.512,953.125,-312.012,999.512
1742123389.8,900.391,-411.621,207.52,902.344
1742123389.804,997.559,-1000.0,590.82,991.699
1742123389.808,894.531,713.379,924.316,904.785
1742123389.812,999.512,439.941,616.699,999.512
1742123389.815,506.836,-997.07,-224.121,403.32
1742123389.819,-833.008,-967.285,-217.773,-857.422
1742123389.823,-1000.0,-1000.0,261.23,-1000.0
1742123389.827,-646.484,-217.285,644.531,-641.602
1742123389.831,758.789,999.512,976.562,766.602
1742123389.847,999.512,887.207,937.012,999.512
1742123389.851,900.879,-733.398,747.07,902.832
1742123389.855,984.863,96.191,909.668,984.863
1742123389.859,970.703,999.512,979.004,976.074
1742123389.863,903.809,-640.625,446.289,899.902
1742123389.867,999.512,122.07,93.262,999.512
1742123389.871,295.898,-143.555,-417.969,411.133
1742123389.874,-924.316,-1000.0,-1000.0,-879.883
1742123389.878,-1000.0,-523.926,-742.676,-1000.0
1742123389.882,-676.27,727.539,-214.844,-501.465
1742123389.886,751.465,999.512,-283.691,835.449
1742123389.89,999.512,811.035,-680.664,999.512
1742123389.847,999.512,887.207,937.012,999.512
1742123389.851,900.879,-733.398,747.07,902.832
1742123389.855,984.863,96.191,909.668,984.863
1742123389.859,970.703,999.512,979.004,976.074
1742123389.863,903.809,-640.625,446.289,899.902
1742123389.867,999.512,122.07,93.262,999.512
1742123389.871,295.898,-143.555,-417.969,411.133
1742123389.874,-924.316,-1000.0,-1000.0,-879.883
1742123389.878,-1000.0,-523.926,-742.676,-1000.0
1742123389.882,-676.27,727.539,-214.844,-501.465
1742123389.886,751.465,999.512,-283.691,835.449
1742123389.89,999.512,811.035,-680.664,999.512
1742123389.893,900.391,-708.984,-914.062,913.086
1742123389.897,983.887,-381.836,-538.086,981.445
1742123389.901,966.309,999.512,-341.309,966.797
1742123389.905,966.309,396.973,-457.031,966.797
1742123389.909,966.309,-833.496,-618.652,966.797
1742123389.913,966.309,439.453,-453.613,966.797
1742123389.917,966.309,-296.875,-309.082,966.797
1742123389.92,966.309,-1000.0,-349.609,967.285
1742123389.924,966.309,618.164,-290.039,966.797
1742123389.928,966.309,640.137,-444.336,966.797
1742123389.932,966.309,-918.945,-565.43,967.285
1742123389.936,966.309,328.613,-215.82,966.797
1742123389.893,900.391,-708.984,-914.062,913.086
1742123389.897,983.887,-381.836,-538.086,981.445
1742123389.901,966.309,999.512,-341.309,966.797
1742123389.905,966.309,396.973,-457.031,966.797
1742123389.909,966.309,-833.496,-618.652,966.797
1742123389.913,966.309,439.453,-453.613,966.797
1742123389.917,966.309,-296.875,-309.082,966.797
1742123389.92,966.309,-1000.0,-349.609,967.285
1742123389.924,966.309,618.164,-290.039,966.797
1742123389.928,966.309,640.137,-444.336,966.797
1742123389.932,966.309,-918.945,-565.43,967.285
1742123389.936,966.309,328.613,-215.82,966.797
1742123389.937,966.309,999.512,218.262,966.797
1742123389.941,966.309,-393.066,-3.906,967.285
1742123389.945,966.309,-404.785,-32.227,966.797
1742123389.949,966.309,691.895,-91.309,966.797
1742123389.953,978.516,-449.219,64.453,977.051
1742123389.957,923.34,315.43,814.941,929.199
1742123389.961,983.398,-229.004,782.715,973.145
1742123389.964,942.383,-789.551,405.762,969.727
1742123389.968,-346.191,-761.23,-116.211,-279.297
1742123389.972,-1000.0,-1000.0,-74.707,-1000.0
1742123389.976,-693.848,119.629,594.238,-635.742
1742123389.98,702.637,999.512,974.121,751.465
1742123389.937,966.309,999.512,218.262,966.797
1742123389.941,966.309,-393.066,-3.906,967.285
1742123389.945,966.309,-404.785,-32.227,966.797
1742123389.949,966.309,691.895,-91.309,966.797
1742123389.953,978.516,-449.219,64.453,977.051
1742123389.957,923.34,315.43,814.941,929.199
1742123389.961,983.398,-229.004,782.715,973.145
1742123389.964,942.383,-789.551,405.762,969.727
1742123389.968,-346.191,-761.23,-116.211,-279.297
1742123389.972,-1000.0,-1000.0,-74.707,-1000.0
1742123389.976,-693.848,119.629,594.238,-635.742
1742123389.98,702.637,999.512,974.121,751.465
1742123389.982,999.512,953.125,875.488,999.512
1742123389.986,896.973,-517.09,310.547,902.344
1742123389.99,983.887,-988.281,45.898,983.887
1742123389.994,974.121,910.645,301.27,973.145
1742123389.998,935.547,544.922,171.387,943.848
1742123390.002,956.543,-572.266,227.539,945.312
1742123390.006,999.512,537.598,490.723,999.512
1742123390.009,-261.23,-428.223,161.621,-142.09
1742123390.013,-1000.0,-1000.0,53.711,-1000.0
1742123390.017,-935.059,-997.559,-113.77,-950.195
1742123390.021,-1000.0,-195.312,-223.145,-996.094
1742123390.025,-1000.0,999.512,-131.348,-1000.0
1742123389.982,999.512,953.125,875.488,999.512
1742123389.986,896.973,-517.09,310.547,902.344
1742123389.99,983.887,-988.281,45.898,983.887
1742123389.994,974.121,910.645,301.27,973.145
1742123389.998,935.547,544.922,171.387,943.848
1742123390.002,956.543,-572.266,227.539,945.312
1742123390.006,999.512,537.598,490.723,999.512
1742123390.009,-261.23,-428.223,161.621,-142.09
1742123390.013,-1000.0,-1000.0,53.711,-1000.0
1742123390.017,-935.059,-997.559,-113.77,-950.195
1742123390.021,-1000.0,-195.312,-223.145,-996.094
1742123390.025,-1000.0,999.512,-131.348,-1000.0
1742123390.027,-938.477,113.77,-428.223,-943.359
1742123390.031,-1000.0,-1000.0,-597.656,-1000.0
1742123390.035,-334.961,40.039,-117.188,-275.879
1742123390.039,965.82,999.512,117.188,982.91
1742123390.043,975.586,-240.234,-245.605,967.773
1742123390.047,928.711,-417.969,-141.602,934.082
1742123390.051,976.562,999.512,230.469,976.074
1742123390.054,982.422,-144.043,46.875,982.91
1742123390.058,908.691,-1000.0,-523.438,910.645
1742123390.062,999.512,-150.391,-604.492,999.512
1742123390.066,856.934,832.031,-662.109,870.117
1742123390.07,-597.656,-575.195,-884.766,-578.125
1742123390.027,-938.477,113.77,-428.223,-943.359
1742123390.031,-1000.0,-1000.0,-597.656,-1000.0
1742123390.035,-334.961,40.039,-117.188,-275.879
1742123390.039,965.82,999.512,117.188,982.91
1742123390.043,975.586,-240.234,-245.605,967.773
1742123390.047,928.711,-417.969,-141.602,934.082
1742123390.051,976.562,999.512,230.469,976.074
1742123390.054,982.422,-144.043,46.875,982.91
1742123390.058,908.691,-1000.0,-523.438,910.645
1742123390.062,999.512,-150.391,-604.492,999.512
1742123390.066,856.934,832.031,-662.109,870.117
1742123390.07,-597.656,-575.195,-884.766,-578.125
1742123390.072,-1000.0,-1000.0,-709.473,-1000.0
1742123390.076,-936.035,-703.613,-929.688,-936.523
1742123390.08,-978.027,573.242,-883.789,-976.562
1742123390.084,-1000.0,993.164,-533.203,-1000.0
1742123390.088,-1000.0,-433.594,-287.598,-1000.0
1742123390.092,321.777,394.531,30.762,331.543
1742123390.096,999.512,999.512,-387.207,999.512
1742123390.099,895.996,-804.199,-861.816,896.973
1742123390.103,974.121,-979.004,-768.066,974.609
1742123390.107,966.309,682.617,-516.602,967.285
1742123390.111,983.887,-415.039,-434.57,983.398
1742123390.115,895.996,-969.727,-699.707,897.949
1742123390.072,-1000.0,-1000.0,-709.473,-1000.0
1742123390.076,-936.035,-703.613,-929.688,-936.523
1742123390.08,-978.027,573.242,-883.789,-976.562
1742123390.084,-1000.0,993.164,-533.203,-1000.0
1742123390.088,-1000.0,-433.594,-287.598,-1000.0
1742123390.092,321.777,394.531,30.762,331.543
1742123390.096,999.512,999.512,-387.207,999.512
1742123390.099,895.996,-804.199,-861.816,896.973
1742123390.103,974.121,-979.004,-768.066,974.609
1742123390.107,966.309,682.617,-516.602,967.285
1742123390.111,983.887,-415.039,-434.57,983.398
1742123390.115,895.996,-969.727,-699.707,897.949
1742123390.117,999.512,845.703,-737.305,999.512
1742123390.121,689.941,16.602,-719.238,681.641
1742123390.125,-787.598,-1000.0,-692.383,-784.18
1742123390.129,-1000.0,-1000.0,-80.078,-1000.0
1742123390.133,-944.336,-781.25,73.242,-945.312
1742123390.137,-979.98,800.293,-29.785,-979.004
1742123390.141,-1000.0,842.773,16.113,-1000.0
1742123390.144,-1000.0,-825.684,244.629,-1000.0
1742123390.148,321.289,325.195,832.52,324.707
1742123390.152,999.512,999.512,995.117,999.512
1742123390.156,895.996,-763.672,893.066,897.461
1742123390.16,973.633,-591.797,918.457,974.121
1742123390.117,999.512,845.703,-737.305,999.512
1742123390.121,689.941,16.602,-719.238,681.641
1742123390.125,-787.598,-1000.0,-692.383,-784.18
1742123390.129,-1000.0,-1000.0,-80.078,-1000.0
1742123390.133,-944.336,-781.25,73.242,-945.312
1742123390.137,-979.98,800.293,-29.785,-979.004
1742123390.141,-1000.0,842.773,16.113,-1000.0
1742123390.144,-1000.0,-825.684,244.629,-1000.0
1742123390.148,321.289,325.195,832.52,324.707
1742123390.152,999.512,999.512,995.117,999.512
1742123390.156,895.996,-763.672,893.066,897.461
1742123390.16,973.633,-591.797,918.457,974.121
1742123390.163,966.309,999.512,960.449,966.797
1742123390.167,966.309,277.832,970.215,966.797
1742123390.171,966.309,-744.629,964.355,966.797
1742123390.175,966.309,524.414,967.773,966.797
1742123390.179,966.309,-453.125,966.797,966.797
1742123390.183,966.309,94.727,967.285,966.797
1742123390.187,982.422,932.129,971.68,982.91
1742123390.19,908.203,-917.48,944.824,910.645
1742123390.194,999.512,-949.219,999.512,999.512
1742123390.198,856.934,551.27,909.668,862.305
1742123390.202,-597.656,-580.078,534.668,-586.426
1742123390.206,-1000.0,-1000.0,820.801,-1000.0
1742123390.222,-925.781,916.504,999.512,-925.781
1742123390.226,-1000.0,-40.527,479.98,-1000.0
1742123390.23,-969.727,-520.996,120.605,-967.285
1742123390.234,-990.723,773.926,239.746,-996.094
1742123390.238,-1000.0,-435.059,489.746,-1000.0
1742123390.242,169.922,244.629,822.754,198.242
1742123390.246,999.512,999.512,433.105,999.512
1742123390.249,774.414,329.102,-234.375,772.461
1742123390.253,-528.32,-934.082,-545.41,-533.203
1742123390.257,-1000.0,-1000.0,146.484,-1000.0
1742123390.261,-751.953,235.352,562.5,-635.742
1742123390.265,694.336,999.512,-190.918,763.672
1742123390.222,-925.781,916.504,999.512,-925.781
1742123390.226,-1000.0,-40.527,479.98,-1000.0
1742123390.23,-969.727,-520.996,120.605,-967.285
1742123390.234,-990.723,773.926,239.746,-996.094
1742123390.238,-1000.0,-435.059,489.746,-1000.0
1742123390.242,169.922,244.629,822.754,198.242
1742123390.246,999.512,999.512,433.105,999.512
1742123390.249,774.414,329.102,-234.375,772.461
1742123390.253,-528.32,-934.082,-545.41,-533.203
1742123390.257,-1000.0,-1000.0,146.484,-1000.0
1742123390.261,-751.953,235.352,562.5,-635.742
1742123390.265,694.336,999.512,-190.918,763.672
1742123390.311,-1000.0,-522.461,-1000.0,-1000.0
1742123390.315,-813.477,-644.043,-977.051,-796.875
1742123390.319,661.621,999.512,-721.191,672.852
1742123390.323,999.512,860.84,-865.234,999.512
1742123390.327,894.531,-704.102,-658.203,896.484
1742123390.331,983.398,216.309,300.293,983.887
1742123390.335,966.309,999.512,645.02,966.797
1742123390.338,966.309,-333.984,155.273,967.285
1742123390.342,966.309,-1000.0,-301.758,966.797
1742123390.346,966.309,-579.102,-230.469,966.797
1742123390.35,982.91,833.496,43.945,983.398
1742123390.354,907.227,893.066,194.336,907.715
1742123390.311,-1000.0,-522.461,-1000.0,-1000.0
1742123390.315,-813.477,-644.043,-977.051,-796.875
1742123390.319,661.621,999.512,-721.191,672.852
1742123390.323,999.512,860.84,-865.234,999.512
1742123390.327,894.531,-704.102,-658.203,896.484
1742123390.331,983.398,216.309,300.293,983.887
1742123390.335,966.309,999.512,645.02,966.797
1742123390.338,966.309,-333.984,155.273,967.285
1742123390.342,966.309,-1000.0,-301.758,966.797
1742123390.346,966.309,-579.102,-230.469,966.797
1742123390.35,982.91,833.496,43.945,983.398
1742123390.354,907.227,893.066,194.336,907.715
1742123390.356,999.512,-689.453,288.574,999.512
1742123390.36,843.75,-1000.0,-40.527,843.75
1742123390.364,-632.812,-1000.0,-661.133,-627.441
1742123390.368,-1000.0,-617.188,-583.496,-1000.0
1742123390.372,-1000.0,775.391,-211.914,-1000.0
1742123390.376,-800.293,979.004,21.484,-635.254
1742123390.38,692.871,999.512,-44.434,798.828
1742123390.383,999.512,-63.477,-55.176,999.512
1742123390.387,912.109,-927.734,292.969,925.293
1742123390.391,911.621,462.402,735.84,913.574
1742123390.395,999.512,-353.516,409.668,999.512
1742123390.399,620.117,-1000.0,-481.445,684.57
1742123390.356,999.512,-689.453,288.574,999.512
1742123390.36,843.75,-1000.0,-40.527,843.75
1742123390.364,-632.812,-1000.0,-661.133,-627.441
1742123390.368,-1000.0,-617.188,-583.496,-1000.0
1742123390.372,-1000.0,775.391,-211.914,-1000.0
1742123390.376,-800.293,979.004,21.484,-635.254
1742123390.38,692.871,999.512,-44.434,798.828
1742123390.383,999.512,-63.477,-55.176,999.512
1742123390.387,912.109,-927.734,292.969,925.293
1742123390.391,911.621,462.402,735.84,913.574
1742123390.395,999.512,-353.516,409.668,999.512
1742123390.399,620.117,-1000.0,-481.445,684.57
1742123390.417,-850.586,-714.355,-969.238,-768.066
1742123390.421,-999.512,107.422,-1000.0,-1000.0
1742123390.425,-1000.0,-246.094,-867.676,-1000.0
1742123390.429,-468.262,541.992,-387.207,-151.855
1742123390.433,918.945,999.512,-367.188,999.512
1742123390.437,995.117,938.965,-310.547,952.637
1742123390.441,936.035,740.723,-98.145,959.473
1742123390.444,921.387,-862.305,-213.867,917.48
1742123390.448,999.512,-871.582,-192.871,999.512
1742123390.452,841.797,620.605,-589.355,851.562
1742123390.456,-542.969,-564.941,-1000.0,-527.344
1742123390.46,-1000.0,-1000.0,-906.25,-1000.0
1742123390.448,-840.82,640.625,-187.988,-833.984
1742123390.452,509.766,999.512,465.82,521.484
1742123390.456,999.512,936.523,141.602,999.512
1742123390.46,891.602,640.625,-186.035,892.09
1742123390.464,980.957,-700.684,-98.633,981.934
1742123390.468,965.82,322.266,629.395,966.797
1742123390.472,966.309,999.512,999.512,966.797
1742123390.475,966.309,-656.25,848.633,967.285
1742123390.479,983.887,-1000.0,835.938,984.375
1742123390.483,896.484,-295.41,571.289,900.879
1742123390.487,999.512,975.098,282.715,999.512
1742123390.491,703.613,111.816,60.059,752.93
1742123390.448,-840.82,640.625,-187.988,-833.984
1742123390.452,509.766,999.512,465.82,521.484
1742123390.456,999.512,936.523,141.602,999.512
1742123390.46,891.602,640.625,-186.035,892.09
1742123390.464,980.957,-700.684,-98.633,981.934
1742123390.468,965.82,322.266,629.395,966.797
1742123390.472,966.309,999.512,999.512,966.797
1742123390.475,966.309,-656.25,848.633,967.285
1742123390.479,983.887,-1000.0,835.938,984.375
1742123390.483,896.484,-295.41,571.289,900.879
1742123390.487,999.512,975.098,282.715,999.512
1742123390.491,703.613,111.816,60.059,752.93
1742123390.492,-774.902,-1000.0,-187.5,-720.215
1742123390.496,-1000.0,-1000.0,101.562,-1000.0
1742123390.5,-932.617,543.945,198.242,-930.176
1742123390.504,-1000.0,190.43,-271.973,-1000.0
1742123390.508,-1000.0,-1000.0,-472.656,-1000.0
1742123390.512,-1000.0,666.016,-518.066,-1000.0
1742123390.516,-956.055,999.512,-731.445,-957.031
1742123390.519,-1000.0,-701.66,-961.426,-1000.0
1742123390.523,-987.305,-1000.0,-765.625,-991.211
1742123390.527,398.926,547.363,474.121,385.254
1742123390.531,999.512,999.512,568.848,999.512
1742123390.535,893.066,86.914,-151.367,894.531
1742123390.492,-774.902,-1000.0,-187.5,-720.215
1742123390.496,-1000.0,-1000.0,101.562,-1000.0
1742123390.5,-932.617,543.945,198.242,-930.176
1742123390.504,-1000.0,190.43,-271.973,-1000.0
1742123390.508,-1000.0,-1000.0,-472.656,-1000.0
1742123390.512,-1000.0,666.016,-518.066,-1000.0
1742123390.516,-956.055,999.512,-731.445,-957.031
1742123390.519,-1000.0,-701.66,-961.426,-1000.0
1742123390.523,-987.305,-1000.0,-765.625,-991.211
1742123390.527,398.926,547.363,474.121,385.254
1742123390.531,999.512,999.512,568.848,999.512
1742123390.535,893.066,86.914,-151.367,894.531
1742123390.553,977.051,-959.961,209.961,977.051
1742123390.557,966.309,313.965,831.055,966.797
1742123390.561,966.309,999.512,999.512,967.285
1742123390.565,983.398,198.73,891.602,981.934
1742123390.569,894.531,-919.434,697.266,897.461
1742123390.573,999.512,415.527,904.785,999.512
1742123390.577,657.715,-63.965,758.789,606.445
1742123390.58,-815.918,-1000.0,566.406,-837.891
1742123390.584,-1000.0,253.418,933.594,-1000.0
1742123390.588,-936.035,395.996,583.008,-939.941
1742123390.592,-1000.0,-1000.0,224.609,-1000.0
1742123390.596,-1000.0,52.734,500.977,-1000.0
1742123390.553,977.051,-959.961,209.961,977.051
1742123390.557,966.309,313.965,831.055,966.797
1742123390.561,966.309,999.512,999.512,967.285
1742123390.565,983.398,198.73,891.602,981.934
1742123390.569,894.531,-919.434,697.266,897.461
1742123390.573,999.512,415.527,904.785,999.512
1742123390.577,657.715,-63.965,758.789,606.445
1742123390.58,-815.918,-1000.0,566.406,-837.891
1742123390.584,-1000.0,253.418,933.594,-1000.0
1742123390.588,-936.035,395.996,583.008,-939.941
1742123390.592,-1000.0,-1000.0,224.609,-1000.0
1742123390.596,-1000.0,52.734,500.977,-1000.0
1742123390.597,-1000.0,999.512,423.34,-1000.0
1742123390.601,-1000.0,-21.484,-188.965,-1000.0
1742123390.605,-1000.0,-397.461,-487.793,-1000.0
1742123390.609,-1000.0,688.477,-484.863,-1000.0
1742123390.613,-1000.0,-555.664,-913.574,-1000.0
1742123390.617,-1000.0,371.094,-902.832,-1000.0
1742123390.621,-1000.0,999.512,-891.602,-1000.0
1742123390.624,-1000.0,-773.438,-1000.0,-1000.0
1742123390.628,-942.383,-990.234,-733.887,-942.383
1742123390.632,-1000.0,430.176,-655.273,-1000.0
1742123390.636,-891.113,15.625,-587.891,-887.695
1742123390.64,563.965,609.375,-15.137,569.336
1742123390.597,-1000.0,999.512,423.34,-1000.0
1742123390.601,-1000.0,-21.484,-188.965,-1000.0
1742123390.605,-1000.0,-397.461,-487.793,-1000.0
1742123390.609,-1000.0,688.477,-484.863,-1000.0
1742123390.613,-1000.0,-555.664,-913.574,-1000.0
1742123390.617,-1000.0,371.094,-902.832,-1000.0
1742123390.621,-1000.0,999.512,-891.602,-1000.0
1742123390.624,-1000.0,-773.438,-1000.0,-1000.0
1742123390.628,-942.383,-990.234,-733.887,-942.383
1742123390.632,-1000.0,430.176,-655.273,-1000.0
1742123390.636,-891.113,15.625,-587.891,-887.695
1742123390.64,563.965,609.375,-15.137,569.336
1742123390.642,999.512,946.289,-483.398,999.512
1742123390.646,891.602,-856.445,-1000.0,892.578
1742123390.65,981.934,-847.168,-966.797,982.91
1742123390.654,968.75,879.395,-680.664,970.215
1742123390.658,959.473,902.832,-207.031,956.543
1742123390.662,918.457,-667.48,220.215,924.316
1742123390.666,999.512,-31.25,328.613,999.512
1742123390.669,110.352,-101.074,-422.363,61.523
1742123390.673,-1000.0,-1000.0,-835.449,-1000.0
1742123390.677,-981.934,-709.473,-433.594,-976.562
1742123390.681,-977.051,871.094,-512.695,-981.934
1742123390.685,-950.195,249.512,-795.898,-949.707
1742123390.642,999.512,946.289,-483.398,999.512
1742123390.646,891.602,-856.445,-1000.0,892.578
1742123390.65,981.934,-847.168,-966.797,982.91
1742123390.654,968.75,879.395,-680.664,970.215
1742123390.658,959.473,902.832,-207.031,956.543
1742123390.662,918.457,-667.48,220.215,924.316
1742123390.666,999.512,-31.25,328.613,999.512
1742123390.669,110.352,-101.074,-422.363,61.523
1742123390.673,-1000.0,-1000.0,-835.449,-1000.0
1742123390.677,-981.934,-709.473,-433.594,-976.562
1742123390.681,-977.051,871.094,-512.695,-981.934
1742123390.685,-950.195,249.512,-795.898,-949.707
1742123390.702,-1000.0,-918.945,-409.18,-1000.0
1742123390.706,-262.695,513.672,285.156,-327.637
1742123390.71,992.188,999.512,682.617,953.613
1742123390.714,944.824,738.77,768.066,955.566
1742123390.718,905.762,-598.145,382.324,908.691
1742123390.722,999.512,-8.789,327.637,999.512
1742123390.726,-98.145,-194.824,44.922,-146.973
1742123390.729,-1000.0,-1000.0,-33.691,-1000.0
1742123390.733,-952.637,-647.949,504.395,-949.219
1742123390.737,-1000.0,510.742,451.172,-1000.0
1742123390.741,-962.891,-533.203,282.227,-966.309
1742123390.745,-1000.0,38.574,632.324,-1000.0
1742123390.702,-1000.0,-918.945,-409.18,-1000.0
1742123390.706,-262.695,513.672,285.156,-327.637
1742123390.71,992.188,999.512,682.617,953.613
1742123390.714,944.824,738.77,768.066,955.566
1742123390.718,905.762,-598.145,382.324,908.691
1742123390.722,999.512,-8.789,327.637,999.512
1742123390.726,-98.145,-194.824,44.922,-146.973
1742123390.729,-1000.0,-1000.0,-33.691,-1000.0
1742123390.733,-952.637,-647.949,504.395,-949.219
1742123390.737,-1000.0,510.742,451.172,-1000.0
1742123390.741,-962.891,-533.203,282.227,-966.309
1742123390.745,-1000.0,38.574,632.324,-1000.0
1742123390.731,-995.605,999.512,946.777,-1000.0
1742123390.735,268.555,934.082,959.961,235.84
1742123390.739,999.512,916.504,680.176,999.512
1742123390.743,560.547,-613.77,189.941,364.258
1742123390.747,-830.566,-1000.0,-209.961,-913.574
1742123390.751,-1000.0,416.016,64.941,-1000.0
1742123390.755,-937.5,-100.098,111.328,-952.637
1742123390.758,-1000.0,-1000.0,-293.457,-1000.0
1742123390.762,-955.078,-164.062,-208.496,-959.473
1742123390.766,-1000.0,747.07,-27.832,-1000.0
1742123390.77,-965.82,-497.07,174.316,-988.77
1742123390.774,351.562,422.852,796.875,293.945
1742123390.731,-995.605,999.512,946.777,-1000.0
1742123390.735,268.555,934.082,959.961,235.84
1742123390.739,999.512,916.504,680.176,999.512
1742123390.743,560.547,-613.77,189.941,364.258
1742123390.747,-830.566,-1000.0,-209.961,-913.574
1742123390.751,-1000.0,416.016,64.941,-1000.0
1742123390.755,-937.5,-100.098,111.328,-952.637
1742123390.758,-1000.0,-1000.0,-293.457,-1000.0
1742123390.762,-955.078,-164.062,-208.496,-959.473
1742123390.766,-1000.0,747.07,-27.832,-1000.0
1742123390.77,-965.82,-497.07,174.316,-988.77
1742123390.774,351.562,422.852,796.875,293.945
1742123390.731,-995.605,999.512,946.777,-1000.0
1742123390.735,268.555,934.082,959.961,235.84
1742123390.739,999.512,916.504,680.176,999.512
1742123390.743,560.547,-613.77,189.941,364.258
1742123390.747,-830.566,-1000.0,-209.961,-913.574
1742123390.751,-1000.0,416.016,64.941,-1000.0
1742123390.755,-937.5,-100.098,111.328,-952.637
1742123390.758,-1000.0,-1000.0,-293.457,-1000.0
1742123390.762,-955.078,-164.062,-208.496,-959.473
1742123390.766,-1000.0,747.07,-27.832,-1000.0
1742123390.77,-965.82,-497.07,174.316,-988.77
1742123390.774,351.562,422.852,796.875,293.945
1742123390.792,999.512,999.512,657.715,999.512
1742123390.796,783.691,-349.121,-17.09,757.812
1742123390.8,-586.914,-1000.0,-274.414,-623.047
1742123390.804,-1000.0,-1000.0,-140.625,-1000.0
1742123390.808,-925.781,-411.133,39.551,-926.758
1742123390.812,-1000.0,938.965,-10.742,-1000.0
1742123390.816,-966.797,267.578,-22.461,-973.633
1742123390.819,-996.582,-1000.0,57.617,-984.863
1742123390.823,-1000.0,-865.234,193.848,-1000.0
1742123390.827,191.895,567.871,715.332,95.703
1742123390.831,999.512,999.512,473.145,999.512
1742123390.835,616.699,282.715,-678.711,573.73
1742123390.792,999.512,999.512,657.715,999.512
1742123390.796,783.691,-349.121,-17.09,757.812
1742123390.8,-586.914,-1000.0,-274.414,-623.047
1742123390.804,-1000.0,-1000.0,-140.625,-1000.0
1742123390.808,-925.781,-411.133,39.551,-926.758
1742123390.812,-1000.0,938.965,-10.742,-1000.0
1742123390.816,-966.797,267.578,-22.461,-973.633
1742123390.819,-996.582,-1000.0,57.617,-984.863
1742123390.823,-1000.0,-865.234,193.848,-1000.0
1742123390.827,191.895,567.871,715.332,95.703
1742123390.831,999.512,999.512,473.145,999.512
1742123390.835,616.699,282.715,-678.711,573.73
1742123390.823,-789.062,-993.164,-1000.0,-828.125
1742123390.827,-1000.0,-931.641,-961.426,-1000.0
1742123390.831,-934.082,690.43,-988.77,-937.988
1742123390.835,-1000.0,966.309,-972.168,-1000.0
1742123390.839,-1000.0,-763.672,-1000.0,-1000.0
1742123390.843,-1000.0,175.781,-922.852,-1000.0
1742123390.847,-942.383,999.512,-592.773,-942.383
1742123390.85,-1000.0,-784.668,-229.004,-1000.0
1742123390.854,-891.113,-876.465,80.566,-890.137
1742123390.858,563.477,939.453,366.211,565.43
1742123390.862,999.512,827.148,184.082,999.512
1742123390.866,833.984,-908.203,128.906,834.961
1742123390.823,-789.062,-993.164,-1000.0,-828.125
1742123390.827,-1000.0,-931.641,-961.426,-1000.0
1742123390.831,-934.082,690.43,-988.77,-937.988
1742123390.835,-1000.0,966.309,-972.168,-1000.0
1742123390.839,-1000.0,-763.672,-1000.0,-1000.0
1742123390.843,-1000.0,175.781,-922.852,-1000.0
1742123390.847,-942.383,999.512,-592.773,-942.383
1742123390.85,-1000.0,-784.668,-229.004,-1000.0
1742123390.854,-891.113,-876.465,80.566,-890.137
1742123390.858,563.477,939.453,366.211,565.43
1742123390.862,999.512,827.148,184.082,999.512
1742123390.866,833.984,-908.203,128.906,834.961
1742123390.882,999.512,48.34,605.957,999.512
1742123390.886,856.934,899.902,556.641,857.91
1742123390.89,-597.656,-692.383,129.883,-597.656
1742123390.894,-1000.0,-1000.0,-336.426,-1000.0
1742123390.898,-925.781,-878.418,-719.727,-925.781
1742123390.902,-1000.0,594.238,123.047,-1000.0
1742123390.906,-1000.0,986.816,597.168,-1000.0
1742123390.909,-1000.0,-678.711,147.949,-1000.0
1742123390.913,-930.176,-1000.0,-7.324,-931.641
1742123390.917,-1000.0,162.109,141.602,-1000.0
1742123390.921,-499.512,999.512,619.629,-546.387
1742123390.925,898.438,873.047,901.855,862.793
1742123390.882,999.512,48.34,605.957,999.512
1742123390.886,856.934,899.902,556.641,857.91
1742123390.89,-597.656,-692.383,129.883,-597.656
1742123390.894,-1000.0,-1000.0,-336.426,-1000.0
1742123390.898,-925.781,-878.418,-719.727,-925.781
1742123390.902,-1000.0,594.238,123.047,-1000.0
1742123390.906,-1000.0,986.816,597.168,-1000.0
1742123390.909,-1000.0,-678.711,147.949,-1000.0
1742123390.913,-930.176,-1000.0,-7.324,-931.641
1742123390.917,-1000.0,162.109,141.602,-1000.0
1742123390.921,-499.512,999.512,619.629,-546.387
1742123390.925,898.438,873.047,901.855,862.793
1742123390.914,999.512,-418.457,410.645,999.512
1742123390.918,916.016,-1000.0,145.02,913.574
1742123390.922,979.98,-380.859,363.77,981.934
1742123390.926,982.91,944.824,777.832,979.004
1742123390.93,893.066,907.715,782.715,899.902
1742123390.934,999.512,-559.57,540.039,999.512
1742123390.938,622.559,-1000.0,362.793,545.41
1742123390.941,-846.191,-1000.0,-1.465,-867.188
1742123390.945,-1000.0,-780.273,507.812,-1000.0
1742123390.949,-938.477,645.508,970.215,-945.312
1742123390.953,-1000.0,-528.809,-57.617,-1000.0
1742123390.957,-929.688,-850.098,-672.363,-933.594
1742123390.914,999.512,-418.457,410.645,999.512
1742123390.918,916.016,-1000.0,145.02,913.574
1742123390.922,979.98,-380.859,363.77,981.934
1742123390.926,982.91,944.824,777.832,979.004
1742123390.93,893.066,907.715,782.715,899.902
1742123390.934,999.512,-559.57,540.039,999.512
1742123390.938,622.559,-1000.0,362.793,545.41
1742123390.941,-846.191,-1000.0,-1.465,-867.188
1742123390.945,-1000.0,-780.273,507.812,-1000.0
1742123390.949,-938.477,645.508,970.215,-945.312
1742123390.953,-1000.0,-528.809,-57.617,-1000.0
1742123390.957,-929.688,-850.098,-672.363,-933.594
1742123390.972,-1000.0,866.699,-275.391,-1000.0
1742123390.976,-507.324,949.707,235.84,-472.168
1742123390.98,895.996,999.512,815.43,902.344
1742123390.984,999.512,564.941,638.672,999.512
1742123390.988,915.527,-948.242,220.703,918.945
1742123390.992,987.793,100.586,233.887,987.793
1742123390.996,937.5,999.512,412.109,939.453
1742123390.999,953.613,-371.582,404.297,954.102
1742123391.003,999.512,-1000.0,26.367,999.512
1742123391.007,-252.93,-975.098,-222.168,-221.68
1742123391.011,-1000.0,-936.523,-203.613,-1000.0
1742123391.015,-983.887,419.922,77.148,-994.629
1742123391.017,-915.039,999.512,378.418,-899.902
1742123391.021,527.832,935.547,320.801,543.945
1742123391.025,999.512,-473.633,-262.695,999.512
1742123391.029,891.602,-574.219,-307.617,892.578
1742123391.033,981.445,999.512,71.777,981.934
1742123391.037,966.309,879.883,456.055,966.797
1742123391.041,966.309,-593.262,347.656,966.797
1742123391.044,966.309,-1000.0,-124.023,966.797
1742123391.048,966.309,35.645,76.66,967.285
1742123391.052,982.422,804.199,341.797,982.91
1742123391.056,893.066,-604.004,205.078,896.484
1742123391.06,999.512,488.77,-58.594,999.512
1742123391.017,-915.039,999.512,378.418,-899.902
1742123391.021,527.832,935.547,320.801,543.945
1742123391.025,999.512,-473.633,-262.695,999.512
1742123391.029,891.602,-574.219,-307.617,892.578
1742123391.033,981.445,999.512,71.777,981.934
1742123391.037,966.309,879.883,456.055,966.797
1742123391.041,966.309,-593.262,347.656,966.797
1742123391.044,966.309,-1000.0,-124.023,966.797
1742123391.048,966.309,35.645,76.66,967.285
1742123391.052,982.422,804.199,341.797,982.91
1742123391.056,893.066,-604.004,205.078,896.484
1742123391.06,999.512,488.77,-58.594,999.512
1742123391.062,590.332,579.102,-689.453,619.141
1742123391.066,-867.188,-1000.0,-1000.0,-837.891
1742123391.07,-1000.0,89.844,-550.293,-1000.0
1742123391.074,-874.023,914.551,63.965,-883.789
1742123391.078,-1000.0,-638.672,-55.664,-1000.0
1742123391.082,-425.781,250.977,-45.898,-285.156
1742123391.086,930.176,999.512,253.418,971.191
1742123391.089,990.723,199.219,-15.625,971.191
1742123391.093,921.875,-970.215,-128.906,932.617
1742123391.097,978.516,187.5,63.477,976.562
1742123391.101,966.309,-413.086,-419.434,966.797
1742123391.105,966.309,-1000.0,-620.117,966.797
1742123391.062,590.332,579.102,-689.453,619.141
1742123391.066,-867.188,-1000.0,-1000.0,-837.891
1742123391.07,-1000.0,89.844,-550.293,-1000.0
1742123391.074,-874.023,914.551,63.965,-883.789
1742123391.078,-1000.0,-638.672,-55.664,-1000.0
1742123391.082,-425.781,250.977,-45.898,-285.156
1742123391.086,930.176,999.512,253.418,971.191
1742123391.089,990.723,199.219,-15.625,971.191
1742123391.093,921.875,-970.215,-128.906,932.617
1742123391.097,978.516,187.5,63.477,976.562
1742123391.101,966.309,-413.086,-419.434,966.797
1742123391.105,966.309,-1000.0,-620.117,966.797
1742123391.107,966.309,846.191,-321.777,966.797
1742123391.111,981.934,820.312,-90.332,982.422
1742123391.115,893.066,-865.234,-107.91,895.996
1742123391.119,999.512,246.094,-489.258,999.512
1742123391.123,583.984,475.586,-768.555,604.98
1742123391.127,-870.605,-1000.0,-908.203,-846.68
1742123391.131,-1000.0,-5.859,-383.301,-1000.0
1742123391.134,-940.918,633.789,-169.434,-939.941
1742123391.138,-1000.0,-583.008,-427.734,-1000.0
1742123391.142,-929.688,383.301,-286.133,-930.664
1742123391.146,-1000.0,-482.422,-516.113,-1000.0
1742123391.15,-721.68,-332.031,-130.859,-713.379
1742123391.107,966.309,846.191,-321.777,966.797
1742123391.111,981.934,820.312,-90.332,982.422
1742123391.115,893.066,-865.234,-107.91,895.996
1742123391.119,999.512,246.094,-489.258,999.512
1742123391.123,583.984,475.586,-768.555,604.98
1742123391.127,-870.605,-1000.0,-908.203,-846.68
1742123391.131,-1000.0,-5.859,-383.301,-1000.0
1742123391.134,-940.918,633.789,-169.434,-939.941
1742123391.138,-1000.0,-583.008,-427.734,-1000.0
1742123391.142,-929.688,383.301,-286.133,-930.664
1742123391.146,-1000.0,-482.422,-516.113,-1000.0
1742123391.15,-721.68,-332.031,-130.859,-713.379
1742123391.152,755.859,999.512,622.559,756.836
1742123391.156,999.512,497.559,-123.535,999.512
1742123391.16,899.902,-184.082,-489.746,901.367
1742123391.164,994.141,535.645,-309.57,993.652
1742123391.168,929.688,-643.066,-358.398,931.152
1742123391.172,969.727,265.137,303.711,968.75
1742123391.176,984.375,999.512,409.18,985.352
1742123391.179,-302.246,-633.789,-537.598,-289.551
1742123391.183,-1000.0,-1000.0,-777.344,-1000.0
1742123391.187,-951.172,-698.242,80.078,-946.289
1742123391.191,295.41,744.629,898.438,290.527
1742123391.195,999.512,953.125,909.18,999.512
1742123391.152,755.859,999.512,622.559,756.836
1742123391.156,999.512,497.559,-123.535,999.512
1742123391.16,899.902,-184.082,-489.746,901.367
1742123391.164,994.141,535.645,-309.57,993.652
1742123391.168,929.688,-643.066,-358.398,931.152
1742123391.172,969.727,265.137,303.711,968.75
1742123391.176,984.375,999.512,409.18,985.352
1742123391.179,-302.246,-633.789,-537.598,-289.551
1742123391.183,-1000.0,-1000.0,-777.344,-1000.0
1742123391.187,-951.172,-698.242,80.078,-946.289
1742123391.191,295.41,744.629,898.438,290.527
1742123391.195,999.512,953.125,909.18,999.512
1742123391.198,994.629,-572.266,279.785,972.656
1742123391.202,0.488,-1000.0,-275.879,-61.523
1742123391.206,-1000.0,-912.598,-390.137,-1000.0
1742123391.21,-964.844,415.527,177.734,-961.426
1742123391.214,-987.305,999.512,344.727,-990.723
1742123391.218,-1000.0,-79.59,141.113,-1000.0
1742123391.222,-941.406,-999.023,116.211,-942.383
1742123391.225,-1000.0,-984.863,-202.637,-1000.0
1742123391.229,-297.852,482.422,48.34,-312.988
1742123391.233,977.539,999.512,220.215,965.332
1742123391.237,969.727,-615.723,-470.703,974.609
1742123391.241,932.617,-925.293,-680.176,932.617
1742123391.198,994.629,-572.266,279.785,972.656
1742123391.202,0.488,-1000.0,-275.879,-61.523
1742123391.206,-1000.0,-912.598,-390.137,-1000.0
1742123391.21,-964.844,415.527,177.734,-961.426
1742123391.214,-987.305,999.512,344.727,-990.723
1742123391.218,-1000.0,-79.59,141.113,-1000.0
1742123391.222,-941.406,-999.023,116.211,-942.383
1742123391.225,-1000.0,-984.863,-202.637,-1000.0
1742123391.229,-297.852,482.422,48.34,-312.988
1742123391.233,977.539,999.512,220.215,965.332
1742123391.237,969.727,-615.723,-470.703,974.609
1742123391.241,932.617,-925.293,-680.176,932.617
1742123391.243,981.445,715.332,-367.188,982.422
1742123391.247,902.344,999.512,-38.574,904.785
1742123391.251,999.512,65.918,20.02,999.512
1742123391.255,342.773,-868.652,-628.906,353.516
1742123391.259,-983.398,-1000.0,-1000.0,-970.703
1742123391.263,-1000.0,81.055,-928.223,-1000.0
1742123391.267,-976.074,977.051,-589.844,-975.098
1742123391.27,-954.102,-658.203,-530.273,-951.66
1742123391.274,-1000.0,-1000.0,-570.312,-1000.0
1742123391.278,-891.113,488.77,-352.051,-848.145
1742123391.282,563.477,999.512,-90.332,607.91
1742123391.286,999.512,974.609,183.594,999.512
1742123391.243,981.445,715.332,-367.188,982.422
1742123391.247,902.344,999.512,-38.574,904.785
1742123391.251,999.512,65.918,20.02,999.512
1742123391.255,342.773,-868.652,-628.906,353.516
1742123391.259,-983.398,-1000.0,-1000.0,-970.703
1742123391.263,-1000.0,81.055,-928.223,-1000.0
1742123391.267,-976.074,977.051,-589.844,-975.098
1742123391.27,-954.102,-658.203,-530.273,-951.66
1742123391.274,-1000.0,-1000.0,-570.312,-1000.0
1742123391.278,-891.113,488.77,-352.051,-848.145
1742123391.282,563.477,999.512,-90.332,607.91
1742123391.286,999.512,974.609,183.594,999.512
1742123391.288,891.602,353.516,178.711,894.531
1742123391.292,981.934,-1000.0,-165.039,982.91
1742123391.296,967.285,-691.406,-287.109,968.75
1742123391.3,969.238,730.469,-32.715,970.215
1742123391.304,905.762,999.512,161.621,907.227
1742123391.308,999.512,835.938,63.965,999.512
1742123391.312,287.598,-450.684,-501.953,307.617
1742123391.315,-1000.0,-1000.0,-986.816,-988.77
1742123391.319,-1000.0,-943.359,-1000.0,-1000.0
1742123391.323,-963.867,269.531,-751.465,-962.402
1742123391.327,-1000.0,999.512,-489.258,-1000.0
1742123391.331,-962.402,-87.891,-581.543,-963.379
1742123391.288,891.602,353.516,178.711,894.531
1742123391.292,981.934,-1000.0,-165.039,982.91
1742123391.296,967.285,-691.406,-287.109,968.75
1742123391.3,969.238,730.469,-32.715,970.215
1742123391.304,905.762,999.512,161.621,907.227
1742123391.308,999.512,835.938,63.965,999.512
1742123391.312,287.598,-450.684,-501.953,307.617
1742123391.315,-1000.0,-1000.0,-986.816,-988.77
1742123391.319,-1000.0,-943.359,-1000.0,-1000.0
1742123391.323,-963.867,269.531,-751.465,-962.402
1742123391.327,-1000.0,999.512,-489.258,-1000.0
1742123391.331,-962.402,-87.891,-581.543,-963.379
1742123391.347,-1000.0,-936.035,-635.742,-1000.0
1742123391.351,-1000.0,493.652,-499.023,-1000.0
1742123391.355,321.777,999.512,171.387,306.152
1742123391.359,999.512,790.039,319.336,999.512
1742123391.363,864.746,-628.906,-598.145,862.793
1742123391.367,965.332,294.434,-943.848,976.074
1742123391.371,999.512,900.879,-944.336,989.746
1742123391.374,-269.531,-819.824,-1000.0,-316.895
1742123391.378,-1000.0,-1000.0,-751.465,-1000.0
1742123391.382,-934.57,-829.59,-591.309,-935.547
1742123391.386,-1000.0,-498.535,-848.633,-1000.0
1742123391.39,-971.68,847.656,-842.773,-974.609
1742123391.347,-1000.0,-936.035,-635.742,-1000.0
1742123391.351,-1000.0,493.652,-499.023,-1000.0
1742123391.355,321.777,999.512,171.387,306.152
1742123391.359,999.512,790.039,319.336,999.512
1742123391.363,864.746,-628.906,-598.145,862.793
1742123391.367,965.332,294.434,-943.848,976.074
1742123391.371,999.512,900.879,-944.336,989.746
1742123391.374,-269.531,-819.824,-1000.0,-316.895
1742123391.378,-1000.0,-1000.0,-751.465,-1000.0
1742123391.382,-934.57,-829.59,-591.309,-935.547
1742123391.386,-1000.0,-498.535,-848.633,-1000.0
1742123391.39,-971.68,847.656,-842.773,-974.609
1742123391.391,-987.305,464.844,-732.422,-983.887
1742123391.395,-1000.0,-916.992,-622.559,-1000.0
1742123391.399,208.008,282.715,-417.969,160.645
1742123391.403,999.512,999.512,-503.418,999.512
1742123391.407,902.344,203.613,-792.48,910.645
1742123391.411,968.262,-254.883,-635.742,964.844
1742123391.415,982.422,927.734,-165.527,983.887
1742123391.418,908.691,-462.891,-236.328,911.621
1742123391.422,999.512,-1000.0,-661.133,999.512
1742123391.426,860.352,543.457,-698.242,874.023
1742123391.43,-593.262,-538.574,-875.0,-571.777
1742123391.434,-1000.0,-1000.0,-536.133,-1000.0
1742123391.391,-987.305,464.844,-732.422,-983.887
1742123391.395,-1000.0,-916.992,-622.559,-1000.0
1742123391.399,208.008,282.715,-417.969,160.645
1742123391.403,999.512,999.512,-503.418,999.512
1742123391.407,902.344,203.613,-792.48,910.645
1742123391.411,968.262,-254.883,-635.742,964.844
1742123391.415,982.422,927.734,-165.527,983.887
1742123391.418,908.691,-462.891,-236.328,911.621
1742123391.422,999.512,-1000.0,-661.133,999.512
1742123391.426,860.352,543.457,-698.242,874.023
1742123391.43,-593.262,-538.574,-875.0,-571.777
1742123391.434,-1000.0,-1000.0,-536.133,-1000.0
1742123391.436,-925.781,828.125,-249.023,-925.781
1742123391.44,-1000.0,394.043,-537.598,-1000.0
1742123391.444,-944.824,-440.918,-553.711,-946.289
1742123391.448,-1000.0,606.934,-509.277,-1000.0
1742123391.452,-907.227,-454.102,-211.426,-920.898
1742123391.456,538.574,417.48,449.219,517.578
1742123391.46,999.512,835.449,90.82,999.512
1742123391.463,891.602,-793.945,-369.141,892.578
1742123391.467,981.445,-1000.0,-331.543,982.91
1742123391.471,980.469,187.988,87.402,975.098
1742123391.475,893.555,999.512,502.93,902.344
1742123391.479,999.512,394.531,497.07,999.512
1742123391.436,-925.781,828.125,-249.023,-925.781
1742123391.44,-1000.0,394.043,-537.598,-1000.0
1742123391.444,-944.824,-440.918,-553.711,-946.289
1742123391.448,-1000.0,606.934,-509.277,-1000.0
1742123391.452,-907.227,-454.102,-211.426,-920.898
1742123391.456,538.574,417.48,449.219,517.578
1742123391.46,999.512,835.449,90.82,999.512
1742123391.463,891.602,-793.945,-369.141,892.578
1742123391.467,981.445,-1000.0,-331.543,982.91
1742123391.471,980.469,187.988,87.402,975.098
1742123391.475,893.555,999.512,502.93,902.344
1742123391.479,999.512,394.531,497.07,999.512
1742123391.485,536.621,-601.562,70.801,424.316
1742123391.489,-899.414,-1000.0,-485.352,-934.57
1742123391.493,-1000.0,-751.465,-227.539,-1000.0
1742123391.497,-944.824,883.789,-262.695,-953.125
1742123391.501,-1000.0,466.309,-848.633,-1000.0
1742123391.505,-1000.0,-543.457,-631.348,-1000.0
1742123391.509,-929.688,704.102,-301.758,-930.664
1742123391.512,-1000.0,-545.41,-305.664,-1000.0
1742123391.516,-721.68,-880.859,196.777,-708.984
1742123391.52,755.859,972.656,432.617,757.812
1742123391.524,999.512,567.383,-57.617,999.512
1742123391.528,899.902,-922.852,-265.625,902.344
1742123391.485,536.621,-601.562,70.801,424.316
1742123391.489,-899.414,-1000.0,-485.352,-934.57
1742123391.493,-1000.0,-751.465,-227.539,-1000.0
1742123391.497,-944.824,883.789,-262.695,-953.125
1742123391.501,-1000.0,466.309,-848.633,-1000.0
1742123391.505,-1000.0,-543.457,-631.348,-1000.0
1742123391.509,-929.688,704.102,-301.758,-930.664
1742123391.512,-1000.0,-545.41,-305.664,-1000.0
1742123391.516,-721.68,-880.859,196.777,-708.984
1742123391.52,755.859,972.656,432.617,757.812
1742123391.524,999.512,567.383,-57.617,999.512
1742123391.528,899.902,-922.852,-265.625,902.344
1742123391.528,997.559,-123.535,-38.086,993.164
1742123391.532,894.043,999.512,182.129,901.367
1742123391.536,999.512,904.785,30.762,999.512
1742123391.54,515.625,-364.258,-371.094,447.754
1742123391.544,-910.645,-1000.0,-617.188,-924.316
1742123391.548,-1000.0,-312.5,-50.293,-1000.0
1742123391.552,-946.289,834.473,353.027,-951.66
1742123391.555,-1000.0,-536.133,-404.785,-1000.0
1742123391.559,-942.383,-1000.0,-856.445,-942.383
1742123391.563,-1000.0,272.461,-627.441,-1000.0
1742123391.567,-891.113,999.512,-303.711,-891.113
1742123391.571,563.477,948.242,311.035,564.453
1742123391.573,999.512,938.477,348.633,999.512
1742123391.577,891.602,-644.531,-19.043,892.09
1742123391.581,990.234,-858.398,-110.84,991.211
1742123391.585,934.57,716.309,-47.852,936.523
1742123391.589,958.984,999.512,245.605,959.473
1742123391.593,999.512,753.906,417.969,999.512
1742123391.597,-291.016,-545.41,-364.746,-268.066
1742123391.6,-1000.0,-1000.0,-1000.0,-1000.0
1742123391.604,-991.211,-589.355,-548.828,-1000.0
1742123391.608,-885.254,666.992,412.109,-840.82
1742123391.612,576.172,999.512,867.676,621.582
1742123391.616,999.512,811.035,490.234,999.512
1742123391.573,999.512,938.477,348.633,999.512
1742123391.577,891.602,-644.531,-19.043,892.09
1742123391.581,990.234,-858.398,-110.84,991.211
1742123391.585,934.57,716.309,-47.852,936.523
1742123391.589,958.984,999.512,245.605,959.473
1742123391.593,999.512,753.906,417.969,999.512
1742123391.597,-291.016,-545.41,-364.746,-268.066
1742123391.6,-1000.0,-1000.0,-1000.0,-1000.0
1742123391.604,-991.211,-589.355,-548.828,-1000.0
1742123391.608,-885.254,666.992,412.109,-840.82
1742123391.612,576.172,999.512,867.676,621.582
1742123391.616,999.512,811.035,490.234,999.512
1742123391.617,908.203,-658.203,151.855,911.133
1742123391.621,924.805,-1000.0,113.77,925.293
1742123391.625,999.512,694.824,357.91,999.512
1742123391.629,857.422,906.738,199.219,857.91
1742123391.633,-597.656,-897.949,-797.852,-597.656
1742123391.637,-1000.0,-498.047,-765.137,-1000.0
1742123391.641,-925.781,999.512,-250.977,-925.781
1742123391.644,-1000.0,-172.852,-67.871,-1000.0
1742123391.648,-1000.0,-1000.0,-56.152,-1000.0
1742123391.652,-1000.0,361.328,-437.5,-1000.0
1742123391.656,-942.383,-500.488,-809.082,-943.359
1742123391.66,-1000.0,-597.168,-677.734,-1000.0
1742123391.663,-891.113,916.504,-444.824,-895.02
1742123391.667,563.965,999.512,-625.0,556.641
1742123391.671,999.512,902.344,-974.609,999.512
1742123391.675,892.09,-675.781,-1000.0,892.578
1742123391.679,999.023,-866.699,-996.094,998.535
1742123391.683,906.738,715.332,-885.254,904.785
1742123391.687,999.512,-312.988,-764.648,999.512
1742123391.69,838.867,-1000.0,-936.523,787.109
1742123391.694,-638.184,-928.711,-1000.0,-686.523
1742123391.698,-1000.0,-79.102,-991.699,-1000.0
1742123391.702,-985.352,-481.445,-1000.0,-998.535
1742123391.706,-889.16,-62.5,-536.133,-846.191
1742123391.663,-891.113,916.504,-444.824,-895.02
1742123391.667,563.965,999.512,-625.0,556.641
1742123391.671,999.512,902.344,-974.609,999.512
1742123391.675,892.09,-675.781,-1000.0,892.578
1742123391.679,999.023,-866.699,-996.094,998.535
1742123391.683,906.738,715.332,-885.254,904.785
1742123391.687,999.512,-312.988,-764.648,999.512
1742123391.69,838.867,-1000.0,-936.523,787.109
1742123391.694,-638.184,-928.711,-1000.0,-686.523
1742123391.698,-1000.0,-79.102,-991.699,-1000.0
1742123391.702,-985.352,-481.445,-1000.0,-998.535
1742123391.706,-889.16,-62.5,-536.133,-846.191
1742123392.187,970.703,-406.25,-440.43,972.168
1742123392.191,950.195,696.777,100.586,948.73
1742123392.195,932.129,-325.195,445.801,938.477
1742123392.199,999.512,441.895,29.297,999.512
1742123392.203,-45.41,-491.211,-547.852,-63.477
1742123392.207,-1000.0,-1000.0,-731.445,-1000.0
1742123392.211,-965.332,718.75,-668.945,-966.309
1742123392.214,-965.82,724.609,-269.043,-968.75
1742123392.218,-980.469,-833.984,-281.25,-977.051
1742123392.222,-1000.0,-980.469,-19.043,-1000.0
1742123392.226,115.723,469.727,727.051,67.871
1742123392.23,999.512,999.512,987.793,999.512
1742123391.722,587.891,999.512,-440.918,632.324
1742123391.726,999.512,762.207,-782.227,999.512
1742123391.73,892.09,-651.367,-477.051,895.508
1742123391.734,998.535,449.707,-223.145,999.023
1742123391.738,910.645,382.324,-547.363,912.109
1742123391.742,999.512,-427.734,-585.938,999.512
1742123391.746,856.445,651.367,-193.848,865.723
1742123391.749,-515.625,-626.465,-334.961,-500.488
1742123391.753,-1000.0,-1000.0,-158.691,-1000.0
1742123391.757,-798.828,179.199,431.152,-781.738
1742123391.761,478.516,999.512,669.922,501.465
1742123391.765,999.512,999.512,408.691,999.512
1742123391.722,587.891,999.512,-440.918,632.324
1742123391.726,999.512,762.207,-782.227,999.512
1742123391.73,892.09,-651.367,-477.051,895.508
1742123391.734,998.535,449.707,-223.145,999.023
1742123391.738,910.645,382.324,-547.363,912.109
1742123391.742,999.512,-427.734,-585.938,999.512
1742123391.746,856.445,651.367,-193.848,865.723
1742123391.749,-515.625,-626.465,-334.961,-500.488
1742123391.753,-1000.0,-1000.0,-158.691,-1000.0
1742123391.757,-798.828,179.199,431.152,-781.738
1742123391.761,478.516,999.512,669.922,501.465
1742123391.765,999.512,999.512,408.691,999.512
1742123391.767,666.016,103.516,-125.977,658.203
1742123391.771,-771.484,-1000.0,-696.289,-774.902
1742123391.775,-1000.0,-467.285,-41.504,-1000.0
1742123391.779,350.586,832.031,895.508,365.234
1742123391.783,999.512,999.512,566.895,999.512
1742123391.787,769.531,841.309,-207.031,772.949
1742123391.791,-529.297,-604.492,-583.496,-525.391
1742123391.794,-1000.0,-1000.0,241.211,-1000.0
1742123391.798,-846.191,429.688,998.047,-780.273
1742123391.802,637.695,999.512,797.852,697.266
1742123391.806,970.215,60.547,100.586,943.359
1742123391.81,-681.641,-1000.0,-254.883,-693.359
1742123391.767,666.016,103.516,-125.977,658.203
1742123391.771,-771.484,-1000.0,-696.289,-774.902
1742123391.775,-1000.0,-467.285,-41.504,-1000.0
1742123391.779,350.586,832.031,895.508,365.234
1742123391.783,999.512,999.512,566.895,999.512
1742123391.787,769.531,841.309,-207.031,772.949
1742123391.791,-529.297,-604.492,-583.496,-525.391
1742123391.794,-1000.0,-1000.0,241.211,-1000.0
1742123391.798,-846.191,429.688,998.047,-780.273
1742123391.802,637.695,999.512,797.852,697.266
1742123391.806,970.215,60.547,100.586,943.359
1742123391.81,-681.641,-1000.0,-254.883,-693.359
1742123391.813,-1000.0,-681.641,312.012,-1000.0
1742123391.817,-930.664,572.266,693.848,-931.641
1742123391.821,-1000.0,-339.355,693.848,-1000.0
1742123391.825,313.477,581.543,901.367,312.012
1742123391.829,999.512,712.402,437.012,999.512
1742123391.833,834.473,-419.434,184.082,834.961
1742123391.837,999.512,825.195,662.598,999.512
1742123391.84,814.453,-92.773,441.406,777.832
1742123391.844,-651.855,-1000.0,-370.605,-687.5
1742123391.848,-1000.0,-1000.0,-575.684,-1000.0
1742123391.852,-927.246,-141.602,50.293,-929.688
1742123391.856,-1000.0,967.285,274.414,-1000.0
1742123391.813,-1000.0,-681.641,312.012,-1000.0
1742123391.817,-930.664,572.266,693.848,-931.641
1742123391.821,-1000.0,-339.355,693.848,-1000.0
1742123391.825,313.477,581.543,901.367,312.012
1742123391.829,999.512,712.402,437.012,999.512
1742123391.833,834.473,-419.434,184.082,834.961
1742123391.837,999.512,825.195,662.598,999.512
1742123391.84,814.453,-92.773,441.406,777.832
1742123391.844,-651.855,-1000.0,-370.605,-687.5
1742123391.848,-1000.0,-1000.0,-575.684,-1000.0
1742123391.852,-927.246,-141.602,50.293,-929.688
1742123391.856,-1000.0,967.285,274.414,-1000.0
1742123391.857,-1000.0,-416.992,-781.25,-1000.0
1742123391.861,-1000.0,-1000.0,-1000.0,-1000.0
1742123391.865,-1000.0,-190.43,-945.801,-1000.0
1742123391.869,-1000.0,888.184,-1000.0,-1000.0
1742123391.873,-1000.0,999.512,-1000.0,-1000.0
1742123391.877,-1000.0,805.176,-1000.0,-1000.0
1742123391.881,-1000.0,-602.051,-1000.0,-1000.0
1742123391.884,-937.012,-408.203,-1000.0,-939.453
1742123391.888,-1000.0,135.254,-1000.0,-1000.0
1742123391.892,-831.543,148.438,-1000.0,-856.445
1742123391.896,638.672,921.387,-1000.0,605.957
1742123391.9,999.512,999.512,-1000.0,999.512
1742123391.857,-1000.0,-416.992,-781.25,-1000.0
1742123391.861,-1000.0,-1000.0,-1000.0,-1000.0
1742123391.865,-1000.0,-190.43,-945.801,-1000.0
1742123391.869,-1000.0,888.184,-1000.0,-1000.0
1742123391.873,-1000.0,999.512,-1000.0,-1000.0
1742123391.877,-1000.0,805.176,-1000.0,-1000.0
1742123391.881,-1000.0,-602.051,-1000.0,-1000.0
1742123391.884,-937.012,-408.203,-1000.0,-939.453
1742123391.888,-1000.0,135.254,-1000.0,-1000.0
1742123391.892,-831.543,148.438,-1000.0,-856.445
1742123391.896,638.672,921.387,-1000.0,605.957
1742123391.9,999.512,999.512,-1000.0,999.512
1742123391.902,894.043,-503.418,-1000.0,894.043
1742123391.906,983.398,-913.574,-1000.0,983.398
1742123391.91,966.309,932.129,-1000.0,966.797
1742123391.914,966.309,308.594,-1000.0,966.797
1742123391.918,966.309,-1000.0,-1000.0,967.285
1742123391.922,966.309,598.145,-1000.0,966.797
1742123391.926,966.309,160.156,-1000.0,966.797
1742123391.929,966.309,-423.34,-1000.0,966.797
1742123391.933,966.309,740.723,-1000.0,967.285
1742123391.937,966.309,-689.941,-1000.0,967.285
1742123391.941,966.309,-895.02,-1000.0,967.285
1742123391.945,966.309,815.918,-1000.0,966.797
1742123391.902,894.043,-503.418,-1000.0,894.043
1742123391.906,983.398,-913.574,-1000.0,983.398
1742123391.91,966.309,932.129,-1000.0,966.797
1742123391.914,966.309,308.594,-1000.0,966.797
1742123391.918,966.309,-1000.0,-1000.0,967.285
1742123391.922,966.309,598.145,-1000.0,966.797
1742123391.926,966.309,160.156,-1000.0,966.797
1742123391.929,966.309,-423.34,-1000.0,966.797
1742123391.933,966.309,740.723,-1000.0,967.285
1742123391.937,966.309,-689.941,-1000.0,967.285
1742123391.941,966.309,-895.02,-1000.0,967.285
1742123391.945,966.309,815.918,-1000.0,966.797
1742123391.948,966.309,999.512,-1000.0,966.797
1742123391.952,966.309,-483.887,-987.305,966.797
1742123391.956,966.309,-917.969,-1000.0,966.797
1742123391.96,966.309,925.293,-917.48,966.797
1742123391.964,966.309,436.523,-733.398,966.797
1742123391.968,966.309,-352.539,-731.445,967.285
1742123391.972,966.309,784.18,-523.438,967.285
1742123391.975,966.309,-533.203,-803.711,966.797
1742123391.979,966.309,-979.98,-1000.0,966.797
1742123391.983,966.309,764.648,-276.855,967.285
1742123391.987,966.309,999.512,787.598,967.285
1742123391.991,966.309,-669.922,999.512,966.797
1742123391.948,966.309,999.512,-1000.0,966.797
1742123391.952,966.309,-483.887,-987.305,966.797
1742123391.956,966.309,-917.969,-1000.0,966.797
1742123391.96,966.309,925.293,-917.48,966.797
1742123391.964,966.309,436.523,-733.398,966.797
1742123391.968,966.309,-352.539,-731.445,967.285
1742123391.972,966.309,784.18,-523.438,967.285
1742123391.975,966.309,-533.203,-803.711,966.797
1742123391.979,966.309,-979.98,-1000.0,966.797
1742123391.983,966.309,764.648,-276.855,967.285
1742123391.987,966.309,999.512,787.598,967.285
1742123391.991,966.309,-669.922,999.512,966.797
1742123391.948,966.309,999.512,-1000.0,966.797
1742123391.952,966.309,-483.887,-987.305,966.797
1742123391.956,966.309,-917.969,-1000.0,966.797
1742123391.96,966.309,925.293,-917.48,966.797
1742123391.964,966.309,436.523,-733.398,966.797
1742123391.968,966.309,-352.539,-731.445,967.285
1742123391.972,966.309,784.18,-523.438,967.285
1742123391.975,966.309,-533.203,-803.711,966.797
1742123391.979,966.309,-979.98,-1000.0,966.797
1742123391.983,966.309,764.648,-276.855,967.285
1742123391.987,966.309,999.512,787.598,967.285
1742123391.991,966.309,-669.922,999.512,966.797
1742123391.992,966.309,-976.074,746.094,966.797
1742123391.996,966.309,562.988,439.941,966.797
1742123392.0,966.309,999.512,803.711,966.797
1742123392.004,966.309,97.168,999.512,967.285
1742123392.008,966.309,-971.191,943.359,967.285
1742123392.012,966.309,601.074,969.727,966.797
1742123392.016,966.309,454.59,966.797,967.285
1742123392.019,966.309,-1000.0,966.797,967.285
1742123392.023,966.309,109.863,966.797,966.797
1742123392.027,966.309,999.512,967.773,966.797
1742123392.031,966.309,-770.02,964.355,966.797
1742123392.035,966.309,-98.145,971.68,966.797
1742123391.992,966.309,-976.074,746.094,966.797
1742123391.996,966.309,562.988,439.941,966.797
1742123392.0,966.309,999.512,803.711,966.797
1742123392.004,966.309,97.168,999.512,967.285
1742123392.008,966.309,-971.191,943.359,967.285
1742123392.012,966.309,601.074,969.727,966.797
1742123392.016,966.309,454.59,966.797,967.285
1742123392.019,966.309,-1000.0,966.797,967.285
1742123392.023,966.309,109.863,966.797,966.797
1742123392.027,966.309,999.512,967.773,966.797
1742123392.031,966.309,-770.02,964.355,966.797
1742123392.035,966.309,-98.145,971.68,966.797
1742123392.04,967.285,999.512,960.938,967.773
1742123392.044,970.215,-646.484,916.016,977.051
1742123392.048,904.297,-918.945,959.961,898.926
1742123392.052,999.512,836.914,971.68,999.512
1742123392.056,309.082,37.109,493.164,438.965
1742123392.06,-997.07,-1000.0,215.332,-940.918
1742123392.064,-1000.0,-187.988,698.242,-1000.0
1742123392.067,-962.402,897.949,957.031,-952.148
1742123392.071,-1000.0,-625.0,654.785,-1000.0
1742123392.075,-1000.0,-1000.0,542.969,-1000.0
1742123392.079,-1000.0,494.141,889.648,-1000.0
1742123392.083,-1000.0,999.512,990.234,-1000.0
1742123392.04,967.285,999.512,960.938,967.773
1742123392.044,970.215,-646.484,916.016,977.051
1742123392.048,904.297,-918.945,959.961,898.926
1742123392.052,999.512,836.914,971.68,999.512
1742123392.056,309.082,37.109,493.164,438.965
1742123392.06,-997.07,-1000.0,215.332,-940.918
1742123392.064,-1000.0,-187.988,698.242,-1000.0
1742123392.067,-962.402,897.949,957.031,-952.148
1742123392.071,-1000.0,-625.0,654.785,-1000.0
1742123392.075,-1000.0,-1000.0,542.969,-1000.0
1742123392.079,-1000.0,494.141,889.648,-1000.0
1742123392.083,-1000.0,999.512,990.234,-1000.0
1742123392.098,-1000.0,556.152,955.566,-1000.0
1742123392.102,-1000.0,-936.523,955.566,-1000.0
1742123392.106,-1000.0,-250.977,958.984,-1000.0
1742123392.11,-1000.0,999.512,974.121,-1000.0
1742123392.114,-1000.0,-453.125,690.43,-1000.0
1742123392.118,-1000.0,26.367,648.926,-1000.0
1742123392.122,-1000.0,487.305,417.48,-1000.0
1742123392.125,-1000.0,-1000.0,-120.605,-1000.0
1742123392.129,-1000.0,-957.52,-733.887,-1000.0
1742123392.133,-1000.0,437.012,-1000.0,-1000.0
1742123392.137,-1000.0,999.512,-976.074,-1000.0
1742123392.141,-1000.0,491.211,-1000.0,-1000.0
1742123392.098,-1000.0,556.152,955.566,-1000.0
1742123392.102,-1000.0,-936.523,955.566,-1000.0
1742123392.106,-1000.0,-250.977,958.984,-1000.0
1742123392.11,-1000.0,999.512,974.121,-1000.0
1742123392.114,-1000.0,-453.125,690.43,-1000.0
1742123392.118,-1000.0,26.367,648.926,-1000.0
1742123392.122,-1000.0,487.305,417.48,-1000.0
1742123392.125,-1000.0,-1000.0,-120.605,-1000.0
1742123392.129,-1000.0,-957.52,-733.887,-1000.0
1742123392.133,-1000.0,437.012,-1000.0,-1000.0
1742123392.137,-1000.0,999.512,-976.074,-1000.0
1742123392.141,-1000.0,491.211,-1000.0,-1000.0
1742123392.142,-1000.0,-925.293,-1000.0,-1000.0
1742123392.146,-1000.0,-384.766,-997.07,-1000.0
1742123392.15,-986.816,962.402,-935.059,-991.211
1742123392.154,-962.891,999.512,-1000.0,-956.543
1742123392.158,-1000.0,79.59,-875.488,-1000.0
1742123392.162,-26.367,99.609,-421.875,-108.887
1742123392.166,999.512,999.512,-843.75,999.512
1742123392.169,930.664,665.039,-984.863,943.848
1742123392.173,952.148,-939.941,-655.762,946.289
1742123392.177,970.215,46.387,-40.527,972.656
1742123392.181,966.309,853.027,48.34,966.797
1742123392.185,966.309,-1000.0,-430.176,966.797
1742123392.142,-1000.0,-925.293,-1000.0,-1000.0
1742123392.146,-1000.0,-384.766,-997.07,-1000.0
1742123392.15,-986.816,962.402,-935.059,-991.211
1742123392.154,-962.891,999.512,-1000.0,-956.543
1742123392.158,-1000.0,79.59,-875.488,-1000.0
1742123392.162,-26.367,99.609,-421.875,-108.887
1742123392.166,999.512,999.512,-843.75,999.512
1742123392.169,930.664,665.039,-984.863,943.848
1742123392.173,952.148,-939.941,-655.762,946.289
1742123392.177,970.215,46.387,-40.527,972.656
1742123392.181,966.309,853.027,48.34,966.797
1742123392.185,966.309,-1000.0,-430.176,966.797
1742123392.232,912.598,999.512,947.754,920.41
1742123392.236,961.914,-39.551,967.285,958.984
1742123392.24,967.773,-1000.0,968.262,969.727
1742123392.244,971.191,708.008,967.285,973.145
1742123392.248,947.754,468.75,967.773,945.312
1742123392.252,935.547,-412.598,960.938,944.336
1742123392.256,999.512,695.801,983.887,999.512
1742123392.259,-83.496,-437.012,904.785,-120.117
1742123392.263,-1000.0,-1000.0,858.398,-1000.0
1742123392.267,-954.59,-766.602,967.773,-954.102
1742123392.271,-991.699,697.754,969.727,-992.676
1742123392.275,-1000.0,94.727,965.332,-1000.0
1742123392.232,912.598,999.512,947.754,920.41
1742123392.236,961.914,-39.551,967.285,958.984
1742123392.24,967.773,-1000.0,968.262,969.727
1742123392.244,971.191,708.008,967.285,973.145
1742123392.248,947.754,468.75,967.773,945.312
1742123392.252,935.547,-412.598,960.938,944.336
1742123392.256,999.512,695.801,983.887,999.512
1742123392.259,-83.496,-437.012,904.785,-120.117
1742123392.263,-1000.0,-1000.0,858.398,-1000.0
1742123392.267,-954.59,-766.602,967.773,-954.102
1742123392.271,-991.699,697.754,969.727,-992.676
1742123392.275,-1000.0,94.727,965.332,-1000.0
1742123392.277,-1000.0,-1000.0,961.426,-1000.0
1742123392.281,-1000.0,-229.98,954.59,-1000.0
1742123392.285,-1000.0,999.512,969.727,-1000.0
1742123392.289,-927.734,391.113,961.426,-934.57
1742123392.293,-1000.0,-931.641,969.238,-1000.0
1742123392.297,-674.805,408.203,950.684,-571.289
1742123392.301,800.781,999.512,771.484,838.379
1742123392.304,999.512,-417.969,506.348,999.023
1742123392.308,872.07,-875.488,338.867,891.113
1742123392.312,999.512,583.984,712.402,999.512
1742123392.316,-78.613,-446.289,578.613,-129.395
1742123392.32,-1000.0,-1000.0,-36.621,-1000.0
1742123392.277,-1000.0,-1000.0,961.426,-1000.0
1742123392.281,-1000.0,-229.98,954.59,-1000.0
1742123392.285,-1000.0,999.512,969.727,-1000.0
1742123392.289,-927.734,391.113,961.426,-934.57
1742123392.293,-1000.0,-931.641,969.238,-1000.0
1742123392.297,-674.805,408.203,950.684,-571.289
1742123392.301,800.781,999.512,771.484,838.379
1742123392.304,999.512,-417.969,506.348,999.023
1742123392.308,872.07,-875.488,338.867,891.113
1742123392.312,999.512,583.984,712.402,999.512
1742123392.316,-78.613,-446.289,578.613,-129.395
1742123392.32,-1000.0,-1000.0,-36.621,-1000.0
1742123392.324,-955.078,163.574,189.453,-953.613
1742123392.328,-991.211,957.52,423.34,-993.164
1742123392.332,-1000.0,-752.441,382.324,-1000.0
1742123392.336,-1000.0,-888.672,460.938,-1000.0
1742123392.34,-1000.0,679.199,-55.664,-1000.0
1742123392.344,-1000.0,999.512,-304.688,-1000.0
1742123392.348,-1000.0,755.859,8.789,-1000.0
1742123392.351,-1000.0,-642.09,-299.805,-1000.0
1742123392.355,-1000.0,-1000.0,-873.047,-1000.0
1742123392.359,-1000.0,-827.148,-1000.0,-1000.0
1742123392.363,-1000.0,-671.387,-985.352,-1000.0
1742123392.367,-1000.0,770.02,-1000.0,-1000.0
1742123392.324,-955.078,163.574,189.453,-953.613
1742123392.328,-991.211,957.52,423.34,-993.164
1742123392.332,-1000.0,-752.441,382.324,-1000.0
1742123392.336,-1000.0,-888.672,460.938,-1000.0
1742123392.34,-1000.0,679.199,-55.664,-1000.0
1742123392.344,-1000.0,999.512,-304.688,-1000.0
1742123392.348,-1000.0,755.859,8.789,-1000.0
1742123392.351,-1000.0,-642.09,-299.805,-1000.0
1742123392.355,-1000.0,-1000.0,-873.047,-1000.0
1742123392.359,-1000.0,-827.148,-1000.0,-1000.0
1742123392.363,-1000.0,-671.387,-985.352,-1000.0
1742123392.367,-1000.0,770.02,-1000.0,-1000.0
1742123392.367,-1000.0,983.887,-1000.0,-1000.0
1742123392.371,-1000.0,-747.07,-1000.0,-1000.0
1742123392.375,-1000.0,-60.059,-995.605,-1000.0
1742123392.379,-1000.0,999.512,-1000.0,-997.07
1742123392.383,-1000.0,-335.938,-976.074,-1000.0
1742123392.387,-1000.0,-254.883,-922.363,-990.234
1742123392.391,-1000.0,906.25,-988.281,-957.031
1742123392.394,-956.543,-704.102,-1000.0,-947.266
1742123392.398,-1000.0,-1000.0,-997.07,-1000.0
1742123392.402,-988.77,542.969,-1000.0,-993.652
1742123392.406,393.555,999.512,-984.863,364.746
1742123392.41,999.512,956.543,-996.094,999.512
1742123392.367,-1000.0,983.887,-1000.0,-1000.0
1742123392.371,-1000.0,-747.07,-1000.0,-1000.0
1742123392.375,-1000.0,-60.059,-995.605,-1000.0
1742123392.379,-1000.0,999.512,-1000.0,-997.07
1742123392.383,-1000.0,-335.938,-976.074,-1000.0
1742123392.387,-1000.0,-254.883,-922.363,-990.234
1742123392.391,-1000.0,906.25,-988.281,-957.031
1742123392.394,-956.543,-704.102,-1000.0,-947.266
1742123392.398,-1000.0,-1000.0,-997.07,-1000.0
1742123392.402,-988.77,542.969,-1000.0,-993.652
1742123392.406,393.555,999.512,-984.863,364.746
1742123392.41,999.512,956.543,-996.094,999.512
1742123392.414,893.555,114.746,-998.535,895.996
1742123392.418,993.164,-1000.0,-998.535,992.188
1742123392.422,908.691,-503.906,-1000.0,908.203
1742123392.426,999.512,964.355,-824.707,999.512
1742123392.43,856.934,169.922,-823.73,846.68
1742123392.434,-597.656,-1000.0,-1000.0,-611.328
1742123392.438,-1000.0,-736.816,-1000.0,-1000.0
1742123392.441,-925.781,584.473,-996.094,-926.27
1742123392.445,-1000.0,-671.875,-1000.0,-1000.0
1742123392.449,-1000.0,-726.074,-1000.0,-1000.0
1742123392.453,-1000.0,954.102,-1000.0,-1000.0
1742123392.457,-1000.0,-548.828,-1000.0,-1000.0
1742123392.414,893.555,114.746,-998.535,895.996
1742123392.418,993.164,-1000.0,-998.535,992.188
1742123392.422,908.691,-503.906,-1000.0,908.203
1742123392.426,999.512,964.355,-824.707,999.512
1742123392.43,856.934,169.922,-823.73,846.68
1742123392.434,-597.656,-1000.0,-1000.0,-611.328
1742123392.438,-1000.0,-736.816,-1000.0,-1000.0
1742123392.441,-925.781,584.473,-996.094,-926.27
1742123392.445,-1000.0,-671.875,-1000.0,-1000.0
1742123392.449,-1000.0,-726.074,-1000.0,-1000.0
1742123392.453,-1000.0,954.102,-1000.0,-1000.0
1742123392.457,-1000.0,-548.828,-1000.0,-1000.0
1742123392.473,-1000.0,-880.859,-1000.0,-1000.0
1742123392.477,-929.688,661.621,-1000.0,-935.547
1742123392.481,-1000.0,-352.539,-1000.0,-1000.0
1742123392.485,-712.891,208.984,-1000.0,-662.109
1742123392.489,762.695,999.512,-1000.0,766.113
1742123392.493,999.512,883.789,-1000.0,999.512
1742123392.497,911.133,-672.363,-1000.0,905.762
1742123392.5,915.039,-855.469,-1000.0,928.711
1742123392.504,999.512,645.02,-991.211,999.512
1742123392.508,441.406,-446.289,-998.535,258.789
1742123392.512,-942.871,-1000.0,-1000.0,-996.094
1742123392.516,-1000.0,-291.504,-659.668,-1000.0
1742123392.473,-1000.0,-880.859,-1000.0,-1000.0
1742123392.477,-929.688,661.621,-1000.0,-935.547
1742123392.481,-1000.0,-352.539,-1000.0,-1000.0
1742123392.485,-712.891,208.984,-1000.0,-662.109
1742123392.489,762.695,999.512,-1000.0,766.113
1742123392.493,999.512,883.789,-1000.0,999.512
1742123392.497,911.133,-672.363,-1000.0,905.762
1742123392.5,915.039,-855.469,-1000.0,928.711
1742123392.504,999.512,645.02,-991.211,999.512
1742123392.508,441.406,-446.289,-998.535,258.789
1742123392.512,-942.871,-1000.0,-1000.0,-996.094
1742123392.516,-1000.0,-291.504,-659.668,-1000.0
1742123392.516,-952.148,999.512,-493.164,-965.332
1742123392.52,-1000.0,-317.383,-900.879,-1000.0
1742123392.524,-969.727,-1000.0,-1000.0,-970.703
1742123392.528,-990.723,699.707,-984.863,-990.723
1742123392.532,-1000.0,999.512,-1000.0,-1000.0
1742123392.536,227.539,902.344,-915.039,203.613
1742123392.54,999.512,999.512,-936.523,999.512
1742123392.543,900.879,-399.414,-1000.0,907.715
1742123392.547,985.84,-1000.0,-980.957,983.398
1742123392.551,907.715,277.344,-485.84,905.762
1742123392.555,999.512,999.512,-283.203,999.512
1742123392.559,826.66,-353.027,-768.066,770.996
1742123392.516,-952.148,999.512,-493.164,-965.332
1742123392.52,-1000.0,-317.383,-900.879,-1000.0
1742123392.524,-969.727,-1000.0,-1000.0,-970.703
1742123392.528,-990.723,699.707,-984.863,-990.723
1742123392.532,-1000.0,999.512,-1000.0,-1000.0
1742123392.536,227.539,902.344,-915.039,203.613
1742123392.54,999.512,999.512,-936.523,999.512
1742123392.543,900.879,-399.414,-1000.0,907.715
1742123392.547,985.84,-1000.0,-980.957,983.398
1742123392.551,907.715,277.344,-485.84,905.762
1742123392.555,999.512,999.512,-283.203,999.512
1742123392.559,826.66,-353.027,-768.066,770.996
1742123392.562,-542.969,-1000.0,-1000.0,-602.051
1742123392.566,-1000.0,-946.777,-710.449,-1000.0
1742123392.57,-617.188,-55.664,21.484,-621.582
1742123392.574,766.113,999.512,675.781,756.836
1742123392.578,999.512,186.523,294.922,999.512
1742123392.582,901.855,-581.055,-0.977,902.832
1742123392.586,984.375,-764.648,-150.879,985.84
1742123392.589,973.633,-683.105,278.809,969.727
1742123392.593,900.391,803.223,963.867,908.691
1742123392.597,999.512,-75.195,943.359,999.512
1742123392.601,384.766,-1000.0,326.172,312.012
1742123392.605,-966.309,-1000.0,199.219,-979.98
1742123392.562,-542.969,-1000.0,-1000.0,-602.051
1742123392.566,-1000.0,-946.777,-710.449,-1000.0
1742123392.57,-617.188,-55.664,21.484,-621.582
1742123392.574,766.113,999.512,675.781,756.836
1742123392.578,999.512,186.523,294.922,999.512
1742123392.582,901.855,-581.055,-0.977,902.832
1742123392.586,984.375,-764.648,-150.879,985.84
1742123392.589,973.633,-683.105,278.809,969.727
1742123392.593,900.391,803.223,963.867,908.691
1742123392.597,999.512,-75.195,943.359,999.512
1742123392.601,384.766,-1000.0,326.172,312.012
1742123392.605,-966.309,-1000.0,199.219,-979.98
1742123392.607,-1000.0,-71.777,815.918,-1000.0
1742123392.611,-956.543,938.477,986.328,-961.426
1742123392.615,-1000.0,-741.699,960.449,-1000.0
1742123392.619,-942.383,-742.676,948.73,-940.918
1742123392.623,-1000.0,847.168,749.023,-1000.0
1742123392.627,-891.113,975.098,883.789,-873.047
1742123392.631,563.965,993.164,999.512,586.426
1742123392.634,999.512,164.551,924.316,999.512
1742123392.638,823.73,-1000.0,994.629,829.59
1742123392.642,999.512,-462.402,836.426,999.512
1742123392.646,734.863,673.34,-18.066,587.891
1742123392.65,-743.164,-810.547,-573.73,-821.289
1742123392.607,-1000.0,-71.777,815.918,-1000.0
1742123392.611,-956.543,938.477,986.328,-961.426
1742123392.615,-1000.0,-741.699,960.449,-1000.0
1742123392.619,-942.383,-742.676,948.73,-940.918
1742123392.623,-1000.0,847.168,749.023,-1000.0
1742123392.627,-891.113,975.098,883.789,-873.047
1742123392.631,563.965,993.164,999.512,586.426
1742123392.634,999.512,164.551,924.316,999.512
1742123392.638,823.73,-1000.0,994.629,829.59
1742123392.642,999.512,-462.402,836.426,999.512
1742123392.646,734.863,673.34,-18.066,587.891
1742123392.65,-743.164,-810.547,-573.73,-821.289
1742123392.652,-1000.0,-844.727,-432.617,-1000.0
1742123392.656,-931.152,571.777,-576.66,-941.895
1742123392.66,-1000.0,-415.039,-963.867,-1000.0
1742123392.664,-930.664,391.113,-922.852,-932.617
1742123392.668,-1000.0,106.445,-734.863,-1000.0
1742123392.672,-736.816,-41.992,-488.281,-677.734
1742123392.676,741.699,999.512,-639.16,769.531
1742123392.679,999.512,69.824,-770.996,999.512
1742123392.683,898.926,-1000.0,-578.125,904.297
1742123392.687,983.887,424.805,-142.578,983.398
1742123392.691,966.309,999.512,550.293,966.797
1742123392.695,966.309,-513.672,962.891,966.797
1742123392.652,-1000.0,-844.727,-432.617,-1000.0
1742123392.656,-931.152,571.777,-576.66,-941.895
1742123392.66,-1000.0,-415.039,-963.867,-1000.0
1742123392.664,-930.664,391.113,-922.852,-932.617
1742123392.668,-1000.0,106.445,-734.863,-1000.0
1742123392.672,-736.816,-41.992,-488.281,-677.734
1742123392.676,741.699,999.512,-639.16,769.531
1742123392.679,999.512,69.824,-770.996,999.512
1742123392.683,898.926,-1000.0,-578.125,904.297
1742123392.687,983.887,424.805,-142.578,983.398
1742123392.691,966.309,999.512,550.293,966.797
1742123392.695,966.309,-513.672,962.891,966.797
1742123392.698,966.309,-1000.0,949.219,966.797
1742123392.702,966.309,255.371,863.77,966.797
1742123392.706,966.309,999.512,923.828,966.797
1742123392.71,966.309,678.223,979.492,966.797
1742123392.714,982.422,-772.461,961.914,983.398
1742123392.718,908.691,24.902,967.285,907.227
1742123392.722,999.512,999.512,967.773,999.512
1742123392.725,856.934,-65.43,962.402,828.613
1742123392.729,-597.656,-1000.0,974.609,-630.371
1742123392.733,-1000.0,-1000.0,954.102,-1000.0
1742123392.737,-925.781,-625.0,895.02,-927.734
1742123392.741,-1000.0,951.66,949.707,-1000.0
1742123392.698,966.309,-1000.0,949.219,966.797
1742123392.702,966.309,255.371,863.77,966.797
1742123392.706,966.309,999.512,923.828,966.797
1742123392.71,966.309,678.223,979.492,966.797
1742123392.714,982.422,-772.461,961.914,983.398
1742123392.718,908.691,24.902,967.285,907.227
1742123392.722,999.512,999.512,967.773,999.512
1742123392.725,856.934,-65.43,962.402,828.613
1742123392.729,-597.656,-1000.0,974.609,-630.371
1742123392.733,-1000.0,-1000.0,954.102,-1000.0
1742123392.737,-925.781,-625.0,895.02,-927.734
1742123392.741,-1000.0,951.66,949.707,-1000.0
1742123392.742,-927.734,428.223,979.98,-933.105
1742123392.746,-1000.0,-1000.0,950.684,-1000.0
1742123392.75,-733.887,274.414,960.938,-632.812
1742123392.754,849.121,999.512,964.844,896.973
1742123392.758,928.223,-20.508,394.043,888.184
1742123392.762,-661.133,-1000.0,-202.637,-681.152
1742123392.766,-1000.0,34.668,65.918,-1000.0
1742123392.769,-925.781,-16.113,28.32,-927.246
1742123392.773,-1000.0,-545.41,-54.688,-1000.0
1742123392.777,-928.223,619.629,416.016,-931.152
1742123392.781,-1000.0,-532.715,871.582,-1000.0
1742123392.785,-612.305,158.203,999.512,-627.441
1742123392.742,-927.734,428.223,979.98,-933.105
1742123392.746,-1000.0,-1000.0,950.684,-1000.0
1742123392.75,-733.887,274.414,960.938,-632.812
1742123392.754,849.121,999.512,964.844,896.973
1742123392.758,928.223,-20.508,394.043,888.184
1742123392.762,-661.133,-1000.0,-202.637,-681.152
1742123392.766,-1000.0,34.668,65.918,-1000.0
1742123392.769,-925.781,-16.113,28.32,-927.246
1742123392.773,-1000.0,-545.41,-54.688,-1000.0
1742123392.777,-928.223,619.629,416.016,-931.152
1742123392.781,-1000.0,-532.715,871.582,-1000.0
1742123392.785,-612.305,158.203,999.512,-627.441
1742123392.788,929.688,999.512,721.191,913.086
1742123392.792,895.508,427.734,-240.723,877.93
1742123392.796,-662.109,-970.703,-943.359,-691.406
1742123392.8,-1000.0,-806.641,-912.109,-1000.0
1742123392.804,-925.781,852.051,-457.031,-926.758
1742123392.808,-1000.0,918.945,-46.387,-1000.0
1742123392.812,-1000.0,-585.938,-237.305,-1000.0
1742123392.815,-1000.0,-1000.0,-561.035,-1000.0
1742123392.819,-1000.0,-321.289,-616.699,-1000.0
1742123392.823,-1000.0,572.754,-788.574,-1000.0
1742123392.827,-1000.0,-356.934,-938.965,-1000.0
1742123392.831,-948.73,453.613,-952.637,-948.73
1742123392.788,929.688,999.512,721.191,913.086
1742123392.792,895.508,427.734,-240.723,877.93
1742123392.796,-662.109,-970.703,-943.359,-691.406
1742123392.8,-1000.0,-806.641,-912.109,-1000.0
1742123392.804,-925.781,852.051,-457.031,-926.758
1742123392.808,-1000.0,918.945,-46.387,-1000.0
1742123392.812,-1000.0,-585.938,-237.305,-1000.0
1742123392.815,-1000.0,-1000.0,-561.035,-1000.0
1742123392.819,-1000.0,-321.289,-616.699,-1000.0
1742123392.823,-1000.0,572.754,-788.574,-1000.0
1742123392.827,-1000.0,-356.934,-938.965,-1000.0
1742123392.831,-948.73,453.613,-952.637,-948.73
1742123392.847,-1000.0,-396.973,-994.141,-1000.0
1742123392.851,-791.992,-812.012,-458.008,-790.039
1742123392.855,597.656,936.035,425.781,601.074
1742123392.859,999.512,999.512,518.066,999.512
1742123392.863,899.414,-531.25,-80.078,900.391
1742123392.867,979.492,233.398,-39.551,979.98
1742123392.871,982.422,647.949,16.602,983.398
1742123392.874,908.691,-1000.0,-106.934,908.691
1742123392.878,999.512,60.059,25.879,999.512
1742123392.882,840.82,708.008,-146.973,837.402
1742123392.886,-540.039,-901.367,-360.352,-545.898
1742123392.89,-1000.0,-1000.0,-323.73,-1000.0
1742123392.847,-1000.0,-396.973,-994.141,-1000.0
1742123392.851,-791.992,-812.012,-458.008,-790.039
1742123392.855,597.656,936.035,425.781,601.074
1742123392.859,999.512,999.512,518.066,999.512
1742123392.863,899.414,-531.25,-80.078,900.391
1742123392.867,979.492,233.398,-39.551,979.98
1742123392.871,982.422,647.949,16.602,983.398
1742123392.874,908.691,-1000.0,-106.934,908.691
1742123392.878,999.512,60.059,25.879,999.512
1742123392.882,840.82,708.008,-146.973,837.402
1742123392.886,-540.039,-901.367,-360.352,-545.898
1742123392.89,-1000.0,-1000.0,-323.73,-1000.0
1742123392.891,-808.594,380.371,287.598,-812.012
1742123392.895,517.09,999.512,789.551,503.906
1742123392.899,999.512,445.801,289.551,999.512
1742123392.903,946.777,-782.227,-117.676,911.133
1742123392.907,-250.977,-1000.0,-342.285,-314.941
1742123392.911,-1000.0,-125.488,78.125,-1000.0
1742123392.915,-935.059,890.625,338.867,-934.082
1742123392.918,-1000.0,-433.594,-127.441,-1000.0
1742123392.922,-942.871,-1000.0,-476.562,-941.895
1742123392.926,-1000.0,-958.496,-899.902,-1000.0
1742123392.93,-891.113,-482.91,-692.871,-881.836
1742123392.934,563.965,817.383,226.562,576.172
1742123392.891,-808.594,380.371,287.598,-812.012
1742123392.895,517.09,999.512,789.551,503.906
1742123392.899,999.512,445.801,289.551,999.512
1742123392.903,946.777,-782.227,-117.676,911.133
1742123392.907,-250.977,-1000.0,-342.285,-314.941
1742123392.911,-1000.0,-125.488,78.125,-1000.0
1742123392.915,-935.059,890.625,338.867,-934.082
1742123392.918,-1000.0,-433.594,-127.441,-1000.0
1742123392.922,-942.871,-1000.0,-476.562,-941.895
1742123392.926,-1000.0,-958.496,-899.902,-1000.0
1742123392.93,-891.113,-482.91,-692.871,-881.836
1742123392.934,563.965,817.383,226.562,576.172
1742123392.937,999.512,999.512,36.133,999.512
1742123392.941,891.602,-115.234,-249.512,892.578
1742123392.945,982.422,-268.066,221.191,982.91
1742123392.949,979.004,962.402,574.219,979.98
1742123392.953,920.898,-116.211,722.656,919.434
1742123392.957,988.77,20.508,909.668,995.605
1742123392.961,947.754,-351.074,683.105,928.711
1742123392.964,-443.848,-1000.0,140.625,-472.168
1742123392.968,-1000.0,-939.941,-18.555,-1000.0
1742123392.972,-926.758,363.281,266.113,-927.246
1742123392.976,-1000.0,-181.641,-335.449,-1000.0
1742123392.98,-1000.0,-1000.0,-1000.0,-1000.0
1742123392.937,999.512,999.512,36.133,999.512
1742123392.941,891.602,-115.234,-249.512,892.578
1742123392.945,982.422,-268.066,221.191,982.91
1742123392.949,979.004,962.402,574.219,979.98
1742123392.953,920.898,-116.211,722.656,919.434
1742123392.957,988.77,20.508,909.668,995.605
1742123392.961,947.754,-351.074,683.105,928.711
1742123392.964,-443.848,-1000.0,140.625,-472.168
1742123392.968,-1000.0,-939.941,-18.555,-1000.0
1742123392.972,-926.758,363.281,266.113,-927.246
1742123392.976,-1000.0,-181.641,-335.449,-1000.0
1742123392.98,-1000.0,-1000.0,-1000.0,-1000.0
1742123392.981,-1000.0,664.551,-985.352,-1000.0
1742123392.985,-992.188,942.871,-992.676,-979.004
1742123392.989,-954.59,-665.527,-969.238,-980.957
1742123392.993,-1000.0,304.688,-973.145,-1000.0
1742123392.997,-120.605,999.512,-986.328,56.641
1742123393.001,999.512,812.012,-1000.0,999.512
1742123393.005,943.848,999.512,-716.797,931.152
1742123393.008,945.312,615.234,-51.27,955.078
1742123393.012,972.168,-1000.0,77.148,971.191
1742123393.016,966.309,-608.398,154.297,967.285
1742123393.02,966.309,813.477,227.539,966.797
1742123393.024,966.309,-740.234,34.18,966.797
1742123392.981,-1000.0,664.551,-985.352,-1000.0
1742123392.985,-992.188,942.871,-992.676,-979.004
1742123392.989,-954.59,-665.527,-969.238,-980.957
1742123392.993,-1000.0,304.688,-973.145,-1000.0
1742123392.997,-120.605,999.512,-986.328,56.641
1742123393.001,999.512,812.012,-1000.0,999.512
1742123393.005,943.848,999.512,-716.797,931.152
1742123393.008,945.312,615.234,-51.27,955.078
1742123393.012,972.168,-1000.0,77.148,971.191
1742123393.016,966.309,-608.398,154.297,967.285
1742123393.02,966.309,813.477,227.539,966.797
1742123393.024,966.309,-740.234,34.18,966.797
1742123393.027,974.121,-310.547,140.137,974.121
1742123393.031,936.035,812.988,91.309,939.453
1742123393.035,955.566,-469.727,-186.035,953.125
1742123393.039,999.512,416.016,16.602,999.512
1742123393.043,-256.348,-532.227,-173.34,-208.984
1742123393.047,-1000.0,-897.949,136.719,-1000.0
1742123393.051,-935.547,752.441,551.758,-942.871
1742123393.054,-1000.0,-712.402,-339.355,-1000.0
1742123393.058,-942.871,-267.09,-597.656,-943.848
1742123393.062,-1000.0,789.062,-541.992,-1000.0
1742123393.066,-891.113,-669.922,-154.297,-891.113
1742123393.07,563.965,449.219,798.828,564.453
1742123393.027,974.121,-310.547,140.137,974.121
1742123393.031,936.035,812.988,91.309,939.453
1742123393.035,955.566,-469.727,-186.035,953.125
1742123393.039,999.512,416.016,16.602,999.512
1742123393.043,-256.348,-532.227,-173.34,-208.984
1742123393.047,-1000.0,-897.949,136.719,-1000.0
1742123393.051,-935.547,752.441,551.758,-942.871
1742123393.054,-1000.0,-712.402,-339.355,-1000.0
1742123393.058,-942.871,-267.09,-597.656,-943.848
1742123393.062,-1000.0,789.062,-541.992,-1000.0
1742123393.066,-891.113,-669.922,-154.297,-891.113
1742123393.07,563.965,449.219,798.828,564.453
1742123393.074,999.512,999.512,686.035,999.512
1742123393.078,891.602,-541.992,333.496,892.09
1742123393.082,995.605,-945.801,475.586,994.141
1742123393.086,918.457,824.219,671.875,924.805
1742123393.09,995.605,846.68,288.574,982.91
1742123393.094,922.852,-755.371,-444.824,953.613
1742123393.098,-455.078,-1000.0,-670.41,-372.559
1742123393.101,-1000.0,-1000.0,-693.359,-1000.0
1742123393.105,-1000.0,-414.062,-343.262,-970.215
1742123393.109,91.797,894.043,29.785,214.355
1742123393.113,999.512,999.512,-151.855,999.512
1742123393.117,914.062,-59.57,-364.746,906.738
1742123393.074,999.512,999.512,686.035,999.512
1742123393.078,891.602,-541.992,333.496,892.09
1742123393.082,995.605,-945.801,475.586,994.141
1742123393.086,918.457,824.219,671.875,924.805
1742123393.09,995.605,846.68,288.574,982.91
1742123393.094,922.852,-755.371,-444.824,953.613
1742123393.098,-455.078,-1000.0,-670.41,-372.559
1742123393.101,-1000.0,-1000.0,-693.359,-1000.0
1742123393.105,-1000.0,-414.062,-343.262,-970.215
1742123393.109,91.797,894.043,29.785,214.355
1742123393.113,999.512,999.512,-151.855,999.512
1742123393.117,914.062,-59.57,-364.746,906.738
1742123393.116,960.938,-1000.0,-499.023,967.773
1742123393.12,984.375,-164.551,-431.152,984.863
1742123393.124,906.25,999.512,-56.152,906.25
1742123393.128,999.512,354.98,-119.629,999.512
1742123393.132,833.008,-917.969,-515.625,823.73
1742123393.136,-628.418,-1000.0,-952.637,-637.207
1742123393.14,-1000.0,-85.449,-779.785,-1000.0
1742123393.143,-880.859,793.945,-107.91,-879.395
1742123393.147,-1000.0,-805.664,-155.762,-1000.0
1742123393.151,-978.027,-910.156,-55.664,-961.426
1742123393.155,416.992,730.957,722.656,442.871
1742123393.159,999.512,990.723,988.77,999.512
1742123393.116,960.938,-1000.0,-499.023,967.773
1742123393.12,984.375,-164.551,-431.152,984.863
1742123393.124,906.25,999.512,-56.152,906.25
1742123393.128,999.512,354.98,-119.629,999.512
1742123393.132,833.008,-917.969,-515.625,823.73
1742123393.136,-628.418,-1000.0,-952.637,-637.207
1742123393.14,-1000.0,-85.449,-779.785,-1000.0
1742123393.143,-880.859,793.945,-107.91,-879.395
1742123393.147,-1000.0,-805.664,-155.762,-1000.0
1742123393.151,-978.027,-910.156,-55.664,-961.426
1742123393.155,416.992,730.957,722.656,442.871
1742123393.159,999.512,990.723,988.77,999.512
1742123393.176,892.578,939.941,903.32,893.066
1742123393.18,977.539,897.461,666.992,979.004
1742123393.184,966.309,-695.801,-12.695,967.285
1742123393.188,973.145,-944.824,-244.141,973.145
1742123393.192,939.453,723.145,-158.691,945.312
1742123393.196,950.195,999.512,234.863,943.359
1742123393.2,999.512,-333.984,279.785,999.512
1742123393.203,-223.633,-1000.0,-353.516,-135.742
1742123393.207,-1000.0,-936.035,-326.172,-1000.0
1742123393.211,-1000.0,-953.125,-29.785,-1000.0
1742123393.215,-854.98,56.152,360.84,-808.594
1742123393.219,530.273,999.512,800.293,571.289
1742123393.176,892.578,939.941,903.32,893.066
1742123393.18,977.539,897.461,666.992,979.004
1742123393.184,966.309,-695.801,-12.695,967.285
1742123393.188,973.145,-944.824,-244.141,973.145
1742123393.192,939.453,723.145,-158.691,945.312
1742123393.196,950.195,999.512,234.863,943.359
1742123393.2,999.512,-333.984,279.785,999.512
1742123393.203,-223.633,-1000.0,-353.516,-135.742
1742123393.207,-1000.0,-936.035,-326.172,-1000.0
1742123393.211,-1000.0,-953.125,-29.785,-1000.0
1742123393.215,-854.98,56.152,360.84,-808.594
1742123393.219,530.273,999.512,800.293,571.289
1742123393.222,999.512,783.691,320.312,999.512
1742123393.226,783.203,-565.918,-159.668,774.902
1742123393.23,-581.543,-1000.0,-466.309,-594.727
1742123393.234,-1000.0,-744.141,-428.711,-1000.0
1742123393.238,-925.781,658.691,-230.957,-926.27
1742123393.242,-1000.0,37.109,-506.836,-1000.0
1742123393.246,-947.754,-1000.0,-805.176,-950.195
1742123393.249,-1000.0,-982.422,-937.988,-1000.0
1742123393.253,-915.527,234.375,-409.18,-931.641
1742123393.257,442.383,999.512,-41.992,407.227
1742123393.261,999.512,992.188,-459.473,999.512
1742123393.265,782.227,223.145,-651.367,749.023
1742123393.222,999.512,783.691,320.312,999.512
1742123393.226,783.203,-565.918,-159.668,774.902
1742123393.23,-581.543,-1000.0,-466.309,-594.727
1742123393.234,-1000.0,-744.141,-428.711,-1000.0
1742123393.238,-925.781,658.691,-230.957,-926.27
1742123393.242,-1000.0,37.109,-506.836,-1000.0
1742123393.246,-947.754,-1000.0,-805.176,-950.195
1742123393.249,-1000.0,-982.422,-937.988,-1000.0
1742123393.253,-915.527,234.375,-409.18,-931.641
1742123393.257,442.383,999.512,-41.992,407.227
1742123393.261,999.512,992.188,-459.473,999.512
1742123393.265,782.227,223.145,-651.367,749.023
1742123393.267,-583.496,-978.516,-767.578,-626.465
1742123393.271,-1000.0,-1000.0,-213.867,-1000.0
1742123393.275,-925.781,326.172,290.527,-927.246
1742123393.279,-1000.0,833.008,-85.938,-1000.0
1742123393.283,-1000.0,-561.523,-273.438,-1000.0
1742123393.287,-1000.0,147.461,-129.395,-1000.0
1742123393.291,-1000.0,-125.0,42.48,-1000.0
1742123393.294,-1000.0,225.098,442.383,-1000.0
1742123393.298,-1000.0,-333.496,34.18,-1000.0
1742123393.302,-1000.0,-1000.0,-288.086,-1000.0
1742123393.306,-1000.0,-355.957,-122.559,-1000.0
1742123393.31,-1000.0,963.867,36.133,-1000.0
1742123393.267,-583.496,-978.516,-767.578,-626.465
1742123393.271,-1000.0,-1000.0,-213.867,-1000.0
1742123393.275,-925.781,326.172,290.527,-927.246
1742123393.279,-1000.0,833.008,-85.938,-1000.0
1742123393.283,-1000.0,-561.523,-273.438,-1000.0
1742123393.287,-1000.0,147.461,-129.395,-1000.0
1742123393.291,-1000.0,-125.0,42.48,-1000.0
1742123393.294,-1000.0,225.098,442.383,-1000.0
1742123393.298,-1000.0,-333.496,34.18,-1000.0
1742123393.302,-1000.0,-1000.0,-288.086,-1000.0
1742123393.306,-1000.0,-355.957,-122.559,-1000.0
1742123393.31,-1000.0,963.867,36.133,-1000.0
1742123393.312,-1000.0,869.141,304.688,-1000.0
1742123393.316,-1000.0,-882.324,64.453,-1000.0
1742123393.32,-1000.0,-176.758,-368.652,-1000.0
1742123393.324,-928.223,842.285,-791.016,-930.176
1742123393.328,-1000.0,-599.609,-979.98,-1000.0
1742123393.332,-591.797,341.309,-196.777,-671.875
1742123393.336,850.098,999.512,-4.395,787.109
1742123393.339,999.512,-7.812,-528.32,999.512
1742123393.343,909.18,-504.883,-415.039,904.297
1742123393.347,982.422,700.684,16.113,983.887
1742123393.351,966.309,-598.145,334.961,967.773
1742123393.355,966.309,55.176,485.84,965.332
1742123393.312,-1000.0,869.141,304.688,-1000.0
1742123393.316,-1000.0,-882.324,64.453,-1000.0
1742123393.32,-1000.0,-176.758,-368.652,-1000.0
1742123393.324,-928.223,842.285,-791.016,-930.176
1742123393.328,-1000.0,-599.609,-979.98,-1000.0
1742123393.332,-591.797,341.309,-196.777,-671.875
1742123393.336,850.098,999.512,-4.395,787.109
1742123393.339,999.512,-7.812,-528.32,999.512
1742123393.343,909.18,-504.883,-415.039,904.297
1742123393.347,982.422,700.684,16.113,983.887
1742123393.351,966.309,-598.145,334.961,967.773
1742123393.355,966.309,55.176,485.84,965.332
1742123393.356,966.309,999.512,180.176,970.215
1742123393.36,966.309,-666.992,-168.945,958.496
1742123393.364,966.309,-988.77,52.246,947.266
1742123393.368,974.121,917.969,679.688,974.121
1742123393.372,936.035,500.977,448.73,940.918
1742123393.376,956.543,-601.074,0.977,950.684
1742123393.38,999.512,608.887,-67.871,999.512
1742123393.383,-260.254,-330.078,-354.98,-202.148
1742123393.387,-1000.0,-1000.0,148.438,-1000.0
1742123393.391,-935.059,-147.461,642.09,-942.383
1742123393.395,-1000.0,885.254,110.84,-999.023
1742123393.399,-1000.0,629.883,-251.465,-1000.0
1742123393.356,966.309,999.512,180.176,970.215
1742123393.36,966.309,-666.992,-168.945,958.496
1742123393.364,966.309,-988.77,52.246,947.266
1742123393.368,974.121,917.969,679.688,974.121
1742123393.372,936.035,500.977,448.73,940.918
1742123393.376,956.543,-601.074,0.977,950.684
1742123393.38,999.512,608.887,-67.871,999.512
1742123393.383,-260.254,-330.078,-354.98,-202.148
1742123393.387,-1000.0,-1000.0,148.438,-1000.0
1742123393.391,-935.059,-147.461,642.09,-942.383
1742123393.395,-1000.0,885.254,110.84,-999.023
1742123393.399,-1000.0,629.883,-251.465,-1000.0
1742123393.401,-1000.0,-453.613,-281.738,-1000.0
1742123393.405,-1000.0,-1000.0,-129.883,-1000.0
1742123393.409,-1000.0,172.852,129.395,-1000.0
1742123393.413,-1000.0,623.047,-17.09,-1000.0
1742123393.417,-1000.0,-1000.0,-120.605,-1000.0
1742123393.421,-1000.0,165.039,317.383,-1000.0
1742123393.425,-1000.0,999.512,539.551,-1000.0
1742123393.428,-1000.0,-612.793,210.449,-1000.0
1742123393.432,-1000.0,-1000.0,-55.664,-1000.0
1742123393.436,-1000.0,345.215,9.766,-1000.0
1742123393.44,-932.617,446.777,-117.676,-941.895
1742123393.444,-1000.0,-818.848,-181.152,-1000.0
1742123393.401,-1000.0,-453.613,-281.738,-1000.0
1742123393.405,-1000.0,-1000.0,-129.883,-1000.0
1742123393.409,-1000.0,172.852,129.395,-1000.0
1742123393.413,-1000.0,623.047,-17.09,-1000.0
1742123393.417,-1000.0,-1000.0,-120.605,-1000.0
1742123393.421,-1000.0,165.039,317.383,-1000.0
1742123393.425,-1000.0,999.512,539.551,-1000.0
1742123393.428,-1000.0,-612.793,210.449,-1000.0
1742123393.432,-1000.0,-1000.0,-55.664,-1000.0
1742123393.436,-1000.0,345.215,9.766,-1000.0
1742123393.44,-932.617,446.777,-117.676,-941.895
1742123393.444,-1000.0,-818.848,-181.152,-1000.0
1742123393.449,-718.75,441.895,256.348,-884.766
1742123393.453,742.188,999.512,509.277,572.754
1742123393.457,999.512,354.004,232.422,999.512
1742123393.461,916.992,-948.73,323.73,908.691
1742123393.465,925.293,-33.203,793.945,925.293
1742123393.469,999.512,999.512,999.512,999.512
1742123393.473,856.934,713.867,622.559,855.957
1742123393.476,-597.656,-675.781,-285.156,-600.098
1742123393.48,-1000.0,-1000.0,-514.16,-1000.0
1742123393.484,-925.781,-187.5,-183.105,-925.781
1742123393.488,-1000.0,999.512,327.148,-1000.0
1742123393.492,-1000.0,655.273,608.398,-1000.0
1742123393.449,-718.75,441.895,256.348,-884.766
1742123393.453,742.188,999.512,509.277,572.754
1742123393.457,999.512,354.004,232.422,999.512
1742123393.461,916.992,-948.73,323.73,908.691
1742123393.465,925.293,-33.203,793.945,925.293
1742123393.469,999.512,999.512,999.512,999.512
1742123393.473,856.934,713.867,622.559,855.957
1742123393.476,-597.656,-675.781,-285.156,-600.098
1742123393.48,-1000.0,-1000.0,-514.16,-1000.0
1742123393.484,-925.781,-187.5,-183.105,-925.781
1742123393.488,-1000.0,999.512,327.148,-1000.0
1742123393.492,-1000.0,655.273,608.398,-1000.0
1742123393.492,-933.594,-798.34,578.613,-937.012
1742123393.496,-1000.0,210.449,414.551,-1000.0
1742123393.5,-789.062,999.512,294.922,-825.195
1742123393.504,687.988,877.441,519.531,642.578
1742123393.508,999.512,979.98,395.508,999.512
1742123393.512,895.996,-20.508,219.727,895.02
1742123393.516,983.887,-1000.0,166.016,983.398
1742123393.519,966.309,-936.523,116.699,966.797
1742123393.523,966.309,625.977,550.781,967.285
1742123393.527,966.309,948.73,670.898,967.285
1742123393.531,966.309,-845.703,451.66,967.285
1742123393.535,982.422,-776.367,333.984,983.398
1742123393.492,-933.594,-798.34,578.613,-937.012
1742123393.496,-1000.0,210.449,414.551,-1000.0
1742123393.5,-789.062,999.512,294.922,-825.195
1742123393.504,687.988,877.441,519.531,642.578
1742123393.508,999.512,979.98,395.508,999.512
1742123393.512,895.996,-20.508,219.727,895.02
1742123393.516,983.887,-1000.0,166.016,983.398
1742123393.519,966.309,-936.523,116.699,966.797
1742123393.523,966.309,625.977,550.781,967.285
1742123393.527,966.309,948.73,670.898,967.285
1742123393.531,966.309,-845.703,451.66,967.285
1742123393.535,982.422,-776.367,333.984,983.398
1742123393.538,908.691,902.344,559.57,909.18
1742123393.542,999.512,410.645,998.535,999.512
1742123393.546,856.934,-903.32,888.184,855.957
1742123393.55,-597.656,-1000.0,-63.477,-600.098
1742123393.554,-1000.0,-829.102,-75.684,-1000.0
1742123393.558,-925.781,307.617,599.609,-925.781
1742123393.562,-1000.0,-375.488,806.152,-1000.0
1742123393.565,-1000.0,84.473,892.578,-1000.0
1742123393.569,-1000.0,213.379,313.965,-1000.0
1742123393.573,-1000.0,-1000.0,-65.43,-1000.0
1742123393.577,-1000.0,-762.207,78.125,-1000.0
1742123393.581,-1000.0,814.453,377.441,-1000.0
1742123393.538,908.691,902.344,559.57,909.18
1742123393.542,999.512,410.645,998.535,999.512
1742123393.546,856.934,-903.32,888.184,855.957
1742123393.55,-597.656,-1000.0,-63.477,-600.098
1742123393.554,-1000.0,-829.102,-75.684,-1000.0
1742123393.558,-925.781,307.617,599.609,-925.781
1742123393.562,-1000.0,-375.488,806.152,-1000.0
1742123393.565,-1000.0,84.473,892.578,-1000.0
1742123393.569,-1000.0,213.379,313.965,-1000.0
1742123393.573,-1000.0,-1000.0,-65.43,-1000.0
1742123393.577,-1000.0,-762.207,78.125,-1000.0
1742123393.581,-1000.0,814.453,377.441,-1000.0
1742123393.596,-1000.0,933.594,412.598,-1000.0
1742123393.6,-1000.0,-894.531,-387.207,-1000.0
1742123393.604,-979.004,-44.922,-662.109,-988.281
1742123393.608,-973.633,767.09,-657.715,-958.008
1742123393.612,-1000.0,-830.566,-414.062,-1000.0
1742123393.616,29.785,355.957,571.777,-112.305
1742123393.62,999.512,999.512,41.992,999.512
1742123393.623,335.449,-578.125,-981.934,228.027
1742123393.627,-1000.0,-1000.0,-996.582,-1000.0
1742123393.631,-555.664,578.125,63.477,-545.41
1742123393.635,917.969,999.512,969.238,892.578
1742123393.639,999.512,911.133,948.73,999.512
1742123393.596,-1000.0,933.594,412.598,-1000.0
1742123393.6,-1000.0,-894.531,-387.207,-1000.0
1742123393.604,-979.004,-44.922,-662.109,-988.281
1742123393.608,-973.633,767.09,-657.715,-958.008
1742123393.612,-1000.0,-830.566,-414.062,-1000.0
1742123393.616,29.785,355.957,571.777,-112.305
1742123393.62,999.512,999.512,41.992,999.512
1742123393.623,335.449,-578.125,-981.934,228.027
1742123393.627,-1000.0,-1000.0,-996.582,-1000.0
1742123393.631,-555.664,578.125,63.477,-545.41
1742123393.635,917.969,999.512,969.238,892.578
1742123393.639,999.512,911.133,948.73,999.512
1742123393.641,912.598,-480.469,951.172,912.598
1742123393.645,981.445,-915.527,973.145,981.934
1742123393.649,966.309,605.957,966.797,966.797
1742123393.653,966.309,999.512,966.797,967.285
1742123393.657,966.309,647.949,966.797,967.285
1742123393.661,966.309,-697.266,966.797,966.797
1742123393.665,966.309,-865.234,967.285,966.797
1742123393.668,966.309,582.52,966.797,966.797
1742123393.672,966.309,999.512,966.797,967.285
1742123393.676,966.309,-208.984,972.168,967.285
1742123393.68,966.309,-431.641,953.125,966.797
1742123393.684,966.309,999.512,959.473,966.797
1742123393.641,912.598,-480.469,951.172,912.598
1742123393.645,981.445,-915.527,973.145,981.934
1742123393.649,966.309,605.957,966.797,966.797
1742123393.653,966.309,999.512,966.797,967.285
1742123393.657,966.309,647.949,966.797,967.285
1742123393.661,966.309,-697.266,966.797,966.797
1742123393.665,966.309,-865.234,967.285,966.797
1742123393.668,966.309,582.52,966.797,966.797
1742123393.672,966.309,999.512,966.797,967.285
1742123393.676,966.309,-208.984,972.168,967.285
1742123393.68,966.309,-431.641,953.125,966.797
1742123393.684,966.309,999.512,959.473,966.797
1742123393.686,966.309,859.863,963.379,966.797
1742123393.69,966.309,-867.676,302.734,966.797
1742123393.694,966.309,-847.168,-549.316,966.797
1742123393.698,966.309,579.59,-939.453,966.797
1742123393.702,966.309,-714.844,-994.629,966.797
1742123393.706,966.309,-303.711,-273.438,966.797
1742123393.71,983.398,929.199,503.906,983.887
1742123393.713,903.32,-667.48,415.527,904.785
1742123393.717,999.512,-1000.0,432.617,999.512
1742123393.721,797.852,-841.309,359.375,792.969
1742123393.725,-672.363,-1000.0,-147.461,-668.457
1742123393.729,-1000.0,-628.418,289.062,-1000.0
1742123393.686,966.309,859.863,963.379,966.797
1742123393.69,966.309,-867.676,302.734,966.797
1742123393.694,966.309,-847.168,-549.316,966.797
1742123393.698,966.309,579.59,-939.453,966.797
1742123393.702,966.309,-714.844,-994.629,966.797
1742123393.706,966.309,-303.711,-273.438,966.797
1742123393.71,983.398,929.199,503.906,983.887
1742123393.713,903.32,-667.48,415.527,904.785
1742123393.717,999.512,-1000.0,432.617,999.512
1742123393.721,797.852,-841.309,359.375,792.969
1742123393.725,-672.363,-1000.0,-147.461,-668.457
1742123393.729,-1000.0,-628.418,289.062,-1000.0
1742123393.733,-927.734,726.074,536.133,-928.711
1742123393.737,-1000.0,-465.82,63.477,-1000.0
1742123393.741,-1000.0,-1000.0,19.531,-1000.0
1742123393.745,-1000.0,405.762,119.629,-1000.0
1742123393.749,-1000.0,999.512,88.379,-1000.0
1742123393.753,-1000.0,913.574,-178.223,-1000.0
1742123393.757,-1000.0,114.258,-649.414,-1000.0
1742123393.76,-1000.0,-1000.0,-959.473,-1000.0
1742123393.764,-1000.0,-1000.0,-1000.0,-1000.0
1742123393.768,-1000.0,53.223,-913.574,-1000.0
1742123393.772,-1000.0,999.512,-756.348,-1000.0
1742123393.776,-1000.0,-282.715,-943.848,-1000.0
1742123393.733,-927.734,726.074,536.133,-928.711
1742123393.737,-1000.0,-465.82,63.477,-1000.0
1742123393.741,-1000.0,-1000.0,19.531,-1000.0
1742123393.745,-1000.0,405.762,119.629,-1000.0
1742123393.749,-1000.0,999.512,88.379,-1000.0
1742123393.753,-1000.0,913.574,-178.223,-1000.0
1742123393.757,-1000.0,114.258,-649.414,-1000.0
1742123393.76,-1000.0,-1000.0,-959.473,-1000.0
1742123393.764,-1000.0,-1000.0,-1000.0,-1000.0
1742123393.768,-1000.0,53.223,-913.574,-1000.0
1742123393.772,-1000.0,999.512,-756.348,-1000.0
1742123393.776,-1000.0,-282.715,-943.848,-1000.0
1742123393.777,-942.383,-966.797,-988.281,-945.312
1742123393.781,-1000.0,231.445,-1000.0,-1000.0
1742123393.785,-873.535,-229.492,-649.902,-895.508
1742123393.789,493.164,473.633,132.812,462.402
1742123393.793,999.512,999.512,-186.523,999.512
1742123393.797,616.699,-100.586,-761.23,557.617
1742123393.801,-770.508,-966.309,-968.262,-809.57
1742123393.804,-1000.0,-1000.0,-1000.0,-1000.0
1742123393.808,-933.594,-778.809,-995.117,-937.988
1742123393.812,-1000.0,564.453,-1000.0,-1000.0
1742123393.816,-1000.0,-551.27,-981.934,-1000.0
1742123393.82,-1000.0,-994.629,-1000.0,-1000.0
1742123393.777,-942.383,-966.797,-988.281,-945.312
1742123393.781,-1000.0,231.445,-1000.0,-1000.0
1742123393.785,-873.535,-229.492,-649.902,-895.508
1742123393.789,493.164,473.633,132.812,462.402
1742123393.793,999.512,999.512,-186.523,999.512
1742123393.797,616.699,-100.586,-761.23,557.617
1742123393.801,-770.508,-966.309,-968.262,-809.57
1742123393.804,-1000.0,-1000.0,-1000.0,-1000.0
1742123393.808,-933.594,-778.809,-995.117,-937.988
1742123393.812,-1000.0,564.453,-1000.0,-1000.0
1742123393.816,-1000.0,-551.27,-981.934,-1000.0
1742123393.82,-1000.0,-994.629,-1000.0,-1000.0
1742123393.823,-1000.0,823.242,-807.617,-1000.0
1742123393.827,-1000.0,962.402,-295.898,-1000.0
1742123393.831,-1000.0,-763.672,-274.902,-1000.0
1742123393.835,-1000.0,-879.395,-361.816,-1000.0
1742123393.839,-1000.0,735.84,-461.914,-1000.0
1742123393.843,-1000.0,999.512,-359.375,-1000.0
1742123393.847,-1000.0,-212.891,-0.977,-1000.0
1742123393.85,-1000.0,-1000.0,-511.719,-1000.0
1742123393.854,-1000.0,-1000.0,-1000.0,-1000.0
1742123393.858,-1000.0,-175.293,-975.586,-1000.0
1742123393.862,-1000.0,575.195,-1000.0,-1000.0
1742123393.866,-1000.0,165.039,-911.621,-1000.0
1742123393.823,-1000.0,823.242,-807.617,-1000.0
1742123393.827,-1000.0,962.402,-295.898,-1000.0
1742123393.831,-1000.0,-763.672,-274.902,-1000.0
1742123393.835,-1000.0,-879.395,-361.816,-1000.0
1742123393.839,-1000.0,735.84,-461.914,-1000.0
1742123393.843,-1000.0,999.512,-359.375,-1000.0
1742123393.847,-1000.0,-212.891,-0.977,-1000.0
1742123393.85,-1000.0,-1000.0,-511.719,-1000.0
1742123393.854,-1000.0,-1000.0,-1000.0,-1000.0
1742123393.858,-1000.0,-175.293,-975.586,-1000.0
1742123393.862,-1000.0,575.195,-1000.0,-1000.0
1742123393.866,-1000.0,165.039,-911.621,-1000.0
1742123393.823,-1000.0,823.242,-807.617,-1000.0
1742123393.827,-1000.0,962.402,-295.898,-1000.0
1742123393.831,-1000.0,-763.672,-274.902,-1000.0
1742123393.835,-1000.0,-879.395,-361.816,-1000.0
1742123393.839,-1000.0,735.84,-461.914,-1000.0
1742123393.843,-1000.0,999.512,-359.375,-1000.0
1742123393.847,-1000.0,-212.891,-0.977,-1000.0
1742123393.85,-1000.0,-1000.0,-511.719,-1000.0
1742123393.854,-1000.0,-1000.0,-1000.0,-1000.0
1742123393.858,-1000.0,-175.293,-975.586,-1000.0
1742123393.862,-1000.0,575.195,-1000.0,-1000.0
1742123393.866,-1000.0,165.039,-911.621,-1000.0
1742123393.867,-935.547,905.273,-683.594,-936.523
1742123393.871,-1000.0,-115.723,-752.93,-1000.0
1742123393.875,-815.43,-196.289,-738.281,-811.035
1742123393.879,659.18,999.512,-551.27,655.762
1742123393.883,999.512,997.559,-221.191,999.512
1742123393.887,894.531,867.676,378.906,895.996
1742123393.891,983.887,-520.02,426.758,983.887
1742123393.894,966.309,-1000.0,317.871,967.285
1742123393.898,966.309,84.961,333.008,966.797
1742123393.902,966.309,936.035,647.461,966.797
1742123393.906,982.422,-526.855,873.535,982.422
1742123393.91,908.203,-1000.0,544.922,913.086
1742123393.867,-935.547,905.273,-683.594,-936.523
1742123393.871,-1000.0,-115.723,-752.93,-1000.0
1742123393.875,-815.43,-196.289,-738.281,-811.035
1742123393.879,659.18,999.512,-551.27,655.762
1742123393.883,999.512,997.559,-221.191,999.512
1742123393.887,894.531,867.676,378.906,895.996
1742123393.891,983.887,-520.02,426.758,983.887
1742123393.894,966.309,-1000.0,317.871,967.285
1742123393.898,966.309,84.961,333.008,966.797
1742123393.902,966.309,936.035,647.461,966.797
1742123393.906,982.422,-526.855,873.535,982.422
1742123393.91,908.203,-1000.0,544.922,913.086
1742123393.913,999.512,-45.898,236.328,999.512
1742123393.917,857.422,830.566,-279.785,886.719
1742123393.921,-597.656,-693.848,-372.559,-550.781
1742123393.925,-1000.0,-1000.0,221.191,-1000.0
1742123393.929,-941.895,663.574,94.238,-941.895
1742123393.933,-958.496,999.512,-441.895,-957.031
1742123393.937,-1000.0,-726.074,-644.531,-1000.0
1742123393.94,-891.113,-934.082,-373.047,-891.113
1742123393.944,563.965,810.547,-59.082,564.453
1742123393.948,999.512,982.422,-628.418,999.512
1742123393.952,891.602,-850.586,-1000.0,892.578
1742123393.956,982.422,-513.672,-766.113,982.91
1742123393.913,999.512,-45.898,236.328,999.512
1742123393.917,857.422,830.566,-279.785,886.719
1742123393.921,-597.656,-693.848,-372.559,-550.781
1742123393.925,-1000.0,-1000.0,221.191,-1000.0
1742123393.929,-941.895,663.574,94.238,-941.895
1742123393.933,-958.496,999.512,-441.895,-957.031
1742123393.937,-1000.0,-726.074,-644.531,-1000.0
1742123393.94,-891.113,-934.082,-373.047,-891.113
1742123393.944,563.965,810.547,-59.082,564.453
1742123393.948,999.512,982.422,-628.418,999.512
1742123393.952,891.602,-850.586,-1000.0,892.578
1742123393.956,982.422,-513.672,-766.113,982.91
1742123393.971,982.422,999.512,-486.328,983.398
1742123393.975,907.715,-590.82,-224.121,908.203
1742123393.979,999.512,-407.227,78.613,999.512
1742123393.983,850.098,839.844,-270.02,846.68
1742123393.987,-606.934,-901.367,-843.262,-611.816
1742123393.991,-1000.0,-388.672,-652.344,-1000.0
1742123393.995,-925.781,912.598,-418.457,-926.27
1742123393.998,-1000.0,-618.652,-586.914,-1000.0
1742123394.002,-1000.0,-1000.0,-532.715,-1000.0
1742123394.006,-931.152,301.758,-371.094,-932.617
1742123394.01,-1000.0,999.512,-205.566,-1000.0
1742123394.014,-803.711,852.539,429.199,-769.043
1742123393.971,982.422,999.512,-486.328,983.398
1742123393.975,907.715,-590.82,-224.121,908.203
1742123393.979,999.512,-407.227,78.613,999.512
1742123393.983,850.098,839.844,-270.02,846.68
1742123393.987,-606.934,-901.367,-843.262,-611.816
1742123393.991,-1000.0,-388.672,-652.344,-1000.0
1742123393.995,-925.781,912.598,-418.457,-926.27
1742123393.998,-1000.0,-618.652,-586.914,-1000.0
1742123394.002,-1000.0,-1000.0,-532.715,-1000.0
1742123394.006,-931.152,301.758,-371.094,-932.617
1742123394.01,-1000.0,999.512,-205.566,-1000.0
1742123394.014,-803.711,852.539,429.199,-769.043
1742123394.017,765.137,999.512,973.633,780.273
1742123394.021,990.723,452.148,779.785,985.352
1742123394.025,-594.238,-873.535,-52.246,-587.402
1742123394.029,-1000.0,-1000.0,-241.211,-1000.0
1742123394.033,-925.781,34.18,225.098,-926.27
1742123394.037,-1000.0,999.512,127.441,-1000.0
1742123394.041,-1000.0,-92.285,-486.816,-1000.0
1742123394.044,-1000.0,-1000.0,-1000.0,-1000.0
1742123394.048,-1000.0,-777.832,-667.969,-1000.0
1742123394.052,-1000.0,716.309,166.504,-1000.0
1742123394.056,-1000.0,-249.512,12.695,-1000.0
1742123394.06,-1000.0,-1000.0,-410.645,-1000.0
1742123394.017,765.137,999.512,973.633,780.273
1742123394.021,990.723,452.148,779.785,985.352
1742123394.025,-594.238,-873.535,-52.246,-587.402
1742123394.029,-1000.0,-1000.0,-241.211,-1000.0
1742123394.033,-925.781,34.18,225.098,-926.27
1742123394.037,-1000.0,999.512,127.441,-1000.0
1742123394.041,-1000.0,-92.285,-486.816,-1000.0
1742123394.044,-1000.0,-1000.0,-1000.0,-1000.0
1742123394.048,-1000.0,-777.832,-667.969,-1000.0
1742123394.052,-1000.0,716.309,166.504,-1000.0
1742123394.056,-1000.0,-249.512,12.695,-1000.0
1742123394.06,-1000.0,-1000.0,-410.645,-1000.0
1742123394.062,-935.059,837.402,-323.242,-937.5
1742123394.066,-1000.0,553.223,-317.871,-1000.0
1742123394.07,-811.523,-449.707,-119.629,-831.543
1742123394.074,664.551,895.996,523.926,636.719
1742123394.078,999.512,425.781,171.387,999.512
1742123394.082,894.531,-1000.0,-15.625,894.531
1742123394.086,999.512,58.594,83.496,999.512
1742123394.089,899.414,585.449,93.75,901.367
1742123394.093,999.512,-880.859,244.141,999.512
1742123394.097,731.445,-1000.0,-379.395,714.844
1742123394.101,-676.758,-1000.0,-980.469,-676.27
1742123394.105,-1000.0,-366.699,-612.305,-1000.0
1742123394.107,-854.98,883.789,-4.883,-845.703
1742123394.111,493.164,999.512,61.035,511.23
1742123394.115,999.512,282.227,-279.785,999.512
1742123394.119,891.602,-666.992,-413.086,892.09
1742123394.123,985.84,531.738,-560.059,985.352
1742123394.127,947.266,934.57,-718.262,957.52
1742123394.131,936.523,-527.832,-774.414,923.828
1742123394.134,999.512,232.91,-803.711,999.512
1742123394.138,-52.246,-281.25,-950.684,119.629
1742123394.142,-1000.0,-1000.0,-1000.0,-1000.0
1742123394.146,-989.746,-599.121,-679.688,-979.004
1742123394.15,296.387,788.086,7.324,375.488
1742123394.107,-854.98,883.789,-4.883,-845.703
1742123394.111,493.164,999.512,61.035,511.23
1742123394.115,999.512,282.227,-279.785,999.512
1742123394.119,891.602,-666.992,-413.086,892.09
1742123394.123,985.84,531.738,-560.059,985.352
1742123394.127,947.266,934.57,-718.262,957.52
1742123394.131,936.523,-527.832,-774.414,923.828
1742123394.134,999.512,232.91,-803.711,999.512
1742123394.138,-52.246,-281.25,-950.684,119.629
1742123394.142,-1000.0,-1000.0,-1000.0,-1000.0
1742123394.146,-989.746,-599.121,-679.688,-979.004
1742123394.15,296.387,788.086,7.324,375.488
1742123394.151,999.512,999.512,-125.488,999.512
1742123394.155,897.461,-431.152,-324.707,896.973
1742123394.159,979.98,163.574,-231.445,981.934
1742123394.163,935.547,619.141,-316.895,942.383
1742123394.167,956.543,-777.832,-206.055,947.754
1742123394.171,999.512,357.422,-238.77,999.512
1742123394.175,-256.348,-274.414,-790.039,-161.621
1742123394.178,-1000.0,-1000.0,-1000.0,-1000.0
1742123394.182,-1000.0,-743.652,-645.508,-1000.0
1742123394.186,-151.367,636.719,425.293,-63.477
1742123394.19,999.512,999.512,468.75,999.512
1742123394.194,947.266,-449.219,-206.055,938.965
1742123394.198,943.848,-1000.0,-421.387,950.195
1742123394.202,982.422,701.172,-430.664,979.98
1742123394.206,897.461,346.68,-330.078,902.832
1742123394.21,999.512,-901.855,-265.625,999.512
1742123394.214,436.035,-846.191,-636.23,415.039
1742123394.218,-945.312,-938.965,-864.746,-938.477
1742123394.222,-1000.0,365.234,-697.266,-1000.0
1742123394.225,-952.637,150.391,-533.691,-954.102
1742123394.229,-1000.0,-1000.0,-454.59,-1000.0
1742123394.233,-1000.0,-560.059,-769.531,-1000.0
1742123394.237,-1000.0,887.207,-1000.0,-1000.0
1742123394.241,-1000.0,-104.492,-950.684,-1000.0
1742123394.198,943.848,-1000.0,-421.387,950.195
1742123394.202,982.422,701.172,-430.664,979.98
1742123394.206,897.461,346.68,-330.078,902.832
1742123394.21,999.512,-901.855,-265.625,999.512
1742123394.214,436.035,-846.191,-636.23,415.039
1742123394.218,-945.312,-938.965,-864.746,-938.477
1742123394.222,-1000.0,365.234,-697.266,-1000.0
1742123394.225,-952.637,150.391,-533.691,-954.102
1742123394.229,-1000.0,-1000.0,-454.59,-1000.0
1742123394.233,-1000.0,-560.059,-769.531,-1000.0
1742123394.237,-1000.0,887.207,-1000.0,-1000.0
1742123394.241,-1000.0,-104.492,-950.684,-1000.0
1742123394.243,-1000.0,156.25,-503.906,-1000.0
1742123394.247,-1000.0,756.348,-474.609,-1000.0
1742123394.251,-999.023,-487.793,-620.117,-1000.0
1742123394.255,-945.312,469.238,-701.172,-937.012
1742123394.259,-1000.0,-417.969,-790.039,-1000.0
1742123394.263,-230.469,143.066,-39.551,-371.582
1742123394.267,956.543,999.512,469.238,895.02
1742123394.27,971.191,-543.945,-15.137,999.512
1742123394.274,948.73,-1000.0,-265.137,884.766
1742123394.278,-367.676,-956.543,-440.918,-464.844
1742123394.282,-1000.0,-1000.0,-323.242,-1000.0
1742123394.286,-929.199,588.867,-140.625,-927.246
1742123394.243,-1000.0,156.25,-503.906,-1000.0
1742123394.247,-1000.0,756.348,-474.609,-1000.0
1742123394.251,-999.023,-487.793,-620.117,-1000.0
1742123394.255,-945.312,469.238,-701.172,-937.012
1742123394.259,-1000.0,-417.969,-790.039,-1000.0
1742123394.263,-230.469,143.066,-39.551,-371.582
1742123394.267,956.543,999.512,469.238,895.02
1742123394.27,971.191,-543.945,-15.137,999.512
1742123394.274,948.73,-1000.0,-265.137,884.766
1742123394.278,-367.676,-956.543,-440.918,-464.844
1742123394.282,-1000.0,-1000.0,-323.242,-1000.0
1742123394.286,-929.199,588.867,-140.625,-927.246
1742123394.29,-1000.0,838.867,-482.422,-1000.0
1742123394.294,-1000.0,-956.055,-651.367,-1000.0
1742123394.298,-1000.0,-257.324,-687.988,-1000.0
1742123394.302,-1000.0,999.512,-684.57,-1000.0
1742123394.306,-1000.0,-169.922,-604.492,-1000.0
1742123394.31,-1000.0,-186.035,-602.539,-1000.0
1742123394.314,-942.383,932.129,-691.895,-947.266
1742123394.317,-1000.0,-735.352,-993.652,-1000.0
1742123394.321,-891.113,-843.75,-980.469,-927.246
1742123394.325,563.965,749.023,-306.641,505.859
1742123394.329,999.512,999.512,-412.598,999.512
1742123394.333,891.602,268.066,-969.238,892.578
1742123394.29,-1000.0,838.867,-482.422,-1000.0
1742123394.294,-1000.0,-956.055,-651.367,-1000.0
1742123394.298,-1000.0,-257.324,-687.988,-1000.0
1742123394.302,-1000.0,999.512,-684.57,-1000.0
1742123394.306,-1000.0,-169.922,-604.492,-1000.0
1742123394.31,-1000.0,-186.035,-602.539,-1000.0
1742123394.314,-942.383,932.129,-691.895,-947.266
1742123394.317,-1000.0,-735.352,-993.652,-1000.0
1742123394.321,-891.113,-843.75,-980.469,-927.246
1742123394.325,563.965,749.023,-306.641,505.859
1742123394.329,999.512,999.512,-412.598,999.512
1742123394.333,891.602,268.066,-969.238,892.578
1742123394.362,982.422,-936.035,-1000.0,981.445
1742123394.366,966.309,163.086,-687.988,965.82
1742123394.37,966.309,999.512,-247.07,968.75
1742123394.374,966.309,475.098,-754.883,964.844
1742123394.378,966.309,-802.246,-1000.0,947.266
1742123394.382,966.309,490.723,-896.484,961.426
1742123394.386,966.309,999.512,-990.723,969.727
1742123394.389,966.309,-552.246,-909.18,965.82
1742123394.393,966.309,-1000.0,-668.457,967.285
1742123394.397,966.309,-94.238,-613.281,966.309
1742123394.401,966.309,999.512,-895.508,969.238
1742123394.405,966.309,-41.992,-1000.0,959.473
1742123394.362,982.422,-936.035,-1000.0,981.445
1742123394.366,966.309,163.086,-687.988,965.82
1742123394.37,966.309,999.512,-247.07,968.75
1742123394.374,966.309,475.098,-754.883,964.844
1742123394.378,966.309,-802.246,-1000.0,947.266
1742123394.382,966.309,490.723,-896.484,961.426
1742123394.386,966.309,999.512,-990.723,969.727
1742123394.389,966.309,-552.246,-909.18,965.82
1742123394.393,966.309,-1000.0,-668.457,967.285
1742123394.397,966.309,-94.238,-613.281,966.309
1742123394.401,966.309,999.512,-895.508,969.238
1742123394.405,966.309,-41.992,-1000.0,959.473
1742123394.391,966.309,-744.141,-755.371,962.891
1742123394.395,966.309,533.203,-673.828,962.402
1742123394.399,966.309,-445.801,-719.238,937.012
1742123394.403,966.309,125.977,-444.824,961.914
1742123394.407,966.309,999.512,-481.934,970.215
1742123394.411,982.91,841.309,-337.402,981.445
1742123394.415,908.203,-745.605,-351.074,908.691
1742123394.418,999.512,-694.336,-449.707,999.512
1742123394.422,853.516,590.82,-703.613,849.121
1742123394.426,-602.539,-783.691,-967.285,-608.398
1742123394.43,-1000.0,-1000.0,-571.777,-1000.0
1742123394.434,-943.359,860.84,-334.961,-940.918
1742123394.391,966.309,-744.141,-755.371,962.891
1742123394.395,966.309,533.203,-673.828,962.402
1742123394.399,966.309,-445.801,-719.238,937.012
1742123394.403,966.309,125.977,-444.824,961.914
1742123394.407,966.309,999.512,-481.934,970.215
1742123394.411,982.91,841.309,-337.402,981.445
