timestamps,TP9,AF7,AF8,TP10
1742124411.996,951.172,51.27,-62.988,918.457
1742124411.996,951.172,51.27,-62.988,918.457
1742124411.997,-753.906,-10.742,-100.098,-704.59
1742124412.001,541.504,38.086,-143.555,403.32
1742124412.005,142.578,-5.859,-135.254,301.758
1742124412.009,-1000.0,-23.438,-121.582,-918.945
1742124412.013,809.082,44.922,-116.699,736.816
1742124412.017,-67.383,-3.418,-122.07,194.824
1742124412.021,-972.656,-32.227,-116.699,-863.77
1742124412.024,640.625,-10.254,-145.996,499.512
1742124412.028,-610.352,-84.961,-172.852,-547.363
1742124412.032,-396.973,-41.016,-140.625,-560.547
1742124412.036,999.512,5.859,-123.047,879.395
1742124412.04,-701.66,-56.641,-99.121,-611.816
1742124411.997,-753.906,-10.742,-100.098,-704.59
1742124412.001,541.504,38.086,-143.555,403.32
1742124412.005,142.578,-5.859,-135.254,301.758
1742124412.009,-1000.0,-23.438,-121.582,-918.945
1742124412.013,809.082,44.922,-116.699,736.816
1742124412.017,-67.383,-3.418,-122.07,194.824
1742124412.021,-972.656,-32.227,-116.699,-863.77
1742124412.024,640.625,-10.254,-145.996,499.512
1742124412.028,-610.352,-84.961,-172.852,-547.363
1742124412.032,-396.973,-41.016,-140.625,-560.547
1742124412.036,999.512,5.859,-123.047,879.395
1742124412.04,-701.66,-56.641,-99.121,-611.816
1742124412.057,-1000.0,-59.57,-107.422,-1000.0
1742124412.061,779.785,-17.578,-124.512,495.605
1742124412.065,-425.781,-31.25,-120.117,-447.754
1742124412.069,-836.426,20.02,-107.91,-838.867
1742124412.073,827.637,94.238,-101.562,572.266
1742124412.077,-641.602,81.543,-135.742,-628.906
1742124412.081,-1000.0,124.023,-166.992,-1000.0
1742124412.084,758.301,162.109,-174.805,84.473
1742124412.088,-481.934,128.906,-171.387,-685.059
1742124412.092,-725.098,192.383,-162.109,-905.273
1742124412.096,857.422,291.992,-187.5,144.043
1742124412.1,-744.141,270.996,-213.379,-829.102
1742124412.117,-745.117,320.801,-183.594,-927.734
1742124412.121,850.098,397.949,-153.809,197.754
1742124412.125,-388.672,362.793,-85.938,-562.988
1742124412.129,-1000.0,347.168,-46.875,-1000.0
1742124412.133,-199.707,390.625,-115.234,-762.207
1742124412.137,801.27,421.875,-220.215,-173.828
1742124412.141,-766.602,348.633,-285.645,-869.629
1742124412.144,-787.598,352.051,-284.18,-930.664
1742124412.148,741.211,418.945,-272.461,-80.566
1742124412.152,-664.551,366.211,-331.055,-792.48
1742124412.156,-1000.0,376.465,-360.84,-1000.0
1742124412.16,706.055,429.199,-337.891,-215.332
1742124412.117,-745.117,320.801,-183.594,-927.734
1742124412.121,850.098,397.949,-153.809,197.754
1742124412.125,-388.672,362.793,-85.938,-562.988
1742124412.129,-1000.0,347.168,-46.875,-1000.0
1742124412.133,-199.707,390.625,-115.234,-762.207
1742124412.137,801.27,421.875,-220.215,-173.828
1742124412.141,-766.602,348.633,-285.645,-869.629
1742124412.144,-787.598,352.051,-284.18,-930.664
1742124412.148,741.211,418.945,-272.461,-80.566
1742124412.152,-664.551,366.211,-331.055,-792.48
1742124412.156,-1000.0,376.465,-360.84,-1000.0
1742124412.16,706.055,429.199,-337.891,-215.332
1742124412.137,29.297,354.004,-384.766,-519.043
1742124412.141,-1000.0,300.781,-471.68,-1000.0
1742124412.145,-1000.0,276.855,-515.137,-1000.0
1742124412.149,200.684,271.484,-555.176,-795.898
1742124412.153,659.18,249.512,-553.711,-569.336
1742124412.157,-821.289,196.289,-519.043,-965.332
1742124412.161,215.82,185.059,-541.504,-835.938
1742124412.164,-107.422,114.746,-577.637,-826.66
1742124412.168,-1000.0,77.637,-570.312,-1000.0
1742124412.172,126.953,96.68,-573.242,-857.422
1742124412.176,936.523,47.363,-602.539,-573.73
1742124412.18,-639.648,-31.738,-583.496,-905.762
1742124412.137,29.297,354.004,-384.766,-519.043
1742124412.141,-1000.0,300.781,-471.68,-1000.0
1742124412.145,-1000.0,276.855,-515.137,-1000.0
1742124412.149,200.684,271.484,-555.176,-795.898
1742124412.153,659.18,249.512,-553.711,-569.336
1742124412.157,-821.289,196.289,-519.043,-965.332
1742124412.161,215.82,185.059,-541.504,-835.938
1742124412.164,-107.422,114.746,-577.637,-826.66
1742124412.168,-1000.0,77.637,-570.312,-1000.0
1742124412.172,126.953,96.68,-573.242,-857.422
1742124412.176,936.523,47.363,-602.539,-573.73
1742124412.18,-639.648,-31.738,-583.496,-905.762
1742124412.137,29.297,354.004,-384.766,-519.043
1742124412.141,-1000.0,300.781,-471.68,-1000.0
1742124412.145,-1000.0,276.855,-515.137,-1000.0
1742124412.149,200.684,271.484,-555.176,-795.898
1742124412.153,659.18,249.512,-553.711,-569.336
1742124412.157,-821.289,196.289,-519.043,-965.332
1742124412.161,215.82,185.059,-541.504,-835.938
1742124412.164,-107.422,114.746,-577.637,-826.66
1742124412.168,-1000.0,77.637,-570.312,-1000.0
1742124412.172,126.953,96.68,-573.242,-857.422
1742124412.176,936.523,47.363,-602.539,-573.73
1742124412.18,-639.648,-31.738,-583.496,-905.762
1742124412.177,-1000.0,-49.316,-558.105,-1000.0
1742124412.181,477.051,-28.809,-560.547,-886.23
1742124412.185,251.465,-71.289,-562.988,-959.473
1742124412.189,-592.285,-58.594,-488.77,-875.977
1742124412.193,601.562,8.789,-405.273,-340.332
1742124412.197,-396.973,-11.719,-354.004,-751.465
1742124412.201,-1000.0,-58.594,-322.754,-1000.0
1742124412.204,-979.98,-125.0,-327.148,-1000.0
1742124412.208,409.18,-92.285,-243.164,-573.242
1742124412.212,784.18,-69.824,-133.789,-232.422
1742124412.216,-967.773,-106.445,-102.539,-973.145
1742124412.22,-620.117,-60.059,-81.543,-1000.0
1742124412.254,999.512,-22.949,-37.109,-428.223
1742124412.258,484.863,-72.754,31.25,-678.223
1742124412.262,-727.051,-125.977,45.41,-1000.0
1742124412.266,634.277,-94.727,19.043,-510.254
1742124412.27,-195.312,-176.27,-53.223,-883.301
1742124412.274,-194.824,-217.285,-84.473,-861.328
1742124412.278,999.512,-232.91,-39.551,-180.176
1742124412.281,-534.668,-317.871,0.488,-817.383
1742124412.285,81.543,-325.195,-23.926,-1000.0
1742124412.289,999.512,-345.215,-88.867,-906.25
1742124412.293,678.711,-388.672,-33.691,-1000.0
1742124412.297,964.844,-424.316,50.781,-949.707
1742124412.254,999.512,-22.949,-37.109,-428.223
1742124412.258,484.863,-72.754,31.25,-678.223
1742124412.262,-727.051,-125.977,45.41,-1000.0
1742124412.266,634.277,-94.727,19.043,-510.254
1742124412.27,-195.312,-176.27,-53.223,-883.301
1742124412.274,-194.824,-217.285,-84.473,-861.328
1742124412.278,999.512,-232.91,-39.551,-180.176
1742124412.281,-534.668,-317.871,0.488,-817.383
1742124412.285,81.543,-325.195,-23.926,-1000.0
1742124412.289,999.512,-345.215,-88.867,-906.25
1742124412.293,678.711,-388.672,-33.691,-1000.0
1742124412.297,964.844,-424.316,50.781,-949.707
1742124412.282,977.051,-428.223,78.125,-878.906
1742124412.286,957.52,-440.918,95.215,-966.309
1742124412.29,967.773,-460.938,114.258,-1000.0
1742124412.294,966.309,-509.277,80.566,-994.141
1742124412.298,966.309,-562.988,23.438,-1000.0
1742124412.302,966.797,-542.969,86.426,-972.168
1742124412.306,966.309,-515.137,162.109,-978.516
1742124412.309,966.309,-521.973,185.059,-1000.0
1742124412.313,966.309,-563.965,210.938,-998.535
1742124412.317,966.309,-583.496,290.039,-1000.0
1742124412.321,966.309,-541.016,335.938,-1000.0
1742124412.325,966.309,-502.441,270.02,-1000.0
1742124412.282,977.051,-428.223,78.125,-878.906
1742124412.286,957.52,-440.918,95.215,-966.309
1742124412.29,967.773,-460.938,114.258,-1000.0
1742124412.294,966.309,-509.277,80.566,-994.141
1742124412.298,966.309,-562.988,23.438,-1000.0
1742124412.302,966.797,-542.969,86.426,-972.168
1742124412.306,966.309,-515.137,162.109,-978.516
1742124412.309,966.309,-521.973,185.059,-1000.0
1742124412.313,966.309,-563.965,210.938,-998.535
1742124412.317,966.309,-583.496,290.039,-1000.0
1742124412.321,966.309,-541.016,335.938,-1000.0
1742124412.325,966.309,-502.441,270.02,-1000.0
1742124412.282,977.051,-428.223,78.125,-878.906
1742124412.286,957.52,-440.918,95.215,-966.309
1742124412.29,967.773,-460.938,114.258,-1000.0
1742124412.294,966.309,-509.277,80.566,-994.141
1742124412.298,966.309,-562.988,23.438,-1000.0
1742124412.302,966.797,-542.969,86.426,-972.168
1742124412.306,966.309,-515.137,162.109,-978.516
1742124412.309,966.309,-521.973,185.059,-1000.0
1742124412.313,966.309,-563.965,210.938,-998.535
1742124412.317,966.309,-583.496,290.039,-1000.0
1742124412.321,966.309,-541.016,335.938,-1000.0
1742124412.325,966.309,-502.441,270.02,-1000.0
1742124412.342,966.797,-475.586,289.062,-993.164
1742124412.346,966.309,-410.156,420.41,-1000.0
1742124412.35,966.309,-362.793,530.273,-1000.0
1742124412.354,966.309,-348.145,757.324,-766.113
1742124412.358,966.309,-342.773,958.984,-799.316
1742124412.362,966.309,-288.086,966.797,-1000.0
1742124412.366,966.309,-165.039,962.891,-981.934
1742124412.369,968.262,-98.145,968.75,-874.512
1742124412.373,957.031,-125.977,967.285,-961.914
1742124412.377,983.398,-95.703,966.797,-1000.0
1742124412.381,933.105,-129.395,967.285,-971.68
1742124412.385,815.918,-124.512,967.285,-1000.0
1742124412.342,966.797,-475.586,289.062,-993.164
1742124412.346,966.309,-410.156,420.41,-1000.0
1742124412.35,966.309,-362.793,530.273,-1000.0
1742124412.354,966.309,-348.145,757.324,-766.113
1742124412.358,966.309,-342.773,958.984,-799.316
1742124412.362,966.309,-288.086,966.797,-1000.0
1742124412.366,966.309,-165.039,962.891,-981.934
1742124412.369,968.262,-98.145,968.75,-874.512
1742124412.373,957.031,-125.977,967.285,-961.914
1742124412.377,983.398,-95.703,966.797,-1000.0
1742124412.381,933.105,-129.395,967.285,-971.68
1742124412.385,815.918,-124.512,967.285,-1000.0
1742124412.372,937.5,312.012,967.285,-400.391
1742124412.376,981.934,632.324,966.797,275.391
1742124412.38,957.031,624.023,966.797,-237.793
1742124412.384,968.262,623.047,966.797,-499.023
1742124412.388,966.309,574.707,966.797,-289.551
1742124412.392,966.309,541.504,966.797,-167.48
1742124412.396,966.309,536.133,967.285,-23.926
1742124412.399,966.309,490.234,967.285,-279.297
1742124412.403,966.309,497.559,966.797,-460.449
1742124412.407,966.309,537.598,966.797,-210.938
1742124412.411,966.309,534.668,966.797,-171.875
1742124412.415,966.309,488.281,967.285,-245.605
1742124412.372,937.5,312.012,967.285,-400.391
1742124412.376,981.934,632.324,966.797,275.391
1742124412.38,957.031,624.023,966.797,-237.793
1742124412.384,968.262,623.047,966.797,-499.023
1742124412.388,966.309,574.707,966.797,-289.551
1742124412.392,966.309,541.504,966.797,-167.48
1742124412.396,966.309,536.133,967.285,-23.926
1742124412.399,966.309,490.234,967.285,-279.297
1742124412.403,966.309,497.559,966.797,-460.449
1742124412.407,966.309,537.598,966.797,-210.938
1742124412.411,966.309,534.668,966.797,-171.875
1742124412.415,966.309,488.281,967.285,-245.605
1742124412.418,966.309,474.609,967.285,-182.129
1742124412.422,966.309,500.488,966.797,-321.289
1742124412.426,966.309,448.242,966.797,-522.949
1742124412.43,966.309,364.746,966.797,-412.109
1742124412.434,966.309,310.547,967.285,-530.762
1742124412.438,966.309,265.137,966.797,-536.133
1742124412.442,966.309,242.188,967.285,-652.344
1742124412.445,966.309,214.844,967.285,-887.207
1742124412.449,966.309,153.809,967.285,-671.875
1742124412.453,966.309,71.777,966.797,-574.219
1742124412.457,966.309,27.832,966.797,-318.848
1742124412.461,966.309,-37.598,967.285,-598.145
1742124412.462,966.309,-74.219,967.285,-982.91
1742124412.466,966.309,-42.969,967.285,-455.566
1742124412.47,966.309,-71.289,966.797,-333.008
1742124412.474,966.309,-120.117,967.285,-531.25
1742124412.478,966.309,-153.809,967.285,-566.895
1742124412.482,966.309,-197.266,967.285,-743.164
1742124412.486,967.285,-184.082,966.797,-687.012
1742124412.489,966.309,-156.738,967.285,-478.027
1742124412.493,943.359,-203.613,967.285,-474.121
1742124412.497,999.512,-249.512,967.285,-582.031
1742124412.501,669.922,-210.938,967.285,-848.633
1742124412.505,457.031,-212.891,965.332,-738.77
1742124412.462,966.309,-74.219,967.285,-982.91
1742124412.466,966.309,-42.969,967.285,-455.566
1742124412.47,966.309,-71.289,966.797,-333.008
1742124412.474,966.309,-120.117,967.285,-531.25
1742124412.478,966.309,-153.809,967.285,-566.895
1742124412.482,966.309,-197.266,967.285,-743.164
1742124412.486,967.285,-184.082,966.797,-687.012
1742124412.489,966.309,-156.738,967.285,-478.027
1742124412.493,943.359,-203.613,967.285,-474.121
1742124412.497,999.512,-249.512,967.285,-582.031
1742124412.501,669.922,-210.938,967.285,-848.633
1742124412.505,457.031,-212.891,965.332,-738.77
1742124412.51,861.328,-187.988,962.402,-292.969
1742124412.514,999.512,-119.141,937.5,-411.133
1742124412.518,567.871,-178.223,802.734,-787.109
1742124412.522,-756.348,-207.52,638.184,-1000.0
1742124412.526,615.723,-125.488,600.586,-223.145
1742124412.53,930.176,-173.828,652.344,-201.172
1742124412.534,-656.25,-234.863,709.961,-963.379
1742124412.537,616.699,-176.27,716.309,-275.391
1742124412.541,76.172,-202.637,683.105,-592.773
1742124412.545,-1000.0,-241.699,652.832,-1000.0
1742124412.549,870.117,-203.613,662.109,-179.199
1742124412.553,512.695,-243.164,662.109,-479.004
1742124412.51,861.328,-187.988,962.402,-292.969
1742124412.514,999.512,-119.141,937.5,-411.133
1742124412.518,567.871,-178.223,802.734,-787.109
1742124412.522,-756.348,-207.52,638.184,-1000.0
1742124412.526,615.723,-125.488,600.586,-223.145
1742124412.53,930.176,-173.828,652.344,-201.172
1742124412.534,-656.25,-234.863,709.961,-963.379
1742124412.537,616.699,-176.27,716.309,-275.391
1742124412.541,76.172,-202.637,683.105,-592.773
1742124412.545,-1000.0,-241.699,652.832,-1000.0
1742124412.549,870.117,-203.613,662.109,-179.199
1742124412.553,512.695,-243.164,662.109,-479.004
1742124412.552,-760.254,-260.742,633.301,-1000.0
1742124412.556,615.234,-211.914,609.863,-435.547
1742124412.56,-435.059,-281.25,515.625,-852.051
1742124412.564,-821.289,-265.625,441.406,-986.816
1742124412.568,999.512,-235.84,477.051,-142.09
1742124412.572,104.004,-357.91,506.348,-606.934
1742124412.576,-1000.0,-417.969,438.965,-1000.0
1742124412.579,130.859,-348.145,400.879,-877.441
1742124412.583,817.383,-329.59,375.977,-779.785
1742124412.587,-638.184,-351.074,370.605,-965.332
1742124412.591,494.629,-292.48,355.957,-619.629
1742124412.595,87.402,-349.121,306.641,-767.09
1742124412.552,-760.254,-260.742,633.301,-1000.0
1742124412.556,615.234,-211.914,609.863,-435.547
1742124412.56,-435.059,-281.25,515.625,-852.051
1742124412.564,-821.289,-265.625,441.406,-986.816
1742124412.568,999.512,-235.84,477.051,-142.09
1742124412.572,104.004,-357.91,506.348,-606.934
1742124412.576,-1000.0,-417.969,438.965,-1000.0
1742124412.579,130.859,-348.145,400.879,-877.441
1742124412.583,817.383,-329.59,375.977,-779.785
1742124412.587,-638.184,-351.074,370.605,-965.332
1742124412.591,494.629,-292.48,355.957,-619.629
1742124412.595,87.402,-349.121,306.641,-767.09
1742124412.613,-1000.0,-364.258,321.289,-1000.0
1742124412.617,787.109,-282.227,273.926,-798.828
1742124412.621,297.363,-327.148,184.082,-914.551
1742124412.625,-853.516,-363.77,183.105,-1000.0
1742124412.629,713.867,-316.895,208.496,-799.805
1742124412.633,-321.289,-337.402,158.203,-944.824
1742124412.637,-996.094,-335.938,111.328,-1000.0
1742124412.64,854.004,-311.035,114.258,-851.562
1742124412.644,-32.227,-335.938,151.855,-959.473
1742124412.648,-802.246,-301.758,207.52,-1000.0
1742124412.652,674.805,-278.32,208.008,-969.727
1742124412.656,-486.816,-343.75,163.086,-1000.0
1742124412.613,-1000.0,-364.258,321.289,-1000.0
1742124412.617,787.109,-282.227,273.926,-798.828
1742124412.621,297.363,-327.148,184.082,-914.551
1742124412.625,-853.516,-363.77,183.105,-1000.0
1742124412.629,713.867,-316.895,208.496,-799.805
1742124412.633,-321.289,-337.402,158.203,-944.824
1742124412.637,-996.094,-335.938,111.328,-1000.0
1742124412.64,854.004,-311.035,114.258,-851.562
1742124412.644,-32.227,-335.938,151.855,-959.473
1742124412.648,-802.246,-301.758,207.52,-1000.0
1742124412.652,674.805,-278.32,208.008,-969.727
1742124412.656,-486.816,-343.75,163.086,-1000.0
1742124412.657,-812.988,-312.012,191.895,-958.008
1742124412.661,822.754,-230.469,244.629,-577.637
1742124412.665,-470.703,-301.27,134.277,-838.867
1742124412.669,-1000.0,-332.52,65.43,-1000.0
1742124412.673,706.543,-230.469,95.215,-718.75
1742124412.677,769.531,-225.586,85.938,-652.344
1742124412.681,-858.887,-283.203,68.848,-1000.0
1742124412.684,375.0,-256.836,39.062,-858.887
1742124412.688,131.348,-251.953,35.156,-881.836
1742124412.692,-1000.0,-233.887,90.332,-1000.0
1742124412.696,629.395,-183.105,136.23,-524.902
1742124412.7,776.367,-218.262,163.574,-463.379
1742124412.657,-812.988,-312.012,191.895,-958.008
1742124412.661,822.754,-230.469,244.629,-577.637
1742124412.665,-470.703,-301.27,134.277,-838.867
1742124412.669,-1000.0,-332.52,65.43,-1000.0
1742124412.673,706.543,-230.469,95.215,-718.75
1742124412.677,769.531,-225.586,85.938,-652.344
1742124412.681,-858.887,-283.203,68.848,-1000.0
1742124412.684,375.0,-256.836,39.062,-858.887
1742124412.688,131.348,-251.953,35.156,-881.836
1742124412.692,-1000.0,-233.887,90.332,-1000.0
1742124412.696,629.395,-183.105,136.23,-524.902
1742124412.7,776.367,-218.262,163.574,-463.379
1742124412.703,-1000.0,-257.812,234.863,-1000.0
1742124412.707,292.48,-225.586,317.383,-694.824
1742124412.711,579.59,-254.883,322.266,-614.746
1742124412.715,-918.457,-241.699,353.027,-1000.0
1742124412.719,588.379,-201.66,346.68,-78.125
1742124412.723,417.969,-249.023,281.25,-159.668
1742124412.727,-1000.0,-254.395,235.352,-1000.0
1742124412.73,-776.367,-219.238,214.844,-797.852
1742124412.734,667.969,-206.543,204.102,217.773
1742124412.738,-617.676,-272.949,165.039,-706.055
1742124412.742,-621.582,-231.445,175.781,-684.082
1742124412.746,795.41,-191.895,163.086,356.934
1742124412.703,-1000.0,-257.812,234.863,-1000.0
1742124412.707,292.48,-225.586,317.383,-694.824
1742124412.711,579.59,-254.883,322.266,-614.746
1742124412.715,-918.457,-241.699,353.027,-1000.0
1742124412.719,588.379,-201.66,346.68,-78.125
1742124412.723,417.969,-249.023,281.25,-159.668
1742124412.727,-1000.0,-254.395,235.352,-1000.0
1742124412.73,-776.367,-219.238,214.844,-797.852
1742124412.734,667.969,-206.543,204.102,217.773
1742124412.738,-617.676,-272.949,165.039,-706.055
1742124412.742,-621.582,-231.445,175.781,-684.082
1742124412.746,795.41,-191.895,163.086,356.934
1742124412.747,-881.348,-276.367,119.141,-867.188
1742124412.751,-826.172,-276.367,121.094,-726.074
1742124412.755,749.512,-250.977,124.023,393.555
1742124412.759,-667.48,-256.348,91.797,-725.098
1742124412.763,-1000.0,-208.496,67.871,-843.262
1742124412.767,657.227,-168.945,62.012,373.535
1742124412.771,-616.211,-243.652,-5.371,-676.27
1742124412.774,-978.516,-248.047,-100.098,-789.062
1742124412.778,698.73,-223.633,-133.789,557.617
1742124412.782,-635.254,-280.273,-199.707,-666.504
1742124412.786,-977.539,-232.91,-235.352,-870.117
1742124412.79,701.66,-206.055,-243.652,564.941
1742124412.795,-610.84,-291.016,-278.32,-594.238
1742124412.799,-195.801,-219.727,-287.109,-325.195
1742124412.803,797.852,-211.914,-282.227,636.719
1742124412.807,-1000.0,-294.434,-265.625,-916.504
1742124412.811,183.105,-229.98,-218.262,-21.484
1742124412.815,860.352,-243.652,-164.551,726.074
1742124412.819,-705.078,-301.27,-106.445,-702.148
1742124412.822,423.34,-278.32,-115.723,166.016
1742124412.826,-423.34,-347.656,-102.051,-373.535
1742124412.83,-760.254,-290.039,-48.34,-614.746
1742124412.834,870.117,-243.164,-77.637,805.664
1742124412.838,-749.023,-340.332,-113.77,-625.977
1742124412.795,-610.84,-291.016,-278.32,-594.238
1742124412.799,-195.801,-219.727,-287.109,-325.195
1742124412.803,797.852,-211.914,-282.227,636.719
1742124412.807,-1000.0,-294.434,-265.625,-916.504
1742124412.811,183.105,-229.98,-218.262,-21.484
1742124412.815,860.352,-243.652,-164.551,726.074
1742124412.819,-705.078,-301.27,-106.445,-702.148
1742124412.822,423.34,-278.32,-115.723,166.016
1742124412.826,-423.34,-347.656,-102.051,-373.535
1742124412.83,-760.254,-290.039,-48.34,-614.746
1742124412.834,870.117,-243.164,-77.637,805.664
1742124412.838,-749.023,-340.332,-113.77,-625.977
1742124412.837,-302.246,-299.316,-75.195,-309.082
1742124412.841,684.57,-283.203,-38.086,609.375
1742124412.845,-880.371,-325.195,-38.574,-823.242
1742124412.849,457.52,-235.352,53.223,320.312
1742124412.853,770.508,-245.605,103.516,743.652
1742124412.857,-1000.0,-305.176,51.27,-977.539
1742124412.861,-95.703,-245.117,-56.641,-177.734
1742124412.864,440.918,-283.203,-127.93,290.039
1742124412.868,-882.324,-345.215,-97.168,-820.312
1742124412.872,619.141,-274.414,-55.664,546.387
1742124412.876,-3.418,-314.941,-76.66,204.102
1742124412.88,-1000.0,-296.875,-66.406,-1000.0
1742124412.837,-302.246,-299.316,-75.195,-309.082
1742124412.841,684.57,-283.203,-38.086,609.375
1742124412.845,-880.371,-325.195,-38.574,-823.242
1742124412.849,457.52,-235.352,53.223,320.312
1742124412.853,770.508,-245.605,103.516,743.652
1742124412.857,-1000.0,-305.176,51.27,-977.539
1742124412.861,-95.703,-245.117,-56.641,-177.734
1742124412.864,440.918,-283.203,-127.93,290.039
1742124412.868,-882.324,-345.215,-97.168,-820.312
1742124412.872,619.141,-274.414,-55.664,546.387
1742124412.876,-3.418,-314.941,-76.66,204.102
1742124412.88,-1000.0,-296.875,-66.406,-1000.0
1742124413.37,-631.836,-0.488,66.895,-733.887
1742124413.374,415.527,60.059,61.035,58.594
1742124413.378,371.582,28.809,116.699,181.152
1742124413.382,-1000.0,-34.18,84.473,-1000.0
1742124413.386,650.879,34.18,69.824,331.055
1742124413.39,956.055,38.086,179.199,505.859
1742124413.394,-976.562,-30.273,148.926,-1000.0
1742124413.397,-265.625,-15.137,37.598,-538.086
1742124413.401,895.508,0.977,56.641,251.465
1742124413.405,-721.191,-66.406,67.383,-878.906
1742124413.409,306.641,-3.906,89.844,-85.938
1742124413.413,987.305,28.32,165.039,613.281
1742124412.837,-302.246,-299.316,-75.195,-309.082
1742124412.841,684.57,-283.203,-38.086,609.375
1742124412.845,-880.371,-325.195,-38.574,-823.242
1742124412.849,457.52,-235.352,53.223,320.312
1742124412.853,770.508,-245.605,103.516,743.652
1742124412.857,-1000.0,-305.176,51.27,-977.539
1742124412.861,-95.703,-245.117,-56.641,-177.734
1742124412.864,440.918,-283.203,-127.93,290.039
1742124412.868,-882.324,-345.215,-97.168,-820.312
1742124412.872,619.141,-274.414,-55.664,546.387
1742124412.876,-3.418,-314.941,-76.66,204.102
1742124412.88,-1000.0,-296.875,-66.406,-1000.0
1742124412.883,754.883,-201.66,31.738,554.688
1742124412.887,-138.672,-295.41,70.312,41.504
1742124412.891,-905.762,-285.645,73.73,-733.887
1742124412.895,729.492,-192.383,49.316,729.98
1742124412.899,-671.875,-256.836,120.117,-537.598
1742124412.903,-400.879,-209.961,233.398,-430.664
1742124412.907,929.199,-204.102,288.086,762.695
1742124412.91,-798.34,-278.32,373.535,-771.973
1742124412.914,147.949,-252.93,389.648,-84.473
1742124412.918,714.355,-221.68,419.434,570.312
1742124412.922,-1000.0,-223.145,452.637,-946.777
1742124412.926,392.578,-188.965,411.133,114.746
1742124412.883,754.883,-201.66,31.738,554.688
1742124412.887,-138.672,-295.41,70.312,41.504
1742124412.891,-905.762,-285.645,73.73,-733.887
1742124412.895,729.492,-192.383,49.316,729.98
1742124412.899,-671.875,-256.836,120.117,-537.598
1742124412.903,-400.879,-209.961,233.398,-430.664
1742124412.907,929.199,-204.102,288.086,762.695
1742124412.91,-798.34,-278.32,373.535,-771.973
1742124412.914,147.949,-252.93,389.648,-84.473
1742124412.918,714.355,-221.68,419.434,570.312
1742124412.922,-1000.0,-223.145,452.637,-946.777
1742124412.926,392.578,-188.965,411.133,114.746
1742124412.927,538.574,-228.516,386.719,457.52
1742124412.931,-951.172,-263.672,366.699,-871.582
1742124412.935,561.523,-205.566,312.5,406.738
1742124412.939,-319.336,-253.906,305.664,-112.305
1742124412.943,-974.609,-225.098,310.059,-811.523
1742124412.947,752.441,-177.734,242.188,769.531
1742124412.951,-598.145,-269.531,165.527,-449.707
1742124412.954,-1000.0,-243.164,114.746,-917.969
1742124412.958,707.52,-190.43,69.336,601.562
1742124412.962,-600.098,-276.367,-33.203,-532.715
1742124412.966,-798.34,-259.766,-106.934,-686.035
1742124412.97,866.211,-211.914,-100.098,781.738
1742124412.927,538.574,-228.516,386.719,457.52
1742124412.931,-951.172,-263.672,366.699,-871.582
1742124412.935,561.523,-205.566,312.5,406.738
1742124412.939,-319.336,-253.906,305.664,-112.305
1742124412.943,-974.609,-225.098,310.059,-811.523
1742124412.947,752.441,-177.734,242.188,769.531
1742124412.951,-598.145,-269.531,165.527,-449.707
1742124412.954,-1000.0,-243.164,114.746,-917.969
1742124412.958,707.52,-190.43,69.336,601.562
1742124412.962,-600.098,-276.367,-33.203,-532.715
1742124412.966,-798.34,-259.766,-106.934,-686.035
1742124412.97,866.211,-211.914,-100.098,781.738
1742124412.99,-718.75,-270.508,-115.723,-655.762
1742124412.994,-701.172,-229.492,-76.66,-624.512
1742124412.998,746.582,-212.402,-48.828,563.477
1742124413.002,-640.625,-208.008,-7.324,-731.445
1742124413.006,274.902,-66.895,66.406,47.852
1742124413.01,479.004,-65.918,-20.02,368.164
1742124413.014,-1000.0,-113.281,-152.832,-1000.0
1742124413.017,-609.375,-38.574,-265.625,-547.852
1742124413.021,680.664,-34.668,-369.629,258.301
1742124413.025,-690.918,-72.266,-447.266,-787.598
1742124413.029,-109.375,12.695,-504.395,-313.965
1742124413.033,617.676,5.859,-509.766,266.113
1742124412.99,-718.75,-270.508,-115.723,-655.762
1742124412.994,-701.172,-229.492,-76.66,-624.512
1742124412.998,746.582,-212.402,-48.828,563.477
1742124413.002,-640.625,-208.008,-7.324,-731.445
1742124413.006,274.902,-66.895,66.406,47.852
1742124413.01,479.004,-65.918,-20.02,368.164
1742124413.014,-1000.0,-113.281,-152.832,-1000.0
1742124413.017,-609.375,-38.574,-265.625,-547.852
1742124413.021,680.664,-34.668,-369.629,258.301
1742124413.025,-690.918,-72.266,-447.266,-787.598
1742124413.029,-109.375,12.695,-504.395,-313.965
1742124413.033,617.676,5.859,-509.766,266.113
1742124413.032,-1000.0,-94.238,-523.438,-1000.0
1742124413.036,-238.77,-35.645,-584.473,-353.027
1742124413.04,900.391,-5.371,-567.383,466.309
1742124413.044,-850.586,-89.355,-514.648,-884.766
1742124413.048,-853.516,-104.492,-483.887,-756.348
1742124413.052,674.316,-59.57,-430.176,408.691
1742124413.056,-680.664,-110.352,-386.719,-749.512
1742124413.059,-84.961,-71.777,-336.426,-242.676
1742124413.063,839.844,-67.383,-298.828,582.52
1742124413.067,-1000.0,-160.645,-326.66,-954.102
1742124413.071,-543.457,-131.348,-353.027,-533.691
1742124413.075,756.836,-102.051,-330.566,387.207
1742124413.08,-726.074,-144.531,-274.902,-805.176
1742124413.084,207.52,-95.703,-281.738,-202.637
1742124413.088,520.996,-111.328,-308.105,129.395
1742124413.092,-1000.0,-150.391,-282.715,-1000.0
1742124413.096,560.059,-77.148,-282.227,96.191
1742124413.1,367.676,-143.066,-299.316,134.766
1742124413.104,-1000.0,-199.707,-357.91,-992.188
1742124413.107,551.27,-128.906,-398.438,51.27
1742124413.111,-320.801,-167.969,-372.559,-424.316
1742124413.115,-1000.0,-153.32,-329.102,-914.062
1742124413.119,779.785,-95.703,-272.461,524.414
1742124413.123,-436.523,-157.715,-190.918,-419.434
1742124413.08,-726.074,-144.531,-274.902,-805.176
1742124413.084,207.52,-95.703,-281.738,-202.637
1742124413.088,520.996,-111.328,-308.105,129.395
1742124413.092,-1000.0,-150.391,-282.715,-1000.0
1742124413.096,560.059,-77.148,-282.227,96.191
1742124413.1,367.676,-143.066,-299.316,134.766
1742124413.104,-1000.0,-199.707,-357.91,-992.188
1742124413.107,551.27,-128.906,-398.438,51.27
1742124413.111,-320.801,-167.969,-372.559,-424.316
1742124413.115,-1000.0,-153.32,-329.102,-914.062
1742124413.119,779.785,-95.703,-272.461,524.414
1742124413.123,-436.523,-157.715,-190.918,-419.434
1742124413.122,-1000.0,-138.184,-170.41,-1000.0
1742124413.126,685.059,-62.988,-229.98,319.336
1742124413.13,-536.621,-175.781,-287.598,-588.867
1742124413.134,-954.102,-206.543,-269.531,-913.086
1742124413.138,807.129,-93.262,-198.73,700.195
1742124413.142,-495.117,-125.977,-177.734,-412.109
1742124413.146,-1000.0,-134.766,-217.773,-1000.0
1742124413.149,707.031,-66.406,-230.469,332.52
1742124413.153,-442.871,-156.738,-214.355,-443.848
1742124413.157,-689.941,-157.715,-198.73,-672.852
1742124413.161,823.73,-126.465,-222.656,466.309
1742124413.165,-826.172,-231.934,-300.293,-847.168
1742124413.122,-1000.0,-138.184,-170.41,-1000.0
1742124413.126,685.059,-62.988,-229.98,319.336
1742124413.13,-536.621,-175.781,-287.598,-588.867
1742124413.134,-954.102,-206.543,-269.531,-913.086
1742124413.138,807.129,-93.262,-198.73,700.195
1742124413.142,-495.117,-125.977,-177.734,-412.109
1742124413.146,-1000.0,-134.766,-217.773,-1000.0
1742124413.149,707.031,-66.406,-230.469,332.52
1742124413.153,-442.871,-156.738,-214.355,-443.848
1742124413.157,-689.941,-157.715,-198.73,-672.852
1742124413.161,823.73,-126.465,-222.656,466.309
1742124413.165,-826.172,-231.934,-300.293,-847.168
1742124413.169,-716.309,-233.398,-284.668,-782.227
1742124413.173,862.305,-154.297,-250.977,545.898
1742124413.177,-737.793,-207.031,-316.895,-698.73
1742124413.181,-398.438,-180.176,-354.492,-676.27
1742124413.185,801.758,-137.207,-331.055,185.059
1742124413.189,-835.938,-167.969,-303.223,-893.555
1742124413.193,302.246,-141.113,-280.762,-168.457
1742124413.196,655.762,-187.988,-247.07,186.523
1742124413.2,-1000.0,-203.613,-235.84,-1000.0
1742124413.204,401.855,-117.188,-214.844,-246.094
1742124413.208,392.09,-164.551,-167.48,-161.621
1742124413.212,-954.102,-185.059,-173.34,-950.684
1742124413.169,-716.309,-233.398,-284.668,-782.227
1742124413.173,862.305,-154.297,-250.977,545.898
1742124413.177,-737.793,-207.031,-316.895,-698.73
1742124413.181,-398.438,-180.176,-354.492,-676.27
1742124413.185,801.758,-137.207,-331.055,185.059
1742124413.189,-835.938,-167.969,-303.223,-893.555
1742124413.193,302.246,-141.113,-280.762,-168.457
1742124413.196,655.762,-187.988,-247.07,186.523
1742124413.2,-1000.0,-203.613,-235.84,-1000.0
1742124413.204,401.855,-117.188,-214.844,-246.094
1742124413.208,392.09,-164.551,-167.48,-161.621
1742124413.212,-954.102,-185.059,-173.34,-950.684
1742124413.212,636.719,-120.117,-217.285,211.914
1742124413.216,-291.992,-208.984,-236.328,-382.812
1742124413.22,-1000.0,-179.688,-102.539,-1000.0
1742124413.224,726.562,-84.473,20.508,220.215
1742124413.228,-438.965,-145.02,46.875,-525.391
1742124413.232,-863.281,-135.254,40.039,-822.266
1742124413.236,779.297,-117.676,-15.137,298.34
1742124413.239,-622.07,-180.664,-92.773,-735.352
1742124413.243,-1000.0,-163.574,-164.551,-1000.0
1742124413.247,770.02,-83.008,-193.359,224.121
1742124413.251,-162.598,-106.934,-161.621,-293.945
1742124413.255,-1000.0,-99.609,-160.645,-953.613
1742124413.212,636.719,-120.117,-217.285,211.914
1742124413.216,-291.992,-208.984,-236.328,-382.812
1742124413.22,-1000.0,-179.688,-102.539,-1000.0
1742124413.224,726.562,-84.473,20.508,220.215
1742124413.228,-438.965,-145.02,46.875,-525.391
1742124413.232,-863.281,-135.254,40.039,-822.266
1742124413.236,779.297,-117.676,-15.137,298.34
1742124413.239,-622.07,-180.664,-92.773,-735.352
1742124413.243,-1000.0,-163.574,-164.551,-1000.0
1742124413.247,770.02,-83.008,-193.359,224.121
1742124413.251,-162.598,-106.934,-161.621,-293.945
1742124413.255,-1000.0,-99.609,-160.645,-953.613
1742124413.258,646.973,-53.711,-160.156,127.93
1742124413.262,-612.793,-108.398,-97.168,-715.332
1742124413.266,-808.105,-66.895,-94.727,-781.738
1742124413.27,837.402,-3.418,-99.121,405.273
1742124413.274,-700.195,-38.574,-54.688,-735.84
1742124413.278,-227.539,51.27,6.836,-484.863
1742124413.282,837.402,109.375,83.984,344.727
1742124413.285,-795.898,59.57,72.754,-849.609
1742124413.289,461.426,123.535,65.918,122.07
1742124413.293,729.004,110.352,95.703,461.914
1742124413.297,-1000.0,20.508,61.035,-1000.0
1742124413.301,299.805,87.891,54.688,-118.164
1742124413.258,646.973,-53.711,-160.156,127.93
1742124413.262,-612.793,-108.398,-97.168,-715.332
1742124413.266,-808.105,-66.895,-94.727,-781.738
1742124413.27,837.402,-3.418,-99.121,405.273
1742124413.274,-700.195,-38.574,-54.688,-735.84
1742124413.278,-227.539,51.27,6.836,-484.863
1742124413.282,837.402,109.375,83.984,344.727
1742124413.285,-795.898,59.57,72.754,-849.609
1742124413.289,461.426,123.535,65.918,122.07
1742124413.293,729.004,110.352,95.703,461.914
1742124413.297,-1000.0,20.508,61.035,-1000.0
1742124413.301,299.805,87.891,54.688,-118.164
1742124413.303,646.484,92.773,100.586,247.559
1742124413.307,-850.098,41.016,146.484,-854.98
1742124413.311,635.254,108.398,150.879,416.016
1742124413.315,-130.371,60.547,135.742,-122.559
1742124413.319,-1000.0,34.18,163.574,-1000.0
1742124413.323,783.203,78.613,183.105,389.16
1742124413.327,-279.297,-17.578,169.922,-367.188
1742124413.33,-860.352,-14.648,189.453,-835.938
1742124413.334,797.852,74.219,259.277,491.211
1742124413.338,-706.055,23.438,258.301,-725.098
1742124413.342,-611.328,43.457,214.355,-626.465
1742124413.346,792.969,59.082,162.598,509.277
1742124413.407,-929.199,-26.367,149.902,-935.547
1742124413.411,311.523,56.641,147.949,-151.855
1742124413.415,695.801,26.855,121.094,230.957
1742124413.419,-848.633,-43.457,14.16,-884.277
1742124413.423,646.973,65.918,-10.742,477.539
1742124413.427,-145.996,68.359,-45.898,-95.215
1742124413.431,-959.961,62.988,-6.348,-909.668
1742124413.434,712.891,104.492,72.754,666.504
1742124413.438,-578.125,39.551,52.246,-499.023
1742124413.442,-10.742,104.004,122.559,-311.035
1742124413.446,869.141,135.254,154.785,618.164
1742124413.45,-869.629,100.098,-59.57,-870.605
1742124413.407,-929.199,-26.367,149.902,-935.547
1742124413.411,311.523,56.641,147.949,-151.855
1742124413.415,695.801,26.855,121.094,230.957
1742124413.419,-848.633,-43.457,14.16,-884.277
1742124413.423,646.973,65.918,-10.742,477.539
1742124413.427,-145.996,68.359,-45.898,-95.215
1742124413.431,-959.961,62.988,-6.348,-909.668
1742124413.434,712.891,104.492,72.754,666.504
1742124413.438,-578.125,39.551,52.246,-499.023
1742124413.442,-10.742,104.004,122.559,-311.035
1742124413.446,869.141,135.254,154.785,618.164
1742124413.45,-869.629,100.098,-59.57,-870.605
1742124413.407,-929.199,-26.367,149.902,-935.547
1742124413.411,311.523,56.641,147.949,-151.855
1742124413.415,695.801,26.855,121.094,230.957
1742124413.419,-848.633,-43.457,14.16,-884.277
1742124413.423,646.973,65.918,-10.742,477.539
1742124413.427,-145.996,68.359,-45.898,-95.215
1742124413.431,-959.961,62.988,-6.348,-909.668
1742124413.434,712.891,104.492,72.754,666.504
1742124413.438,-578.125,39.551,52.246,-499.023
1742124413.442,-10.742,104.004,122.559,-311.035
1742124413.446,869.141,135.254,154.785,618.164
1742124413.45,-869.629,100.098,-59.57,-870.605
1742124413.454,494.141,209.961,-125.0,217.773
1742124413.458,877.93,267.578,-65.918,710.449
1742124413.462,-695.312,247.07,-41.504,-571.289
1742124413.466,604.98,288.086,78.613,599.609
1742124413.47,-246.094,240.234,151.367,-27.344
1742124413.474,-804.199,240.234,165.527,-583.496
1742124413.478,865.234,256.348,217.285,868.652
1742124413.481,-708.984,138.184,168.457,-428.711
1742124413.485,-731.934,152.344,-17.578,-474.121
1742124413.489,715.82,200.195,-108.398,693.359
1742124413.493,-674.805,133.301,-146.484,-668.457
1742124413.497,300.781,193.359,-144.531,225.098
1742124413.454,494.141,209.961,-125.0,217.773
1742124413.458,877.93,267.578,-65.918,710.449
1742124413.462,-695.312,247.07,-41.504,-571.289
1742124413.466,604.98,288.086,78.613,599.609
1742124413.47,-246.094,240.234,151.367,-27.344
1742124413.474,-804.199,240.234,165.527,-583.496
1742124413.478,865.234,256.348,217.285,868.652
1742124413.481,-708.984,138.184,168.457,-428.711
1742124413.485,-731.934,152.344,-17.578,-474.121
1742124413.489,715.82,200.195,-108.398,693.359
1742124413.493,-674.805,133.301,-146.484,-668.457
1742124413.497,300.781,193.359,-144.531,225.098
1742124413.497,939.941,200.684,-162.598,897.949
1742124413.501,-955.566,154.785,-237.305,-758.789
1742124413.505,269.531,207.031,-297.363,213.379
1742124413.509,286.133,153.32,-274.414,383.789
1742124413.513,-909.18,123.047,-127.93,-628.418
1742124413.517,709.473,184.082,-34.18,749.512
1742124413.521,-376.465,129.883,-11.719,-104.492
1742124413.524,-991.211,139.648,-2.441,-785.156
1742124413.528,555.176,147.461,-66.895,566.895
1742124413.532,-635.742,124.512,-60.059,-390.137
1742124413.536,62.012,192.871,30.762,74.707
1742124413.54,933.105,180.176,59.082,816.895
1742124413.497,939.941,200.684,-162.598,897.949
1742124413.501,-955.566,154.785,-237.305,-758.789
1742124413.505,269.531,207.031,-297.363,213.379
1742124413.509,286.133,153.32,-274.414,383.789
1742124413.513,-909.18,123.047,-127.93,-628.418
1742124413.517,709.473,184.082,-34.18,749.512
1742124413.521,-376.465,129.883,-11.719,-104.492
1742124413.524,-991.211,139.648,-2.441,-785.156
1742124413.528,555.176,147.461,-66.895,566.895
1742124413.532,-635.742,124.512,-60.059,-390.137
1742124413.536,62.012,192.871,30.762,74.707
1742124413.54,933.105,180.176,59.082,816.895
1742124413.543,-903.32,115.234,54.199,-837.891
1742124413.547,371.582,150.391,-37.598,166.504
1742124413.551,594.238,120.605,-128.906,522.461
1742124413.555,-821.777,75.684,-91.309,-667.969
1742124413.559,610.352,109.375,-109.375,644.043
1742124413.563,-474.609,70.312,-177.734,-256.348
1742124413.567,-585.449,107.422,-192.871,-546.875
1742124413.57,834.961,117.676,-172.852,753.418
1742124413.574,-588.867,54.688,-124.023,-575.195
1742124413.578,501.953,129.395,-108.887,299.805
1742124413.582,400.391,101.562,-103.516,403.32
1742124413.586,-982.422,51.27,-25.879,-864.258
1742124414.052,895.996,97.168,-535.645,701.66
1742124414.056,-975.098,44.922,-543.945,-884.277
1742124414.06,243.164,91.797,-544.922,-74.219
1742124414.064,601.074,69.824,-582.031,274.902
1742124414.068,-842.285,31.738,-604.98,-822.754
1742124414.072,583.008,119.141,-545.41,435.547
1742124414.076,-317.383,71.777,-524.414,-282.227
1742124414.079,-1000.0,38.574,-538.086,-1000.0
1742124414.083,838.379,114.746,-506.348,357.422
1742124414.087,-223.145,85.938,-488.281,-388.184
1742124414.091,-499.512,101.562,-487.305,-690.918
1742124414.095,857.422,124.023,-468.262,135.254
1742124413.588,718.262,112.793,9.766,658.691
1742124413.592,-263.672,49.316,-24.414,-94.727
1742124413.596,-539.551,70.801,-66.895,-518.555
1742124413.6,822.754,112.793,-80.078,617.188
1742124413.604,-614.746,74.219,-20.996,-668.457
1742124413.608,493.164,177.734,-0.977,328.125
1742124413.612,780.762,171.387,-6.836,687.5
1742124413.615,-818.359,111.816,-51.27,-822.266
1742124413.619,611.816,177.734,-112.793,409.668
1742124413.623,-227.051,118.164,-108.887,-103.027
1742124413.627,-799.316,94.238,-53.223,-705.566
1742124413.631,898.438,153.32,44.434,803.711
1742124413.588,718.262,112.793,9.766,658.691
1742124413.592,-263.672,49.316,-24.414,-94.727
1742124413.596,-539.551,70.801,-66.895,-518.555
1742124413.6,822.754,112.793,-80.078,617.188
1742124413.604,-614.746,74.219,-20.996,-668.457
1742124413.608,493.164,177.734,-0.977,328.125
1742124413.612,780.762,171.387,-6.836,687.5
1742124413.615,-818.359,111.816,-51.27,-822.266
1742124413.619,611.816,177.734,-112.793,409.668
1742124413.623,-227.051,118.164,-108.887,-103.027
1742124413.627,-799.316,94.238,-53.223,-705.566
1742124413.631,898.438,153.32,44.434,803.711
1742124413.647,-612.793,103.027,93.75,-448.73
1742124413.651,-185.547,173.828,121.582,-378.906
1742124413.655,903.809,215.82,165.039,594.238
1742124413.659,-804.199,116.211,78.613,-849.609
1742124413.663,285.645,144.043,-12.207,9.277
1742124413.667,999.512,197.266,-28.32,910.645
1742124413.671,-875.488,125.488,-20.508,-831.543
1742124413.674,-615.723,145.996,-24.414,-601.562
1742124413.678,809.57,190.43,-15.625,604.004
1742124413.682,-696.289,132.324,1.953,-702.148
1742124413.686,174.316,172.363,-19.043,-106.445
1742124413.69,819.824,163.086,-23.438,576.172
1742124413.647,-612.793,103.027,93.75,-448.73
1742124413.651,-185.547,173.828,121.582,-378.906
1742124413.655,903.809,215.82,165.039,594.238
1742124413.659,-804.199,116.211,78.613,-849.609
1742124413.663,285.645,144.043,-12.207,9.277
1742124413.667,999.512,197.266,-28.32,910.645
1742124413.671,-875.488,125.488,-20.508,-831.543
1742124413.674,-615.723,145.996,-24.414,-601.562
1742124413.678,809.57,190.43,-15.625,604.004
1742124413.682,-696.289,132.324,1.953,-702.148
1742124413.686,174.316,172.363,-19.043,-106.445
1742124413.69,819.824,163.086,-23.438,576.172
1742124413.692,-936.523,111.816,-14.648,-925.781
1742124413.696,555.664,192.383,23.926,179.688
1742124413.7,405.273,189.941,73.73,224.121
1742124413.704,-844.727,175.781,101.562,-743.164
1742124413.708,626.953,224.609,113.281,538.086
1742124413.712,-579.102,172.852,112.793,-537.598
1742124413.716,-868.652,176.758,55.176,-846.68
1742124413.719,797.852,229.004,37.598,555.176
1742124413.723,-689.941,163.086,-11.719,-666.992
1742124413.727,-235.352,210.938,-47.363,-525.391
1742124413.731,777.344,226.562,-55.176,285.156
1742124413.735,-923.34,149.902,-99.609,-930.664
1742124413.692,-936.523,111.816,-14.648,-925.781
1742124413.696,555.664,192.383,23.926,179.688
1742124413.7,405.273,189.941,73.73,224.121
1742124413.704,-844.727,175.781,101.562,-743.164
1742124413.708,626.953,224.609,113.281,538.086
1742124413.712,-579.102,172.852,112.793,-537.598
1742124413.716,-868.652,176.758,55.176,-846.68
1742124413.719,797.852,229.004,37.598,555.176
1742124413.723,-689.941,163.086,-11.719,-666.992
1742124413.727,-235.352,210.938,-47.363,-525.391
1742124413.731,777.344,226.562,-55.176,285.156
1742124413.735,-923.34,149.902,-99.609,-930.664
1742124413.738,375.0,193.359,-61.523,-146.973
1742124413.742,841.797,166.504,-8.789,263.184
1742124413.746,-852.539,130.371,10.254,-931.152
1742124413.75,567.871,226.562,65.43,51.27
1742124413.754,152.832,194.824,123.047,-127.441
1742124413.758,-987.305,167.969,114.258,-917.48
1742124413.762,675.293,219.238,65.918,422.852
1742124413.765,-379.883,120.117,30.273,-405.762
1742124413.769,-1000.0,97.656,-30.273,-1000.0
1742124413.773,763.184,179.688,-71.777,204.102
1742124413.777,37.598,133.301,-39.062,-199.707
1742124413.781,-918.457,118.652,0.0,-811.035
1742124413.738,375.0,193.359,-61.523,-146.973
1742124413.742,841.797,166.504,-8.789,263.184
1742124413.746,-852.539,130.371,10.254,-931.152
1742124413.75,567.871,226.562,65.43,51.27
1742124413.754,152.832,194.824,123.047,-127.441
1742124413.758,-987.305,167.969,114.258,-917.48
1742124413.762,675.293,219.238,65.918,422.852
1742124413.765,-379.883,120.117,30.273,-405.762
1742124413.769,-1000.0,97.656,-30.273,-1000.0
1742124413.773,763.184,179.688,-71.777,204.102
1742124413.777,37.598,133.301,-39.062,-199.707
1742124413.781,-918.457,118.652,0.0,-811.035
1742124413.782,697.754,171.875,15.625,590.332
1742124413.786,-557.129,134.277,10.254,-511.23
1742124413.79,-962.891,130.859,46.875,-917.48
1742124413.794,717.285,156.738,88.379,445.312
1742124413.798,-606.934,125.488,52.246,-641.113
1742124413.802,-104.004,192.383,-9.277,-328.125
1742124413.806,891.113,232.422,51.758,565.918
1742124413.809,-1000.0,158.691,111.328,-938.965
1742124413.813,-4.395,188.965,138.184,-263.672
1742124413.817,912.109,217.285,154.785,620.605
1742124413.821,-726.562,158.203,166.504,-779.297
1742124413.825,471.68,246.582,270.508,239.746
1742124413.782,697.754,171.875,15.625,590.332
1742124413.786,-557.129,134.277,10.254,-511.23
1742124413.79,-962.891,130.859,46.875,-917.48
1742124413.794,717.285,156.738,88.379,445.312
1742124413.798,-606.934,125.488,52.246,-641.113
1742124413.802,-104.004,192.383,-9.277,-328.125
1742124413.806,891.113,232.422,51.758,565.918
1742124413.809,-1000.0,158.691,111.328,-938.965
1742124413.813,-4.395,188.965,138.184,-263.672
1742124413.817,912.109,217.285,154.785,620.605
1742124413.821,-726.562,158.203,166.504,-779.297
1742124413.825,471.68,246.582,270.508,239.746
1742124413.828,206.055,245.117,315.918,236.816
1742124413.832,-1000.0,180.664,237.305,-980.469
1742124413.836,787.109,246.094,174.316,654.297
1742124413.84,200.195,239.258,178.223,269.531
1742124413.844,-959.961,246.582,154.785,-830.566
1742124413.848,650.391,312.5,55.176,594.238
1742124413.852,-477.051,244.141,1.953,-222.168
1742124413.855,-675.781,244.629,-49.316,-551.758
1742124413.859,999.512,314.453,4.395,998.047
1742124413.863,-530.762,274.414,96.68,-166.504
1742124413.867,-782.715,287.598,82.031,-503.418
1742124413.871,786.133,301.758,93.262,823.73
1742124413.828,206.055,245.117,315.918,236.816
1742124413.832,-1000.0,180.664,237.305,-980.469
1742124413.836,787.109,246.094,174.316,654.297
1742124413.84,200.195,239.258,178.223,269.531
1742124413.844,-959.961,246.582,154.785,-830.566
1742124413.848,650.391,312.5,55.176,594.238
1742124413.852,-477.051,244.141,1.953,-222.168
1742124413.855,-675.781,244.629,-49.316,-551.758
1742124413.859,999.512,314.453,4.395,998.047
1742124413.863,-530.762,274.414,96.68,-166.504
1742124413.867,-782.715,287.598,82.031,-503.418
1742124413.871,786.133,301.758,93.262,823.73
1742124413.872,-645.508,210.938,105.469,-331.543
1742124413.876,142.578,234.375,128.418,147.461
1742124413.88,921.387,216.797,125.488,831.543
1742124413.884,-834.961,207.52,92.285,-621.094
1742124413.888,561.035,313.477,64.453,515.137
1742124413.892,686.523,257.324,22.461,778.32
1742124413.896,-735.352,208.984,49.805,-195.801
1742124413.899,568.359,233.398,28.809,749.023
1742124413.903,-448.73,161.133,-58.594,-46.875
1742124413.907,-346.191,201.172,-70.312,-32.715
1742124413.911,999.512,243.164,-73.73,999.512
1742124413.915,-572.266,177.734,-95.703,325.195
1742124413.919,-497.559,196.289,-136.719,346.68
1742124413.923,852.051,222.168,-154.297,945.801
1742124413.927,-627.441,179.688,-39.062,174.805
1742124413.931,289.551,225.586,139.16,607.91
1742124413.935,999.512,227.539,139.648,999.512
1742124413.939,-932.129,210.449,83.008,440.918
1742124413.943,-585.449,246.094,12.207,650.391
1742124413.946,625.0,221.68,-84.473,893.066
1742124413.95,-624.023,177.734,-143.555,206.543
1742124413.954,239.746,235.352,-227.539,626.465
1742124413.958,999.512,260.742,-255.371,999.512
1742124413.962,-300.781,193.848,-268.555,430.176
1742124413.919,-497.559,196.289,-136.719,346.68
1742124413.923,852.051,222.168,-154.297,945.801
1742124413.927,-627.441,179.688,-39.062,174.805
1742124413.931,289.551,225.586,139.16,607.91
1742124413.935,999.512,227.539,139.648,999.512
1742124413.939,-932.129,210.449,83.008,440.918
1742124413.943,-585.449,246.094,12.207,650.391
1742124413.946,625.0,221.68,-84.473,893.066
1742124413.95,-624.023,177.734,-143.555,206.543
1742124413.954,239.746,235.352,-227.539,626.465
1742124413.958,999.512,260.742,-255.371,999.512
1742124413.962,-300.781,193.848,-268.555,430.176
1742124413.962,-974.121,178.223,-349.609,-79.59
1742124413.966,871.582,242.676,-315.918,901.367
1742124413.97,437.988,221.191,-284.668,800.293
1742124413.974,-808.594,208.984,-336.914,160.156
1742124413.978,645.996,268.555,-355.957,845.215
1742124413.982,-400.391,220.703,-371.094,185.059
1742124413.986,-540.527,210.938,-337.891,70.801
1742124413.989,999.512,249.512,-297.852,999.512
1742124413.993,-489.746,187.5,-278.32,150.391
1742124413.997,-432.129,203.125,-103.516,100.586
1742124414.001,886.23,207.52,76.172,850.098
1742124414.005,-708.984,108.887,70.801,-351.562
1742124413.962,-974.121,178.223,-349.609,-79.59
1742124413.966,871.582,242.676,-315.918,901.367
1742124413.97,437.988,221.191,-284.668,800.293
1742124413.974,-808.594,208.984,-336.914,160.156
1742124413.978,645.996,268.555,-355.957,845.215
1742124413.982,-400.391,220.703,-371.094,185.059
1742124413.986,-540.527,210.938,-337.891,70.801
1742124413.989,999.512,249.512,-297.852,999.512
1742124413.993,-489.746,187.5,-278.32,150.391
1742124413.997,-432.129,203.125,-103.516,100.586
1742124414.001,886.23,207.52,76.172,850.098
1742124414.005,-708.984,108.887,70.801,-351.562
1742124414.009,202.637,148.438,-5.371,291.992
1742124414.013,999.512,154.297,11.719,968.262
1742124414.017,-876.953,72.266,0.977,-552.246
1742124414.021,3.418,113.281,-61.035,118.164
1742124414.025,803.223,128.906,-45.898,751.953
1742124414.029,-647.949,129.395,-1.465,-251.465
1742124414.033,516.602,135.254,-84.961,663.574
1742124414.036,-353.516,39.062,-274.902,-179.199
1742124414.04,-986.328,54.688,-386.23,-755.371
1742124414.044,666.016,110.84,-423.34,702.637
1742124414.048,-642.09,39.062,-461.426,-497.07
1742124414.052,-32.227,74.219,-508.789,-150.879
1742124414.009,202.637,148.438,-5.371,291.992
1742124414.013,999.512,154.297,11.719,968.262
1742124414.017,-876.953,72.266,0.977,-552.246
1742124414.021,3.418,113.281,-61.035,118.164
1742124414.025,803.223,128.906,-45.898,751.953
1742124414.029,-647.949,129.395,-1.465,-251.465
1742124414.033,516.602,135.254,-84.961,663.574
1742124414.036,-353.516,39.062,-274.902,-179.199
1742124414.04,-986.328,54.688,-386.23,-755.371
1742124414.044,666.016,110.84,-423.34,702.637
1742124414.048,-642.09,39.062,-461.426,-497.07
1742124414.052,-32.227,74.219,-508.789,-150.879
1742124414.112,-771.484,44.922,-447.754,-882.324
1742124414.116,-122.559,52.246,-466.797,-537.109
1742124414.12,999.512,78.613,-354.98,288.574
1742124414.124,-742.188,30.762,-183.594,-849.121
1742124414.128,-543.457,72.266,-121.582,-758.301
1742124414.132,919.922,139.648,-60.059,250.977
1742124414.136,-744.141,66.406,-82.031,-818.848
1742124414.139,-304.199,61.035,-172.852,-625.488
1742124414.143,999.512,90.332,-204.59,257.324
1742124414.147,-822.266,59.082,-163.574,-900.391
1742124414.151,-661.133,86.914,-165.527,-761.23
1742124414.155,691.406,96.191,-236.328,50.781
1742124414.112,-771.484,44.922,-447.754,-882.324
1742124414.116,-122.559,52.246,-466.797,-537.109
1742124414.12,999.512,78.613,-354.98,288.574
1742124414.124,-742.188,30.762,-183.594,-849.121
1742124414.128,-543.457,72.266,-121.582,-758.301
1742124414.132,919.922,139.648,-60.059,250.977
1742124414.136,-744.141,66.406,-82.031,-818.848
1742124414.139,-304.199,61.035,-172.852,-625.488
1742124414.143,999.512,90.332,-204.59,257.324
1742124414.147,-822.266,59.082,-163.574,-900.391
1742124414.151,-661.133,86.914,-165.527,-761.23
1742124414.155,691.406,96.191,-236.328,50.781
1742124414.157,-544.434,93.262,-194.824,-751.953
1742124414.161,371.582,146.973,-117.188,33.203
1742124414.165,-72.754,94.727,-181.641,-192.383
1742124414.169,-1000.0,63.477,-210.449,-1000.0
1742124414.173,719.238,135.742,-216.797,26.367
1742124414.177,180.176,97.168,-199.219,-240.234
1742124414.181,-835.449,72.266,-139.648,-746.582
1742124414.184,651.855,149.902,-91.309,339.355
1742124414.188,-667.969,138.672,-72.266,-704.102
1742124414.192,-404.297,175.781,-49.805,-475.586
1742124414.196,697.754,180.176,-29.297,361.816
1742124414.2,-735.352,106.934,-56.641,-775.879
1742124414.157,-544.434,93.262,-194.824,-751.953
1742124414.161,371.582,146.973,-117.188,33.203
1742124414.165,-72.754,94.727,-181.641,-192.383
1742124414.169,-1000.0,63.477,-210.449,-1000.0
1742124414.173,719.238,135.742,-216.797,26.367
1742124414.177,180.176,97.168,-199.219,-240.234
1742124414.181,-835.449,72.266,-139.648,-746.582
1742124414.184,651.855,149.902,-91.309,339.355
1742124414.188,-667.969,138.672,-72.266,-704.102
1742124414.192,-404.297,175.781,-49.805,-475.586
1742124414.196,697.754,180.176,-29.297,361.816
1742124414.2,-735.352,106.934,-56.641,-775.879
1742124414.205,382.324,128.906,-98.145,37.109
1742124414.209,-342.285,102.051,-144.043,-376.465
1742124414.213,-831.055,130.859,-113.281,-661.621
1742124414.217,630.371,147.461,-132.324,479.004
1742124414.221,-565.43,108.398,-151.367,-654.785
1742124414.225,350.586,195.801,-104.98,197.266
1742124414.229,24.414,142.578,-91.309,187.988
1742124414.232,-1000.0,65.918,-106.934,-1000.0
1742124414.236,623.047,119.141,-129.883,392.578
1742124414.24,-63.965,75.195,-187.988,69.824
1742124414.244,-916.504,75.195,-231.445,-495.605
1742124414.248,552.246,107.91,-192.383,579.59
1742124414.205,382.324,128.906,-98.145,37.109
1742124414.209,-342.285,102.051,-144.043,-376.465
1742124414.213,-831.055,130.859,-113.281,-661.621
1742124414.217,630.371,147.461,-132.324,479.004
1742124414.221,-565.43,108.398,-151.367,-654.785
1742124414.225,350.586,195.801,-104.98,197.266
1742124414.229,24.414,142.578,-91.309,187.988
1742124414.232,-1000.0,65.918,-106.934,-1000.0
1742124414.236,623.047,119.141,-129.883,392.578
1742124414.24,-63.965,75.195,-187.988,69.824
1742124414.244,-916.504,75.195,-231.445,-495.605
1742124414.248,552.246,107.91,-192.383,579.59
1742124414.247,-612.305,43.945,-178.223,-580.566
1742124414.251,231.445,125.0,-145.508,135.742
1742124414.255,466.797,125.977,-123.535,600.098
1742124414.259,-908.691,87.402,-108.887,-521.484
1742124414.263,556.152,180.664,-109.375,613.77
1742124414.267,-533.691,124.512,-139.16,-182.129
1742124414.271,-710.938,104.492,-88.867,-336.914
1742124414.274,879.395,131.836,-22.461,883.789
1742124414.278,-780.762,62.5,-10.742,-411.621
1742124414.282,-544.922,102.051,-58.594,-97.168
1742124414.286,628.906,128.906,-16.113,630.859
1742124414.29,-719.727,118.164,142.09,-421.387
1742124414.247,-612.305,43.945,-178.223,-580.566
1742124414.251,231.445,125.0,-145.508,135.742
1742124414.255,466.797,125.977,-123.535,600.098
1742124414.259,-908.691,87.402,-108.887,-521.484
1742124414.263,556.152,180.664,-109.375,613.77
1742124414.267,-533.691,124.512,-139.16,-182.129
1742124414.271,-710.938,104.492,-88.867,-336.914
1742124414.274,879.395,131.836,-22.461,883.789
1742124414.278,-780.762,62.5,-10.742,-411.621
1742124414.282,-544.922,102.051,-58.594,-97.168
1742124414.286,628.906,128.906,-16.113,630.859
1742124414.29,-719.727,118.164,142.09,-421.387
1742124414.294,525.391,212.402,231.934,613.77
1742124414.298,521.973,173.828,278.809,714.355
1742124414.302,-1000.0,108.398,271.973,-591.309
1742124414.306,386.719,177.246,231.445,437.988
1742124414.31,-213.867,119.629,160.645,168.457
1742124414.314,-849.121,112.793,64.453,-292.969
1742124414.318,779.297,125.488,13.184,799.316
1742124414.321,-711.914,36.133,-19.531,-551.758
1742124414.325,-547.852,112.793,-139.16,-296.387
1742124414.329,764.16,183.105,-234.863,803.223
1742124414.333,-676.27,130.859,-263.672,-408.691
1742124414.337,437.012,141.113,-274.902,503.418
1742124414.337,194.824,83.984,-291.016,439.453
1742124414.341,-1000.0,68.359,-318.359,-664.062
1742124414.345,709.473,147.461,-312.012,733.398
1742124414.349,-388.184,98.633,-280.273,98.633
1742124414.353,-411.133,119.629,-268.066,-50.293
1742124414.357,819.336,142.578,-284.668,743.652
1742124414.361,-667.48,106.445,-252.441,-564.941
1742124414.364,479.98,159.18,-174.316,396.484
1742124414.368,15.137,118.652,-127.93,331.543
1742124414.372,-641.602,162.598,-118.164,-170.898
1742124414.376,823.73,225.586,-142.578,828.125
1742124414.38,-688.477,130.371,-138.672,-498.535
1742124414.337,194.824,83.984,-291.016,439.453
1742124414.341,-1000.0,68.359,-318.359,-664.062
1742124414.345,709.473,147.461,-312.012,733.398
1742124414.349,-388.184,98.633,-280.273,98.633
1742124414.353,-411.133,119.629,-268.066,-50.293
1742124414.357,819.336,142.578,-284.668,743.652
1742124414.361,-667.48,106.445,-252.441,-564.941
1742124414.364,479.98,159.18,-174.316,396.484
1742124414.368,15.137,118.652,-127.93,331.543
1742124414.372,-641.602,162.598,-118.164,-170.898
1742124414.376,823.73,225.586,-142.578,828.125
1742124414.38,-688.477,130.371,-138.672,-498.535
1742124414.383,78.613,162.109,-81.055,94.238
1742124414.387,895.02,171.875,2.441,862.793
1742124414.391,-628.418,113.77,15.625,-310.059
1742124414.395,496.094,147.949,-29.785,602.539
1742124414.399,-408.203,108.398,-81.055,-97.168
1742124414.403,-354.492,156.738,-90.82,-176.758
1742124414.407,760.254,152.344,-157.715,693.848
1742124414.41,-647.949,81.055,-226.562,-465.82
1742124414.414,581.055,151.855,-237.793,599.609
1742124414.418,-160.156,138.672,-273.438,135.254
1742124414.422,-793.945,145.996,-284.668,-494.141
1742124414.426,704.59,160.645,-276.367,726.074
1742124414.428,-522.949,95.215,-293.457,-311.035
1742124414.432,436.035,153.32,-266.602,367.676
1742124414.436,321.289,137.207,-172.363,393.066
1742124414.44,-996.094,110.84,-101.074,-696.777
1742124414.444,781.738,195.312,-98.145,748.535
1742124414.448,-160.645,159.668,-88.379,219.238
1742124414.452,-542.969,134.277,-36.133,-168.457
1742124414.455,559.082,106.445,-70.801,410.645
1742124414.459,-718.75,62.5,-125.488,-702.148
1742124414.463,601.562,153.32,-115.234,427.246
1742124414.467,196.777,149.902,-107.91,346.68
1742124414.471,-597.168,152.832,-110.352,-255.371
1742124414.428,-522.949,95.215,-293.457,-311.035
1742124414.432,436.035,153.32,-266.602,367.676
1742124414.436,321.289,137.207,-172.363,393.066
1742124414.44,-996.094,110.84,-101.074,-696.777
1742124414.444,781.738,195.312,-98.145,748.535
1742124414.448,-160.645,159.668,-88.379,219.238
1742124414.452,-542.969,134.277,-36.133,-168.457
1742124414.455,559.082,106.445,-70.801,410.645
1742124414.459,-718.75,62.5,-125.488,-702.148
1742124414.463,601.562,153.32,-115.234,427.246
1742124414.467,196.777,149.902,-107.91,346.68
1742124414.471,-597.168,152.832,-110.352,-255.371
1742124414.488,667.969,165.039,-185.547,526.855
1742124414.492,-629.883,97.168,-238.281,-695.312
1742124414.496,431.152,143.555,-238.77,200.684
1742124414.5,540.527,102.539,-270.508,397.949
1742124414.504,-795.898,61.523,-281.738,-628.418
1742124414.508,628.418,163.574,-245.117,656.25
1742124414.512,-554.688,118.164,-210.449,-410.645
1742124414.515,-443.848,101.562,-217.285,-513.672
1742124414.519,855.469,104.98,-214.355,624.512
1742124414.523,-579.102,40.039,-196.289,-519.531
1742124414.527,486.328,98.145,-164.062,269.531
1742124414.531,-62.012,56.641,-177.734,-62.012
1742124414.488,667.969,165.039,-185.547,526.855
1742124414.492,-629.883,97.168,-238.281,-695.312
1742124414.496,431.152,143.555,-238.77,200.684
1742124414.5,540.527,102.539,-270.508,397.949
1742124414.504,-795.898,61.523,-281.738,-628.418
1742124414.508,628.418,163.574,-245.117,656.25
1742124414.512,-554.688,118.164,-210.449,-410.645
1742124414.515,-443.848,101.562,-217.285,-513.672
1742124414.519,855.469,104.98,-214.355,624.512
1742124414.523,-579.102,40.039,-196.289,-519.531
1742124414.527,486.328,98.145,-164.062,269.531
1742124414.531,-62.012,56.641,-177.734,-62.012
1742124414.998,-120.605,136.719,-150.391,-169.922
1742124415.002,847.168,156.25,-137.207,371.094
1742124415.006,-797.852,74.707,-142.578,-825.684
1742124415.01,474.609,83.008,-162.598,-97.168
1742124415.014,375.0,51.758,-143.066,-114.746
1742124415.018,-458.984,57.617,-125.0,-488.281
1742124415.022,821.289,124.023,-69.336,346.191
1742124415.025,-721.68,38.086,-49.805,-783.691
1742124415.029,-352.539,35.645,-97.656,-548.828
1742124415.033,830.566,64.941,-97.168,209.473
1742124415.037,-585.938,15.625,-107.422,-753.906
1742124415.041,479.492,37.109,-125.488,-55.176
1742124414.532,-935.547,21.973,-228.516,-820.312
1742124414.536,810.547,103.516,-217.285,664.551
1742124414.54,-448.242,82.031,-182.617,-237.305
1742124414.544,-35.156,117.676,-180.664,-229.004
1742124414.548,653.32,116.211,-166.504,233.887
1742124414.552,-750.488,83.984,-135.254,-673.828
1742124414.556,598.633,112.305,-166.016,436.523
1742124414.559,-336.426,20.508,-189.941,-233.398
1742124414.563,-301.758,52.734,-154.785,-385.254
1742124414.567,714.844,104.98,-165.039,291.016
1742124414.571,-725.586,59.57,-184.57,-752.93
1742124414.575,630.371,128.418,-159.668,356.934
1742124414.578,83.008,83.496,-122.559,-8.301
1742124414.582,-532.715,52.734,-151.855,-544.922
1742124414.586,726.074,67.383,-191.406,242.188
1742124414.59,-564.941,43.457,-158.691,-717.285
1742124414.594,544.434,123.047,-135.742,256.836
1742124414.598,675.293,103.027,-154.785,343.75
1742124414.602,-740.234,33.691,-180.176,-677.734
1742124414.605,566.406,59.57,-191.895,270.02
1742124414.609,-485.84,12.695,-224.609,-543.457
1742124414.613,-271.973,6.836,-284.18,-491.211
1742124414.617,999.512,13.672,-269.531,461.426
1742124414.621,-654.785,-0.488,-221.68,-613.281
1742124414.578,83.008,83.496,-122.559,-8.301
1742124414.582,-532.715,52.734,-151.855,-544.922
1742124414.586,726.074,67.383,-191.406,242.188
1742124414.59,-564.941,43.457,-158.691,-717.285
1742124414.594,544.434,123.047,-135.742,256.836
1742124414.598,675.293,103.027,-154.785,343.75
1742124414.602,-740.234,33.691,-180.176,-677.734
1742124414.605,566.406,59.57,-191.895,270.02
1742124414.609,-485.84,12.695,-224.609,-543.457
1742124414.613,-271.973,6.836,-284.18,-491.211
1742124414.617,999.512,13.672,-269.531,461.426
1742124414.621,-654.785,-0.488,-221.68,-613.281
1742124414.622,407.227,95.215,-226.074,-58.594
1742124414.626,463.867,93.75,-198.242,-22.461
1742124414.63,-824.219,57.129,-200.684,-741.699
1742124414.634,672.363,84.473,-220.215,485.84
1742124414.638,-383.789,41.504,-194.824,-321.777
1742124414.642,10.742,89.355,-190.918,-315.918
1742124414.646,502.93,86.914,-226.562,37.598
1742124414.649,-851.562,70.801,-208.984,-741.211
1742124414.653,696.289,144.043,-177.246,500.977
1742124414.657,-255.859,80.078,-171.875,-193.848
1742124414.661,-657.715,89.355,-148.926,-547.852
1742124414.665,740.723,145.02,-91.309,430.664
1742124414.669,-634.766,72.266,-99.609,-721.68
1742124414.673,449.219,120.605,-121.582,107.91
1742124414.677,602.051,97.168,-68.848,329.59
1742124414.681,-936.523,60.059,-36.621,-875.0
1742124414.685,625.488,121.094,-61.523,172.852
1742124414.689,-205.566,68.848,-83.008,-283.203
1742124414.693,-562.5,92.285,-34.668,-514.16
1742124414.696,875.0,110.352,13.672,477.051
1742124414.7,-709.473,43.457,24.414,-741.211
1742124414.704,191.406,109.375,50.781,-246.094
1742124414.708,623.047,112.793,68.359,104.98
1742124414.712,-856.445,56.152,44.922,-785.645
1742124414.713,656.738,90.82,27.832,484.863
1742124414.717,-156.738,58.594,13.184,-117.188
1742124414.721,-1000.0,30.273,-17.578,-967.773
1742124414.725,686.035,56.641,-12.695,276.855
1742124414.729,-472.168,20.508,-16.602,-460.449
1742124414.733,-120.117,69.336,-73.73,-267.578
1742124414.737,973.633,88.867,-76.66,495.117
1742124414.74,-920.898,0.0,-77.637,-895.508
1742124414.744,44.434,29.785,-79.59,-331.055
1742124414.748,752.93,40.039,-73.242,121.094
1742124414.752,-647.949,16.602,-55.664,-702.148
1742124414.756,516.113,69.824,-8.789,352.051
1742124414.713,656.738,90.82,27.832,484.863
1742124414.717,-156.738,58.594,13.184,-117.188
1742124414.721,-1000.0,30.273,-17.578,-967.773
1742124414.725,686.035,56.641,-12.695,276.855
1742124414.729,-472.168,20.508,-16.602,-460.449
1742124414.733,-120.117,69.336,-73.73,-267.578
1742124414.737,973.633,88.867,-76.66,495.117
1742124414.74,-920.898,0.0,-77.637,-895.508
1742124414.744,44.434,29.785,-79.59,-331.055
1742124414.748,752.93,40.039,-73.242,121.094
1742124414.752,-647.949,16.602,-55.664,-702.148
1742124414.756,516.113,69.824,-8.789,352.051
1742124414.759,-500.977,54.199,-12.695,-479.004
1742124414.763,-528.809,117.188,-9.766,-604.98
1742124414.767,642.09,138.184,-21.973,168.457
1742124414.771,-551.758,159.18,18.066,-637.207
1742124414.775,474.609,296.387,58.594,320.801
1742124414.779,-422.363,299.805,1.465,-425.781
1742124414.783,-1000.0,311.523,-159.668,-927.734
1742124414.786,681.152,351.562,-333.496,203.125
1742124414.79,-465.82,347.168,-422.363,-588.379
1742124414.794,182.617,424.316,-454.59,-173.828
1742124414.798,533.203,434.57,-458.496,73.242
1742124414.802,-982.91,411.133,-481.934,-933.594
1742124414.759,-500.977,54.199,-12.695,-479.004
1742124414.763,-528.809,117.188,-9.766,-604.98
1742124414.767,642.09,138.184,-21.973,168.457
1742124414.771,-551.758,159.18,18.066,-637.207
1742124414.775,474.609,296.387,58.594,320.801
1742124414.779,-422.363,299.805,1.465,-425.781
1742124414.783,-1000.0,311.523,-159.668,-927.734
1742124414.786,681.152,351.562,-333.496,203.125
1742124414.79,-465.82,347.168,-422.363,-588.379
1742124414.794,182.617,424.316,-454.59,-173.828
1742124414.798,533.203,434.57,-458.496,73.242
1742124414.802,-982.91,411.133,-481.934,-933.594
1742124414.802,721.191,486.328,-489.258,181.152
1742124414.806,213.867,508.301,-424.316,-65.918
1742124414.81,-628.418,513.184,-410.156,-524.902
1742124414.814,566.895,500.0,-479.98,64.941
1742124414.818,-457.52,494.629,-481.445,-687.988
1742124414.822,499.023,577.637,-452.148,137.695
1742124414.826,-95.703,524.902,-453.613,-207.031
1742124414.829,-249.512,486.328,-447.754,-445.801
1742124414.833,562.5,431.641,-487.793,-0.977
1742124414.837,-716.797,416.016,-468.262,-770.02
1742124414.841,576.66,475.586,-403.32,418.457
1742124414.845,-319.336,374.023,-379.883,-246.582
1742124414.802,721.191,486.328,-489.258,181.152
1742124414.806,213.867,508.301,-424.316,-65.918
1742124414.81,-628.418,513.184,-410.156,-524.902
1742124414.814,566.895,500.0,-479.98,64.941
1742124414.818,-457.52,494.629,-481.445,-687.988
1742124414.822,499.023,577.637,-452.148,137.695
1742124414.826,-95.703,524.902,-453.613,-207.031
1742124414.829,-249.512,486.328,-447.754,-445.801
1742124414.833,562.5,431.641,-487.793,-0.977
1742124414.837,-716.797,416.016,-468.262,-770.02
1742124414.841,576.66,475.586,-403.32,418.457
1742124414.845,-319.336,374.023,-379.883,-246.582
1742124414.892,-328.613,336.426,-381.348,-453.125
1742124414.896,906.25,358.398,-358.887,484.863
1742124414.9,-747.559,290.039,-350.586,-790.039
1742124414.904,407.715,294.922,-377.93,-102.051
1742124414.908,685.547,280.762,-347.168,173.34
1742124414.912,-571.289,272.461,-309.57,-385.742
1742124414.916,534.18,282.715,-307.617,414.551
1742124414.919,-568.848,197.754,-294.434,-658.691
1742124414.923,235.352,241.699,-250.977,-121.582
1742124414.927,517.09,197.754,-297.363,179.199
1742124414.931,-637.695,155.273,-317.871,-603.516
1742124414.935,614.746,224.121,-233.398,481.445
1742124414.892,-328.613,336.426,-381.348,-453.125
1742124414.896,906.25,358.398,-358.887,484.863
1742124414.9,-747.559,290.039,-350.586,-790.039
1742124414.904,407.715,294.922,-377.93,-102.051
1742124414.908,685.547,280.762,-347.168,173.34
1742124414.912,-571.289,272.461,-309.57,-385.742
1742124414.916,534.18,282.715,-307.617,414.551
1742124414.919,-568.848,197.754,-294.434,-658.691
1742124414.923,235.352,241.699,-250.977,-121.582
1742124414.927,517.09,197.754,-297.363,179.199
1742124414.931,-637.695,155.273,-317.871,-603.516
1742124414.935,614.746,224.121,-233.398,481.445
1742124414.907,-586.914,148.926,-178.711,-576.172
1742124414.911,209.473,177.246,-163.086,-168.945
1742124414.915,685.059,175.781,-200.195,272.461
1742124414.919,-781.738,108.887,-250.0,-701.66
1742124414.923,605.469,138.672,-281.25,434.082
1742124414.927,-434.082,104.492,-269.531,-389.648
1742124414.931,-628.418,105.469,-270.02,-621.094
1742124414.934,698.73,92.285,-299.316,267.09
1742124414.938,-493.652,29.785,-295.41,-634.277
1742124414.942,477.051,85.938,-285.156,372.559
1742124414.946,-384.277,40.039,-284.668,-241.699
1742124414.95,-638.184,41.504,-269.043,-624.023
1742124414.907,-586.914,148.926,-178.711,-576.172
1742124414.911,209.473,177.246,-163.086,-168.945
1742124414.915,685.059,175.781,-200.195,272.461
1742124414.919,-781.738,108.887,-250.0,-701.66
1742124414.923,605.469,138.672,-281.25,434.082
1742124414.927,-434.082,104.492,-269.531,-389.648
1742124414.931,-628.418,105.469,-270.02,-621.094
1742124414.934,698.73,92.285,-299.316,267.09
1742124414.938,-493.652,29.785,-295.41,-634.277
1742124414.942,477.051,85.938,-285.156,372.559
1742124414.946,-384.277,40.039,-284.668,-241.699
1742124414.95,-638.184,41.504,-269.043,-624.023
1742124414.954,701.172,95.215,-291.504,242.188
1742124414.958,-522.949,96.191,-295.898,-682.617
1742124414.962,502.93,182.129,-242.188,280.273
1742124414.966,-259.766,125.488,-254.395,-229.98
1742124414.97,-792.48,118.652,-270.02,-755.859
1742124414.974,753.418,198.242,-253.418,460.938
1742124414.978,-518.555,151.367,-219.238,-472.656
1742124414.981,353.027,175.781,-163.574,58.105
1742124414.985,131.348,141.602,-122.07,-33.203
1742124414.989,-1000.0,88.867,-126.465,-900.391
1742124414.993,756.348,93.75,-201.66,229.98
1742124414.997,-243.164,84.961,-181.641,-297.363
1742124414.954,701.172,95.215,-291.504,242.188
1742124414.958,-522.949,96.191,-295.898,-682.617
1742124414.962,502.93,182.129,-242.188,280.273
1742124414.966,-259.766,125.488,-254.395,-229.98
1742124414.97,-792.48,118.652,-270.02,-755.859
1742124414.974,753.418,198.242,-253.418,460.938
1742124414.978,-518.555,151.367,-219.238,-472.656
1742124414.981,353.027,175.781,-163.574,58.105
1742124414.985,131.348,141.602,-122.07,-33.203
1742124414.989,-1000.0,88.867,-126.465,-900.391
1742124414.993,756.348,93.75,-201.66,229.98
1742124414.997,-243.164,84.961,-181.641,-297.363
1742124415.043,-236.328,-13.672,-91.797,-440.918
1742124415.047,-753.906,-8.789,-89.844,-752.441
1742124415.051,844.238,54.199,-62.988,307.617
1742124415.055,-609.863,2.441,-47.363,-605.469
1742124415.059,157.227,25.391,-63.965,-233.887
1742124415.063,505.371,30.762,-52.734,-13.672
1742124415.067,-888.184,-7.812,-104.98,-839.355
1742124415.07,548.828,-1.465,-183.105,144.531
1742124415.074,-365.723,-62.988,-157.227,-356.445
1742124415.078,-29.785,-17.578,-96.68,-187.988
1742124415.082,334.961,-20.02,-96.191,51.758
1742124415.086,-801.27,-34.18,-79.59,-601.562
1742124415.043,-236.328,-13.672,-91.797,-440.918
1742124415.047,-753.906,-8.789,-89.844,-752.441
1742124415.051,844.238,54.199,-62.988,307.617
1742124415.055,-609.863,2.441,-47.363,-605.469
1742124415.059,157.227,25.391,-63.965,-233.887
1742124415.063,505.371,30.762,-52.734,-13.672
1742124415.067,-888.184,-7.812,-104.98,-839.355
1742124415.07,548.828,-1.465,-183.105,144.531
1742124415.074,-365.723,-62.988,-157.227,-356.445
1742124415.078,-29.785,-17.578,-96.68,-187.988
1742124415.082,334.961,-20.02,-96.191,51.758
1742124415.086,-801.27,-34.18,-79.59,-601.562
1742124415.087,445.801,-2.441,-69.824,371.582
1742124415.091,-480.469,-82.031,-89.355,-498.535
1742124415.095,297.852,-8.301,-51.758,23.438
1742124415.099,23.926,-14.648,-33.691,13.672
1742124415.103,-894.531,-39.551,-61.523,-730.469
1742124415.107,530.762,6.836,-52.734,441.895
1742124415.111,-495.117,-46.875,-74.707,-447.266
1742124415.114,292.48,-22.949,-108.887,-51.758
1742124415.118,-212.402,-81.543,-101.074,-300.293
1742124415.122,-926.758,-73.73,-93.75,-815.43
1742124415.126,541.016,-28.32,-116.699,128.906
1742124415.13,-478.027,-73.242,-128.906,-646.484
1742124415.087,445.801,-2.441,-69.824,371.582
1742124415.091,-480.469,-82.031,-89.355,-498.535
1742124415.095,297.852,-8.301,-51.758,23.438
1742124415.099,23.926,-14.648,-33.691,13.672
1742124415.103,-894.531,-39.551,-61.523,-730.469
1742124415.107,530.762,6.836,-52.734,441.895
1742124415.111,-495.117,-46.875,-74.707,-447.266
1742124415.114,292.48,-22.949,-108.887,-51.758
1742124415.118,-212.402,-81.543,-101.074,-300.293
1742124415.122,-926.758,-73.73,-93.75,-815.43
1742124415.126,541.016,-28.32,-116.699,128.906
1742124415.13,-478.027,-73.242,-128.906,-646.484
1742124415.134,407.227,9.766,-82.52,169.434
1742124415.138,-43.457,-8.301,-37.109,-62.5
1742124415.142,-1000.0,-54.199,-69.824,-1000.0
1742124415.146,644.531,7.812,-77.637,56.641
1742124415.15,-373.047,-18.066,-67.871,-520.02
1742124415.154,-134.766,64.941,-62.988,-480.957
1742124415.158,636.23,95.215,-92.773,10.742
1742124415.161,-1000.0,48.34,-128.906,-979.98
1742124415.165,454.102,135.742,-122.559,-242.676
1742124415.169,256.348,135.742,-143.066,-313.477
1742124415.173,-707.52,164.551,-107.422,-728.516
1742124415.177,647.949,231.934,-90.82,64.941
1742124415.134,407.227,9.766,-82.52,169.434
1742124415.138,-43.457,-8.301,-37.109,-62.5
1742124415.142,-1000.0,-54.199,-69.824,-1000.0
1742124415.146,644.531,7.812,-77.637,56.641
1742124415.15,-373.047,-18.066,-67.871,-520.02
1742124415.154,-134.766,64.941,-62.988,-480.957
1742124415.158,636.23,95.215,-92.773,10.742
1742124415.161,-1000.0,48.34,-128.906,-979.98
1742124415.165,454.102,135.742,-122.559,-242.676
1742124415.169,256.348,135.742,-143.066,-313.477
1742124415.173,-707.52,164.551,-107.422,-728.516
1742124415.177,647.949,231.934,-90.82,64.941
1742124415.177,-724.121,172.363,-160.156,-825.195
1742124415.181,-95.215,200.195,-210.449,-480.957
1742124415.185,802.734,199.219,-200.684,15.137
1742124415.189,-632.324,160.645,-153.809,-787.109
1742124415.193,539.551,191.895,-137.695,0.488
1742124415.197,-380.371,111.816,-144.043,-548.34
1742124415.201,-787.109,91.309,-166.992,-784.18
1742124415.204,688.477,107.91,-179.199,93.75
1742124415.208,-573.242,30.762,-215.332,-763.672
1742124415.212,382.324,69.336,-211.914,-150.879
1742124415.216,-8.301,45.898,-175.293,-295.41
1742124415.22,-897.949,10.742,-187.5,-828.613
1742124415.177,-724.121,172.363,-160.156,-825.195
1742124415.181,-95.215,200.195,-210.449,-480.957
1742124415.185,802.734,199.219,-200.684,15.137
1742124415.189,-632.324,160.645,-153.809,-787.109
1742124415.193,539.551,191.895,-137.695,0.488
1742124415.197,-380.371,111.816,-144.043,-548.34
1742124415.201,-787.109,91.309,-166.992,-784.18
1742124415.204,688.477,107.91,-179.199,93.75
1742124415.208,-573.242,30.762,-215.332,-763.672
1742124415.212,382.324,69.336,-211.914,-150.879
1742124415.216,-8.301,45.898,-175.293,-295.41
1742124415.22,-897.949,10.742,-187.5,-828.613
1742124415.237,614.258,8.301,-214.355,69.336
1742124415.241,-528.809,-42.48,-224.121,-687.988
1742124415.245,250.977,14.16,-194.336,-224.121
1742124415.249,123.535,-8.789,-188.965,-242.676
1742124415.253,-1000.0,-44.434,-230.957,-907.227
1742124415.257,682.129,-3.418,-211.426,282.227
1742124415.261,-439.453,-33.203,-116.699,-386.23
1742124415.264,-266.602,-19.531,-81.543,-472.656
1742124415.268,423.828,-34.668,-112.305,-164.062
1742124415.272,-829.59,-52.246,-99.609,-824.219
1742124415.276,599.609,-0.977,-102.051,180.664
1742124415.28,-345.703,-52.246,-107.422,-345.215
1742124415.237,614.258,8.301,-214.355,69.336
1742124415.241,-528.809,-42.48,-224.121,-687.988
1742124415.245,250.977,14.16,-194.336,-224.121
1742124415.249,123.535,-8.789,-188.965,-242.676
1742124415.253,-1000.0,-44.434,-230.957,-907.227
1742124415.257,682.129,-3.418,-211.426,282.227
1742124415.261,-439.453,-33.203,-116.699,-386.23
1742124415.264,-266.602,-19.531,-81.543,-472.656
1742124415.268,423.828,-34.668,-112.305,-164.062
1742124415.272,-829.59,-52.246,-99.609,-824.219
1742124415.276,599.609,-0.977,-102.051,180.664
1742124415.28,-345.703,-52.246,-107.422,-345.215
1742124415.283,-430.176,-33.691,-124.512,-458.008
1742124415.287,633.789,-2.93,-130.371,133.789
1742124415.291,-857.91,-64.453,-96.191,-852.539
1742124415.295,479.98,-29.785,-81.543,-11.719
1742124415.299,256.348,-39.551,-89.355,0.488
1742124415.303,-799.805,-45.41,-74.219,-519.043
1742124415.307,551.758,-20.508,-61.035,153.32
1742124415.31,-737.793,-90.332,-102.539,-818.359
1742124415.314,-80.566,-41.016,-104.98,-273.926
1742124415.318,584.961,-27.344,-96.68,168.945
1742124415.322,-737.305,-62.012,-82.031,-693.359
1742124415.326,472.168,-20.996,-42.48,169.434
1742124415.329,-611.328,-98.633,-72.266,-633.301
1742124415.333,-427.734,-81.543,-104.004,-478.027
1742124415.337,652.832,-50.781,-100.586,205.566
1742124415.341,-585.449,-65.918,-89.844,-707.52
1742124415.345,426.27,-29.785,-114.258,-24.414
1742124415.349,-520.996,-68.359,-149.414,-587.891
1742124415.353,-212.891,-26.855,-154.785,-363.281
1742124415.356,492.676,-54.199,-155.762,79.59
1742124415.36,-750.0,-137.207,-169.922,-727.539
1742124415.364,494.141,-64.453,-153.32,208.008
1742124415.368,-586.914,-64.453,-122.07,-565.918
1742124415.372,-297.363,-24.414,-111.816,-433.105
1742124415.329,-611.328,-98.633,-72.266,-633.301
1742124415.333,-427.734,-81.543,-104.004,-478.027
1742124415.337,652.832,-50.781,-100.586,205.566
1742124415.341,-585.449,-65.918,-89.844,-707.52
1742124415.345,426.27,-29.785,-114.258,-24.414
1742124415.349,-520.996,-68.359,-149.414,-587.891
1742124415.353,-212.891,-26.855,-154.785,-363.281
1742124415.356,492.676,-54.199,-155.762,79.59
1742124415.36,-750.0,-137.207,-169.922,-727.539
1742124415.364,494.141,-64.453,-153.32,208.008
1742124415.368,-586.914,-64.453,-122.07,-565.918
1742124415.372,-297.363,-24.414,-111.816,-433.105
1742124415.329,-611.328,-98.633,-72.266,-633.301
1742124415.333,-427.734,-81.543,-104.004,-478.027
1742124415.337,652.832,-50.781,-100.586,205.566
1742124415.341,-585.449,-65.918,-89.844,-707.52
1742124415.345,426.27,-29.785,-114.258,-24.414
1742124415.349,-520.996,-68.359,-149.414,-587.891
1742124415.353,-212.891,-26.855,-154.785,-363.281
1742124415.356,492.676,-54.199,-155.762,79.59
1742124415.36,-750.0,-137.207,-169.922,-727.539
1742124415.364,494.141,-64.453,-153.32,208.008
1742124415.368,-586.914,-64.453,-122.07,-565.918
1742124415.372,-297.363,-24.414,-111.816,-433.105
1742124415.372,599.121,-5.859,-119.629,138.184
1742124415.376,-634.766,-41.504,-112.793,-630.859
1742124415.38,445.801,-27.344,-120.117,103.516
1742124415.384,-600.586,-74.707,-122.07,-678.223
1742124415.388,-246.094,-34.18,-88.379,-418.457
1742124415.392,536.621,-58.594,-97.656,71.289
1742124415.396,-697.754,-91.797,-88.867,-729.492
1742124415.399,493.652,-24.902,-50.293,167.969
1742124415.403,-581.543,-97.168,-65.918,-628.418
1742124415.407,-641.602,-54.199,-70.312,-704.102
1742124415.411,716.309,-8.789,-52.734,133.789
1742124415.415,-529.785,-46.875,-23.438,-727.539
1742124415.419,401.855,22.949,14.648,-59.082
1742124415.423,-306.641,-51.27,15.625,-488.281
1742124415.427,-991.211,-61.035,39.062,-953.125
1742124415.431,573.73,12.207,69.824,14.648
1742124415.435,-536.621,-34.18,14.648,-709.473
1742124415.439,226.562,40.039,-32.227,-286.133
1742124415.443,59.082,-4.395,-40.039,-328.125
1742124415.446,-1000.0,-69.336,-30.762,-1000.0
1742124415.45,782.227,20.02,-10.254,69.336
1742124415.454,22.461,10.742,11.719,-354.492
1742124415.458,-779.297,-1.465,4.395,-786.133
1742124415.462,613.77,26.367,9.766,-74.707
1742124415.462,-617.676,-25.391,33.203,-812.012
1742124415.466,315.918,21.484,33.203,-183.594
1742124415.47,552.734,43.457,38.574,-38.086
1742124415.474,-704.59,37.109,13.184,-676.27
1742124415.478,532.227,34.18,-74.707,-21.484
1742124415.482,-621.582,-47.852,-144.043,-796.387
1742124415.486,78.613,-10.254,-161.621,-324.707
1742124415.489,631.348,-28.809,-141.113,12.207
1742124415.493,-670.41,-55.664,-105.469,-705.566
1742124415.497,467.285,-14.16,-98.145,15.137
1742124415.501,-568.848,-69.824,-116.699,-720.215
1742124415.505,168.457,7.324,-117.676,-195.312
1742124415.51,580.078,16.113,-98.145,132.812
1742124415.514,-668.457,-45.41,-100.586,-579.59
1742124415.518,552.246,7.324,-98.145,282.227
1742124415.522,-591.309,-36.621,-119.141,-670.898
1742124415.526,52.246,-34.18,-121.582,-290.039
1742124415.53,911.621,-44.434,-115.723,290.527
1742124415.534,-511.719,-58.105,-120.605,-566.895
1742124415.537,500.977,19.043,-90.82,323.73
1742124415.541,-453.613,-26.367,-102.051,-502.93
1742124415.545,-189.453,-2.93,-145.996,-500.977
1742124415.549,997.559,22.949,-173.34,333.008
1742124415.553,-538.574,-69.824,-211.914,-676.27
1742124415.51,580.078,16.113,-98.145,132.812
1742124415.514,-668.457,-45.41,-100.586,-579.59
1742124415.518,552.246,7.324,-98.145,282.227
1742124415.522,-591.309,-36.621,-119.141,-670.898
1742124415.526,52.246,-34.18,-121.582,-290.039
1742124415.53,911.621,-44.434,-115.723,290.527
1742124415.534,-511.719,-58.105,-120.605,-566.895
1742124415.537,500.977,19.043,-90.82,323.73
1742124415.541,-453.613,-26.367,-102.051,-502.93
1742124415.545,-189.453,-2.93,-145.996,-500.977
1742124415.549,997.559,22.949,-173.34,333.008
1742124415.553,-538.574,-69.824,-211.914,-676.27
1742124415.553,585.938,-47.852,-231.445,47.363
1742124415.557,481.445,-48.34,-247.07,-204.59
1742124415.561,-390.625,-43.457,-267.578,-697.266
1742124415.565,927.734,-7.324,-273.926,232.91
1742124415.569,968.262,-15.625,-238.281,-36.133
1742124415.573,999.512,-15.625,-194.824,-136.23
1742124415.577,303.223,-40.039,-174.805,-540.039
1742124415.58,-413.086,-21.484,-165.527,-588.867
1742124415.584,812.988,13.184,-163.086,188.965
1742124415.588,897.461,0.0,-147.461,-123.535
1742124415.592,999.512,22.949,-123.047,-72.266
1742124415.596,218.75,-9.277,-117.188,-448.73
1742124415.553,585.938,-47.852,-231.445,47.363
1742124415.557,481.445,-48.34,-247.07,-204.59
1742124415.561,-390.625,-43.457,-267.578,-697.266
1742124415.565,927.734,-7.324,-273.926,232.91
1742124415.569,968.262,-15.625,-238.281,-36.133
1742124415.573,999.512,-15.625,-194.824,-136.23
1742124415.577,303.223,-40.039,-174.805,-540.039
1742124415.58,-413.086,-21.484,-165.527,-588.867
1742124415.584,812.988,13.184,-163.086,188.965
1742124415.588,897.461,0.0,-147.461,-123.535
1742124415.592,999.512,22.949,-123.047,-72.266
1742124415.596,218.75,-9.277,-117.188,-448.73
1742124415.613,-516.113,-36.621,-138.672,-645.996
1742124415.617,725.098,-8.301,-123.535,297.852
1742124415.621,-370.605,-72.754,-117.676,-527.344
1742124415.625,434.57,-43.945,-137.207,-76.172
1742124415.629,428.223,-40.527,-125.977,-87.891
1742124415.633,-542.969,-35.156,-104.492,-578.125
1742124415.637,622.559,-37.109,-101.074,275.879
1742124415.64,-440.43,-112.305,-117.188,-585.938
1742124415.644,516.113,-38.574,-94.727,161.621
1742124415.648,74.707,-46.875,-66.895,-102.539
1742124415.652,-854.98,-60.547,-95.215,-790.527
1742124415.656,598.633,-19.043,-123.047,284.18
1742124415.613,-516.113,-36.621,-138.672,-645.996
1742124415.617,725.098,-8.301,-123.535,297.852
1742124415.621,-370.605,-72.754,-117.676,-527.344
1742124415.625,434.57,-43.945,-137.207,-76.172
1742124415.629,428.223,-40.527,-125.977,-87.891
1742124415.633,-542.969,-35.156,-104.492,-578.125
1742124415.637,622.559,-37.109,-101.074,275.879
1742124415.64,-440.43,-112.305,-117.188,-585.938
1742124415.644,516.113,-38.574,-94.727,161.621
1742124415.648,74.707,-46.875,-66.895,-102.539
1742124415.652,-854.98,-60.547,-95.215,-790.527
1742124415.656,598.633,-19.043,-123.047,284.18
1742124415.657,-468.262,-57.129,-91.309,-557.617
1742124415.661,381.348,-39.551,-69.824,-57.129
1742124415.665,59.57,-91.309,-95.215,-194.336
1742124415.669,-908.691,-87.891,-90.82,-846.68
1742124415.673,732.91,-25.879,-65.43,227.539
1742124415.677,-492.188,-81.543,-69.824,-511.719
1742124415.681,33.691,-58.105,-77.637,-297.852
1742124415.684,597.656,-58.105,-86.914,32.227
1742124415.688,-979.492,-116.211,-112.305,-948.242
1742124415.692,520.996,-81.055,-128.418,-93.262
1742124415.696,-125.0,-130.859,-171.387,-399.902
1742124415.7,-688.477,-104.98,-173.34,-722.656
1742124415.717,740.234,-47.363,-145.508,63.477
1742124415.721,-826.172,-91.797,-147.461,-854.004
1742124415.725,-180.176,-50.293,-134.766,-493.164
1742124415.729,486.328,-56.152,-155.762,-175.781
1742124415.733,-776.367,-93.262,-166.992,-819.824
1742124415.737,456.543,-41.016,-161.133,-18.555
1742124415.741,-526.367,-83.984,-187.5,-664.551
1742124415.744,-1000.0,-94.238,-195.312,-914.062
1742124415.748,710.938,-12.207,-161.621,106.934
1742124415.752,-519.531,45.41,-57.617,-410.156
1742124415.756,-128.418,106.934,6.348,-187.012
1742124415.76,128.418,72.754,-24.902,-250.977
1742124415.717,740.234,-47.363,-145.508,63.477
1742124415.721,-826.172,-91.797,-147.461,-854.004
1742124415.725,-180.176,-50.293,-134.766,-493.164
1742124415.729,486.328,-56.152,-155.762,-175.781
1742124415.733,-776.367,-93.262,-166.992,-819.824
1742124415.737,456.543,-41.016,-161.133,-18.555
1742124415.741,-526.367,-83.984,-187.5,-664.551
1742124415.744,-1000.0,-94.238,-195.312,-914.062
1742124415.748,710.938,-12.207,-161.621,106.934
1742124415.752,-519.531,45.41,-57.617,-410.156
1742124415.756,-128.418,106.934,6.348,-187.012
1742124415.76,128.418,72.754,-24.902,-250.977
1742124415.747,-902.832,52.246,-39.062,-813.965
1742124415.751,513.184,37.598,-105.469,24.902
1742124415.755,-613.281,-90.332,-201.66,-691.406
1742124415.759,-215.332,-81.055,-227.539,-487.793
1742124415.763,249.512,-78.613,-228.027,-240.234
1742124415.767,-865.723,-79.102,-214.355,-805.176
1742124415.771,548.828,-31.25,-205.566,154.785
1742124415.774,-528.32,-59.57,-192.871,-565.918
1742124415.778,-215.332,-4.883,-161.133,-441.406
1742124415.782,490.234,9.277,-146.973,14.648
1742124415.786,-881.348,-12.207,-155.273,-850.098
1742124415.79,608.398,51.758,-144.043,168.945
1742124415.747,-902.832,52.246,-39.062,-813.965
1742124415.751,513.184,37.598,-105.469,24.902
1742124415.755,-613.281,-90.332,-201.66,-691.406
1742124415.759,-215.332,-81.055,-227.539,-487.793
1742124415.763,249.512,-78.613,-228.027,-240.234
1742124415.767,-865.723,-79.102,-214.355,-805.176
1742124415.771,548.828,-31.25,-205.566,154.785
1742124415.774,-528.32,-59.57,-192.871,-565.918
1742124415.778,-215.332,-4.883,-161.133,-441.406
1742124415.782,490.234,9.277,-146.973,14.648
1742124415.786,-881.348,-12.207,-155.273,-850.098
1742124415.79,608.398,51.758,-144.043,168.945
1742124415.747,-902.832,52.246,-39.062,-813.965
1742124415.751,513.184,37.598,-105.469,24.902
1742124415.755,-613.281,-90.332,-201.66,-691.406
1742124415.759,-215.332,-81.055,-227.539,-487.793
1742124415.763,249.512,-78.613,-228.027,-240.234
1742124415.767,-865.723,-79.102,-214.355,-805.176
1742124415.771,548.828,-31.25,-205.566,154.785
1742124415.774,-528.32,-59.57,-192.871,-565.918
1742124415.778,-215.332,-4.883,-161.133,-441.406
1742124415.782,490.234,9.277,-146.973,14.648
1742124415.786,-881.348,-12.207,-155.273,-850.098
1742124415.79,608.398,51.758,-144.043,168.945
1742124415.793,-216.797,-12.207,-165.039,-288.086
1742124415.797,-745.117,-44.434,-208.496,-699.707
1742124415.801,733.398,-1.465,-187.988,162.109
1742124415.805,-700.684,-52.246,-190.43,-794.922
1742124415.809,204.59,-15.625,-205.566,-175.293
1742124415.813,820.312,19.043,-177.246,293.945
1742124415.817,-690.43,-20.508,-183.105,-621.582
1742124415.82,469.238,9.277,-187.988,79.102
1742124415.824,-487.305,-1.465,-187.988,-551.758
1742124415.828,-369.629,39.062,-181.641,-429.688
1742124415.832,809.082,65.918,-146.973,394.043
1742124415.836,-578.125,7.324,-115.723,-592.773
1742124415.839,421.875,43.945,-123.535,82.52
1742124415.843,-379.883,8.789,-153.32,-401.367
1742124415.847,-283.691,28.809,-152.832,-401.367
1742124415.851,737.793,10.742,-173.828,201.66
1742124415.855,-522.461,-27.832,-170.898,-540.527
1742124415.859,451.172,62.988,-121.094,345.703
1742124415.863,-540.039,33.691,-131.348,-512.695
1742124415.866,-109.863,26.855,-144.531,-383.301
1742124415.87,793.457,12.695,-126.953,187.5
1742124415.874,-586.426,-14.648,-140.625,-574.707
1742124415.878,519.531,44.434,-134.766,362.793
1742124415.882,-437.988,69.336,-75.195,-275.391
1742124415.839,421.875,43.945,-123.535,82.52
1742124415.843,-379.883,8.789,-153.32,-401.367
1742124415.847,-283.691,28.809,-152.832,-401.367
1742124415.851,737.793,10.742,-173.828,201.66
1742124415.855,-522.461,-27.832,-170.898,-540.527
1742124415.859,451.172,62.988,-121.094,345.703
1742124415.863,-540.039,33.691,-131.348,-512.695
1742124415.866,-109.863,26.855,-144.531,-383.301
1742124415.87,793.457,12.695,-126.953,187.5
1742124415.874,-586.426,-14.648,-140.625,-574.707
1742124415.878,519.531,44.434,-134.766,362.793
1742124415.882,-437.988,69.336,-75.195,-275.391
1742124415.883,-209.473,110.84,-49.316,-171.387
1742124415.887,846.191,105.957,-57.129,480.957
1742124415.891,-556.641,55.664,-64.453,-438.965
1742124415.895,502.93,100.098,-61.035,452.637
1742124415.899,-401.367,54.688,-60.059,-257.812
1742124415.903,-411.621,82.52,-65.918,-344.238
1742124415.907,809.57,124.512,-35.645,635.254
1742124415.91,-577.148,58.105,-42.48,-477.051
1742124415.914,460.449,83.984,-82.031,308.105
1742124415.918,-331.055,36.133,-89.355,-154.297
1742124415.922,-797.852,32.227,-74.707,-472.168
1742124415.926,639.16,62.988,-69.336,569.336
1742124415.883,-209.473,110.84,-49.316,-171.387
1742124415.887,846.191,105.957,-57.129,480.957
1742124415.891,-556.641,55.664,-64.453,-438.965
1742124415.895,502.93,100.098,-61.035,452.637
1742124415.899,-401.367,54.688,-60.059,-257.812
1742124415.903,-411.621,82.52,-65.918,-344.238
1742124415.907,809.57,124.512,-35.645,635.254
1742124415.91,-577.148,58.105,-42.48,-477.051
1742124415.914,460.449,83.984,-82.031,308.105
1742124415.918,-331.055,36.133,-89.355,-154.297
1742124415.922,-797.852,32.227,-74.707,-472.168
1742124415.926,639.16,62.988,-69.336,569.336
1742124415.927,-515.137,17.09,-93.262,-477.539
1742124415.931,420.898,80.078,-121.094,272.461
1742124415.935,-233.887,90.82,-107.422,-44.434
1742124415.939,-763.672,134.277,-98.633,-496.094
1742124415.943,692.871,216.797,-122.559,536.133
1742124415.947,-543.457,214.355,-127.441,-449.707
1742124415.951,308.594,273.438,-104.004,141.602
1742124415.954,-213.379,233.398,-93.262,-143.555
1742124415.958,-976.562,225.098,-77.637,-715.82
1742124415.962,587.891,287.109,-75.684,511.719
1742124415.966,-602.051,261.23,-76.66,-320.312
1742124415.97,92.773,279.297,-89.844,107.422
1742124415.927,-515.137,17.09,-93.262,-477.539
1742124415.931,420.898,80.078,-121.094,272.461
1742124415.935,-233.887,90.82,-107.422,-44.434
1742124415.939,-763.672,134.277,-98.633,-496.094
1742124415.943,692.871,216.797,-122.559,536.133
1742124415.947,-543.457,214.355,-127.441,-449.707
1742124415.951,308.594,273.438,-104.004,141.602
1742124415.954,-213.379,233.398,-93.262,-143.555
1742124415.958,-976.562,225.098,-77.637,-715.82
1742124415.962,587.891,287.109,-75.684,511.719
1742124415.966,-602.051,261.23,-76.66,-320.312
1742124415.97,92.773,279.297,-89.844,107.422
1742124415.988,41.504,220.703,-126.953,103.516
1742124415.992,-933.594,195.312,-137.207,-592.773
1742124415.996,564.453,228.027,-135.742,598.145
1742124416.0,-592.773,159.18,-127.93,-204.102
1742124416.004,93.75,188.965,-83.984,195.801
1742124416.008,518.555,187.5,-55.176,542.969
1742124416.012,-930.176,127.93,-41.992,-596.191
1742124416.015,549.316,141.113,-55.176,433.594
1742124416.019,-357.422,89.844,-106.445,18.555
1742124416.023,-280.273,118.652,-143.555,75.195
1742124416.027,639.648,112.793,-183.594,598.145
1742124416.031,-783.691,42.969,-180.664,-583.984
1742124415.988,41.504,220.703,-126.953,103.516
1742124415.992,-933.594,195.312,-137.207,-592.773
1742124415.996,564.453,228.027,-135.742,598.145
1742124416.0,-592.773,159.18,-127.93,-204.102
1742124416.004,93.75,188.965,-83.984,195.801
1742124416.008,518.555,187.5,-55.176,542.969
1742124416.012,-930.176,127.93,-41.992,-596.191
1742124416.015,549.316,141.113,-55.176,433.594
1742124416.019,-357.422,89.844,-106.445,18.555
1742124416.023,-280.273,118.652,-143.555,75.195
1742124416.027,639.648,112.793,-183.594,598.145
1742124416.031,-783.691,42.969,-180.664,-583.984
1742124416.032,573.73,106.445,-95.703,475.586
1742124416.036,-161.133,76.172,-48.34,262.695
1742124416.04,-732.422,60.059,-65.918,-155.273
1742124416.044,617.676,78.125,-88.379,531.738
1742124416.048,-605.469,44.434,-110.84,-507.324
1742124416.052,470.215,100.098,-136.23,425.293
1742124416.056,58.105,54.688,-159.668,367.676
1742124416.059,-745.117,21.973,-146.484,-206.055
1742124416.063,605.957,25.879,-159.668,562.012
1742124416.067,-583.008,0.977,-232.91,-481.934
1742124416.071,444.336,83.008,-231.934,392.578
1742124416.075,231.934,63.477,-180.176,471.191
1742124416.032,573.73,106.445,-95.703,475.586
1742124416.036,-161.133,76.172,-48.34,262.695
1742124416.04,-732.422,60.059,-65.918,-155.273
1742124416.044,617.676,78.125,-88.379,531.738
1742124416.048,-605.469,44.434,-110.84,-507.324
1742124416.052,470.215,100.098,-136.23,425.293
1742124416.056,58.105,54.688,-159.668,367.676
1742124416.059,-745.117,21.973,-146.484,-206.055
1742124416.063,605.957,25.879,-159.668,562.012
1742124416.067,-583.008,0.977,-232.91,-481.934
1742124416.071,444.336,83.008,-231.934,392.578
1742124416.075,231.934,63.477,-180.176,471.191
1742124416.079,-782.227,25.391,-217.285,-228.516
1742124416.083,570.312,29.297,-247.07,570.801
1742124416.087,-580.566,3.906,-207.031,-379.395
1742124416.091,338.867,71.777,-159.668,341.309
1742124416.095,279.297,38.086,-161.133,487.793
1742124416.099,-690.918,22.461,-210.938,-97.656
1742124416.103,712.891,49.805,-225.586,747.559
1742124416.106,-673.34,-27.832,-227.051,-451.66
1742124416.11,-4.883,18.066,-224.609,77.637
1742124416.114,673.828,15.625,-208.984,673.828
1742124416.118,-731.445,-51.27,-219.727,-291.992
1742124416.122,518.066,-11.719,-244.141,666.504
1742124416.079,-782.227,25.391,-217.285,-228.516
1742124416.083,570.312,29.297,-247.07,570.801
1742124416.087,-580.566,3.906,-207.031,-379.395
1742124416.091,338.867,71.777,-159.668,341.309
1742124416.095,279.297,38.086,-161.133,487.793
1742124416.099,-690.918,22.461,-210.938,-97.656
1742124416.103,712.891,49.805,-225.586,747.559
1742124416.106,-673.34,-27.832,-227.051,-451.66
1742124416.11,-4.883,18.066,-224.609,77.637
1742124416.114,673.828,15.625,-208.984,673.828
1742124416.118,-731.445,-51.27,-219.727,-291.992
1742124416.122,518.066,-11.719,-244.141,666.504
1742124416.123,-493.652,-57.617,-251.465,-152.832
1742124416.127,-386.23,-31.25,-219.727,-147.461
1742124416.131,859.375,10.742,-170.41,826.66
1742124416.135,-622.559,-53.223,-170.41,-299.316
1742124416.139,509.277,7.324,-161.621,557.617
1742124416.143,22.949,-3.418,-176.758,307.129
1742124416.147,-886.719,-6.348,-183.594,-406.25
1742124416.15,569.336,14.648,-139.16,686.523
1742124416.154,-543.945,-67.383,-131.348,-281.738
1742124416.158,315.918,-28.32,-151.855,265.137
1742124416.162,96.191,-50.781,-183.105,309.082
1742124416.166,-963.379,-76.172,-205.566,-517.09
1742124416.123,-493.652,-57.617,-251.465,-152.832
1742124416.127,-386.23,-31.25,-219.727,-147.461
1742124416.131,859.375,10.742,-170.41,826.66
1742124416.135,-622.559,-53.223,-170.41,-299.316
1742124416.139,509.277,7.324,-161.621,557.617
1742124416.143,22.949,-3.418,-176.758,307.129
1742124416.147,-886.719,-6.348,-183.594,-406.25
1742124416.15,569.336,14.648,-139.16,686.523
1742124416.154,-543.945,-67.383,-131.348,-281.738
1742124416.158,315.918,-28.32,-151.855,265.137
1742124416.162,96.191,-50.781,-183.105,309.082
1742124416.166,-963.379,-76.172,-205.566,-517.09
1742124416.169,587.891,-48.828,-222.168,550.781
1742124416.173,-550.293,-104.492,-248.047,-235.352
1742124416.177,112.305,-68.359,-243.164,193.848
1742124416.181,522.461,-79.59,-215.82,488.281
1742124416.185,-899.902,-124.512,-207.52,-767.578
1742124416.189,593.75,-65.43,-201.66,490.234
1742124416.193,-392.09,-114.258,-181.641,75.195
1742124416.196,-412.109,-104.004,-121.094,-174.316
1742124416.2,531.738,-99.609,-109.863,316.895
1742124416.204,-872.559,-138.184,-186.035,-806.641
1742124416.208,520.02,-44.434,-177.246,317.871
1742124416.212,-71.289,-80.078,-144.531,145.508
1742124416.212,-743.164,-81.055,-130.859,-414.551
1742124416.216,644.531,-19.043,-145.996,446.777
1742124416.22,-747.559,-76.172,-189.453,-738.281
1742124416.224,243.164,-31.738,-177.246,-45.898
1742124416.228,554.199,-29.785,-155.273,362.793
1742124416.232,-816.895,-59.57,-164.062,-531.738
1742124416.236,546.387,0.488,-134.766,436.035
1742124416.239,-561.035,-49.316,-115.234,-518.555
1742124416.243,-851.562,-76.66,-147.461,-748.535
1742124416.247,623.535,-46.875,-152.832,380.371
1742124416.251,-509.277,-88.867,-129.395,-507.812
1742124416.255,374.512,-18.555,-93.75,160.156
1742124416.212,-743.164,-81.055,-130.859,-414.551
1742124416.216,644.531,-19.043,-145.996,446.777
1742124416.22,-747.559,-76.172,-189.453,-738.281
1742124416.224,243.164,-31.738,-177.246,-45.898
1742124416.228,554.199,-29.785,-155.273,362.793
1742124416.232,-816.895,-59.57,-164.062,-531.738
1742124416.236,546.387,0.488,-134.766,436.035
1742124416.239,-561.035,-49.316,-115.234,-518.555
1742124416.243,-851.562,-76.66,-147.461,-748.535
1742124416.247,623.535,-46.875,-152.832,380.371
1742124416.251,-509.277,-88.867,-129.395,-507.812
1742124416.255,374.512,-18.555,-93.75,160.156
1742124416.273,-200.684,-17.578,-75.195,-144.531
1742124416.277,-885.742,-8.301,-81.543,-665.527
1742124416.281,661.621,44.922,-86.426,476.562
1742124416.285,-617.188,-16.113,-84.473,-528.32
1742124416.289,276.855,13.184,-89.355,-26.855
1742124416.293,467.773,14.16,-97.656,174.805
1742124416.297,-849.609,-8.301,-91.797,-724.609
1742124416.3,549.805,32.715,-83.984,328.125
1742124416.304,-423.34,-37.109,-97.656,-348.633
1742124416.308,175.781,-0.488,-79.59,-84.473
1742124416.312,406.25,-18.066,-70.801,134.766
1742124416.316,-921.387,-86.426,-88.867,-846.68
1742124416.273,-200.684,-17.578,-75.195,-144.531
1742124416.277,-885.742,-8.301,-81.543,-665.527
1742124416.281,661.621,44.922,-86.426,476.562
1742124416.285,-617.188,-16.113,-84.473,-528.32
1742124416.289,276.855,13.184,-89.355,-26.855
1742124416.293,467.773,14.16,-97.656,174.805
1742124416.297,-849.609,-8.301,-91.797,-724.609
1742124416.3,549.805,32.715,-83.984,328.125
1742124416.304,-423.34,-37.109,-97.656,-348.633
1742124416.308,175.781,-0.488,-79.59,-84.473
1742124416.312,406.25,-18.066,-70.801,134.766
1742124416.316,-921.387,-86.426,-88.867,-846.68
1742124416.302,610.84,-31.25,-96.191,304.199
1742124416.306,-390.625,-78.125,-93.75,-275.879
1742124416.31,-72.754,-48.828,-67.871,-258.789
1742124416.314,554.688,-53.223,-90.82,120.117
1742124416.318,-714.844,-77.148,-115.723,-668.457
1742124416.322,484.863,0.977,-111.816,438.477
1742124416.326,-459.473,-48.34,-116.699,-235.352
1742124416.329,176.27,-22.949,-98.633,-27.832
1742124416.333,348.633,-27.832,-104.492,171.875
1742124416.337,-870.117,-56.641,-117.676,-632.812
1742124416.341,556.641,-17.09,-127.93,492.676
1742124416.345,-492.188,-65.43,-149.414,-261.23
1742124416.302,610.84,-31.25,-96.191,304.199
1742124416.306,-390.625,-78.125,-93.75,-275.879
1742124416.31,-72.754,-48.828,-67.871,-258.789
1742124416.314,554.688,-53.223,-90.82,120.117
1742124416.318,-714.844,-77.148,-115.723,-668.457
1742124416.322,484.863,0.977,-111.816,438.477
1742124416.326,-459.473,-48.34,-116.699,-235.352
1742124416.329,176.27,-22.949,-98.633,-27.832
1742124416.333,348.633,-27.832,-104.492,171.875
1742124416.337,-870.117,-56.641,-117.676,-632.812
1742124416.341,556.641,-17.09,-127.93,492.676
1742124416.345,-492.188,-65.43,-149.414,-261.23
1742124416.362,161.621,-31.25,-142.578,118.164
1742124416.366,630.859,-32.715,-125.977,533.203
1742124416.37,-880.859,-93.75,-134.766,-688.477
1742124416.374,612.793,-40.039,-162.598,429.688
1742124416.378,-208.984,-36.133,-114.746,111.328
1742124416.382,-239.746,-14.648,-58.105,15.625
1742124416.386,633.789,-27.344,-76.172,465.82
1742124416.389,-834.473,-88.867,-121.582,-766.602
1742124416.393,546.875,-45.898,-144.043,271.973
1742124416.397,-37.598,-74.707,-137.695,154.297
1742124416.401,-513.184,-53.711,-138.184,-181.152
1742124416.405,670.41,-39.062,-147.461,487.305
1742124416.407,-574.707,-88.379,-135.742,-608.398
1742124416.411,478.516,-19.531,-92.285,340.332
1742124416.415,-224.609,-76.172,-94.727,57.617
1742124416.419,-390.137,-85.938,-105.957,-226.074
1742124416.423,844.238,-61.523,-89.355,543.457
1742124416.427,-696.777,-110.84,-125.0,-716.309
1742124416.431,407.227,-65.43,-125.488,135.742
1742124416.434,35.156,-112.305,-84.961,83.984
1742124416.438,-611.328,-118.652,-56.641,-379.395
1742124416.442,756.836,-58.594,-56.152,501.953
1742124416.446,-726.074,-103.027,-97.168,-717.773
1742124416.45,192.383,-74.219,-116.699,-89.355
1742124416.407,-574.707,-88.379,-135.742,-608.398
1742124416.411,478.516,-19.531,-92.285,340.332
1742124416.415,-224.609,-76.172,-94.727,57.617
1742124416.419,-390.137,-85.938,-105.957,-226.074
1742124416.423,844.238,-61.523,-89.355,543.457
1742124416.427,-696.777,-110.84,-125.0,-716.309
1742124416.431,407.227,-65.43,-125.488,135.742
1742124416.434,35.156,-112.305,-84.961,83.984
1742124416.438,-611.328,-118.652,-56.641,-379.395
1742124416.442,756.836,-58.594,-56.152,501.953
1742124416.446,-726.074,-103.027,-97.168,-717.773
1742124416.45,192.383,-74.219,-116.699,-89.355
1742124416.454,412.109,-62.988,-113.281,189.453
1742124416.458,-719.238,-53.223,-106.934,-471.68
1742124416.462,632.324,-8.301,-104.004,409.18
1742124416.466,-662.598,-51.27,-92.285,-668.457
1742124416.47,-275.391,-5.859,-72.266,-384.766
1742124416.474,803.223,41.992,-34.18,373.535
1742124416.478,-590.82,26.367,24.414,-527.832
1742124416.481,476.074,57.129,125.977,258.789
1742124416.485,-392.578,-4.883,183.105,-440.43
1742124416.489,-877.441,-11.719,145.996,-780.762
1742124416.493,632.324,13.184,117.676,270.02
1742124416.497,-553.711,-23.926,93.75,-655.762
1742124416.454,412.109,-62.988,-113.281,189.453
1742124416.458,-719.238,-53.223,-106.934,-471.68
1742124416.462,632.324,-8.301,-104.004,409.18
1742124416.466,-662.598,-51.27,-92.285,-668.457
1742124416.47,-275.391,-5.859,-72.266,-384.766
1742124416.474,803.223,41.992,-34.18,373.535
1742124416.478,-590.82,26.367,24.414,-527.832
1742124416.481,476.074,57.129,125.977,258.789
1742124416.485,-392.578,-4.883,183.105,-440.43
1742124416.489,-877.441,-11.719,145.996,-780.762
1742124416.493,632.324,13.184,117.676,270.02
1742124416.497,-553.711,-23.926,93.75,-655.762
1742124416.962,-161.621,-124.023,-162.109,-204.59
1742124416.966,529.785,-116.699,-179.688,396.484
1742124416.97,-686.035,-121.094,-136.719,-300.781
1742124416.974,498.047,-59.57,-96.191,650.879
1742124416.978,-557.617,-98.633,-93.262,-365.723
1742124416.982,-10.254,-23.438,-24.414,-139.16
1742124416.986,397.461,-48.828,0.977,320.312
1742124416.989,-816.895,-98.145,17.578,-477.539
1742124416.993,594.727,-20.508,54.688,513.184
1742124416.997,-590.82,-28.32,49.805,-413.086
1742124417.001,-527.832,21.973,25.391,-411.621
1742124417.005,685.547,49.316,7.324,316.895
1742124416.497,375.977,27.344,62.988,-20.02
1742124416.501,78.613,-2.441,2.441,-121.582
1742124416.505,-956.055,-24.902,-13.672,-872.559
1742124416.509,469.727,9.277,-24.414,150.391
1742124416.513,-564.453,-29.785,-45.898,-537.109
1742124416.517,233.887,-4.395,-55.664,-157.715
1742124416.521,333.984,-27.832,-54.199,-38.086
1742124416.524,-884.766,-27.344,-38.086,-847.656
1742124416.528,572.754,13.672,-46.387,66.895
1742124416.532,-460.938,-21.973,-54.199,-532.715
1742124416.536,149.902,36.133,-59.082,-191.406
1742124416.54,606.934,21.973,-52.734,130.371
1742124416.497,375.977,27.344,62.988,-20.02
1742124416.501,78.613,-2.441,2.441,-121.582
1742124416.505,-956.055,-24.902,-13.672,-872.559
1742124416.509,469.727,9.277,-24.414,150.391
1742124416.513,-564.453,-29.785,-45.898,-537.109
1742124416.517,233.887,-4.395,-55.664,-157.715
1742124416.521,333.984,-27.832,-54.199,-38.086
1742124416.524,-884.766,-27.344,-38.086,-847.656
1742124416.528,572.754,13.672,-46.387,66.895
1742124416.532,-460.938,-21.973,-54.199,-532.715
1742124416.536,149.902,36.133,-59.082,-191.406
1742124416.54,606.934,21.973,-52.734,130.371
1742124416.543,-931.641,-38.574,-57.617,-906.738
1742124416.547,578.613,9.277,-47.852,64.453
1742124416.551,-226.074,-42.969,-36.133,-336.914
1742124416.555,-685.547,-65.43,-51.27,-716.797
1742124416.559,463.867,-56.641,-72.754,-99.609
1742124416.563,-631.836,-70.801,-70.312,-811.035
1742124416.567,512.695,1.465,-28.32,-3.418
1742124416.57,-137.207,-58.105,-19.043,-349.609
1742124416.574,-564.941,-86.426,-41.016,-660.156
1742124416.578,812.988,-50.293,-82.52,167.48
1742124416.582,-793.945,-86.426,-119.141,-848.633
1742124416.586,88.379,-62.012,-123.535,-374.023
1742124416.587,565.43,-84.961,-115.234,-119.141
1742124416.591,-668.457,-90.332,-113.77,-648.926
1742124416.595,582.031,-62.5,-101.074,230.469
1742124416.599,-637.207,-135.742,-114.258,-715.332
1742124416.603,-519.531,-101.074,-141.602,-634.277
1742124416.607,711.914,-67.383,-168.945,78.613
1742124416.611,-520.02,-103.027,-205.566,-724.609
1742124416.614,442.871,-73.73,-203.613,13.184
1742124416.618,-444.336,-132.324,-227.539,-582.52
1742124416.622,-889.648,-134.766,-260.742,-860.352
1742124416.626,691.895,-78.125,-264.648,205.078
1742124416.63,-540.527,-107.422,-269.043,-611.328
1742124416.587,565.43,-84.961,-115.234,-119.141
1742124416.591,-668.457,-90.332,-113.77,-648.926
1742124416.595,582.031,-62.5,-101.074,230.469
1742124416.599,-637.207,-135.742,-114.258,-715.332
1742124416.603,-519.531,-101.074,-141.602,-634.277
1742124416.607,711.914,-67.383,-168.945,78.613
1742124416.611,-520.02,-103.027,-205.566,-724.609
1742124416.614,442.871,-73.73,-203.613,13.184
1742124416.618,-444.336,-132.324,-227.539,-582.52
1742124416.622,-889.648,-134.766,-260.742,-860.352
1742124416.626,691.895,-78.125,-264.648,205.078
1742124416.63,-540.527,-107.422,-269.043,-611.328
1742124416.635,335.938,-62.012,-258.301,-108.887
1742124416.639,315.43,-78.125,-249.023,-61.035
1742124416.643,-935.059,-103.516,-241.699,-874.512
1742124416.647,593.75,-42.48,-234.375,202.637
1742124416.651,-310.059,-75.684,-244.141,-369.141
1742124416.655,216.309,-31.738,-229.492,-62.988
1742124416.659,335.449,-62.012,-225.098,74.219
1742124416.662,-864.258,-106.934,-253.906,-791.992
1742124416.666,535.156,-68.359,-250.977,246.582
1742124416.67,-469.238,-161.621,-250.0,-458.496
1742124416.674,222.656,-152.832,-243.652,-22.949
1742124416.678,403.809,-189.453,-245.605,236.328
1742124416.635,335.938,-62.012,-258.301,-108.887
1742124416.639,315.43,-78.125,-249.023,-61.035
1742124416.643,-935.059,-103.516,-241.699,-874.512
1742124416.647,593.75,-42.48,-234.375,202.637
1742124416.651,-310.059,-75.684,-244.141,-369.141
1742124416.655,216.309,-31.738,-229.492,-62.988
1742124416.659,335.449,-62.012,-225.098,74.219
1742124416.662,-864.258,-106.934,-253.906,-791.992
1742124416.666,535.156,-68.359,-250.977,246.582
1742124416.67,-469.238,-161.621,-250.0,-458.496
1742124416.674,222.656,-152.832,-243.652,-22.949
1742124416.678,403.809,-189.453,-245.605,236.328
1742124416.677,-927.246,-291.016,-281.25,-823.242
1742124416.681,577.148,-311.035,-299.805,282.715
1742124416.685,-406.25,-392.578,-264.16,-188.477
1742124416.689,-57.617,-381.836,-221.68,-84.961
1742124416.693,256.348,-424.805,-227.051,87.402
1742124416.697,-871.582,-456.543,-222.168,-669.922
1742124416.701,545.41,-422.852,-188.965,376.953
1742124416.704,-536.621,-503.418,-180.176,-451.66
1742124416.708,9.277,-460.449,-242.188,-214.355
1742124416.712,523.926,-437.5,-308.594,260.742
1742124416.716,-895.996,-467.285,-332.031,-833.496
1742124416.72,598.145,-398.438,-343.75,269.531
1742124416.677,-927.246,-291.016,-281.25,-823.242
1742124416.681,577.148,-311.035,-299.805,282.715
1742124416.685,-406.25,-392.578,-264.16,-188.477
1742124416.689,-57.617,-381.836,-221.68,-84.961
1742124416.693,256.348,-424.805,-227.051,87.402
1742124416.697,-871.582,-456.543,-222.168,-669.922
1742124416.701,545.41,-422.852,-188.965,376.953
1742124416.704,-536.621,-503.418,-180.176,-451.66
1742124416.708,9.277,-460.449,-242.188,-214.355
1742124416.712,523.926,-437.5,-308.594,260.742
1742124416.716,-895.996,-467.285,-332.031,-833.496
1742124416.72,598.145,-398.438,-343.75,269.531
1742124416.738,-300.293,-422.363,-328.125,-44.434
1742124416.742,-312.988,-382.812,-296.875,-112.305
1742124416.746,733.887,-349.609,-270.02,487.305
1742124416.75,-778.32,-385.254,-268.555,-728.516
1742124416.754,529.785,-312.988,-254.883,213.379
1742124416.758,150.879,-314.941,-235.84,140.625
1742124416.762,-632.812,-326.66,-261.719,-309.57
1742124416.765,604.492,-303.711,-285.156,395.508
1742124416.769,-538.574,-322.754,-275.879,-637.695
1742124416.773,471.68,-262.207,-259.277,331.055
1742124416.777,-75.195,-304.199,-264.648,206.543
1742124416.781,-727.539,-302.246,-280.273,-332.52
1742124416.738,-300.293,-422.363,-328.125,-44.434
1742124416.742,-312.988,-382.812,-296.875,-112.305
1742124416.746,733.887,-349.609,-270.02,487.305
1742124416.75,-778.32,-385.254,-268.555,-728.516
1742124416.754,529.785,-312.988,-254.883,213.379
1742124416.758,150.879,-314.941,-235.84,140.625
1742124416.762,-632.812,-326.66,-261.719,-309.57
1742124416.765,604.492,-303.711,-285.156,395.508
1742124416.769,-538.574,-322.754,-275.879,-637.695
1742124416.773,471.68,-262.207,-259.277,331.055
1742124416.777,-75.195,-304.199,-264.648,206.543
1742124416.781,-727.539,-302.246,-280.273,-332.52
1742124416.782,738.77,-277.832,-294.922,564.453
1742124416.786,-684.082,-333.496,-306.152,-558.594
1742124416.79,225.586,-291.016,-310.547,144.531
1742124416.794,452.637,-306.152,-318.848,428.711
1742124416.798,-816.895,-297.363,-316.406,-311.035
1742124416.802,561.523,-219.238,-297.363,666.504
1742124416.806,-645.996,-276.855,-287.109,-423.828
1742124416.809,-510.742,-256.348,-262.207,-208.984
1742124416.813,570.312,-213.379,-246.094,535.645
1742124416.817,-641.113,-238.281,-245.605,-390.137
1742124416.821,467.773,-184.57,-260.742,521.484
1742124416.825,-464.844,-221.191,-263.184,-163.574
1742124416.829,-728.027,-210.938,-256.836,-364.258
1742124416.833,654.785,-175.781,-247.07,613.281
1742124416.837,-538.086,-201.172,-242.188,-269.043
1742124416.841,450.684,-135.742,-236.328,544.922
1742124416.845,-260.254,-176.27,-227.539,110.84
1742124416.849,-807.129,-170.898,-228.516,-306.152
1742124416.853,666.992,-141.602,-210.938,717.773
1742124416.856,-609.375,-203.125,-156.25,-231.934
1742124416.86,398.926,-139.648,-118.164,472.168
1742124416.864,210.938,-147.949,-128.906,331.055
1742124416.868,-883.789,-170.898,-135.254,-481.934
1742124416.872,583.984,-126.465,-111.816,696.777
1742124416.829,-728.027,-210.938,-256.836,-364.258
1742124416.833,654.785,-175.781,-247.07,613.281
1742124416.837,-538.086,-201.172,-242.188,-269.043
1742124416.841,450.684,-135.742,-236.328,544.922
1742124416.845,-260.254,-176.27,-227.539,110.84
1742124416.849,-807.129,-170.898,-228.516,-306.152
1742124416.853,666.992,-141.602,-210.938,717.773
1742124416.856,-609.375,-203.125,-156.25,-231.934
1742124416.86,398.926,-139.648,-118.164,472.168
1742124416.864,210.938,-147.949,-128.906,331.055
1742124416.868,-883.789,-170.898,-135.254,-481.934
1742124416.872,583.984,-126.465,-111.816,696.777
1742124416.872,-571.289,-171.875,-102.539,-78.125
1742124416.876,136.23,-113.281,-131.836,306.152
1742124416.88,351.074,-127.441,-163.086,494.629
1742124416.884,-935.059,-144.043,-160.645,-409.668
1742124416.888,633.301,-36.133,-111.816,731.934
1742124416.892,-428.223,-103.027,-137.695,38.574
1742124416.896,-250.0,-116.699,-180.664,-10.742
1742124416.899,582.031,-134.277,-181.641,504.395
1742124416.903,-726.074,-177.246,-185.059,-465.82
1742124416.907,510.742,-124.512,-174.805,563.965
1742124416.911,-381.348,-153.32,-158.691,90.82
1742124416.915,-9.277,-91.309,-124.512,165.039
1742124416.872,-571.289,-171.875,-102.539,-78.125
1742124416.876,136.23,-113.281,-131.836,306.152
1742124416.88,351.074,-127.441,-163.086,494.629
1742124416.884,-935.059,-144.043,-160.645,-409.668
1742124416.888,633.301,-36.133,-111.816,731.934
1742124416.892,-428.223,-103.027,-137.695,38.574
1742124416.896,-250.0,-116.699,-180.664,-10.742
1742124416.899,582.031,-134.277,-181.641,504.395
1742124416.903,-726.074,-177.246,-185.059,-465.82
1742124416.907,510.742,-124.512,-174.805,563.965
1742124416.911,-381.348,-153.32,-158.691,90.82
1742124416.915,-9.277,-91.309,-124.512,165.039
1742124416.921,728.516,-106.445,-143.066,617.188
1742124416.925,-833.496,-165.039,-158.203,-520.02
1742124416.929,540.039,-114.258,-154.297,458.008
1742124416.933,-202.148,-166.992,-137.207,133.301
1742124416.937,-669.434,-158.691,-99.609,-177.246
1742124416.941,833.496,-85.449,-71.777,767.578
1742124416.945,-752.441,-145.508,-98.633,-502.441
1742124416.948,-31.25,-105.469,-122.07,37.109
1742124416.952,429.688,-93.75,-116.211,424.316
1742124416.956,-762.207,-156.25,-151.367,-381.348
1742124416.96,520.508,-132.324,-168.457,531.25
1742124416.964,-625.977,-170.898,-163.574,-515.137
1742124416.921,728.516,-106.445,-143.066,617.188
1742124416.925,-833.496,-165.039,-158.203,-520.02
1742124416.929,540.039,-114.258,-154.297,458.008
1742124416.933,-202.148,-166.992,-137.207,133.301
1742124416.937,-669.434,-158.691,-99.609,-177.246
1742124416.941,833.496,-85.449,-71.777,767.578
1742124416.945,-752.441,-145.508,-98.633,-502.441
1742124416.948,-31.25,-105.469,-122.07,37.109
1742124416.952,429.688,-93.75,-116.211,424.316
1742124416.956,-762.207,-156.25,-151.367,-381.348
1742124416.96,520.508,-132.324,-168.457,531.25
1742124416.964,-625.977,-170.898,-163.574,-515.137
1742124417.009,-591.797,10.742,1.465,-566.406
1742124417.013,535.156,80.566,15.625,451.172
1742124417.017,-199.707,43.945,51.758,-58.594
1742124417.021,-967.285,-4.883,-33.691,-757.324
1742124417.025,677.246,51.27,-96.68,447.266
1742124417.029,-564.941,35.645,-98.145,-348.633
1742124417.033,101.074,63.477,-161.133,-50.293
1742124417.036,382.812,34.668,-215.82,110.352
1742124417.04,-920.41,0.488,-234.375,-812.012
1742124417.044,596.191,41.016,-252.93,235.84
1742124417.048,-279.785,3.906,-239.746,-220.215
1742124417.052,78.613,42.969,-191.406,-94.238
1742124417.009,-591.797,10.742,1.465,-566.406
1742124417.013,535.156,80.566,15.625,451.172
1742124417.017,-199.707,43.945,51.758,-58.594
1742124417.021,-967.285,-4.883,-33.691,-757.324
1742124417.025,677.246,51.27,-96.68,447.266
1742124417.029,-564.941,35.645,-98.145,-348.633
1742124417.033,101.074,63.477,-161.133,-50.293
1742124417.036,382.812,34.668,-215.82,110.352
1742124417.04,-920.41,0.488,-234.375,-812.012
1742124417.044,596.191,41.016,-252.93,235.84
1742124417.048,-279.785,3.906,-239.746,-220.215
1742124417.052,78.613,42.969,-191.406,-94.238
1742124417.052,306.641,-6.836,-217.285,59.57
1742124417.056,-916.504,-57.617,-276.855,-790.039
1742124417.06,586.914,-17.09,-282.227,270.996
1742124417.064,-491.211,-80.566,-293.457,-428.223
1742124417.068,-202.637,-53.711,-281.25,-347.168
1742124417.072,731.934,-20.996,-267.578,339.355
1742124417.076,-873.047,-67.383,-291.504,-835.938
1742124417.079,478.027,-16.602,-279.297,-67.871
1742124417.083,42.48,-12.695,-270.508,-175.293
1742124417.087,-597.168,-25.391,-312.012,-513.184
1742124417.091,713.867,-22.461,-332.52,168.457
1742124417.095,-715.332,-79.59,-329.59,-814.453
1742124417.052,306.641,-6.836,-217.285,59.57
1742124417.056,-916.504,-57.617,-276.855,-790.039
1742124417.06,586.914,-17.09,-282.227,270.996
1742124417.064,-491.211,-80.566,-293.457,-428.223
1742124417.068,-202.637,-53.711,-281.25,-347.168
1742124417.072,731.934,-20.996,-267.578,339.355
1742124417.076,-873.047,-67.383,-291.504,-835.938
1742124417.079,478.027,-16.602,-279.297,-67.871
1742124417.083,42.48,-12.695,-270.508,-175.293
1742124417.087,-597.168,-25.391,-312.012,-513.184
1742124417.091,713.867,-22.461,-332.52,168.457
1742124417.095,-715.332,-79.59,-329.59,-814.453
1742124417.128,292.48,-41.504,-302.734,-219.727
1742124417.132,732.91,-17.09,-266.602,45.41
1742124417.136,-674.805,-24.414,-263.672,-687.5
1742124417.14,501.953,-2.93,-273.438,143.555
1742124417.144,-550.781,-49.316,-276.855,-640.625
1742124417.148,-99.609,22.949,-248.047,-409.18
1742124417.152,501.465,-6.348,-269.531,-20.508
1742124417.155,-771.973,-83.008,-294.434,-770.02
1742124417.159,554.199,-35.645,-268.066,127.93
1742124417.163,-574.219,-88.379,-269.043,-658.203
1742124417.167,-594.238,-49.316,-278.809,-684.082
1742124417.171,680.664,-28.32,-279.297,58.594
1742124417.128,292.48,-41.504,-302.734,-219.727
1742124417.132,732.91,-17.09,-266.602,45.41
1742124417.136,-674.805,-24.414,-263.672,-687.5
1742124417.14,501.953,-2.93,-273.438,143.555
1742124417.144,-550.781,-49.316,-276.855,-640.625
1742124417.148,-99.609,22.949,-248.047,-409.18
1742124417.152,501.465,-6.348,-269.531,-20.508
1742124417.155,-771.973,-83.008,-294.434,-770.02
1742124417.159,554.199,-35.645,-268.066,127.93
1742124417.163,-574.219,-88.379,-269.043,-658.203
1742124417.167,-594.238,-49.316,-278.809,-684.082
1742124417.171,680.664,-28.32,-279.297,58.594
1742124417.157,-556.641,-85.938,-262.207,-755.859
1742124417.161,479.492,-41.504,-240.234,3.906
1742124417.165,-280.762,-49.805,-224.121,-432.617
1742124417.169,-1000.0,-30.762,-214.355,-946.289
1742124417.173,690.918,-38.574,-253.418,-47.363
1742124417.177,-526.367,-105.957,-266.113,-738.77
1742124417.181,58.594,-65.918,-244.629,-459.473
1742124417.184,436.035,-82.031,-241.699,-250.977
1742124417.188,-1000.0,-117.676,-254.395,-1000.0
1742124417.192,585.449,-63.965,-347.656,-272.949
1742124417.196,-67.383,-99.609,-424.316,-564.453
1742124417.2,-489.746,-79.102,-419.434,-701.172
1742124417.157,-556.641,-85.938,-262.207,-755.859
1742124417.161,479.492,-41.504,-240.234,3.906
1742124417.165,-280.762,-49.805,-224.121,-432.617
1742124417.169,-1000.0,-30.762,-214.355,-946.289
1742124417.173,690.918,-38.574,-253.418,-47.363
1742124417.177,-526.367,-105.957,-266.113,-738.77
1742124417.181,58.594,-65.918,-244.629,-459.473
1742124417.184,436.035,-82.031,-241.699,-250.977
1742124417.188,-1000.0,-117.676,-254.395,-1000.0
1742124417.192,585.449,-63.965,-347.656,-272.949
1742124417.196,-67.383,-99.609,-424.316,-564.453
1742124417.2,-489.746,-79.102,-419.434,-701.172
1742124417.204,718.75,-49.805,-390.625,-151.367
1742124417.208,-854.004,-88.867,-373.535,-929.688
1742124417.212,146.484,-58.105,-368.652,-482.91
1742124417.216,528.32,-61.035,-320.312,-357.91
1742124417.22,-550.293,-0.977,-188.477,-652.344
1742124417.224,664.062,71.289,-129.395,106.934
1742124417.228,-678.711,3.418,-139.16,-785.645
1742124417.231,-435.059,9.277,-161.621,-629.883
1742124417.235,657.227,15.137,-193.848,-115.723
1742124417.239,-510.254,-5.859,-188.477,-667.969
1742124417.243,415.527,15.137,-179.199,-24.414
1742124417.247,-594.727,-42.48,-223.145,-730.957
1742124417.204,718.75,-49.805,-390.625,-151.367
1742124417.208,-854.004,-88.867,-373.535,-929.688
1742124417.212,146.484,-58.105,-368.652,-482.91
1742124417.216,528.32,-61.035,-320.312,-357.91
1742124417.22,-550.293,-0.977,-188.477,-652.344
1742124417.224,664.062,71.289,-129.395,106.934
1742124417.228,-678.711,3.418,-139.16,-785.645
1742124417.231,-435.059,9.277,-161.621,-629.883
1742124417.235,657.227,15.137,-193.848,-115.723
1742124417.239,-510.254,-5.859,-188.477,-667.969
1742124417.243,415.527,15.137,-179.199,-24.414
1742124417.247,-594.727,-42.48,-223.145,-730.957
1742124417.247,-276.367,-15.625,-241.699,-513.184
1742124417.251,695.801,-0.977,-196.289,9.277
1742124417.255,-632.812,-31.738,-181.641,-747.07
1742124417.259,490.723,22.949,-207.031,38.086
1742124417.263,-495.117,-22.461,-262.207,-619.629
1742124417.267,-618.652,-11.23,-260.254,-699.707
1742124417.271,689.453,10.254,-190.43,102.539
1742124417.274,-548.828,-43.457,-180.664,-721.68
1742124417.278,437.5,-5.371,-170.898,-19.043
1742124417.282,-375.0,-53.711,-131.348,-482.422
1742124417.286,-725.098,-30.273,-117.188,-716.797
1742124417.29,582.52,-23.438,-163.086,8.301
1742124417.294,-559.57,-116.699,-231.445,-750.488
1742124417.298,416.504,-91.309,-240.723,-93.75
1742124417.302,-391.602,-123.047,-216.309,-548.828
1742124417.306,-758.301,-104.98,-181.641,-749.512
1742124417.31,662.109,-80.078,-153.809,54.199
1742124417.314,-486.816,-114.258,-114.746,-613.77
1742124417.318,431.641,-67.871,-91.797,32.715
1742124417.321,-269.043,-127.93,-108.398,-444.336
1742124417.325,-925.781,-129.883,-106.934,-821.777
1742124417.329,616.699,-57.617,-77.148,234.863
1742124417.333,-535.645,-104.492,-69.824,-574.219
1742124417.337,289.062,-88.867,-68.848,-93.262
1742124417.337,-14.16,-107.91,-60.547,-208.008
1742124417.341,-966.797,-102.539,-63.965,-821.777
1742124417.345,591.797,-53.711,-55.176,229.492
1742124417.349,-603.516,-125.977,-60.059,-643.066
1742124417.353,110.84,-67.871,-63.477,-195.801
1742124417.357,726.562,33.691,-4.883,340.332
1742124417.361,-745.605,3.418,12.207,-746.582
1742124417.364,471.191,-28.32,-36.621,75.195
1742124417.368,-418.945,-104.004,-83.008,-365.234
1742124417.372,15.137,-94.727,-100.586,-243.164
1742124417.376,511.719,-98.633,-120.117,14.648
1742124417.38,-839.355,-114.746,-109.375,-783.203
1742124417.337,-14.16,-107.91,-60.547,-208.008
1742124417.341,-966.797,-102.539,-63.965,-821.777
1742124417.345,591.797,-53.711,-55.176,229.492
1742124417.349,-603.516,-125.977,-60.059,-643.066
1742124417.353,110.84,-67.871,-63.477,-195.801
1742124417.357,726.562,33.691,-4.883,340.332
1742124417.361,-745.605,3.418,12.207,-746.582
1742124417.364,471.191,-28.32,-36.621,75.195
1742124417.368,-418.945,-104.004,-83.008,-365.234
1742124417.372,15.137,-94.727,-100.586,-243.164
1742124417.376,511.719,-98.633,-120.117,14.648
1742124417.38,-839.355,-114.746,-109.375,-783.203
1742124417.383,589.844,-53.223,-80.566,250.488
1742124417.387,-406.738,-95.215,-104.492,-284.668
1742124417.391,-216.309,-76.66,-118.164,-286.621
1742124417.395,658.691,-76.172,-105.957,217.773
1742124417.399,-816.895,-129.883,-122.559,-810.059
1742124417.403,555.176,-42.969,-119.629,262.695
1742124417.407,-161.621,-88.379,-99.609,-36.133
1742124417.41,-691.406,-124.512,-106.934,-495.117
1742124417.414,723.633,-77.148,-77.148,430.664
1742124417.418,-654.785,-90.332,-29.785,-572.754
1742124417.422,368.652,-24.414,-29.785,115.234
1742124417.426,258.301,-46.875,-57.617,186.523
1742124417.383,589.844,-53.223,-80.566,250.488
1742124417.387,-406.738,-95.215,-104.492,-284.668
1742124417.391,-216.309,-76.66,-118.164,-286.621
1742124417.395,658.691,-76.172,-105.957,217.773
1742124417.399,-816.895,-129.883,-122.559,-810.059
1742124417.403,555.176,-42.969,-119.629,262.695
1742124417.407,-161.621,-88.379,-99.609,-36.133
1742124417.41,-691.406,-124.512,-106.934,-495.117
1742124417.414,723.633,-77.148,-77.148,430.664
1742124417.418,-654.785,-90.332,-29.785,-572.754
1742124417.422,368.652,-24.414,-29.785,115.234
1742124417.426,258.301,-46.875,-57.617,186.523
1742124417.428,-650.879,-22.461,-39.551,-308.594
