timestamps,TP9,AF7,AF8,TP10
1742124186.707,999.512,949.707,31.738,999.512
1742124186.711,935.547,968.262,119.141,928.223
1742124186.715,887.207,882.812,153.32,914.551
1742124186.719,-476.562,-590.332,37.109,-435.547
1742124186.723,-1000.0,-1000.0,-0.488,-1000.0
1742124186.727,-645.508,114.746,154.297,-603.516
1742124186.731,835.938,999.512,216.797,841.797
1742124186.734,933.105,749.023,81.055,948.73
1742124186.738,-566.895,-597.168,-30.273,-529.297
1742124186.742,-1000.0,-1000.0,-25.879,-1000.0
1742124186.746,-807.617,-798.828,13.184,-825.195
1742124186.75,479.492,493.652,70.801,456.055
1742124187.037,999.512,999.512,-113.77,999.512
1742124187.041,774.902,771.973,-135.254,768.555
1742124187.045,-520.508,-558.594,-190.43,-528.32
1742124187.049,-1000.0,-1000.0,-49.805,-1000.0
1742124187.053,-776.367,-740.723,191.406,-759.766
1742124187.057,516.602,550.781,266.602,534.18
1742124187.061,999.512,999.512,189.941,999.512
1742124187.064,742.188,604.98,112.793,749.023
1742124187.068,-650.879,-775.879,91.797,-641.602
1742124187.072,-1000.0,-1000.0,194.336,-1000.0
1742124187.076,-987.305,-1000.0,139.648,-988.77
1742124187.08,-883.301,-491.211,-18.555,-876.465
1742124187.277,970.215,999.512,478.516,949.707
1742124187.281,999.512,895.02,510.254,999.512
1742124187.285,119.141,-284.18,429.688,157.227
1742124187.289,-1000.0,-1000.0,391.113,-1000.0
1742124187.293,-939.941,-871.582,457.52,-964.355
1742124187.297,569.824,617.676,560.547,539.062
1742124187.301,999.512,958.008,375.488,999.512
1742124187.304,-495.605,-629.395,120.117,-475.586
1742124187.308,-1000.0,-1000.0,-656.25,-1000.0
1742124187.312,-978.516,-370.117,-1000.0,-958.984
1742124187.316,200.195,950.195,-960.449,224.121
1742124187.32,999.512,901.367,-1000.0,999.512
1742124187.744,-188.477,-353.027,-513.672,-161.133
1742124187.748,-1000.0,-1000.0,-458.008,-1000.0
1742124187.752,-866.211,-806.152,-312.988,-895.02
1742124187.756,534.668,587.891,-203.613,493.164
1742124187.76,999.512,999.512,-297.363,999.512
1742124187.764,999.023,997.559,-332.52,994.141
1742124187.768,639.648,578.125,-308.594,627.93
1742124187.771,-796.875,-897.461,-366.699,-778.32
1742124187.775,-1000.0,-1000.0,-278.809,-1000.0
1742124187.779,-185.059,272.949,-221.191,-282.715
1742124187.783,999.512,999.512,-288.086,999.512
1742124187.787,865.234,329.102,-328.125,886.719
1742124188.957,73.242,-396.484,-259.766,124.023
1742124188.961,-1000.0,-1000.0,-194.336,-1000.0
1742124188.965,-1000.0,-888.672,-55.176,-1000.0
1742124188.969,351.562,454.102,28.32,334.961
1742124188.973,999.512,999.512,-42.48,999.512
1742124188.977,935.547,929.199,-167.48,929.688
1742124188.981,907.227,923.34,-117.676,929.199
1742124188.984,-530.273,-516.113,-156.25,-485.84
1742124188.988,-1000.0,-1000.0,-161.133,-1000.0
1742124188.992,-866.699,-910.156,-80.566,-868.652
1742124188.996,-1000.0,-1000.0,-148.438,-1000.0
1742124189.0,-289.551,83.496,-171.875,-309.082
1742124189.377,-587.891,-677.734,-152.344,-557.617
1742124189.381,-1000.0,-1000.0,-150.879,-1000.0
1742124189.385,-824.219,-825.684,-83.496,-847.656
1742124189.389,569.336,565.43,85.938,531.738
1742124189.393,999.512,999.512,-57.129,999.512
1742124189.397,999.512,999.512,-91.797,994.141
1742124189.401,638.184,570.801,-39.062,597.656
1742124189.404,-863.77,-881.348,-55.176,-863.281
1742124189.408,-995.605,-1000.0,88.379,-993.164
1742124189.412,-1000.0,-1000.0,69.824,-1000.0
1742124189.416,-720.215,-336.426,-4.883,-730.469
1742124189.42,773.926,920.898,-4.883,754.395
1742124210.753,999.512,164.551,-84.473,995.605
1742124210.757,-208.496,-1000.0,-55.176,-454.59
1742124210.761,-1000.0,-35.645,-85.938,-1000.0
1742124210.765,-919.922,691.406,-73.242,-917.48
1742124210.769,-1000.0,-850.098,-55.176,-1000.0
1742124210.773,61.035,237.793,56.152,31.738
1742124210.777,999.512,999.512,116.211,999.512
1742124210.78,199.707,-390.625,-60.059,172.852
1742124210.784,-1000.0,-1000.0,-184.57,-1000.0
1742124210.788,-647.461,-82.52,-141.113,-668.457
1742124210.792,789.551,999.512,-53.711,754.883
1742124210.796,999.512,345.215,-20.996,999.512
1742124210.8,-160.156,-1000.0,-99.121,-241.211
1742124210.804,-1000.0,-12.695,-112.305,-1000.0
1742124210.808,-973.633,637.207,-23.926,-957.52
1742124210.812,-945.312,-637.695,-0.488,-987.305
1742124210.816,334.961,483.887,74.219,249.023
1742124210.82,999.512,999.512,109.863,999.512
1742124210.824,137.695,-21.973,23.438,136.23
1742124210.827,-1000.0,-1000.0,-3.418,-1000.0
1742124210.831,-1000.0,-257.812,-7.812,-1000.0
1742124210.835,31.25,999.512,7.324,2.93
1742124210.839,999.512,792.969,-3.906,999.512
1742124210.843,63.477,-707.52,-86.914,65.918
1742124210.8,-160.156,-1000.0,-99.121,-241.211
1742124210.804,-1000.0,-12.695,-112.305,-1000.0
1742124210.808,-973.633,637.207,-23.926,-957.52
1742124210.812,-945.312,-637.695,-0.488,-987.305
1742124210.816,334.961,483.887,74.219,249.023
1742124210.82,999.512,999.512,109.863,999.512
1742124210.824,137.695,-21.973,23.438,136.23
1742124210.827,-1000.0,-1000.0,-3.418,-1000.0
1742124210.831,-1000.0,-257.812,-7.812,-1000.0
1742124210.835,31.25,999.512,7.324,2.93
1742124210.839,999.512,792.969,-3.906,999.512
1742124210.843,63.477,-707.52,-86.914,65.918
1742124210.843,-1000.0,-847.656,-103.027,-1000.0
1742124210.847,-197.266,653.809,39.551,-172.363
1742124210.851,999.512,999.512,122.559,999.512
1742124210.855,916.504,212.891,42.48,814.941
1742124210.859,-322.754,-910.156,-92.773,-428.711
1742124210.863,-1000.0,-94.238,-143.555,-1000.0
1742124210.867,-626.953,999.512,-79.102,-640.137
1742124210.87,938.965,832.52,-16.602,898.926
1742124210.874,441.895,-614.258,-117.188,414.551
1742124210.878,-1000.0,-917.48,-193.848,-1000.0
1742124210.882,-721.68,570.801,-82.031,-693.848
1742124210.886,698.73,999.512,0.0,714.355
1742124210.843,-1000.0,-847.656,-103.027,-1000.0
1742124210.847,-197.266,653.809,39.551,-172.363
1742124210.851,999.512,999.512,122.559,999.512
1742124210.855,916.504,212.891,42.48,814.941
1742124210.859,-322.754,-910.156,-92.773,-428.711
1742124210.863,-1000.0,-94.238,-143.555,-1000.0
1742124210.867,-626.953,999.512,-79.102,-640.137
1742124210.87,938.965,832.52,-16.602,898.926
1742124210.874,441.895,-614.258,-117.188,414.551
1742124210.878,-1000.0,-917.48,-193.848,-1000.0
1742124210.882,-721.68,570.801,-82.031,-693.848
1742124210.886,698.73,999.512,0.0,714.355
1742124210.887,999.512,129.883,36.133,999.512
1742124210.891,-11.719,-1000.0,-27.344,-140.137
1742124210.895,-1000.0,-274.414,-146.973,-1000.0
1742124210.899,-957.031,876.953,-170.898,-948.242
1742124210.903,-1000.0,-453.613,-147.949,-1000.0
1742124210.907,131.836,228.516,9.766,100.098
1742124210.911,999.512,999.512,8.301,999.512
1742124210.914,127.93,-436.523,-257.324,91.309
1742124210.918,-1000.0,-1000.0,-349.121,-1000.0
1742124210.922,-1000.0,-1000.0,-214.844,-1000.0
1742124210.926,-71.777,303.223,-123.047,-100.098
1742124210.93,999.512,630.371,-114.746,999.512
1742124210.932,151.367,-904.297,-160.156,95.215
1742124210.936,-1000.0,-1000.0,-176.758,-1000.0
1742124210.94,-1000.0,-1000.0,-162.598,-1000.0
1742124210.944,-77.637,425.781,-126.953,-94.727
1742124210.948,997.559,229.98,-127.93,996.582
1742124210.952,999.512,-407.227,-136.23,999.512
1742124210.956,748.047,673.34,-118.652,745.117
1742124210.959,-557.617,-581.543,-213.867,-538.574
1742124210.963,-1000.0,-1000.0,-242.676,-1000.0
1742124210.967,-561.035,-389.16,-156.25,-614.746
1742124210.971,987.305,999.512,-155.273,922.852
1742124210.975,565.918,222.656,-230.469,588.379
1742124210.932,151.367,-904.297,-160.156,95.215
1742124210.936,-1000.0,-1000.0,-176.758,-1000.0
1742124210.94,-1000.0,-1000.0,-162.598,-1000.0
1742124210.944,-77.637,425.781,-126.953,-94.727
1742124210.948,997.559,229.98,-127.93,996.582
1742124210.952,999.512,-407.227,-136.23,999.512
1742124210.956,748.047,673.34,-118.652,745.117
1742124210.959,-557.617,-581.543,-213.867,-538.574
1742124210.963,-1000.0,-1000.0,-242.676,-1000.0
1742124210.967,-561.035,-389.16,-156.25,-614.746
1742124210.971,987.305,999.512,-155.273,922.852
1742124210.975,565.918,222.656,-230.469,588.379
1742124210.978,-1000.0,-1000.0,-197.266,-1000.0
1742124210.982,-841.309,-500.977,-34.18,-873.535
1742124210.986,779.785,999.512,40.527,730.469
1742124210.99,899.902,273.926,-67.383,877.93
1742124210.994,-866.699,-1000.0,-125.488,-867.676
1742124210.998,-535.156,-5.371,-9.766,-523.438
1742124211.002,999.512,958.496,24.902,999.512
1742124211.005,252.441,-526.367,-66.406,250.488
1742124211.009,-1000.0,-1000.0,-129.883,-1000.0
1742124211.013,-1000.0,-902.832,-117.188,-1000.0
1742124211.017,-101.562,472.656,14.648,-117.676
1742124211.021,999.512,755.859,47.852,999.512
1742124210.978,-1000.0,-1000.0,-197.266,-1000.0
1742124210.982,-841.309,-500.977,-34.18,-873.535
1742124210.986,779.785,999.512,40.527,730.469
1742124210.99,899.902,273.926,-67.383,877.93
1742124210.994,-866.699,-1000.0,-125.488,-867.676
1742124210.998,-535.156,-5.371,-9.766,-523.438
1742124211.002,999.512,958.496,24.902,999.512
1742124211.005,252.441,-526.367,-66.406,250.488
1742124211.009,-1000.0,-1000.0,-129.883,-1000.0
1742124211.013,-1000.0,-902.832,-117.188,-1000.0
1742124211.017,-101.562,472.656,14.648,-117.676
1742124211.021,999.512,755.859,47.852,999.512
1742124211.039,223.633,-755.859,-1.465,186.523
1742124211.043,-1000.0,-1000.0,12.207,-1000.0
1742124211.047,-603.516,-193.359,-10.254,-639.16
1742124211.051,918.457,999.512,-36.621,848.633
1742124211.055,999.512,188.477,-30.273,999.512
1742124211.059,-666.504,-1000.0,157.715,-625.0
1742124211.063,-358.398,433.594,250.488,-340.332
1742124211.066,999.512,880.859,112.793,999.512
1742124211.07,-59.082,-761.23,52.734,-15.137
1742124211.074,-1000.0,-1000.0,152.344,-1000.0
1742124211.078,-165.527,269.531,302.734,-163.086
1742124211.082,999.512,999.512,307.617,999.512
1742124211.039,223.633,-755.859,-1.465,186.523
1742124211.043,-1000.0,-1000.0,12.207,-1000.0
1742124211.047,-603.516,-193.359,-10.254,-639.16
1742124211.051,918.457,999.512,-36.621,848.633
1742124211.055,999.512,188.477,-30.273,999.512
1742124211.059,-666.504,-1000.0,157.715,-625.0
1742124211.063,-358.398,433.594,250.488,-340.332
1742124211.066,999.512,880.859,112.793,999.512
1742124211.07,-59.082,-761.23,52.734,-15.137
1742124211.074,-1000.0,-1000.0,152.344,-1000.0
1742124211.078,-165.527,269.531,302.734,-163.086
1742124211.082,999.512,999.512,307.617,999.512
1742124211.085,184.082,-76.66,182.129,182.129
1742124211.089,-1000.0,-1000.0,127.441,-1000.0
1742124211.093,-1000.0,-750.0,94.238,-1000.0
1742124211.097,103.027,756.836,96.68,100.098
1742124211.101,999.512,539.551,89.355,999.512
1742124211.105,127.93,-1000.0,80.566,60.059
1742124211.109,-1000.0,-940.43,81.055,-1000.0
1742124211.112,-1000.0,-1000.0,89.844,-1000.0
1742124211.116,-256.348,-256.836,166.504,-255.859
1742124211.12,999.512,999.512,265.625,999.512
1742124211.124,717.773,348.145,171.387,729.492
1742124211.128,-666.992,-997.559,93.75,-636.719
1742124211.085,184.082,-76.66,182.129,182.129
1742124211.089,-1000.0,-1000.0,127.441,-1000.0
1742124211.093,-1000.0,-750.0,94.238,-1000.0
1742124211.097,103.027,756.836,96.68,100.098
1742124211.101,999.512,539.551,89.355,999.512
1742124211.105,127.93,-1000.0,80.566,60.059
1742124211.109,-1000.0,-940.43,81.055,-1000.0
1742124211.112,-1000.0,-1000.0,89.844,-1000.0
1742124211.116,-256.348,-256.836,166.504,-255.859
1742124211.12,999.512,999.512,265.625,999.512
1742124211.124,717.773,348.145,171.387,729.492
1742124211.128,-666.992,-997.559,93.75,-636.719
1742124211.128,-1000.0,-1000.0,194.336,-1000.0
1742124211.132,-173.828,68.359,395.508,-168.945
1742124211.136,999.512,999.512,418.457,999.512
1742124211.14,373.047,150.879,244.141,396.484
1742124211.144,-1000.0,-1000.0,159.18,-1000.0
1742124211.148,-700.195,-261.23,150.391,-714.844
1742124211.152,797.852,999.512,204.102,769.531
1742124211.155,999.512,544.922,144.531,999.512
1742124211.159,-219.238,-900.879,-8.789,-224.609
1742124211.163,-1000.0,-1000.0,-60.547,-1000.0
1742124211.167,-223.633,220.215,-30.273,-212.891
1742124211.171,999.512,999.512,37.598,999.512
1742124211.128,-1000.0,-1000.0,194.336,-1000.0
1742124211.132,-173.828,68.359,395.508,-168.945
1742124211.136,999.512,999.512,418.457,999.512
1742124211.14,373.047,150.879,244.141,396.484
1742124211.144,-1000.0,-1000.0,159.18,-1000.0
1742124211.148,-700.195,-261.23,150.391,-714.844
1742124211.152,797.852,999.512,204.102,769.531
1742124211.155,999.512,544.922,144.531,999.512
1742124211.159,-219.238,-900.879,-8.789,-224.609
1742124211.163,-1000.0,-1000.0,-60.547,-1000.0
1742124211.167,-223.633,220.215,-30.273,-212.891
1742124211.171,999.512,999.512,37.598,999.512
1742124211.173,741.211,235.84,81.543,775.391
1742124211.177,-761.23,-1000.0,59.082,-708.984
1742124211.181,-1000.0,-345.215,103.027,-993.652
1742124211.185,447.266,999.512,121.582,500.488
1742124211.189,999.512,486.328,92.285,999.512
1742124211.193,865.723,111.816,134.766,866.699
1742124211.197,999.512,999.512,151.855,999.512
1742124211.2,-23.926,-105.469,17.578,13.184
1742124211.204,-1000.0,-1000.0,-35.645,-1000.0
1742124211.208,-251.953,-173.828,92.285,-272.461
1742124211.212,999.512,999.512,155.762,999.512
1742124211.216,968.262,425.781,168.457,989.258
1742124211.173,741.211,235.84,81.543,775.391
1742124211.177,-761.23,-1000.0,59.082,-708.984
1742124211.181,-1000.0,-345.215,103.027,-993.652
1742124211.185,447.266,999.512,121.582,500.488
1742124211.189,999.512,486.328,92.285,999.512
1742124211.193,865.723,111.816,134.766,866.699
1742124211.197,999.512,999.512,151.855,999.512
1742124211.2,-23.926,-105.469,17.578,13.184
1742124211.204,-1000.0,-1000.0,-35.645,-1000.0
1742124211.208,-251.953,-173.828,92.285,-272.461
1742124211.212,999.512,999.512,155.762,999.512
1742124211.216,968.262,425.781,168.457,989.258
1742124211.683,106.934,-764.16,-341.309,108.887
1742124211.687,-1000.0,-879.395,-306.641,-1000.0
1742124211.691,-61.035,781.25,-256.836,-115.723
1742124211.695,999.512,769.043,-321.289,999.512
1742124211.699,-211.426,-952.637,-383.789,-182.129
1742124211.703,-1000.0,-307.129,-358.887,-1000.0
1742124211.707,385.742,999.512,-265.137,439.941
1742124211.71,889.16,291.992,-293.457,872.559
1742124211.714,-775.879,-1000.0,-449.219,-755.371
1742124211.718,-1000.0,-544.434,-359.863,-1000.0
1742124211.722,284.18,999.512,-179.199,286.133
1742124211.726,999.512,552.246,-204.59,999.512
1742124211.218,-322.754,-1000.0,103.027,-265.625
1742124211.222,-1000.0,-863.281,134.277,-1000.0
1742124211.226,-71.289,511.23,212.402,-62.012
1742124211.23,999.512,999.512,162.109,999.512
1742124211.234,257.324,-16.602,35.645,302.734
1742124211.238,-1000.0,-1000.0,-10.254,-1000.0
1742124211.242,-416.016,249.023,57.129,-408.203
1742124211.245,999.512,914.551,25.879,999.512
1742124211.249,261.719,-581.055,-27.832,280.273
1742124211.253,-1000.0,-1000.0,-36.621,-1000.0
1742124211.257,-583.984,-229.004,-84.961,-622.559
1742124211.261,965.332,999.512,-98.145,892.578
1742124211.218,-322.754,-1000.0,103.027,-265.625
1742124211.222,-1000.0,-863.281,134.277,-1000.0
1742124211.226,-71.289,511.23,212.402,-62.012
1742124211.23,999.512,999.512,162.109,999.512
1742124211.234,257.324,-16.602,35.645,302.734
1742124211.238,-1000.0,-1000.0,-10.254,-1000.0
1742124211.242,-416.016,249.023,57.129,-408.203
1742124211.245,999.512,914.551,25.879,999.512
1742124211.249,261.719,-581.055,-27.832,280.273
1742124211.253,-1000.0,-1000.0,-36.621,-1000.0
1742124211.257,-583.984,-229.004,-84.961,-622.559
1742124211.261,965.332,999.512,-98.145,892.578
1742124211.263,858.398,270.02,-163.574,926.27
1742124211.267,-626.465,-1000.0,-218.75,-517.09
1742124211.271,-1000.0,-847.168,-158.203,-1000.0
1742124211.275,159.668,746.094,-164.062,129.395
1742124211.279,999.512,436.035,-166.016,999.512
1742124211.283,-453.613,-1000.0,-80.566,-419.922
1742124211.287,-700.195,-265.137,31.25,-691.895
1742124211.29,999.512,999.512,67.383,999.512
1742124211.294,455.078,0.0,-118.652,491.699
1742124211.298,-1000.0,-1000.0,-126.465,-1000.0
1742124211.302,-425.293,-170.898,31.25,-427.246
1742124211.306,979.004,999.512,131.348,999.512
1742124211.308,999.512,145.508,106.934,934.082
1742124211.312,-124.023,-1000.0,32.227,-250.0
1742124211.316,-1000.0,-942.871,-28.809,-1000.0
1742124211.32,-131.348,657.227,-4.883,-95.703
1742124211.324,999.512,347.656,-30.762,999.512
1742124211.328,913.574,-378.418,-31.25,903.809
1742124211.332,999.512,999.512,-70.801,999.512
1742124211.335,-52.246,-71.289,-349.121,-9.277
1742124211.339,-1000.0,-1000.0,-465.82,-1000.0
1742124211.343,-800.781,-525.879,-362.305,-818.359
1742124211.347,555.664,999.512,-280.762,533.691
1742124211.351,999.512,429.688,-293.457,999.512
1742124211.308,999.512,145.508,106.934,934.082
1742124211.312,-124.023,-1000.0,32.227,-250.0
1742124211.316,-1000.0,-942.871,-28.809,-1000.0
1742124211.32,-131.348,657.227,-4.883,-95.703
1742124211.324,999.512,347.656,-30.762,999.512
1742124211.328,913.574,-378.418,-31.25,903.809
1742124211.332,999.512,999.512,-70.801,999.512
1742124211.335,-52.246,-71.289,-349.121,-9.277
1742124211.339,-1000.0,-1000.0,-465.82,-1000.0
1742124211.343,-800.781,-525.879,-362.305,-818.359
1742124211.347,555.664,999.512,-280.762,533.691
1742124211.351,999.512,429.688,-293.457,999.512
1742124211.354,-326.66,-1000.0,-385.254,-325.195
1742124211.358,-907.227,-340.332,-294.922,-866.211
1742124211.362,701.66,999.512,-216.309,733.887
1742124211.366,999.512,221.68,-278.809,999.512
1742124211.37,-394.043,-1000.0,-334.473,-457.031
1742124211.374,-860.352,-147.461,-269.043,-800.293
1742124211.378,952.637,999.512,-210.449,954.102
1742124211.381,330.078,-223.633,-312.988,352.539
1742124211.385,-1000.0,-1000.0,-225.098,-1000.0
1742124211.389,-465.332,-243.164,-104.98,-505.859
1742124211.393,999.512,999.512,-143.066,999.512
1742124211.397,475.586,142.578,-234.863,522.461
1742124211.354,-326.66,-1000.0,-385.254,-325.195
1742124211.358,-907.227,-340.332,-294.922,-866.211
1742124211.362,701.66,999.512,-216.309,733.887
1742124211.366,999.512,221.68,-278.809,999.512
1742124211.37,-394.043,-1000.0,-334.473,-457.031
1742124211.374,-860.352,-147.461,-269.043,-800.293
1742124211.378,952.637,999.512,-210.449,954.102
1742124211.381,330.078,-223.633,-312.988,352.539
1742124211.385,-1000.0,-1000.0,-225.098,-1000.0
1742124211.389,-465.332,-243.164,-104.98,-505.859
1742124211.393,999.512,999.512,-143.066,999.512
1742124211.397,475.586,142.578,-234.863,522.461
1742124211.398,-1000.0,-1000.0,-314.453,-1000.0
1742124211.402,-320.801,-166.016,-184.082,-377.441
1742124211.406,999.512,999.512,-84.961,999.512
1742124211.41,277.832,128.906,-250.0,325.195
1742124211.414,-1000.0,-1000.0,-338.867,-1000.0
1742124211.418,-295.41,-111.328,-218.75,-330.566
1742124211.422,999.512,999.512,-126.465,999.512
1742124211.425,491.211,72.754,-240.723,491.699
1742124211.429,-945.801,-1000.0,-354.98,-937.988
1742124211.433,-1000.0,-538.574,-287.109,-1000.0
1742124211.437,137.695,903.32,-170.41,157.227
1742124211.441,999.512,914.062,-117.188,999.512
1742124211.398,-1000.0,-1000.0,-314.453,-1000.0
1742124211.402,-320.801,-166.016,-184.082,-377.441
1742124211.406,999.512,999.512,-84.961,999.512
1742124211.41,277.832,128.906,-250.0,325.195
1742124211.414,-1000.0,-1000.0,-338.867,-1000.0
1742124211.418,-295.41,-111.328,-218.75,-330.566
1742124211.422,999.512,999.512,-126.465,999.512
1742124211.425,491.211,72.754,-240.723,491.699
1742124211.429,-945.801,-1000.0,-354.98,-937.988
1742124211.433,-1000.0,-538.574,-287.109,-1000.0
1742124211.437,137.695,903.32,-170.41,157.227
1742124211.441,999.512,914.062,-117.188,999.512
1742124211.458,344.238,-433.594,-96.191,359.375
1742124211.462,-1000.0,-1000.0,-139.648,-1000.0
1742124211.466,-561.523,-30.762,-88.867,-537.598
1742124211.47,919.922,999.512,-68.359,912.598
1742124211.474,941.895,671.875,-32.227,937.988
1742124211.478,999.512,763.184,86.426,999.512
1742124211.482,155.273,-96.191,23.926,155.762
1742124211.485,-1000.0,-1000.0,-15.625,-1000.0
1742124211.489,-1000.0,-1000.0,-29.785,-1000.0
1742124211.493,-264.648,-123.047,11.719,-246.582
1742124211.497,999.512,999.512,81.543,999.512
1742124211.501,319.824,89.355,-56.641,358.398
1742124211.458,344.238,-433.594,-96.191,359.375
1742124211.462,-1000.0,-1000.0,-139.648,-1000.0
1742124211.466,-561.523,-30.762,-88.867,-537.598
1742124211.47,919.922,999.512,-68.359,912.598
1742124211.474,941.895,671.875,-32.227,937.988
1742124211.478,999.512,763.184,86.426,999.512
1742124211.482,155.273,-96.191,23.926,155.762
1742124211.485,-1000.0,-1000.0,-15.625,-1000.0
1742124211.489,-1000.0,-1000.0,-29.785,-1000.0
1742124211.493,-264.648,-123.047,11.719,-246.582
1742124211.497,999.512,999.512,81.543,999.512
1742124211.501,319.824,89.355,-56.641,358.398
1742124211.503,-1000.0,-1000.0,-112.305,-1000.0
1742124211.507,-604.004,-229.98,-17.578,-612.793
1742124211.511,873.047,999.512,19.043,856.445
1742124211.515,999.512,477.051,-5.859,999.512
1742124211.519,-208.984,-1000.0,-93.262,-209.473
1742124211.523,-1000.0,-152.344,-81.543,-1000.0
1742124211.527,-282.227,999.512,31.738,-300.781
1742124211.53,999.512,799.805,64.453,999.512
1742124211.534,179.199,-509.766,47.852,196.777
1742124211.538,-1000.0,-1000.0,22.949,-1000.0
1742124211.542,-1000.0,-1000.0,-51.758,-1000.0
1742124211.546,-254.883,6.836,-35.156,-242.676
1742124211.503,-1000.0,-1000.0,-112.305,-1000.0
1742124211.507,-604.004,-229.98,-17.578,-612.793
1742124211.511,873.047,999.512,19.043,856.445
1742124211.515,999.512,477.051,-5.859,999.512
1742124211.519,-208.984,-1000.0,-93.262,-209.473
1742124211.523,-1000.0,-152.344,-81.543,-1000.0
1742124211.527,-282.227,999.512,31.738,-300.781
1742124211.53,999.512,799.805,64.453,999.512
1742124211.534,179.199,-509.766,47.852,196.777
1742124211.538,-1000.0,-1000.0,22.949,-1000.0
1742124211.542,-1000.0,-1000.0,-51.758,-1000.0
1742124211.546,-254.883,6.836,-35.156,-242.676
1742124211.548,999.512,999.512,-39.062,999.512
1742124211.552,749.512,136.23,-74.219,744.629
1742124211.556,-679.688,-1000.0,-139.16,-649.414
1742124211.56,-1000.0,-690.43,-151.855,-1000.0
1742124211.564,94.238,668.457,-62.012,75.684
1742124211.568,999.512,999.512,-15.625,999.512
1742124211.572,392.578,87.402,-23.438,436.035
1742124211.575,-898.438,-1000.0,-141.113,-860.84
1742124211.579,-1000.0,-1000.0,-196.777,-1000.0
1742124211.583,-208.496,-130.371,-79.102,-246.582
1742124211.587,948.242,999.512,14.648,931.152
1742124211.591,999.512,931.152,76.66,999.512
1742124211.548,999.512,999.512,-39.062,999.512
1742124211.552,749.512,136.23,-74.219,744.629
1742124211.556,-679.688,-1000.0,-139.16,-649.414
1742124211.56,-1000.0,-690.43,-151.855,-1000.0
1742124211.564,94.238,668.457,-62.012,75.684
1742124211.568,999.512,999.512,-15.625,999.512
1742124211.572,392.578,87.402,-23.438,436.035
1742124211.575,-898.438,-1000.0,-141.113,-860.84
1742124211.579,-1000.0,-1000.0,-196.777,-1000.0
1742124211.583,-208.496,-130.371,-79.102,-246.582
1742124211.587,948.242,999.512,14.648,931.152
1742124211.591,999.512,931.152,76.66,999.512
1742124211.593,159.668,31.25,16.113,180.176
1742124211.597,-1000.0,-1000.0,-136.719,-998.047
1742124211.601,-1000.0,-1000.0,-103.516,-1000.0
1742124211.605,-115.723,475.098,11.23,-110.84
1742124211.609,993.164,349.121,32.227,993.164
1742124211.613,993.652,-193.848,22.461,997.07
1742124211.617,789.062,856.934,-9.766,758.301
1742124211.62,-495.117,-470.703,-73.73,-510.254
1742124211.624,-1000.0,-1000.0,-95.215,-1000.0
1742124211.628,-519.043,-294.434,-24.902,-562.012
1742124211.632,999.512,999.512,20.02,975.586
1742124211.636,562.012,228.027,-124.512,567.871
1742124211.593,159.668,31.25,16.113,180.176
1742124211.597,-1000.0,-1000.0,-136.719,-998.047
1742124211.601,-1000.0,-1000.0,-103.516,-1000.0
1742124211.605,-115.723,475.098,11.23,-110.84
1742124211.609,993.164,349.121,32.227,993.164
1742124211.613,993.652,-193.848,22.461,997.07
1742124211.617,789.062,856.934,-9.766,758.301
1742124211.62,-495.117,-470.703,-73.73,-510.254
1742124211.624,-1000.0,-1000.0,-95.215,-1000.0
1742124211.628,-519.043,-294.434,-24.902,-562.012
1742124211.632,999.512,999.512,20.02,975.586
1742124211.636,562.012,228.027,-124.512,567.871
1742124211.639,-1000.0,-1000.0,-261.719,-1000.0
1742124211.643,-773.438,-304.199,-173.828,-807.617
1742124211.647,776.855,999.512,-113.77,732.422
1742124211.651,999.512,342.285,-202.637,999.512
1742124211.655,-532.715,-1000.0,-270.02,-565.918
1742124211.659,-936.523,-226.074,-202.148,-907.227
1742124211.663,868.164,999.512,-168.945,855.957
1742124211.666,364.258,-51.27,-332.52,401.855
1742124211.67,-1000.0,-1000.0,-375.488,-1000.0
1742124211.674,-1000.0,-567.871,-339.844,-1000.0
1742124211.678,171.875,885.742,-361.816,131.348
1742124211.682,999.512,819.824,-348.633,999.512
1742124211.728,134.766,-882.324,-305.664,73.73
1742124211.732,-1000.0,-1000.0,-292.48,-1000.0
1742124211.736,-368.652,-41.016,-297.363,-388.672
1742124211.74,999.512,999.512,-251.465,999.512
1742124211.744,905.762,170.41,-172.852,852.051
1742124211.748,-600.586,-1000.0,-140.625,-632.812
1742124211.752,-1000.0,-217.773,-77.148,-1000.0
1742124211.755,703.613,999.512,-17.578,672.363
1742124211.759,435.547,-200.195,-54.199,466.309
1742124211.763,-1000.0,-1000.0,0.488,-1000.0
1742124211.767,-105.469,552.246,140.625,-165.039
1742124211.771,999.512,998.535,129.395,999.512
1742124211.728,134.766,-882.324,-305.664,73.73
1742124211.732,-1000.0,-1000.0,-292.48,-1000.0
1742124211.736,-368.652,-41.016,-297.363,-388.672
1742124211.74,999.512,999.512,-251.465,999.512
1742124211.744,905.762,170.41,-172.852,852.051
1742124211.748,-600.586,-1000.0,-140.625,-632.812
1742124211.752,-1000.0,-217.773,-77.148,-1000.0
1742124211.755,703.613,999.512,-17.578,672.363
1742124211.759,435.547,-200.195,-54.199,466.309
1742124211.763,-1000.0,-1000.0,0.488,-1000.0
1742124211.767,-105.469,552.246,140.625,-165.039
1742124211.771,999.512,998.535,129.395,999.512
1742124211.773,62.5,-573.242,68.359,102.051
1742124211.777,-1000.0,-1000.0,108.398,-1000.0
1742124211.781,-234.375,358.398,238.281,-220.215
1742124211.785,999.512,999.512,272.461,999.512
1742124211.789,230.957,-232.91,187.5,243.164
1742124211.793,-1000.0,-827.637,156.25,-1000.0
1742124211.797,-300.293,826.172,191.406,-301.27
1742124211.8,999.512,935.059,163.086,999.512
1742124211.804,169.922,-873.047,123.047,125.488
1742124211.808,-1000.0,-170.898,150.391,-1000.0
1742124211.812,-913.574,513.184,144.531,-908.203
1742124211.816,-1000.0,-1000.0,110.84,-1000.0
1742124211.773,62.5,-573.242,68.359,102.051
1742124211.777,-1000.0,-1000.0,108.398,-1000.0
1742124211.781,-234.375,358.398,238.281,-220.215
1742124211.785,999.512,999.512,272.461,999.512
1742124211.789,230.957,-232.91,187.5,243.164
1742124211.793,-1000.0,-827.637,156.25,-1000.0
1742124211.797,-300.293,826.172,191.406,-301.27
1742124211.8,999.512,935.059,163.086,999.512
1742124211.804,169.922,-873.047,123.047,125.488
1742124211.808,-1000.0,-170.898,150.391,-1000.0
1742124211.812,-913.574,513.184,144.531,-908.203
1742124211.816,-1000.0,-1000.0,110.84,-1000.0
1742124211.833,-297.852,-272.949,118.164,-283.691
1742124211.837,999.512,999.512,127.93,999.512
1742124211.841,618.164,234.375,81.055,646.973
1742124211.845,-815.43,-1000.0,14.648,-759.277
1742124211.849,-1000.0,-991.211,3.906,-1000.0
1742124211.853,41.992,516.113,102.051,22.461
1742124211.857,999.512,787.598,120.605,999.512
1742124211.86,116.211,-733.398,-45.41,75.684
1742124211.864,-1000.0,-1000.0,-179.199,-1000.0
1742124211.868,-521.484,-189.453,-156.738,-560.059
1742124211.872,828.125,949.219,-100.586,770.508
1742124211.876,999.512,999.512,-64.453,999.512
1742124211.833,-297.852,-272.949,118.164,-283.691
1742124211.837,999.512,999.512,127.93,999.512
1742124211.841,618.164,234.375,81.055,646.973
1742124211.845,-815.43,-1000.0,14.648,-759.277
1742124211.849,-1000.0,-991.211,3.906,-1000.0
1742124211.853,41.992,516.113,102.051,22.461
1742124211.857,999.512,787.598,120.605,999.512
1742124211.86,116.211,-733.398,-45.41,75.684
1742124211.864,-1000.0,-1000.0,-179.199,-1000.0
1742124211.868,-521.484,-189.453,-156.738,-560.059
1742124211.872,828.125,949.219,-100.586,770.508
1742124211.876,999.512,999.512,-64.453,999.512
1742124211.878,309.082,239.258,-108.887,332.52
1742124211.882,-955.078,-1000.0,-214.355,-942.383
1742124211.886,-1000.0,-726.562,-154.297,-1000.0
1742124211.89,68.359,960.449,-55.176,61.523
1742124211.894,999.512,243.164,-22.461,999.512
1742124211.898,993.652,-213.867,-39.551,989.258
1742124211.902,735.352,839.355,-71.777,736.328
1742124211.905,-615.234,-549.316,-95.215,-573.242
1742124211.909,-1000.0,-1000.0,-63.477,-1000.0
1742124211.913,-230.469,-166.016,62.012,-265.137
1742124211.917,999.512,999.512,82.52,999.512
1742124211.921,509.277,226.074,-23.926,551.758
1742124211.878,309.082,239.258,-108.887,332.52
1742124211.882,-955.078,-1000.0,-214.355,-942.383
1742124211.886,-1000.0,-726.562,-154.297,-1000.0
1742124211.89,68.359,960.449,-55.176,61.523
1742124211.894,999.512,243.164,-22.461,999.512
1742124211.898,993.652,-213.867,-39.551,989.258
1742124211.902,735.352,839.355,-71.777,736.328
1742124211.905,-615.234,-549.316,-95.215,-573.242
1742124211.909,-1000.0,-1000.0,-63.477,-1000.0
1742124211.913,-230.469,-166.016,62.012,-265.137
1742124211.917,999.512,999.512,82.52,999.512
1742124211.921,509.277,226.074,-23.926,551.758
1742124211.926,-1000.0,-1000.0,-100.586,-1000.0
1742124211.93,-782.227,-353.516,-33.691,-817.871
1742124211.934,803.711,999.512,145.508,760.742
1742124211.938,998.047,261.23,82.031,979.004
1742124211.942,-596.68,-1000.0,-127.93,-618.652
1742124211.946,-1000.0,-54.688,-86.426,-893.555
1742124211.95,646.973,999.512,18.555,729.492
1742124211.953,984.375,-27.344,2.441,874.512
1742124211.957,-484.863,-1000.0,23.438,-534.18
1742124211.961,-1000.0,-732.422,-3.906,-1000.0
1742124211.965,-179.688,558.594,-4.883,-161.621
1742124211.969,999.512,999.512,30.762,999.512
1742124211.926,-1000.0,-1000.0,-100.586,-1000.0
1742124211.93,-782.227,-353.516,-33.691,-817.871
1742124211.934,803.711,999.512,145.508,760.742
1742124211.938,998.047,261.23,82.031,979.004
1742124211.942,-596.68,-1000.0,-127.93,-618.652
1742124211.946,-1000.0,-54.688,-86.426,-893.555
1742124211.95,646.973,999.512,18.555,729.492
1742124211.953,984.375,-27.344,2.441,874.512
1742124211.957,-484.863,-1000.0,23.438,-534.18
1742124211.961,-1000.0,-732.422,-3.906,-1000.0
1742124211.965,-179.688,558.594,-4.883,-161.621
1742124211.969,999.512,999.512,30.762,999.512
1742124211.926,-1000.0,-1000.0,-100.586,-1000.0
1742124211.93,-782.227,-353.516,-33.691,-817.871
1742124211.934,803.711,999.512,145.508,760.742
1742124211.938,998.047,261.23,82.031,979.004
1742124211.942,-596.68,-1000.0,-127.93,-618.652
1742124211.946,-1000.0,-54.688,-86.426,-893.555
1742124211.95,646.973,999.512,18.555,729.492
1742124211.953,984.375,-27.344,2.441,874.512
1742124211.957,-484.863,-1000.0,23.438,-534.18
1742124211.961,-1000.0,-732.422,-3.906,-1000.0
1742124211.965,-179.688,558.594,-4.883,-161.621
1742124211.969,999.512,999.512,30.762,999.512
1742124211.968,353.516,110.352,11.23,396.484
1742124211.972,-1000.0,-1000.0,50.293,-1000.0
1742124211.976,-536.621,-79.59,73.73,-580.566
1742124211.98,850.098,999.512,35.645,800.781
1742124211.984,999.512,999.512,62.5,999.512
1742124211.988,343.75,249.512,31.738,401.855
1742124211.992,-908.691,-1000.0,-23.438,-908.203
1742124211.995,-1000.0,-201.66,-51.27,-1000.0
1742124211.999,-233.398,999.512,-143.555,-50.781
1742124212.003,999.512,840.332,-107.422,999.512
1742124212.007,237.793,-405.273,-92.285,247.07
1742124212.011,-1000.0,-1000.0,-131.348,-1000.0
1742124211.968,353.516,110.352,11.23,396.484
1742124211.972,-1000.0,-1000.0,50.293,-1000.0
1742124211.976,-536.621,-79.59,73.73,-580.566
1742124211.98,850.098,999.512,35.645,800.781
1742124211.984,999.512,999.512,62.5,999.512
1742124211.988,343.75,249.512,31.738,401.855
1742124211.992,-908.691,-1000.0,-23.438,-908.203
1742124211.995,-1000.0,-201.66,-51.27,-1000.0
1742124211.999,-233.398,999.512,-143.555,-50.781
1742124212.003,999.512,840.332,-107.422,999.512
1742124212.007,237.793,-405.273,-92.285,247.07
1742124212.011,-1000.0,-1000.0,-131.348,-1000.0
1742124212.015,-369.629,-83.984,-144.043,-431.641
1742124212.019,999.512,999.512,-136.23,999.512
1742124212.023,558.105,250.0,-177.246,633.789
1742124212.027,-1000.0,-1000.0,-176.27,-1000.0
1742124212.031,-493.652,-238.281,-96.191,-536.133
1742124212.035,999.512,999.512,-93.262,999.512
1742124212.039,905.273,517.09,-137.695,952.637
1742124212.042,-440.43,-820.312,-212.402,-356.934
1742124212.046,-1000.0,-1000.0,-256.836,-1000.0
1742124212.05,-217.773,-141.113,-138.672,-223.633
1742124212.054,999.512,999.512,-79.59,999.512
1742124212.058,254.395,73.242,-206.543,307.129
1742124212.058,-1000.0,-1000.0,-259.766,-1000.0
1742124212.062,-362.793,-202.637,-172.852,-394.531
1742124212.066,999.512,999.512,-91.309,999.512
1742124212.07,906.738,393.555,-141.113,948.73
1742124212.074,-459.961,-1000.0,-199.219,-418.945
1742124212.078,-1000.0,-144.043,-142.578,-1000.0
1742124212.082,55.176,999.512,-107.422,208.984
1742124212.085,999.512,279.785,-110.84,999.512
1742124212.089,-231.934,-1000.0,-119.141,-335.449
1742124212.093,-1000.0,-406.738,-54.688,-1000.0
1742124212.097,367.188,999.512,20.508,386.719
1742124212.101,999.512,333.008,-18.555,999.512
1742124212.058,-1000.0,-1000.0,-259.766,-1000.0
1742124212.062,-362.793,-202.637,-172.852,-394.531
1742124212.066,999.512,999.512,-91.309,999.512
1742124212.07,906.738,393.555,-141.113,948.73
1742124212.074,-459.961,-1000.0,-199.219,-418.945
1742124212.078,-1000.0,-144.043,-142.578,-1000.0
1742124212.082,55.176,999.512,-107.422,208.984
1742124212.085,999.512,279.785,-110.84,999.512
1742124212.089,-231.934,-1000.0,-119.141,-335.449
1742124212.093,-1000.0,-406.738,-54.688,-1000.0
1742124212.097,367.188,999.512,20.508,386.719
1742124212.101,999.512,333.008,-18.555,999.512
1742124212.103,-419.922,-1000.0,-43.457,-373.047
1742124212.107,-1000.0,-466.309,-3.418,-1000.0
1742124212.111,356.445,999.512,-44.434,290.039
1742124212.115,999.512,601.074,-135.254,999.512
1742124212.119,-477.539,-1000.0,-183.594,-400.391
1742124212.123,-490.723,-31.25,-1.953,-500.977
1742124212.127,999.512,869.141,59.57,999.512
1742124212.13,231.934,-691.406,-162.109,199.707
1742124212.134,-1000.0,-1000.0,-170.898,-1000.0
1742124212.138,-216.797,-122.07,-12.207,-245.605
1742124212.142,999.512,999.512,25.391,997.07
1742124212.146,999.512,576.172,11.719,999.512
1742124212.103,-419.922,-1000.0,-43.457,-373.047
1742124212.107,-1000.0,-466.309,-3.418,-1000.0
1742124212.111,356.445,999.512,-44.434,290.039
1742124212.115,999.512,601.074,-135.254,999.512
1742124212.119,-477.539,-1000.0,-183.594,-400.391
1742124212.123,-490.723,-31.25,-1.953,-500.977
1742124212.127,999.512,869.141,59.57,999.512
1742124212.13,231.934,-691.406,-162.109,199.707
1742124212.134,-1000.0,-1000.0,-170.898,-1000.0
1742124212.138,-216.797,-122.07,-12.207,-245.605
1742124212.142,999.512,999.512,25.391,997.07
1742124212.146,999.512,576.172,11.719,999.512
1742124212.149,72.266,-747.07,-33.203,85.449
1742124212.153,-1000.0,-1000.0,-69.824,-1000.0
1742124212.157,-420.898,-193.359,58.594,-435.547
1742124212.161,985.352,999.512,168.457,982.91
1742124212.165,986.816,309.082,187.988,956.543
1742124212.169,-508.301,-1000.0,239.258,-517.09
1742124212.173,-996.582,-323.242,340.82,-965.332
1742124212.176,576.172,999.512,579.59,572.754
1742124212.18,999.512,-364.258,882.812,999.512
1742124212.184,930.664,-433.594,970.703,923.34
1742124212.188,907.227,810.547,959.961,933.594
1742124212.192,-405.762,-645.996,966.797,-345.215
1742124212.149,72.266,-747.07,-33.203,85.449
1742124212.153,-1000.0,-1000.0,-69.824,-1000.0
1742124212.157,-420.898,-193.359,58.594,-435.547
1742124212.161,985.352,999.512,168.457,982.91
1742124212.165,986.816,309.082,187.988,956.543
1742124212.169,-508.301,-1000.0,239.258,-517.09
1742124212.173,-996.582,-323.242,340.82,-965.332
1742124212.176,576.172,999.512,579.59,572.754
1742124212.18,999.512,-364.258,882.812,999.512
1742124212.184,930.664,-433.594,970.703,923.34
1742124212.188,907.227,810.547,959.961,933.594
1742124212.192,-405.762,-645.996,966.797,-345.215
1742124212.211,-1000.0,-1000.0,967.773,-1000.0
1742124212.215,-226.074,72.754,967.285,-225.098
1742124212.219,999.512,999.512,966.797,999.512
1742124212.223,428.711,101.562,966.797,455.078
1742124212.227,-1000.0,-1000.0,967.285,-1000.0
1742124212.231,-421.387,241.211,967.285,-409.18
1742124212.235,999.512,811.035,966.797,999.512
1742124212.238,435.059,-729.98,966.797,425.293
1742124212.242,-1000.0,-1000.0,967.285,-1000.0
1742124212.246,-921.875,-335.938,967.285,-920.41
1742124212.25,472.168,999.512,967.285,445.312
1742124212.254,999.512,713.867,966.797,999.512
1742124212.211,-1000.0,-1000.0,967.773,-1000.0
1742124212.215,-226.074,72.754,967.285,-225.098
1742124212.219,999.512,999.512,966.797,999.512
1742124212.223,428.711,101.562,966.797,455.078
1742124212.227,-1000.0,-1000.0,967.285,-1000.0
1742124212.231,-421.387,241.211,967.285,-409.18
1742124212.235,999.512,811.035,966.797,999.512
1742124212.238,435.059,-729.98,966.797,425.293
1742124212.242,-1000.0,-1000.0,967.285,-1000.0
1742124212.246,-921.875,-335.938,967.285,-920.41
1742124212.25,472.168,999.512,967.285,445.312
1742124212.254,999.512,713.867,966.797,999.512
1742124212.253,0.0,-887.207,967.285,42.969
1742124212.257,-1000.0,-661.621,967.285,-1000.0
1742124212.261,-73.73,925.293,967.285,-88.867
1742124212.265,999.512,961.914,966.797,999.512
1742124212.269,35.156,-647.461,966.797,67.383
1742124212.273,-1000.0,-467.773,967.285,-1000.0
1742124212.277,506.836,999.512,966.797,459.473
1742124212.28,901.855,296.387,966.797,954.59
1742124212.284,-667.969,-1000.0,967.285,-572.266
1742124212.288,-1000.0,-1000.0,967.285,-1000.0
1742124212.292,-218.262,43.457,962.891,-209.473
1742124212.296,999.512,999.512,977.539,999.512
1742124212.253,0.0,-887.207,967.285,42.969
1742124212.257,-1000.0,-661.621,967.285,-1000.0
1742124212.261,-73.73,925.293,967.285,-88.867
1742124212.265,999.512,961.914,966.797,999.512
1742124212.269,35.156,-647.461,966.797,67.383
1742124212.273,-1000.0,-467.773,967.285,-1000.0
1742124212.277,506.836,999.512,966.797,459.473
1742124212.28,901.855,296.387,966.797,954.59
1742124212.284,-667.969,-1000.0,967.285,-572.266
1742124212.288,-1000.0,-1000.0,967.285,-1000.0
1742124212.292,-218.262,43.457,962.891,-209.473
1742124212.296,999.512,999.512,977.539,999.512
1742124212.3,242.188,-51.758,915.527,261.23
1742124212.304,-1000.0,-1000.0,869.141,-1000.0
1742124212.308,-448.73,-27.832,920.898,-454.59
1742124212.312,999.512,999.512,975.098,999.512
1742124212.316,518.066,163.086,894.531,554.199
1742124212.32,-968.262,-1000.0,738.77,-924.316
1742124212.324,-1000.0,265.625,687.5,-1000.0
1742124212.327,-906.738,121.094,604.492,-900.391
1742124212.331,-1000.0,-1000.0,465.82,-1000.0
1742124212.335,-49.316,100.098,533.691,-96.68
1742124212.339,999.512,999.512,510.254,999.512
1742124212.343,185.547,-376.953,286.133,171.875
1742124212.3,242.188,-51.758,915.527,261.23
1742124212.304,-1000.0,-1000.0,869.141,-1000.0
1742124212.308,-448.73,-27.832,920.898,-454.59
1742124212.312,999.512,999.512,975.098,999.512
1742124212.316,518.066,163.086,894.531,554.199
1742124212.32,-968.262,-1000.0,738.77,-924.316
1742124212.324,-1000.0,265.625,687.5,-1000.0
1742124212.327,-906.738,121.094,604.492,-900.391
1742124212.331,-1000.0,-1000.0,465.82,-1000.0
1742124212.335,-49.316,100.098,533.691,-96.68
1742124212.339,999.512,999.512,510.254,999.512
1742124212.343,185.547,-376.953,286.133,171.875
1742124212.343,-1000.0,-1000.0,298.34,-1000.0
1742124212.347,-270.996,-11.23,430.664,-264.648
1742124212.351,999.512,999.512,510.254,999.512
1742124212.355,366.699,102.539,334.961,391.602
1742124212.359,-1000.0,-1000.0,200.684,-1000.0
1742124212.363,-287.109,9.766,375.977,-318.848
1742124212.367,999.512,999.512,433.594,999.512
1742124212.37,781.25,455.566,310.059,819.336
1742124212.374,-615.723,-1000.0,62.988,-561.035
1742124212.378,-1000.0,-746.094,44.434,-1000.0
1742124212.382,58.594,927.734,218.75,59.082
1742124212.386,999.512,599.121,247.07,999.512
1742124212.343,-1000.0,-1000.0,298.34,-1000.0
1742124212.347,-270.996,-11.23,430.664,-264.648
1742124212.351,999.512,999.512,510.254,999.512
1742124212.355,366.699,102.539,334.961,391.602
1742124212.359,-1000.0,-1000.0,200.684,-1000.0
1742124212.363,-287.109,9.766,375.977,-318.848
1742124212.367,999.512,999.512,433.594,999.512
1742124212.37,781.25,455.566,310.059,819.336
1742124212.374,-615.723,-1000.0,62.988,-561.035
1742124212.378,-1000.0,-746.094,44.434,-1000.0
1742124212.382,58.594,927.734,218.75,59.082
1742124212.386,999.512,599.121,247.07,999.512
1742124212.388,76.172,-933.594,228.516,52.246
1742124212.392,-1000.0,-1000.0,199.707,-1000.0
1742124212.396,-325.684,204.59,168.457,-375.488
1742124212.4,952.148,999.512,125.977,928.223
1742124212.404,999.512,560.547,163.086,999.512
1742124212.408,36.133,-755.371,196.777,20.02
1742124212.412,-1000.0,-1000.0,113.77,-1000.0
1742124212.415,-915.527,-895.996,5.859,-916.016
1742124212.419,-1000.0,-1000.0,0.0,-1000.0
1742124212.423,-174.805,-89.355,169.434,-194.336
1742124212.427,999.512,999.512,283.203,999.512
1742124212.431,722.656,156.738,195.801,702.637
1742124212.434,-626.953,-1000.0,123.535,-631.836
1742124212.438,-1000.0,-963.379,108.887,-1000.0
1742124212.442,-204.102,270.02,160.156,-191.406
1742124212.446,999.512,999.512,187.012,999.512
1742124212.45,291.504,-166.504,79.59,324.219
1742124212.454,-1000.0,-588.867,129.395,-1000.0
1742124212.458,-1000.0,915.039,196.289,-961.426
1742124212.461,140.625,999.512,119.629,312.988
1742124212.465,999.512,-144.043,159.18,999.512
1742124212.469,150.879,-1000.0,187.012,-59.57
1742124212.473,-1000.0,-1000.0,55.176,-1000.0
1742124212.477,-1000.0,-609.375,-10.254,-1000.0
1742124212.434,-626.953,-1000.0,123.535,-631.836
1742124212.438,-1000.0,-963.379,108.887,-1000.0
1742124212.442,-204.102,270.02,160.156,-191.406
1742124212.446,999.512,999.512,187.012,999.512
1742124212.45,291.504,-166.504,79.59,324.219
1742124212.454,-1000.0,-588.867,129.395,-1000.0
1742124212.458,-1000.0,915.039,196.289,-961.426
1742124212.461,140.625,999.512,119.629,312.988
1742124212.465,999.512,-144.043,159.18,999.512
1742124212.469,150.879,-1000.0,187.012,-59.57
1742124212.473,-1000.0,-1000.0,55.176,-1000.0
1742124212.477,-1000.0,-609.375,-10.254,-1000.0
1742124212.478,113.77,856.934,89.844,89.844
1742124212.482,999.512,825.684,150.391,999.512
1742124212.486,310.547,-583.496,277.832,283.203
1742124212.49,-965.82,-1000.0,312.5,-967.285
1742124212.494,-1000.0,-1000.0,465.332,-1000.0
1742124212.498,-13.672,308.594,870.117,-39.551
1742124212.502,999.512,546.387,979.98,999.512
1742124212.505,203.613,-958.984,955.566,98.633
1742124212.509,-1000.0,-1000.0,960.938,-1000.0
1742124212.513,-772.461,-306.641,965.332,-798.828
1742124212.517,694.336,999.512,960.938,620.117
1742124212.521,999.512,396.484,917.969,999.512
1742124212.478,113.77,856.934,89.844,89.844
1742124212.482,999.512,825.684,150.391,999.512
1742124212.486,310.547,-583.496,277.832,283.203
1742124212.49,-965.82,-1000.0,312.5,-967.285
1742124212.494,-1000.0,-1000.0,465.332,-1000.0
1742124212.498,-13.672,308.594,870.117,-39.551
1742124212.502,999.512,546.387,979.98,999.512
1742124212.505,203.613,-958.984,955.566,98.633
1742124212.509,-1000.0,-1000.0,960.938,-1000.0
1742124212.513,-772.461,-306.641,965.332,-798.828
1742124212.517,694.336,999.512,960.938,620.117
1742124212.521,999.512,396.484,917.969,999.512
1742124212.523,-347.168,-927.734,999.512,-333.496
1742124212.527,-1000.0,-1000.0,74.707,-1000.0
1742124212.531,-886.23,-297.363,-1000.0,-896.484
1742124212.535,-1000.0,980.469,-972.656,-1000.0
1742124212.539,-161.133,904.297,-980.469,-134.277
1742124212.543,999.512,999.512,-1000.0,999.512
1742124212.547,626.465,326.172,-1000.0,638.672
1742124212.55,-751.953,-957.031,-1000.0,-725.586
1742124212.554,-1000.0,-1000.0,-1000.0,-1000.0
1742124212.558,-922.363,-834.961,-1000.0,-939.453
1742124212.562,265.625,568.848,-1000.0,226.074
1742124212.566,999.512,989.258,-1000.0,999.512
1742124212.523,-347.168,-927.734,999.512,-333.496
1742124212.527,-1000.0,-1000.0,74.707,-1000.0
1742124212.531,-886.23,-297.363,-1000.0,-896.484
1742124212.535,-1000.0,980.469,-972.656,-1000.0
1742124212.539,-161.133,904.297,-980.469,-134.277
1742124212.543,999.512,999.512,-1000.0,999.512
1742124212.547,626.465,326.172,-1000.0,638.672
1742124212.55,-751.953,-957.031,-1000.0,-725.586
1742124212.554,-1000.0,-1000.0,-1000.0,-1000.0
1742124212.558,-922.363,-834.961,-1000.0,-939.453
1742124212.562,265.625,568.848,-1000.0,226.074
1742124212.566,999.512,989.258,-1000.0,999.512
1742124212.598,178.711,-484.863,-1000.0,145.508
1742124212.602,-1000.0,-1000.0,-1000.0,-1000.0
1742124212.606,-277.832,57.617,-1000.0,-281.738
1742124212.61,999.512,999.512,-1000.0,999.512
1742124212.614,562.5,119.141,-1000.0,537.598
1742124212.618,-972.656,-1000.0,-1000.0,-957.52
1742124212.622,-938.477,-317.383,-1000.0,-943.359
1742124212.625,477.539,999.512,-1000.0,462.891
1742124212.629,999.512,264.648,-1000.0,999.512
1742124212.633,105.469,-1000.0,-1000.0,-21.973
1742124212.637,-1000.0,-972.168,-1000.0,-1000.0
1742124212.641,-1000.0,-1000.0,-1000.0,-1000.0
1742124212.598,178.711,-484.863,-1000.0,145.508
1742124212.602,-1000.0,-1000.0,-1000.0,-1000.0
1742124212.606,-277.832,57.617,-1000.0,-281.738
1742124212.61,999.512,999.512,-1000.0,999.512
1742124212.614,562.5,119.141,-1000.0,537.598
1742124212.618,-972.656,-1000.0,-1000.0,-957.52
1742124212.622,-938.477,-317.383,-1000.0,-943.359
1742124212.625,477.539,999.512,-1000.0,462.891
1742124212.629,999.512,264.648,-1000.0,999.512
1742124212.633,105.469,-1000.0,-1000.0,-21.973
1742124212.637,-1000.0,-972.168,-1000.0,-1000.0
1742124212.641,-1000.0,-1000.0,-1000.0,-1000.0
1742124212.628,-201.172,53.711,-1000.0,-198.73
1742124212.632,999.512,999.512,-1000.0,999.512
1742124212.636,756.348,104.98,-1000.0,697.754
1742124212.64,-595.215,-1000.0,-1000.0,-631.348
1742124212.644,-1000.0,-1000.0,-1000.0,-1000.0
1742124212.648,-192.871,-34.18,-1000.0,-189.941
1742124212.652,999.512,999.512,-1000.0,999.512
1742124212.655,946.289,423.828,-1000.0,921.875
1742124212.659,-321.289,-960.449,-999.023,-340.82
1742124212.663,-1000.0,-1000.0,-1000.0,-1000.0
1742124212.667,-163.574,456.543,-975.586,-158.691
1742124212.671,999.512,603.516,-899.414,999.512
1742124212.628,-201.172,53.711,-1000.0,-198.73
1742124212.632,999.512,999.512,-1000.0,999.512
1742124212.636,756.348,104.98,-1000.0,697.754
1742124212.64,-595.215,-1000.0,-1000.0,-631.348
1742124212.644,-1000.0,-1000.0,-1000.0,-1000.0
1742124212.648,-192.871,-34.18,-1000.0,-189.941
1742124212.652,999.512,999.512,-1000.0,999.512
1742124212.655,946.289,423.828,-1000.0,921.875
1742124212.659,-321.289,-960.449,-999.023,-340.82
1742124212.663,-1000.0,-1000.0,-1000.0,-1000.0
1742124212.667,-163.574,456.543,-975.586,-158.691
1742124212.671,999.512,603.516,-899.414,999.512
1742124212.673,999.512,-870.117,-832.52,932.129
1742124212.677,-109.863,-1000.0,-874.023,-259.766
1742124212.681,-1000.0,-521.973,-874.023,-1000.0
1742124212.685,-158.203,749.512,-808.594,-103.516
1742124212.689,999.512,999.512,-771.484,999.512
1742124212.693,999.512,727.051,-687.012,999.512
1742124212.697,-35.645,-548.34,-705.078,-31.738
1742124212.7,-1000.0,-1000.0,-744.141,-1000.0
1742124212.704,-1000.0,-1000.0,-684.082,-1000.0
1742124212.708,-257.812,-85.938,-579.102,-243.652
1742124212.712,999.512,999.512,-501.465,999.512
1742124212.716,518.555,209.473,-530.273,532.227
1742124212.673,999.512,-870.117,-832.52,932.129
1742124212.677,-109.863,-1000.0,-874.023,-259.766
1742124212.681,-1000.0,-521.973,-874.023,-1000.0
1742124212.685,-158.203,749.512,-808.594,-103.516
1742124212.689,999.512,999.512,-771.484,999.512
1742124212.693,999.512,727.051,-687.012,999.512
1742124212.697,-35.645,-548.34,-705.078,-31.738
1742124212.7,-1000.0,-1000.0,-744.141,-1000.0
1742124212.704,-1000.0,-1000.0,-684.082,-1000.0
1742124212.708,-257.812,-85.938,-579.102,-243.652
1742124212.712,999.512,999.512,-501.465,999.512
1742124212.716,518.555,209.473,-530.273,532.227
1742124212.718,-924.805,-1000.0,-596.68,-900.879
1742124212.722,-1000.0,-400.879,-610.352,-1000.0
1742124212.726,130.859,958.008,-541.504,148.926
1742124212.73,999.512,999.512,-460.938,999.512
1742124212.734,226.562,-99.121,-445.312,254.883
1742124212.738,-1000.0,-1000.0,-526.855,-1000.0
1742124212.742,-855.957,-35.156,-552.734,-824.707
1742124212.745,784.668,999.512,-450.195,787.598
1742124212.749,472.656,-58.105,-514.16,450.195
1742124212.753,-1000.0,-1000.0,-604.004,-1000.0
1742124212.757,-985.352,-204.102,-589.355,-966.797
1742124212.761,311.035,999.512,-594.238,297.852
1742124212.718,-924.805,-1000.0,-596.68,-900.879
1742124212.722,-1000.0,-400.879,-610.352,-1000.0
1742124212.726,130.859,958.008,-541.504,148.926
1742124212.73,999.512,999.512,-460.938,999.512
1742124212.734,226.562,-99.121,-445.312,254.883
1742124212.738,-1000.0,-1000.0,-526.855,-1000.0
1742124212.742,-855.957,-35.156,-552.734,-824.707
1742124212.745,784.668,999.512,-450.195,787.598
1742124212.749,472.656,-58.105,-514.16,450.195
1742124212.753,-1000.0,-1000.0,-604.004,-1000.0
1742124212.757,-985.352,-204.102,-589.355,-966.797
1742124212.761,311.035,999.512,-594.238,297.852
1742124212.763,999.512,877.441,-502.93,999.512
1742124212.767,191.406,-497.07,-401.855,166.992
1742124212.771,-1000.0,-1000.0,-403.809,-1000.0
1742124212.775,-161.621,580.078,-469.727,-143.066
1742124212.779,974.609,409.18,-534.18,965.82
1742124212.783,-720.703,-1000.0,-477.051,-669.434
1742124212.787,-848.145,-61.523,-470.215,-893.555
1742124212.79,988.281,999.512,-500.977,890.137
1742124212.794,335.449,-9.766,-588.379,365.723
1742124212.798,-1000.0,-1000.0,-555.664,-1000.0
1742124212.802,-478.027,-212.402,-395.508,-528.32
1742124212.806,947.266,999.512,-334.473,922.363
1742124212.763,999.512,877.441,-502.93,999.512
1742124212.767,191.406,-497.07,-401.855,166.992
1742124212.771,-1000.0,-1000.0,-403.809,-1000.0
1742124212.775,-161.621,580.078,-469.727,-143.066
1742124212.779,974.609,409.18,-534.18,965.82
1742124212.783,-720.703,-1000.0,-477.051,-669.434
1742124212.787,-848.145,-61.523,-470.215,-893.555
1742124212.79,988.281,999.512,-500.977,890.137
1742124212.794,335.449,-9.766,-588.379,365.723
1742124212.798,-1000.0,-1000.0,-555.664,-1000.0
1742124212.802,-478.027,-212.402,-395.508,-528.32
1742124212.806,947.266,999.512,-334.473,922.363
1742124212.808,999.512,413.574,-309.57,999.512
1742124212.812,-229.492,-987.305,-400.879,-273.438
1742124212.816,-1000.0,-1000.0,-429.688,-1000.0
1742124212.82,-150.879,548.828,-333.008,-137.695
1742124212.824,999.512,283.691,-331.055,999.512
1742124212.828,944.336,-343.262,-304.199,950.684
1742124212.832,962.891,999.512,-284.18,930.664
1742124212.835,-200.684,-183.105,-381.348,-234.375
1742124212.839,-1000.0,-1000.0,-425.293,-1000.0
1742124212.843,-580.566,-336.426,-306.152,-640.625
1742124212.847,840.82,999.512,-205.566,769.043
1742124212.851,999.512,513.672,-257.812,999.512
1742124212.808,999.512,413.574,-309.57,999.512
1742124212.812,-229.492,-987.305,-400.879,-273.438
1742124212.816,-1000.0,-1000.0,-429.688,-1000.0
1742124212.82,-150.879,548.828,-333.008,-137.695
1742124212.824,999.512,283.691,-331.055,999.512
1742124212.828,944.336,-343.262,-304.199,950.684
1742124212.832,962.891,999.512,-284.18,930.664
1742124212.835,-200.684,-183.105,-381.348,-234.375
1742124212.839,-1000.0,-1000.0,-425.293,-1000.0
1742124212.843,-580.566,-336.426,-306.152,-640.625
1742124212.847,840.82,999.512,-205.566,769.043
1742124212.851,999.512,513.672,-257.812,999.512
1742124212.808,999.512,413.574,-309.57,999.512
1742124212.812,-229.492,-987.305,-400.879,-273.438
1742124212.816,-1000.0,-1000.0,-429.688,-1000.0
1742124212.82,-150.879,548.828,-333.008,-137.695
1742124212.824,999.512,283.691,-331.055,999.512
1742124212.828,944.336,-343.262,-304.199,950.684
1742124212.832,962.891,999.512,-284.18,930.664
1742124212.835,-200.684,-183.105,-381.348,-234.375
1742124212.839,-1000.0,-1000.0,-425.293,-1000.0
1742124212.843,-580.566,-336.426,-306.152,-640.625
1742124212.847,840.82,999.512,-205.566,769.043
1742124212.851,999.512,513.672,-257.812,999.512
1742124212.853,-445.312,-1000.0,-298.828,-449.219
1742124212.857,-1000.0,-308.105,-215.332,-1000.0
1742124212.861,339.355,999.512,-91.797,372.07
1742124212.865,999.512,999.512,-118.652,999.512
1742124212.869,174.805,-206.055,-280.273,173.828
1742124212.873,-1000.0,-436.523,-242.188,-1000.0
1742124212.877,-858.887,956.055,-96.68,-750.977
1742124212.88,533.203,999.512,-130.859,603.516
1742124212.884,999.512,647.461,-86.914,999.512
1742124212.888,-101.562,-752.93,-119.629,-104.98
1742124212.892,-1000.0,-1000.0,-201.172,-1000.0
1742124212.896,-280.762,527.344,-175.781,-309.57
1742124212.853,-445.312,-1000.0,-298.828,-449.219
1742124212.857,-1000.0,-308.105,-215.332,-1000.0
1742124212.861,339.355,999.512,-91.797,372.07
1742124212.865,999.512,999.512,-118.652,999.512
1742124212.869,174.805,-206.055,-280.273,173.828
1742124212.873,-1000.0,-436.523,-242.188,-1000.0
1742124212.877,-858.887,956.055,-96.68,-750.977
1742124212.88,533.203,999.512,-130.859,603.516
1742124212.884,999.512,647.461,-86.914,999.512
1742124212.888,-101.562,-752.93,-119.629,-104.98
1742124212.892,-1000.0,-1000.0,-201.172,-1000.0
1742124212.896,-280.762,527.344,-175.781,-309.57
1742124212.898,999.512,643.066,-187.988,999.512
1742124212.902,439.941,-852.051,-177.734,356.445
1742124212.906,-988.281,-1000.0,-218.75,-1000.0
1742124212.91,-1000.0,-157.227,-298.828,-1000.0
1742124212.914,153.32,959.961,-272.461,149.902
1742124212.918,999.512,999.512,-160.156,999.512
1742124212.922,431.152,203.613,-114.746,434.57
1742124212.925,-856.445,-975.586,-170.898,-849.121
1742124212.929,-1000.0,-1000.0,-277.344,-1000.0
1742124212.933,-649.414,-338.379,-271.973,-724.609
1742124212.937,860.84,999.512,-125.0,781.738
1742124212.941,812.012,195.801,-125.488,728.516
1742124212.898,999.512,643.066,-187.988,999.512
1742124212.902,439.941,-852.051,-177.734,356.445
1742124212.906,-988.281,-1000.0,-218.75,-1000.0
1742124212.91,-1000.0,-157.227,-298.828,-1000.0
1742124212.914,153.32,959.961,-272.461,149.902
1742124212.918,999.512,999.512,-160.156,999.512
1742124212.922,431.152,203.613,-114.746,434.57
1742124212.925,-856.445,-975.586,-170.898,-849.121
1742124212.929,-1000.0,-1000.0,-277.344,-1000.0
1742124212.933,-649.414,-338.379,-271.973,-724.609
1742124212.937,860.84,999.512,-125.0,781.738
1742124212.941,812.012,195.801,-125.488,728.516
1742124212.959,-666.016,-1000.0,-187.5,-735.84
1742124212.963,-1000.0,-204.102,-207.031,-1000.0
1742124212.967,-269.531,999.512,-214.355,-297.363
1742124212.971,999.512,999.512,-169.922,999.512
1742124212.975,510.254,39.551,-140.137,518.066
1742124212.979,-955.078,-1000.0,-77.637,-923.34
1742124212.983,-1000.0,166.992,-117.188,-1000.0
1742124212.986,-938.965,-36.621,-237.305,-938.477
1742124212.99,-1000.0,-1000.0,-203.125,-1000.0
1742124212.994,173.828,316.895,-80.566,145.508
1742124212.998,999.512,999.512,-32.227,999.512
1742124213.002,195.801,-233.398,-100.586,230.957
1742124212.959,-666.016,-1000.0,-187.5,-735.84
1742124212.963,-1000.0,-204.102,-207.031,-1000.0
1742124212.967,-269.531,999.512,-214.355,-297.363
1742124212.971,999.512,999.512,-169.922,999.512
1742124212.975,510.254,39.551,-140.137,518.066
1742124212.979,-955.078,-1000.0,-77.637,-923.34
1742124212.983,-1000.0,166.992,-117.188,-1000.0
1742124212.986,-938.965,-36.621,-237.305,-938.477
1742124212.99,-1000.0,-1000.0,-203.125,-1000.0
1742124212.994,173.828,316.895,-80.566,145.508
1742124212.998,999.512,999.512,-32.227,999.512
1742124213.002,195.801,-233.398,-100.586,230.957
1742124213.003,-1000.0,-993.652,-135.254,-1000.0
1742124213.007,-371.094,486.816,-111.328,-375.0
1742124213.011,999.512,999.512,-101.562,999.512
1742124213.015,434.57,-164.062,-68.848,414.062
1742124213.019,-1000.0,-1000.0,-73.242,-1000.0
1742124213.023,-1000.0,291.992,-72.754,-914.062
1742124213.027,354.492,999.512,-74.219,465.82
1742124213.03,999.512,431.152,-53.223,999.512
1742124213.034,-312.988,-985.352,-117.188,-300.293
1742124213.038,-1000.0,-892.578,-108.398,-1000.0
1742124213.042,-201.66,683.105,-9.277,-179.199
1742124213.046,999.512,751.465,-33.203,999.512
1742124213.003,-1000.0,-993.652,-135.254,-1000.0
1742124213.007,-371.094,486.816,-111.328,-375.0
1742124213.011,999.512,999.512,-101.562,999.512
1742124213.015,434.57,-164.062,-68.848,414.062
1742124213.019,-1000.0,-1000.0,-73.242,-1000.0
1742124213.023,-1000.0,291.992,-72.754,-914.062
1742124213.027,354.492,999.512,-74.219,465.82
1742124213.03,999.512,431.152,-53.223,999.512
1742124213.034,-312.988,-985.352,-117.188,-300.293
1742124213.038,-1000.0,-892.578,-108.398,-1000.0
1742124213.042,-201.66,683.105,-9.277,-179.199
1742124213.046,999.512,751.465,-33.203,999.512
1742124213.048,54.199,-932.617,-107.91,69.336
1742124213.052,-1000.0,-700.684,-82.52,-1000.0
1742124213.056,29.297,848.145,-42.48,-55.664
1742124213.06,999.512,999.512,-78.125,999.512
1742124213.064,17.578,-498.535,-121.582,35.645
1742124213.068,-1000.0,-295.898,-23.438,-1000.0
1742124213.072,343.262,999.512,83.008,429.688
1742124213.075,622.559,-55.664,-44.434,570.312
1742124213.079,-1000.0,-1000.0,-147.461,-1000.0
1742124213.083,-759.277,-291.992,-41.992,-792.969
1742124213.087,707.52,999.512,69.824,661.621
1742124213.091,999.512,264.16,74.707,999.512
1742124213.048,54.199,-932.617,-107.91,69.336
1742124213.052,-1000.0,-700.684,-82.52,-1000.0
1742124213.056,29.297,848.145,-42.48,-55.664
1742124213.06,999.512,999.512,-78.125,999.512
1742124213.064,17.578,-498.535,-121.582,35.645
1742124213.068,-1000.0,-295.898,-23.438,-1000.0
1742124213.072,343.262,999.512,83.008,429.688
1742124213.075,622.559,-55.664,-44.434,570.312
1742124213.079,-1000.0,-1000.0,-147.461,-1000.0
1742124213.083,-759.277,-291.992,-41.992,-792.969
1742124213.087,707.52,999.512,69.824,661.621
1742124213.091,999.512,264.16,74.707,999.512
1742124213.108,27.344,-1000.0,32.715,-54.199
1742124213.112,-1000.0,-1000.0,-18.066,-1000.0
1742124213.116,-395.996,-145.02,29.297,-412.598
1742124213.12,999.512,999.512,107.91,999.512
1742124213.124,621.094,141.113,99.121,630.371
1742124213.128,-890.625,-1000.0,85.449,-870.117
1742124213.132,-1000.0,-226.074,19.531,-1000.0
1742124213.135,480.957,999.512,29.297,524.902
1742124213.139,598.633,180.664,-12.207,618.164
1742124213.143,-994.629,-1000.0,-23.438,-948.242
1742124213.147,-1000.0,-747.559,50.781,-1000.0
1742124213.151,189.941,809.082,-20.996,153.32
1742124213.138,999.512,568.848,-30.762,999.512
1742124213.142,-213.867,-1000.0,-19.043,-187.012
1742124213.146,-1000.0,-812.5,-12.207,-1000.0
1742124213.15,246.582,860.352,40.039,191.895
1742124213.154,914.551,390.137,-33.691,922.363
1742124213.158,-792.48,-1000.0,-37.598,-750.0
1742124213.162,-1000.0,-83.496,-1.953,-952.637
1742124213.165,494.141,999.512,-37.109,521.973
1742124213.169,999.512,739.746,8.789,999.512
1742124213.173,-14.648,-561.035,-58.594,-0.488
1742124213.177,-1000.0,-1000.0,-123.047,-1000.0
1742124213.181,-261.719,120.605,-42.969,-305.664
1742124213.183,999.512,425.293,-52.734,987.305
1742124213.187,921.875,-543.457,-52.734,930.664
1742124213.191,999.512,871.094,-15.625,999.512
1742124213.195,25.879,-1.953,-131.836,36.133
1742124213.199,-1000.0,-1000.0,-187.012,-1000.0
1742124213.203,-243.164,93.262,-40.527,-228.516
1742124213.207,999.512,999.512,7.324,999.512
1742124213.21,282.227,74.707,-190.43,308.594
1742124213.214,-1000.0,-1000.0,-336.426,-990.234
1742124213.218,-1000.0,-989.258,-271.973,-1000.0
1742124213.222,-111.816,485.84,-155.273,-125.977
1742124213.226,999.512,523.926,-155.273,999.512
1742124213.183,999.512,425.293,-52.734,987.305
1742124213.187,921.875,-543.457,-52.734,930.664
1742124213.191,999.512,871.094,-15.625,999.512
1742124213.195,25.879,-1.953,-131.836,36.133
1742124213.199,-1000.0,-1000.0,-187.012,-1000.0
1742124213.203,-243.164,93.262,-40.527,-228.516
1742124213.207,999.512,999.512,7.324,999.512
1742124213.21,282.227,74.707,-190.43,308.594
1742124213.214,-1000.0,-1000.0,-336.426,-990.234
1742124213.218,-1000.0,-989.258,-271.973,-1000.0
1742124213.222,-111.816,485.84,-155.273,-125.977
1742124213.226,999.512,523.926,-155.273,999.512
1742124213.243,214.355,-1000.0,-257.812,138.184
1742124213.247,-1000.0,-994.141,-253.906,-1000.0
1742124213.251,-261.23,238.77,-113.281,-246.582
1742124213.255,999.512,999.512,-16.113,999.512
1742124213.259,735.84,221.68,-18.066,759.766
1742124213.263,-706.055,-1000.0,-15.137,-651.855
1742124213.267,-1000.0,120.605,-32.227,-1000.0
1742124213.27,-1000.0,-441.895,-113.77,-1000.0
1742124213.274,-642.09,-818.359,-151.855,-611.328
1742124213.278,753.906,869.141,-53.711,753.418
1742124213.282,999.512,999.512,-30.762,999.512
1742124213.286,190.918,-303.711,-136.719,171.875
1742124213.243,214.355,-1000.0,-257.812,138.184
1742124213.247,-1000.0,-994.141,-253.906,-1000.0
1742124213.251,-261.23,238.77,-113.281,-246.582
1742124213.255,999.512,999.512,-16.113,999.512
1742124213.259,735.84,221.68,-18.066,759.766
1742124213.263,-706.055,-1000.0,-15.137,-651.855
1742124213.267,-1000.0,120.605,-32.227,-1000.0
1742124213.27,-1000.0,-441.895,-113.77,-1000.0
1742124213.274,-642.09,-818.359,-151.855,-611.328
1742124213.278,753.906,869.141,-53.711,753.418
1742124213.282,999.512,999.512,-30.762,999.512
1742124213.286,190.918,-303.711,-136.719,171.875
1742124213.274,-1000.0,-1000.0,-163.086,-1000.0
1742124213.278,-275.391,67.383,-96.191,-260.254
1742124213.282,999.512,999.512,-122.559,999.512
1742124213.286,375.488,-88.867,-173.828,390.625
1742124213.29,-1000.0,-1000.0,-166.992,-1000.0
1742124213.294,-347.656,284.18,-164.062,-358.398
1742124213.298,999.512,999.512,-127.93,999.512
1742124213.301,474.121,89.844,-156.738,496.582
1742124213.305,-937.012,-1000.0,-261.719,-903.809
1742124213.309,-1000.0,-643.555,-269.531,-1000.0
1742124213.313,17.09,819.336,-148.438,5.859
1742124213.317,999.512,881.836,-88.867,999.512
1742124213.274,-1000.0,-1000.0,-163.086,-1000.0
1742124213.278,-275.391,67.383,-96.191,-260.254
1742124213.282,999.512,999.512,-122.559,999.512
1742124213.286,375.488,-88.867,-173.828,390.625
1742124213.29,-1000.0,-1000.0,-166.992,-1000.0
1742124213.294,-347.656,284.18,-164.062,-358.398
1742124213.298,999.512,999.512,-127.93,999.512
1742124213.301,474.121,89.844,-156.738,496.582
1742124213.305,-937.012,-1000.0,-261.719,-903.809
1742124213.309,-1000.0,-643.555,-269.531,-1000.0
1742124213.313,17.09,819.336,-148.438,5.859
1742124213.317,999.512,881.836,-88.867,999.512
1742124213.334,201.172,-654.297,-169.434,177.734
1742124213.338,-1000.0,-988.281,-180.176,-1000.0
1742124213.342,-264.16,415.039,-159.668,-242.188
1742124213.346,999.512,999.512,-125.0,999.512
1742124213.35,211.914,-83.008,-181.641,230.469
1742124213.354,-1000.0,-775.879,-172.363,-1000.0
1742124213.358,178.223,907.227,-94.238,156.738
1742124213.361,800.781,142.09,-196.289,763.672
1742124213.365,-1000.0,-1000.0,-251.953,-1000.0
1742124213.369,-645.02,-190.918,-183.105,-668.457
1742124213.373,863.77,999.512,-85.449,816.895
1742124213.377,999.512,854.492,-26.367,999.512
1742124213.334,201.172,-654.297,-169.434,177.734
1742124213.338,-1000.0,-988.281,-180.176,-1000.0
1742124213.342,-264.16,415.039,-159.668,-242.188
1742124213.346,999.512,999.512,-125.0,999.512
1742124213.35,211.914,-83.008,-181.641,230.469
1742124213.354,-1000.0,-775.879,-172.363,-1000.0
1742124213.358,178.223,907.227,-94.238,156.738
1742124213.361,800.781,142.09,-196.289,763.672
1742124213.365,-1000.0,-1000.0,-251.953,-1000.0
1742124213.369,-645.02,-190.918,-183.105,-668.457
1742124213.373,863.77,999.512,-85.449,816.895
1742124213.377,999.512,854.492,-26.367,999.512
1742124213.873,-1000.0,-514.16,-50.293,-1000.0
1742124213.877,81.055,999.512,125.488,40.527
1742124213.881,999.512,735.352,203.613,999.512
1742124213.885,-15.137,-730.957,-22.461,-38.574
1742124213.889,-1000.0,-1000.0,-121.582,-1000.0
1742124213.893,-193.359,186.035,58.594,-180.176
1742124213.897,999.512,999.512,157.715,999.512
1742124213.9,979.98,761.719,72.266,962.891
1742124213.904,-256.836,-783.691,-128.418,-276.855
1742124213.908,-1000.0,-518.066,-174.805,-1000.0
1742124213.912,-208.008,937.988,-2.441,-143.066
1742124213.916,999.512,999.512,50.293,999.512
1742124213.378,141.113,-467.773,-154.297,127.441
1742124213.382,-1000.0,-1000.0,-273.926,-1000.0
1742124213.386,-413.574,59.082,-201.172,-423.828
1742124213.39,999.512,999.512,-203.613,999.512
1742124213.394,567.871,99.609,-202.637,567.383
1742124213.398,-1000.0,-1000.0,-212.402,-1000.0
1742124213.402,-832.52,-218.262,-272.949,-832.031
1742124213.405,878.418,999.512,-234.863,845.703
1742124213.409,468.262,192.383,-290.039,503.418
1742124213.413,-1000.0,-1000.0,-295.41,-1000.0
1742124213.417,-803.223,-419.434,-195.801,-871.094
1742124213.421,711.426,999.512,-179.688,620.117
1742124213.423,999.512,240.723,-156.738,999.512
1742124213.427,-596.191,-1000.0,-125.488,-550.781
1742124213.431,-798.828,-321.289,-88.379,-854.004
1742124213.435,999.512,999.512,-77.637,944.336
1742124213.439,393.066,58.594,-196.289,454.102
1742124213.443,-1000.0,-925.293,-170.898,-1000.0
1742124213.447,-256.348,751.465,-54.199,-240.723
1742124213.45,999.512,738.281,-23.926,999.512
1742124213.454,840.332,-766.602,-28.809,795.41
1742124213.458,-554.199,-1000.0,-88.867,-591.797
1742124213.462,-1000.0,-140.625,-95.703,-1000.0
1742124213.466,187.988,999.512,-15.137,323.242
1742124213.423,999.512,240.723,-156.738,999.512
1742124213.427,-596.191,-1000.0,-125.488,-550.781
1742124213.431,-798.828,-321.289,-88.379,-854.004
1742124213.435,999.512,999.512,-77.637,944.336
1742124213.439,393.066,58.594,-196.289,454.102
1742124213.443,-1000.0,-925.293,-170.898,-1000.0
1742124213.447,-256.348,751.465,-54.199,-240.723
1742124213.45,999.512,738.281,-23.926,999.512
1742124213.454,840.332,-766.602,-28.809,795.41
1742124213.458,-554.199,-1000.0,-88.867,-591.797
1742124213.462,-1000.0,-140.625,-95.703,-1000.0
1742124213.466,187.988,999.512,-15.137,323.242
1742124213.468,999.512,276.367,2.441,999.512
1742124213.472,-82.031,-1000.0,-15.137,-200.684
1742124213.476,-1000.0,-761.719,25.391,-1000.0
1742124213.48,-149.902,892.578,60.059,-107.91
1742124213.484,999.512,355.957,44.434,999.512
1742124213.488,883.301,-346.68,94.727,879.395
1742124213.492,999.512,999.512,159.668,999.512
1742124213.495,202.148,261.23,35.156,184.082
1742124213.499,-1000.0,-1000.0,-84.473,-1000.0
1742124213.503,-1000.0,-929.199,-40.039,-1000.0
1742124213.507,-103.027,393.555,23.438,-134.277
1742124213.511,999.512,999.512,57.617,999.512
1742124213.468,999.512,276.367,2.441,999.512
1742124213.472,-82.031,-1000.0,-15.137,-200.684
1742124213.476,-1000.0,-761.719,25.391,-1000.0
1742124213.48,-149.902,892.578,60.059,-107.91
1742124213.484,999.512,355.957,44.434,999.512
1742124213.488,883.301,-346.68,94.727,879.395
1742124213.492,999.512,999.512,159.668,999.512
1742124213.495,202.148,261.23,35.156,184.082
1742124213.499,-1000.0,-1000.0,-84.473,-1000.0
1742124213.503,-1000.0,-929.199,-40.039,-1000.0
1742124213.507,-103.027,393.555,23.438,-134.277
1742124213.511,999.512,999.512,57.617,999.512
1742124213.513,212.402,-363.77,-92.285,194.824
1742124213.517,-1000.0,-857.422,-135.742,-1000.0
1742124213.521,-275.391,619.141,41.016,-244.141
1742124213.525,999.512,999.512,118.652,999.512
1742124213.529,526.367,57.129,60.547,557.617
1742124213.533,-932.129,-701.66,45.41,-881.836
1742124213.537,-971.68,640.137,2.93,-979.492
1742124213.54,-1000.0,-557.129,-81.055,-1000.0
1742124213.544,-506.836,-556.152,-22.461,-545.898
1742124213.548,999.512,999.512,13.184,999.512
1742124213.552,613.77,200.195,-82.52,612.793
1742124213.556,-833.008,-1000.0,-157.227,-823.73
1742124213.559,-1000.0,-917.969,-156.25,-1000.0
1742124213.563,-197.754,295.41,-28.809,-198.242
1742124213.567,999.512,999.512,104.004,999.512
1742124213.571,248.535,-217.285,76.172,267.09
1742124213.575,-1000.0,-1000.0,54.199,-1000.0
1742124213.579,-282.715,-40.039,174.316,-332.52
1742124213.583,999.512,999.512,215.82,999.512
1742124213.586,424.316,145.996,74.219,426.27
1742124213.59,-929.688,-1000.0,-32.227,-933.105
1742124213.594,-1000.0,-672.363,-32.715,-1000.0
1742124213.598,-206.055,693.359,7.324,-188.477
1742124213.602,999.512,999.512,7.324,999.512
1742124213.559,-1000.0,-917.969,-156.25,-1000.0
1742124213.563,-197.754,295.41,-28.809,-198.242
1742124213.567,999.512,999.512,104.004,999.512
1742124213.571,248.535,-217.285,76.172,267.09
1742124213.575,-1000.0,-1000.0,54.199,-1000.0
1742124213.579,-282.715,-40.039,174.316,-332.52
1742124213.583,999.512,999.512,215.82,999.512
1742124213.586,424.316,145.996,74.219,426.27
1742124213.59,-929.688,-1000.0,-32.227,-933.105
1742124213.594,-1000.0,-672.363,-32.715,-1000.0
1742124213.598,-206.055,693.359,7.324,-188.477
1742124213.602,999.512,999.512,7.324,999.512
1742124213.603,232.91,-41.992,-19.043,251.953
1742124213.607,-1000.0,-1000.0,-37.598,-1000.0
1742124213.611,-1000.0,-206.543,-47.852,-1000.0
1742124213.615,279.297,999.512,-51.27,247.07
1742124213.619,999.512,913.086,-49.316,999.512
1742124213.623,999.512,955.078,22.461,999.512
1742124213.627,125.0,-119.141,-32.715,81.543
1742124213.63,-1000.0,-1000.0,-177.246,-1000.0
1742124213.634,-1000.0,-1000.0,-201.66,-1000.0
1742124213.638,-261.23,54.688,-39.551,-254.883
1742124213.642,999.512,999.512,147.949,999.512
1742124213.646,611.816,203.613,141.113,607.91
1742124213.603,232.91,-41.992,-19.043,251.953
1742124213.607,-1000.0,-1000.0,-37.598,-1000.0
1742124213.611,-1000.0,-206.543,-47.852,-1000.0
1742124213.615,279.297,999.512,-51.27,247.07
1742124213.619,999.512,913.086,-49.316,999.512
1742124213.623,999.512,955.078,22.461,999.512
1742124213.627,125.0,-119.141,-32.715,81.543
1742124213.63,-1000.0,-1000.0,-177.246,-1000.0
1742124213.634,-1000.0,-1000.0,-201.66,-1000.0
1742124213.638,-261.23,54.688,-39.551,-254.883
1742124213.642,999.512,999.512,147.949,999.512
1742124213.646,611.816,203.613,141.113,607.91
1742124213.648,-786.621,-1000.0,23.926,-784.18
1742124213.652,-1000.0,-196.777,19.043,-1000.0
1742124213.656,-185.547,992.188,97.168,-106.445
1742124213.66,999.512,999.512,150.879,999.512
1742124213.664,371.094,131.836,157.227,368.164
1742124213.668,-1000.0,-960.449,132.324,-1000.0
1742124213.672,-1000.0,537.109,97.656,-1000.0
1742124213.675,-911.133,99.121,168.945,-915.527
1742124213.679,-1000.0,-1000.0,230.957,-1000.0
1742124213.683,-51.27,23.438,172.852,-48.828
1742124213.687,999.512,839.355,137.207,999.512
1742124213.691,-75.684,-850.586,65.918,-74.707
1742124213.648,-786.621,-1000.0,23.926,-784.18
1742124213.652,-1000.0,-196.777,19.043,-1000.0
1742124213.656,-185.547,992.188,97.168,-106.445
1742124213.66,999.512,999.512,150.879,999.512
1742124213.664,371.094,131.836,157.227,368.164
1742124213.668,-1000.0,-960.449,132.324,-1000.0
1742124213.672,-1000.0,537.109,97.656,-1000.0
1742124213.675,-911.133,99.121,168.945,-915.527
1742124213.679,-1000.0,-1000.0,230.957,-1000.0
1742124213.683,-51.27,23.438,172.852,-48.828
1742124213.687,999.512,839.355,137.207,999.512
1742124213.691,-75.684,-850.586,65.918,-74.707
1742124213.708,-1000.0,-789.062,127.441,-1000.0
1742124213.712,62.988,775.391,267.09,18.066
1742124213.716,999.512,999.512,354.98,999.512
1742124213.72,198.242,-274.902,291.992,199.219
1742124213.724,-1000.0,-1000.0,162.598,-1000.0
1742124213.728,-308.105,445.312,188.965,-340.332
1742124213.732,999.512,999.512,136.719,999.512
1742124213.735,148.926,-618.164,-28.32,112.305
1742124213.739,-1000.0,-596.68,-79.102,-1000.0
1742124213.743,-907.715,884.277,-126.953,-897.461
1742124213.747,-1000.0,-589.844,-204.102,-1000.0
1742124213.751,-330.566,-424.805,-124.023,-395.996
1742124213.708,-1000.0,-789.062,127.441,-1000.0
1742124213.712,62.988,775.391,267.09,18.066
1742124213.716,999.512,999.512,354.98,999.512
1742124213.72,198.242,-274.902,291.992,199.219
1742124213.724,-1000.0,-1000.0,162.598,-1000.0
1742124213.728,-308.105,445.312,188.965,-340.332
1742124213.732,999.512,999.512,136.719,999.512
1742124213.735,148.926,-618.164,-28.32,112.305
1742124213.739,-1000.0,-596.68,-79.102,-1000.0
1742124213.743,-907.715,884.277,-126.953,-897.461
1742124213.747,-1000.0,-589.844,-204.102,-1000.0
1742124213.751,-330.566,-424.805,-124.023,-395.996
1742124213.753,999.512,999.512,-28.809,999.512
1742124213.757,684.082,333.496,-102.539,674.805
1742124213.761,-785.156,-1000.0,-174.805,-786.133
1742124213.765,-1000.0,-346.68,-106.934,-1000.0
1742124213.769,146.973,948.73,-31.738,105.469
1742124213.773,999.512,999.512,71.289,999.512
1742124213.777,398.438,265.137,25.391,384.766
1742124213.78,-876.953,-950.684,-137.207,-887.695
1742124213.784,-1000.0,-1000.0,-177.734,-1000.0
1742124213.788,-423.828,-224.609,-118.652,-499.512
1742124213.792,867.188,989.258,19.531,814.453
1742124213.796,999.512,999.512,27.832,999.512
1742124213.753,999.512,999.512,-28.809,999.512
1742124213.757,684.082,333.496,-102.539,674.805
1742124213.761,-785.156,-1000.0,-174.805,-786.133
1742124213.765,-1000.0,-346.68,-106.934,-1000.0
1742124213.769,146.973,948.73,-31.738,105.469
1742124213.773,999.512,999.512,71.289,999.512
1742124213.777,398.438,265.137,25.391,384.766
1742124213.78,-876.953,-950.684,-137.207,-887.695
1742124213.784,-1000.0,-1000.0,-177.734,-1000.0
1742124213.788,-423.828,-224.609,-118.652,-499.512
1742124213.792,867.188,989.258,19.531,814.453
1742124213.796,999.512,999.512,27.832,999.512
1742124213.798,93.262,-290.039,-177.734,83.984
1742124213.802,-1000.0,-792.969,-189.941,-1000.0
1742124213.806,-262.207,704.102,1.953,-269.043
1742124213.81,999.512,999.512,18.555,999.512
1742124213.814,368.164,18.555,-106.934,366.699
1742124213.818,-1000.0,-925.293,-75.195,-1000.0
1742124213.822,-949.707,517.578,6.836,-946.289
1742124213.825,-1000.0,-361.328,-87.891,-1000.0
1742124213.829,-302.246,-460.938,-17.578,-344.727
1742124213.833,999.512,999.512,62.988,999.512
1742124213.837,653.809,373.535,-22.949,666.992
1742124213.841,-786.133,-1000.0,-66.406,-756.348
1742124213.798,93.262,-290.039,-177.734,83.984
1742124213.802,-1000.0,-792.969,-189.941,-1000.0
1742124213.806,-262.207,704.102,1.953,-269.043
1742124213.81,999.512,999.512,18.555,999.512
1742124213.814,368.164,18.555,-106.934,366.699
1742124213.818,-1000.0,-925.293,-75.195,-1000.0
1742124213.822,-949.707,517.578,6.836,-946.289
1742124213.825,-1000.0,-361.328,-87.891,-1000.0
1742124213.829,-302.246,-460.938,-17.578,-344.727
1742124213.833,999.512,999.512,62.988,999.512
1742124213.837,653.809,373.535,-22.949,666.992
1742124213.841,-786.133,-1000.0,-66.406,-756.348
1742124213.889,421.387,230.957,-4.395,431.641
1742124213.893,-933.594,-1000.0,-90.82,-930.176
1742124213.897,-1000.0,-182.617,-77.637,-1000.0
1742124213.901,-112.793,999.512,-5.859,-29.297
1742124213.905,960.938,825.195,28.32,968.262
1742124213.909,999.512,887.695,64.453,999.512
1742124213.913,451.172,413.574,19.531,440.918
1742124213.916,-876.953,-904.297,-141.113,-880.371
1742124213.92,-1000.0,-1000.0,-155.762,-1000.0
1742124213.924,-208.008,-49.316,-4.395,-207.031
1742124213.928,999.512,999.512,118.164,999.512
1742124213.932,960.938,686.035,34.18,949.219
1742124213.889,421.387,230.957,-4.395,431.641
1742124213.893,-933.594,-1000.0,-90.82,-930.176
1742124213.897,-1000.0,-182.617,-77.637,-1000.0
1742124213.901,-112.793,999.512,-5.859,-29.297
1742124213.905,960.938,825.195,28.32,968.262
1742124213.909,999.512,887.695,64.453,999.512
1742124213.913,451.172,413.574,19.531,440.918
1742124213.916,-876.953,-904.297,-141.113,-880.371
1742124213.92,-1000.0,-1000.0,-155.762,-1000.0
1742124213.924,-208.008,-49.316,-4.395,-207.031
1742124213.928,999.512,999.512,118.164,999.512
1742124213.932,960.938,686.035,34.18,949.219
1742124214.413,187.012,954.102,967.285,209.961
1742124214.417,999.512,948.73,966.797,999.512
1742124214.421,999.512,999.512,966.797,999.512
1742124214.425,-7.812,-137.695,967.285,-4.883
1742124214.429,-1000.0,-1000.0,967.285,-1000.0
1742124214.433,-233.398,244.141,966.797,-215.332
1742124214.437,999.512,999.512,966.797,999.512
1742124214.44,352.539,54.688,967.285,367.188
1742124214.444,-1000.0,-1000.0,967.285,-1000.0
1742124214.448,-968.75,-282.227,967.285,-958.496
1742124214.452,338.867,964.355,967.285,328.613
1742124214.456,999.512,999.512,966.797,999.512
1742124213.933,-349.121,-882.324,-81.055,-374.023
1742124213.937,-1000.0,-357.422,-28.809,-1000.0
1742124213.941,37.109,999.512,69.336,115.234
1742124213.945,999.512,999.512,70.312,999.512
1742124213.949,140.625,-267.578,-30.273,146.484
1742124213.953,-1000.0,-323.242,-93.262,-1000.0
1742124213.957,-1000.0,999.512,-46.387,-1000.0
1742124213.96,-157.227,999.512,41.504,-34.668
1742124213.964,999.512,256.348,42.48,987.793
1742124213.968,-215.82,-1000.0,0.0,-384.277
1742124213.972,-1000.0,-528.809,30.273,-1000.0
1742124213.976,-17.09,999.512,105.957,-30.762
1742124213.933,-349.121,-882.324,-81.055,-374.023
1742124213.937,-1000.0,-357.422,-28.809,-1000.0
1742124213.941,37.109,999.512,69.336,115.234
1742124213.945,999.512,999.512,70.312,999.512
1742124213.949,140.625,-267.578,-30.273,146.484
1742124213.953,-1000.0,-323.242,-93.262,-1000.0
1742124213.957,-1000.0,999.512,-46.387,-1000.0
1742124213.96,-157.227,999.512,41.504,-34.668
1742124213.964,999.512,256.348,42.48,987.793
1742124213.968,-215.82,-1000.0,0.0,-384.277
1742124213.972,-1000.0,-528.809,30.273,-1000.0
1742124213.976,-17.09,999.512,105.957,-30.762
1742124213.933,-349.121,-882.324,-81.055,-374.023
1742124213.937,-1000.0,-357.422,-28.809,-1000.0
1742124213.941,37.109,999.512,69.336,115.234
1742124213.945,999.512,999.512,70.312,999.512
1742124213.949,140.625,-267.578,-30.273,146.484
1742124213.953,-1000.0,-323.242,-93.262,-1000.0
1742124213.957,-1000.0,999.512,-46.387,-1000.0
1742124213.96,-157.227,999.512,41.504,-34.668
1742124213.964,999.512,256.348,42.48,987.793
1742124213.968,-215.82,-1000.0,0.0,-384.277
1742124213.972,-1000.0,-528.809,30.273,-1000.0
1742124213.976,-17.09,999.512,105.957,-30.762
1742124213.978,999.512,748.047,139.648,999.512
1742124213.982,153.809,-853.027,121.094,117.188
1742124213.986,-1000.0,-830.566,90.332,-1000.0
1742124213.99,-148.438,938.965,71.777,-129.883
1742124213.994,999.512,325.684,57.129,999.512
1742124213.998,-672.363,-980.469,100.098,-616.211
1742124214.002,-423.828,448.73,197.754,-440.43
1742124214.005,999.512,999.512,197.266,999.512
1742124214.009,145.02,-357.422,90.82,156.25
1742124214.013,-1000.0,-91.797,118.164,-1000.0
1742124214.017,-1000.0,335.938,190.918,-1000.0
1742124214.021,-661.621,-609.375,209.473,-709.473
1742124213.978,999.512,748.047,139.648,999.512
1742124213.982,153.809,-853.027,121.094,117.188
1742124213.986,-1000.0,-830.566,90.332,-1000.0
1742124213.99,-148.438,938.965,71.777,-129.883
1742124213.994,999.512,325.684,57.129,999.512
1742124213.998,-672.363,-980.469,100.098,-616.211
1742124214.002,-423.828,448.73,197.754,-440.43
1742124214.005,999.512,999.512,197.266,999.512
1742124214.009,145.02,-357.422,90.82,156.25
1742124214.013,-1000.0,-91.797,118.164,-1000.0
1742124214.017,-1000.0,335.938,190.918,-1000.0
1742124214.021,-661.621,-609.375,209.473,-709.473
1742124213.978,999.512,748.047,139.648,999.512
1742124213.982,153.809,-853.027,121.094,117.188
1742124213.986,-1000.0,-830.566,90.332,-1000.0
1742124213.99,-148.438,938.965,71.777,-129.883
1742124213.994,999.512,325.684,57.129,999.512
1742124213.998,-672.363,-980.469,100.098,-616.211
1742124214.002,-423.828,448.73,197.754,-440.43
1742124214.005,999.512,999.512,197.266,999.512
1742124214.009,145.02,-357.422,90.82,156.25
1742124214.013,-1000.0,-91.797,118.164,-1000.0
1742124214.017,-1000.0,335.938,190.918,-1000.0
1742124214.021,-661.621,-609.375,209.473,-709.473
1742124214.023,688.477,759.277,271.973,623.047
1742124214.027,999.512,999.512,182.129,999.512
1742124214.031,182.129,-72.754,104.492,153.809
1742124214.035,-1000.0,-1000.0,108.398,-1000.0
1742124214.039,-274.414,160.645,182.129,-289.062
1742124214.043,999.512,999.512,295.898,999.512
1742124214.047,595.215,350.586,214.355,598.633
1742124214.05,-791.992,-919.434,108.887,-771.973
1742124214.054,-1000.0,-1000.0,95.703,-1000.0
1742124214.058,-160.156,-118.164,229.98,-189.941
1742124214.062,958.984,968.262,372.07,951.66
1742124214.066,999.512,999.512,342.285,999.512
1742124214.023,688.477,759.277,271.973,623.047
1742124214.027,999.512,999.512,182.129,999.512
1742124214.031,182.129,-72.754,104.492,153.809
1742124214.035,-1000.0,-1000.0,108.398,-1000.0
1742124214.039,-274.414,160.645,182.129,-289.062
1742124214.043,999.512,999.512,295.898,999.512
1742124214.047,595.215,350.586,214.355,598.633
1742124214.05,-791.992,-919.434,108.887,-771.973
1742124214.054,-1000.0,-1000.0,95.703,-1000.0
1742124214.058,-160.156,-118.164,229.98,-189.941
1742124214.062,958.984,968.262,372.07,951.66
1742124214.066,999.512,999.512,342.285,999.512
1742124214.083,222.168,164.062,223.633,217.773
1742124214.087,-1000.0,-1000.0,281.25,-1000.0
1742124214.091,-278.809,102.051,448.73,-308.594
1742124214.095,999.512,999.512,465.332,999.512
1742124214.099,412.109,233.887,336.914,436.523
1742124214.103,-999.023,-1000.0,242.676,-988.77
1742124214.107,-955.078,74.219,227.051,-956.055
1742124214.11,-1000.0,-43.457,140.625,-1000.0
1742124214.114,-357.422,-473.145,139.16,-400.391
1742124214.118,999.512,999.512,92.285,999.512
1742124214.122,589.844,320.312,-6.348,644.043
1742124214.126,-840.82,-1000.0,-11.719,-774.414
1742124214.083,222.168,164.062,223.633,217.773
1742124214.087,-1000.0,-1000.0,281.25,-1000.0
1742124214.091,-278.809,102.051,448.73,-308.594
1742124214.095,999.512,999.512,465.332,999.512
1742124214.099,412.109,233.887,336.914,436.523
1742124214.103,-999.023,-1000.0,242.676,-988.77
1742124214.107,-955.078,74.219,227.051,-956.055
1742124214.11,-1000.0,-43.457,140.625,-1000.0
1742124214.114,-357.422,-473.145,139.16,-400.391
1742124214.118,999.512,999.512,92.285,999.512
1742124214.122,589.844,320.312,-6.348,644.043
1742124214.126,-840.82,-1000.0,-11.719,-774.414
1742124214.129,-1000.0,-942.383,-17.578,-1000.0
1742124214.133,-59.082,342.773,84.961,-102.051
1742124214.137,999.512,999.512,146.973,999.512
1742124214.141,208.984,-109.863,-105.957,206.055
1742124214.145,-1000.0,-1000.0,-190.918,-1000.0
1742124214.149,-249.512,229.004,42.969,-222.168
1742124214.153,999.512,999.512,146.973,999.512
1742124214.156,644.043,329.59,52.246,670.41
1742124214.16,-774.414,-1000.0,-166.016,-723.633
1742124214.164,-1000.0,-685.059,-162.109,-1000.0
1742124214.168,-6.836,743.164,35.156,-10.254
1742124214.172,999.512,999.512,107.422,999.512
1742124214.129,-1000.0,-942.383,-17.578,-1000.0
1742124214.133,-59.082,342.773,84.961,-102.051
1742124214.137,999.512,999.512,146.973,999.512
1742124214.141,208.984,-109.863,-105.957,206.055
1742124214.145,-1000.0,-1000.0,-190.918,-1000.0
1742124214.149,-249.512,229.004,42.969,-222.168
1742124214.153,999.512,999.512,146.973,999.512
1742124214.156,644.043,329.59,52.246,670.41
1742124214.16,-774.414,-1000.0,-166.016,-723.633
1742124214.164,-1000.0,-685.059,-162.109,-1000.0
1742124214.168,-6.836,743.164,35.156,-10.254
1742124214.172,999.512,999.512,107.422,999.512
1742124214.175,338.379,-70.312,73.73,367.676
1742124214.179,-1000.0,-1000.0,3.906,-1000.0
1742124214.183,-511.719,6.836,38.086,-489.258
1742124214.187,948.242,999.512,61.523,949.707
1742124214.191,929.199,746.582,64.453,925.293
1742124214.195,999.512,758.789,152.832,999.512
1742124214.199,203.613,175.781,22.461,198.73
1742124214.202,-1000.0,-1000.0,-81.543,-1000.0
1742124214.206,-1000.0,-1000.0,25.879,-1000.0
1742124214.21,-217.773,21.484,145.996,-196.777
1742124214.214,999.512,999.512,211.426,999.512
1742124214.218,565.918,211.914,64.941,645.996
1742124214.175,338.379,-70.312,73.73,367.676
1742124214.179,-1000.0,-1000.0,3.906,-1000.0
1742124214.183,-511.719,6.836,38.086,-489.258
1742124214.187,948.242,999.512,61.523,949.707
1742124214.191,929.199,746.582,64.453,925.293
1742124214.195,999.512,758.789,152.832,999.512
1742124214.199,203.613,175.781,22.461,198.73
1742124214.202,-1000.0,-1000.0,-81.543,-1000.0
1742124214.206,-1000.0,-1000.0,25.879,-1000.0
1742124214.21,-217.773,21.484,145.996,-196.777
1742124214.214,999.512,999.512,211.426,999.512
1742124214.218,565.918,211.914,64.941,645.996
1742124214.233,-1000.0,-1000.0,-118.164,-980.957
1742124214.237,-550.293,-207.52,-68.359,-525.879
1742124214.241,913.574,999.512,103.027,929.199
1742124214.245,999.512,870.605,128.418,999.512
1742124214.249,90.82,-644.531,25.879,101.562
1742124214.253,-1000.0,-289.551,39.062,-1000.0
1742124214.257,-241.699,999.512,134.277,-95.703
1742124214.26,999.512,999.512,172.363,999.512
1742124214.264,238.77,-49.805,18.066,247.07
1742124214.268,-1000.0,-1000.0,-85.938,-1000.0
1742124214.272,-478.516,-168.945,23.438,-471.68
1742124214.276,896.484,999.512,95.703,896.973
1742124214.263,999.512,486.328,118.164,999.512
1742124214.267,58.105,-1000.0,151.367,68.359
1742124214.271,-1000.0,-710.449,142.578,-1000.0
1742124214.275,48.828,999.512,114.258,29.785
1742124214.279,956.543,290.527,50.781,999.512
1742124214.283,-850.098,-1000.0,106.445,-666.504
1742124214.287,-381.348,552.246,203.613,-381.348
1742124214.29,999.512,750.488,68.359,999.512
1742124214.294,-216.797,-1000.0,-127.441,-180.664
1742124214.298,-787.598,-322.754,24.902,-753.906
1742124214.302,866.699,999.512,174.316,856.934
1742124214.306,999.512,-122.07,152.832,999.512
1742124214.308,842.773,-821.289,447.266,845.703
1742124214.312,999.512,918.457,845.215,999.512
1742124214.316,249.512,124.512,976.074,242.676
1742124214.32,-1000.0,-1000.0,956.543,-1000.0
1742124214.324,-242.676,139.16,967.773,-251.953
1742124214.328,999.512,999.512,961.914,999.512
1742124214.332,933.594,683.105,968.262,958.496
1742124214.335,-322.266,-617.188,948.73,-257.812
1742124214.339,-1000.0,-1000.0,726.074,-1000.0
1742124214.343,-278.32,-159.18,592.773,-321.289
1742124214.347,999.512,999.512,503.418,999.512
1742124214.351,679.688,492.676,208.496,707.031
1742124214.308,842.773,-821.289,447.266,845.703
1742124214.312,999.512,918.457,845.215,999.512
1742124214.316,249.512,124.512,976.074,242.676
1742124214.32,-1000.0,-1000.0,956.543,-1000.0
1742124214.324,-242.676,139.16,967.773,-251.953
1742124214.328,999.512,999.512,961.914,999.512
1742124214.332,933.594,683.105,968.262,958.496
1742124214.335,-322.266,-617.188,948.73,-257.812
1742124214.339,-1000.0,-1000.0,726.074,-1000.0
1742124214.343,-278.32,-159.18,592.773,-321.289
1742124214.347,999.512,999.512,503.418,999.512
1742124214.351,679.688,492.676,208.496,707.031
1742124214.369,-858.398,-1000.0,27.832,-807.129
1742124214.373,-1000.0,-461.914,-45.41,-1000.0
1742124214.377,404.785,999.512,366.699,374.512
1742124214.381,999.512,923.34,925.781,999.512
1742124214.385,117.188,-705.566,971.191,180.176
1742124214.389,-999.512,-193.359,952.148,-1000.0
1742124214.393,-1000.0,729.98,969.727,-815.43
1742124214.396,-307.617,-166.016,966.797,201.66
1742124214.4,999.512,944.824,966.797,999.512
1742124214.404,828.613,528.32,967.285,840.332
1742124214.408,-606.934,-1000.0,967.285,-539.551
1742124214.412,-1000.0,-437.012,967.285,-1000.0
1742124214.369,-858.398,-1000.0,27.832,-807.129
1742124214.373,-1000.0,-461.914,-45.41,-1000.0
1742124214.377,404.785,999.512,366.699,374.512
1742124214.381,999.512,923.34,925.781,999.512
1742124214.385,117.188,-705.566,971.191,180.176
1742124214.389,-999.512,-193.359,952.148,-1000.0
1742124214.393,-1000.0,729.98,969.727,-815.43
1742124214.396,-307.617,-166.016,966.797,201.66
1742124214.4,999.512,944.824,966.797,999.512
1742124214.404,828.613,528.32,967.285,840.332
1742124214.408,-606.934,-1000.0,967.285,-539.551
1742124214.412,-1000.0,-437.012,967.285,-1000.0
1742124214.46,177.734,63.965,966.797,222.168
1742124214.464,-1000.0,-1000.0,967.285,-1000.0
1742124214.468,-1000.0,254.883,967.285,-1000.0
1742124214.472,-1.953,999.512,967.285,91.797
1742124214.476,999.512,898.438,966.309,999.512
1742124214.48,999.512,999.512,965.82,999.512
1742124214.484,9.766,-165.527,970.703,23.438
1742124214.487,-1000.0,-1000.0,937.988,-1000.0
1742124214.491,-288.574,-157.227,936.035,-330.566
1742124214.495,956.543,999.512,964.355,938.965
1742124214.499,999.512,876.465,978.027,999.512
1742124214.503,85.449,-432.129,908.203,98.145
1742124214.46,177.734,63.965,966.797,222.168
1742124214.464,-1000.0,-1000.0,967.285,-1000.0
1742124214.468,-1000.0,254.883,967.285,-1000.0
1742124214.472,-1.953,999.512,967.285,91.797
1742124214.476,999.512,898.438,966.309,999.512
1742124214.48,999.512,999.512,965.82,999.512
1742124214.484,9.766,-165.527,970.703,23.438
1742124214.487,-1000.0,-1000.0,937.988,-1000.0
1742124214.491,-288.574,-157.227,936.035,-330.566
1742124214.495,956.543,999.512,964.355,938.965
1742124214.499,999.512,876.465,978.027,999.512
1742124214.503,85.449,-432.129,908.203,98.145
1742124214.503,-1000.0,-1000.0,783.203,-1000.0
1742124214.507,-193.848,260.742,812.5,-198.73
1742124214.511,999.512,999.512,854.98,999.512
1742124214.515,999.512,895.508,807.617,999.512
1742124214.519,104.98,-468.75,658.203,97.168
1742124214.523,-1000.0,-409.668,585.449,-1000.0
1742124214.527,-385.742,982.91,675.293,-395.02
1742124214.53,999.512,999.512,732.422,999.512
1742124214.534,466.797,216.797,642.578,475.586
1742124214.538,-1000.0,-1000.0,498.047,-1000.0
1742124214.542,-748.047,-224.121,552.246,-762.207
1742124214.546,746.094,999.512,642.578,705.566
1742124214.503,-1000.0,-1000.0,783.203,-1000.0
1742124214.507,-193.848,260.742,812.5,-198.73
1742124214.511,999.512,999.512,854.98,999.512
1742124214.515,999.512,895.508,807.617,999.512
1742124214.519,104.98,-468.75,658.203,97.168
1742124214.523,-1000.0,-409.668,585.449,-1000.0
1742124214.527,-385.742,982.91,675.293,-395.02
1742124214.53,999.512,999.512,732.422,999.512
1742124214.534,466.797,216.797,642.578,475.586
1742124214.538,-1000.0,-1000.0,498.047,-1000.0
1742124214.542,-748.047,-224.121,552.246,-762.207
1742124214.546,746.094,999.512,642.578,705.566
1742124214.563,999.512,550.781,583.496,999.512
1742124214.567,-188.477,-1000.0,542.48,-220.215
1742124214.571,-1000.0,-301.758,524.414,-1000.0
1742124214.575,-42.969,999.512,520.508,58.105
1742124214.579,993.652,841.797,604.004,989.258
1742124214.583,999.512,999.512,681.641,999.512
1742124214.587,356.445,275.879,604.98,386.23
1742124214.59,-940.918,-1000.0,467.773,-928.711
1742124214.594,-1000.0,-589.355,390.625,-1000.0
1742124214.598,-155.273,740.723,478.027,-124.512
1742124214.602,999.512,999.512,532.227,999.512
1742124214.606,750.488,70.312,444.336,756.836
1742124214.593,-770.508,-1000.0,383.789,-739.746
1742124214.597,-949.219,-138.672,365.723,-878.418
1742124214.601,506.836,999.512,384.766,552.734
1742124214.605,999.512,999.512,419.434,999.512
1742124214.609,355.469,20.508,450.684,401.855
1742124214.613,-1000.0,-666.504,459.473,-1000.0
1742124214.617,-639.16,849.609,562.012,-609.863
1742124214.62,999.512,999.512,576.172,999.512
1742124214.624,220.703,-470.703,355.469,206.055
1742124214.628,-1000.0,-633.301,402.344,-1000.0
1742124214.632,315.918,999.512,513.672,265.137
1742124214.636,999.512,680.176,418.945,999.512
1742124214.638,-225.098,-917.48,372.559,-189.941
1742124214.642,-1000.0,-696.777,291.504,-1000.0
1742124214.646,-7.324,760.254,293.945,-30.762
1742124214.65,999.512,999.512,281.738,999.512
1742124214.654,204.59,-173.828,75.684,197.266
1742124214.658,-1000.0,-420.41,47.363,-1000.0
1742124214.662,-273.926,999.512,128.906,-185.547
1742124214.665,999.512,776.855,108.398,999.512
1742124214.669,409.668,-574.219,40.039,414.551
1742124214.673,-1000.0,-1000.0,-98.145,-1000.0
1742124214.677,-610.84,-18.555,-99.609,-588.379
1742124214.681,999.512,999.512,93.262,999.512
1742124214.684,513.184,149.414,-250.977,569.336
1742124214.688,-1000.0,-1000.0,-965.82,-994.629
1742124214.692,-1000.0,-91.797,-1000.0,-949.219
1742124214.696,518.555,999.512,-976.562,590.82
1742124214.7,841.309,95.215,-1000.0,875.977
1742124214.704,-989.746,-1000.0,-1000.0,-886.23
1742124214.708,-327.637,498.047,-1000.0,-335.449
1742124214.711,999.512,687.012,-1000.0,999.512
1742124214.715,-30.273,-922.363,-1000.0,-17.578
1742124214.719,-1000.0,-1000.0,-1000.0,-1000.0
1742124214.723,-178.223,210.449,-1000.0,-175.781
1742124214.727,999.512,999.512,-1000.0,999.512
1742124214.684,513.184,149.414,-250.977,569.336
1742124214.688,-1000.0,-1000.0,-965.82,-994.629
1742124214.692,-1000.0,-91.797,-1000.0,-949.219
1742124214.696,518.555,999.512,-976.562,590.82
1742124214.7,841.309,95.215,-1000.0,875.977
1742124214.704,-989.746,-1000.0,-1000.0,-886.23
1742124214.708,-327.637,498.047,-1000.0,-335.449
1742124214.711,999.512,687.012,-1000.0,999.512
1742124214.715,-30.273,-922.363,-1000.0,-17.578
1742124214.719,-1000.0,-1000.0,-1000.0,-1000.0
1742124214.723,-178.223,210.449,-1000.0,-175.781
1742124214.727,999.512,999.512,-1000.0,999.512
1742124214.728,278.32,-439.941,-1000.0,310.547
1742124214.732,-1000.0,-1000.0,-1000.0,-1000.0
1742124214.736,-228.027,337.891,-1000.0,-223.633
1742124214.74,999.512,999.512,-1000.0,999.512
1742124214.744,999.512,-134.277,-1000.0,946.777
1742124214.748,-145.508,-1000.0,-1000.0,-270.996
1742124214.752,-1000.0,-82.031,-1000.0,-1000.0
1742124214.755,320.801,999.512,-1000.0,488.281
1742124214.759,999.512,27.832,-1000.0,999.512
1742124214.763,-476.074,-1000.0,-1000.0,-517.578
1742124214.767,-797.363,-222.656,-1000.0,-792.969
1742124214.771,999.512,999.512,-1000.0,943.848
1742124214.728,278.32,-439.941,-1000.0,310.547
1742124214.732,-1000.0,-1000.0,-1000.0,-1000.0
1742124214.736,-228.027,337.891,-1000.0,-223.633
1742124214.74,999.512,999.512,-1000.0,999.512
1742124214.744,999.512,-134.277,-1000.0,946.777
1742124214.748,-145.508,-1000.0,-1000.0,-270.996
1742124214.752,-1000.0,-82.031,-1000.0,-1000.0
1742124214.755,320.801,999.512,-1000.0,488.281
1742124214.759,999.512,27.832,-1000.0,999.512
1742124214.763,-476.074,-1000.0,-1000.0,-517.578
1742124214.767,-797.363,-222.656,-1000.0,-792.969
1742124214.771,999.512,999.512,-1000.0,943.848
1742124214.773,668.457,151.855,-1000.0,760.742
1742124214.777,-1000.0,-1000.0,-1000.0,-967.773
1742124214.781,-331.543,274.414,-1000.0,-371.094
1742124214.785,999.512,999.512,-1000.0,999.512
1742124214.789,463.867,-3.906,-1000.0,521.484
1742124214.793,-1000.0,-397.949,-1000.0,-1000.0
1742124214.797,-859.375,931.641,-998.047,-815.918
1742124214.8,833.008,999.512,-995.117,843.262
1742124214.804,608.398,161.133,-1000.0,635.254
1742124214.808,-904.297,-1000.0,-994.629,-842.773
1742124214.812,-1000.0,354.98,-991.699,-1000.0
1742124214.816,-200.195,999.512,-1000.0,-223.145
1742124214.773,668.457,151.855,-1000.0,760.742
1742124214.777,-1000.0,-1000.0,-1000.0,-967.773
1742124214.781,-331.543,274.414,-1000.0,-371.094
1742124214.785,999.512,999.512,-1000.0,999.512
1742124214.789,463.867,-3.906,-1000.0,521.484
1742124214.793,-1000.0,-397.949,-1000.0,-1000.0
1742124214.797,-859.375,931.641,-998.047,-815.918
1742124214.8,833.008,999.512,-995.117,843.262
1742124214.804,608.398,161.133,-1000.0,635.254
1742124214.808,-904.297,-1000.0,-994.629,-842.773
1742124214.812,-1000.0,354.98,-991.699,-1000.0
1742124214.816,-200.195,999.512,-1000.0,-223.145
1742124214.833,999.512,894.043,-995.605,998.047
1742124214.837,886.719,912.598,-955.566,895.02
1742124214.841,999.512,999.512,-799.805,999.512
1742124214.845,191.895,-26.855,-572.754,136.719
1742124214.849,-1000.0,-429.688,-297.363,-1000.0
1742124214.853,174.316,999.512,42.969,273.926
1742124214.857,999.512,999.512,71.777,999.512
1742124214.86,81.055,-404.785,21.484,95.215
1742124214.864,-1000.0,-1000.0,222.168,-1000.0
1742124214.868,-62.5,451.66,601.074,-80.566
1742124214.872,999.512,999.512,905.273,999.512
1742124214.876,999.512,15.625,944.336,988.77
1742124214.833,999.512,894.043,-995.605,998.047
1742124214.837,886.719,912.598,-955.566,895.02
1742124214.841,999.512,999.512,-799.805,999.512
1742124214.845,191.895,-26.855,-572.754,136.719
1742124214.849,-1000.0,-429.688,-297.363,-1000.0
1742124214.853,174.316,999.512,42.969,273.926
1742124214.857,999.512,999.512,71.777,999.512
1742124214.86,81.055,-404.785,21.484,95.215
1742124214.864,-1000.0,-1000.0,222.168,-1000.0
1742124214.868,-62.5,451.66,601.074,-80.566
1742124214.872,999.512,999.512,905.273,999.512
1742124214.876,999.512,15.625,944.336,988.77
1742124215.343,-1000.0,21.484,-517.578,-1000.0
1742124215.347,-675.293,184.082,-619.141,-716.797
1742124215.351,785.645,999.512,-638.184,712.402
1742124215.355,999.512,210.449,-620.605,999.512
1742124215.359,-671.387,-1000.0,-668.945,-638.184
1742124215.363,-620.605,72.266,-592.285,-589.844
1742124215.367,999.512,999.512,-453.125,999.512
1742124215.37,613.77,64.941,-505.859,618.164
1742124215.374,-856.934,-1000.0,-606.445,-821.289
1742124215.378,-1000.0,-619.629,-591.797,-1000.0
1742124215.382,-33.691,901.855,-475.586,-36.621
1742124215.386,999.512,566.406,-381.348,999.512
1742124214.833,999.512,894.043,-995.605,998.047
1742124214.837,886.719,912.598,-955.566,895.02
1742124214.841,999.512,999.512,-799.805,999.512
1742124214.845,191.895,-26.855,-572.754,136.719
1742124214.849,-1000.0,-429.688,-297.363,-1000.0
1742124214.853,174.316,999.512,42.969,273.926
1742124214.857,999.512,999.512,71.777,999.512
1742124214.86,81.055,-404.785,21.484,95.215
1742124214.864,-1000.0,-1000.0,222.168,-1000.0
1742124214.868,-62.5,451.66,601.074,-80.566
1742124214.872,999.512,999.512,905.273,999.512
1742124214.876,999.512,15.625,944.336,988.77
1742124214.878,-20.996,-1000.0,961.914,-70.312
1742124214.882,-1000.0,-47.363,968.262,-1000.0
1742124214.886,-163.574,999.512,966.797,-135.254
1742124214.89,999.512,897.949,967.285,999.512
1742124214.894,951.172,948.242,966.309,948.73
1742124214.898,954.59,999.512,967.773,935.059
1742124214.902,-314.941,-440.918,955.566,-311.035
1742124214.905,-1000.0,-54.688,920.898,-1000.0
1742124214.909,-1000.0,249.512,885.254,-1000.0
1742124214.913,-211.426,-196.777,945.801,-204.59
1742124214.917,981.934,998.535,916.992,991.211
1742124214.921,992.188,999.512,896.973,976.562
1742124214.878,-20.996,-1000.0,961.914,-70.312
1742124214.882,-1000.0,-47.363,968.262,-1000.0
1742124214.886,-163.574,999.512,966.797,-135.254
1742124214.89,999.512,897.949,967.285,999.512
1742124214.894,951.172,948.242,966.309,948.73
1742124214.898,954.59,999.512,967.773,935.059
1742124214.902,-314.941,-440.918,955.566,-311.035
1742124214.905,-1000.0,-54.688,920.898,-1000.0
1742124214.909,-1000.0,249.512,885.254,-1000.0
1742124214.913,-211.426,-196.777,945.801,-204.59
1742124214.917,981.934,998.535,916.992,991.211
1742124214.921,992.188,999.512,896.973,976.562
1742124214.878,-20.996,-1000.0,961.914,-70.312
1742124214.882,-1000.0,-47.363,968.262,-1000.0
1742124214.886,-163.574,999.512,966.797,-135.254
1742124214.89,999.512,897.949,967.285,999.512
1742124214.894,951.172,948.242,966.309,948.73
1742124214.898,954.59,999.512,967.773,935.059
1742124214.902,-314.941,-440.918,955.566,-311.035
1742124214.905,-1000.0,-54.688,920.898,-1000.0
1742124214.909,-1000.0,249.512,885.254,-1000.0
1742124214.913,-211.426,-196.777,945.801,-204.59
1742124214.917,981.934,998.535,916.992,991.211
1742124214.921,992.188,999.512,896.973,976.562
1742124214.924,844.238,667.48,972.656,892.578
1742124214.928,-650.879,-787.109,921.875,-558.594
1742124214.932,-961.914,-212.891,932.617,-919.922
1742124214.936,831.055,999.512,909.18,837.891
1742124214.94,550.781,55.664,824.707,591.797
1742124214.944,-1000.0,-706.543,856.934,-1000.0
1742124214.948,-467.285,960.449,858.398,-441.406
1742124214.951,999.512,638.184,898.926,999.512
1742124214.955,613.77,-836.426,920.898,626.953
1742124214.959,-863.281,-1000.0,779.297,-841.309
1742124214.963,-1000.0,-235.84,674.316,-1000.0
1742124214.967,103.027,999.512,625.977,215.82
1742124214.924,844.238,667.48,972.656,892.578
1742124214.928,-650.879,-787.109,921.875,-558.594
1742124214.932,-961.914,-212.891,932.617,-919.922
1742124214.936,831.055,999.512,909.18,837.891
1742124214.94,550.781,55.664,824.707,591.797
1742124214.944,-1000.0,-706.543,856.934,-1000.0
1742124214.948,-467.285,960.449,858.398,-441.406
1742124214.951,999.512,638.184,898.926,999.512
1742124214.955,613.77,-836.426,920.898,626.953
1742124214.959,-863.281,-1000.0,779.297,-841.309
1742124214.963,-1000.0,-235.84,674.316,-1000.0
1742124214.967,103.027,999.512,625.977,215.82
1742124214.968,999.512,619.141,598.145,999.512
1742124214.972,144.043,-930.664,421.875,97.656
1742124214.976,-1000.0,-782.715,376.465,-1000.0
1742124214.98,-107.91,985.84,540.527,-44.922
1742124214.984,999.512,37.109,539.551,993.164
1742124214.988,951.172,-148.438,645.02,866.211
1742124214.992,902.832,693.359,729.492,934.57
1742124214.995,-321.289,-748.535,591.797,-269.531
1742124214.999,-1000.0,-1000.0,457.52,-1000.0
1742124215.003,-449.707,-290.039,495.605,-468.262
1742124215.007,853.027,999.512,565.918,857.422
1742124215.011,999.512,167.48,590.332,999.512
1742124214.968,999.512,619.141,598.145,999.512
1742124214.972,144.043,-930.664,421.875,97.656
1742124214.976,-1000.0,-782.715,376.465,-1000.0
1742124214.98,-107.91,985.84,540.527,-44.922
1742124214.984,999.512,37.109,539.551,993.164
1742124214.988,951.172,-148.438,645.02,866.211
1742124214.992,902.832,693.359,729.492,934.57
1742124214.995,-321.289,-748.535,591.797,-269.531
1742124214.999,-1000.0,-1000.0,457.52,-1000.0
1742124215.003,-449.707,-290.039,495.605,-468.262
1742124215.007,853.027,999.512,565.918,857.422
1742124215.011,999.512,167.48,590.332,999.512
1742124215.014,-12.695,-1000.0,475.586,-120.117
1742124215.018,-1000.0,-296.875,451.172,-1000.0
1742124215.022,134.766,999.512,540.039,234.863
1742124215.026,999.512,293.945,507.324,999.512
1742124215.03,419.434,-1000.0,532.227,417.969
1742124215.034,-957.031,-503.418,455.078,-940.918
1742124215.038,-966.797,999.512,364.746,-961.426
1742124215.041,-1000.0,-45.41,324.707,-990.723
1742124215.045,-736.816,-890.137,305.664,-744.629
1742124215.049,851.562,928.223,375.0,804.199
1742124215.053,844.238,338.867,268.066,834.473
1742124215.057,-729.98,-1000.0,162.598,-722.168
1742124215.058,-1000.0,-444.824,234.863,-1000.0
1742124215.062,226.562,999.512,286.133,227.051
1742124215.066,999.512,698.73,305.176,999.512
1742124215.07,186.523,-742.676,265.137,150.879
1742124215.074,-1000.0,-1000.0,214.844,-1000.0
1742124215.078,-237.793,245.117,307.129,-209.473
1742124215.082,999.512,999.512,344.727,999.512
1742124215.085,971.68,-361.816,319.336,895.02
1742124215.089,-272.461,-1000.0,195.312,-338.379
1742124215.093,-1000.0,-604.98,105.469,-1000.0
1742124215.097,-159.668,731.934,189.453,-110.84
1742124215.101,999.512,999.512,262.695,999.512
1742124215.058,-1000.0,-444.824,234.863,-1000.0
1742124215.062,226.562,999.512,286.133,227.051
1742124215.066,999.512,698.73,305.176,999.512
1742124215.07,186.523,-742.676,265.137,150.879
1742124215.074,-1000.0,-1000.0,214.844,-1000.0
1742124215.078,-237.793,245.117,307.129,-209.473
1742124215.082,999.512,999.512,344.727,999.512
1742124215.085,971.68,-361.816,319.336,895.02
1742124215.089,-272.461,-1000.0,195.312,-338.379
1742124215.093,-1000.0,-604.98,105.469,-1000.0
1742124215.097,-159.668,731.934,189.453,-110.84
1742124215.101,999.512,999.512,262.695,999.512
1742124215.104,436.523,-245.117,286.133,459.961
1742124215.108,-996.582,-1000.0,189.941,-993.164
1742124215.112,-1000.0,229.492,179.688,-935.547
1742124215.116,276.855,999.512,196.777,404.785
1742124215.12,999.512,384.277,190.43,999.512
1742124215.124,98.633,-1000.0,189.453,31.738
1742124215.128,-1000.0,-113.77,67.383,-1000.0
1742124215.131,-942.383,236.816,-39.062,-933.594
1742124215.135,-1000.0,-1000.0,-36.133,-1000.0
1742124215.139,-50.293,207.52,31.738,-72.754
1742124215.143,999.512,999.512,187.012,999.512
1742124215.147,280.273,-59.57,75.195,307.617
1742124215.104,436.523,-245.117,286.133,459.961
1742124215.108,-996.582,-1000.0,189.941,-993.164
1742124215.112,-1000.0,229.492,179.688,-935.547
1742124215.116,276.855,999.512,196.777,404.785
1742124215.12,999.512,384.277,190.43,999.512
1742124215.124,98.633,-1000.0,189.453,31.738
1742124215.128,-1000.0,-113.77,67.383,-1000.0
1742124215.131,-942.383,236.816,-39.062,-933.594
1742124215.135,-1000.0,-1000.0,-36.133,-1000.0
1742124215.139,-50.293,207.52,31.738,-72.754
1742124215.143,999.512,999.512,187.012,999.512
1742124215.147,280.273,-59.57,75.195,307.617
1742124215.148,-1000.0,-1000.0,-76.66,-1000.0
1742124215.152,-437.012,61.523,-5.371,-423.828
1742124215.156,920.898,999.512,7.812,931.641
1742124215.16,999.512,465.82,5.859,999.512
1742124215.164,92.773,-1000.0,-11.23,48.828
1742124215.168,-999.512,-11.719,-53.711,-1000.0
1742124215.172,-1000.0,646.484,-11.719,-1000.0
1742124215.175,-312.5,201.66,68.848,-350.586
1742124215.179,918.457,733.887,111.816,901.855
1742124215.183,999.512,999.512,110.84,999.512
1742124215.187,262.207,189.941,38.086,267.09
1742124215.191,-974.121,-521.973,-24.902,-979.492
1742124215.148,-1000.0,-1000.0,-76.66,-1000.0
1742124215.152,-437.012,61.523,-5.371,-423.828
1742124215.156,920.898,999.512,7.812,931.641
1742124215.16,999.512,465.82,5.859,999.512
1742124215.164,92.773,-1000.0,-11.23,48.828
1742124215.168,-999.512,-11.719,-53.711,-1000.0
1742124215.172,-1000.0,646.484,-11.719,-1000.0
1742124215.175,-312.5,201.66,68.848,-350.586
1742124215.179,918.457,733.887,111.816,901.855
1742124215.183,999.512,999.512,110.84,999.512
1742124215.187,262.207,189.941,38.086,267.09
1742124215.191,-974.121,-521.973,-24.902,-979.492
1742124215.208,-1000.0,869.629,10.254,-1000.0
1742124215.212,-98.633,993.164,43.945,-54.199
1742124215.216,999.512,999.512,11.23,999.512
1742124215.22,212.402,-67.871,-10.742,204.102
1742124215.224,-1000.0,-936.523,72.266,-1000.0
1742124215.228,-258.301,593.75,195.801,-201.172
1742124215.232,999.512,999.512,120.605,999.512
1742124215.235,163.574,-340.332,-100.586,147.949
1742124215.239,-1000.0,-799.316,-219.727,-1000.0
1742124215.243,-1000.0,701.66,-176.27,-1000.0
1742124215.247,-180.664,999.512,-175.293,-82.031
1742124215.251,995.117,917.48,-252.441,999.512
1742124215.208,-1000.0,869.629,10.254,-1000.0
1742124215.212,-98.633,993.164,43.945,-54.199
1742124215.216,999.512,999.512,11.23,999.512
1742124215.22,212.402,-67.871,-10.742,204.102
1742124215.224,-1000.0,-936.523,72.266,-1000.0
1742124215.228,-258.301,593.75,195.801,-201.172
1742124215.232,999.512,999.512,120.605,999.512
1742124215.235,163.574,-340.332,-100.586,147.949
1742124215.239,-1000.0,-799.316,-219.727,-1000.0
1742124215.243,-1000.0,701.66,-176.27,-1000.0
1742124215.247,-180.664,999.512,-175.293,-82.031
1742124215.251,995.117,917.48,-252.441,999.512
1742124215.253,999.512,499.023,-247.07,999.512
1742124215.257,16.113,-792.969,-287.109,-49.805
1742124215.261,-1000.0,-356.445,-419.434,-1000.0
1742124215.265,-234.863,999.512,-293.457,-253.418
1742124215.269,958.008,206.543,-182.617,951.172
1742124215.273,999.512,59.082,-126.953,999.512
1742124215.277,662.109,688.477,-119.141,674.805
1742124215.28,-670.898,-900.391,-313.477,-637.695
1742124215.284,-1000.0,-876.465,-400.879,-1000.0
1742124215.288,-229.98,553.223,-321.289,-208.008
1742124215.292,999.512,999.512,-238.281,999.512
1742124215.296,431.641,-17.578,-271.484,437.012
1742124215.253,999.512,499.023,-247.07,999.512
1742124215.257,16.113,-792.969,-287.109,-49.805
1742124215.261,-1000.0,-356.445,-419.434,-1000.0
1742124215.265,-234.863,999.512,-293.457,-253.418
1742124215.269,958.008,206.543,-182.617,951.172
1742124215.273,999.512,59.082,-126.953,999.512
1742124215.277,662.109,688.477,-119.141,674.805
1742124215.28,-670.898,-900.391,-313.477,-637.695
1742124215.284,-1000.0,-876.465,-400.879,-1000.0
1742124215.288,-229.98,553.223,-321.289,-208.008
1742124215.292,999.512,999.512,-238.281,999.512
1742124215.296,431.641,-17.578,-271.484,437.012
1742124215.298,-1000.0,-1000.0,-372.559,-1000.0
1742124215.302,-809.57,139.648,-339.355,-758.301
1742124215.306,604.98,999.512,-227.539,627.441
1742124215.31,999.512,633.301,-196.289,999.512
1742124215.314,110.84,-780.273,-317.383,86.914
1742124215.318,-1000.0,-54.688,-352.051,-1000.0
1742124215.322,-919.922,999.512,-295.41,-888.672
1742124215.325,-1000.0,-408.691,-326.66,-1000.0
1742124215.329,-300.293,-375.0,-291.992,-323.242
1742124215.333,999.512,999.512,-198.73,999.512
1742124215.337,375.0,17.578,-267.09,401.367
1742124215.341,-939.453,-903.809,-401.367,-933.105
1742124215.298,-1000.0,-1000.0,-372.559,-1000.0
1742124215.302,-809.57,139.648,-339.355,-758.301
1742124215.306,604.98,999.512,-227.539,627.441
1742124215.31,999.512,633.301,-196.289,999.512
1742124215.314,110.84,-780.273,-317.383,86.914
1742124215.318,-1000.0,-54.688,-352.051,-1000.0
1742124215.322,-919.922,999.512,-295.41,-888.672
1742124215.325,-1000.0,-408.691,-326.66,-1000.0
1742124215.329,-300.293,-375.0,-291.992,-323.242
1742124215.333,999.512,999.512,-198.73,999.512
1742124215.337,375.0,17.578,-267.09,401.367
1742124215.341,-939.453,-903.809,-401.367,-933.105
1742124215.39,455.566,-991.211,-425.293,462.402
1742124215.394,-915.039,-826.66,-534.18,-912.598
1742124215.398,-1000.0,526.367,-444.824,-1000.0
1742124215.402,95.215,999.512,-270.02,163.086
1742124215.406,999.512,65.918,-218.262,995.605
1742124215.41,999.512,-53.711,-174.805,999.512
1742124215.414,582.031,619.141,-210.938,614.746
1742124215.417,-796.387,-939.941,-299.805,-749.512
1742124215.421,-1000.0,-776.367,-233.887,-1000.0
1742124215.425,-185.547,538.574,-105.957,-164.551
1742124215.429,999.512,999.512,-25.879,999.512
1742124215.433,274.414,156.738,-159.668,318.848
1742124215.433,-1000.0,-1000.0,-318.848,-1000.0
1742124215.437,-1000.0,0.0,-329.59,-1000.0
1742124215.441,76.172,999.512,-308.594,188.477
1742124215.445,999.512,341.797,-351.562,999.512
1742124215.449,-145.02,-1000.0,-429.688,-192.383
1742124215.453,-1000.0,-100.098,-455.078,-1000.0
1742124215.457,-820.312,999.512,-448.73,-771.973
1742124215.46,649.902,605.469,-492.188,675.293
1742124215.464,967.773,-750.0,-566.406,844.727
1742124215.468,-508.789,-1000.0,-535.645,-607.91
1742124215.472,-1000.0,49.316,-484.375,-1000.0
1742124215.476,-122.559,999.512,-433.105,-53.711
1742124215.433,-1000.0,-1000.0,-318.848,-1000.0
1742124215.437,-1000.0,0.0,-329.59,-1000.0
1742124215.441,76.172,999.512,-308.594,188.477
1742124215.445,999.512,341.797,-351.562,999.512
1742124215.449,-145.02,-1000.0,-429.688,-192.383
1742124215.453,-1000.0,-100.098,-455.078,-1000.0
1742124215.457,-820.312,999.512,-448.73,-771.973
1742124215.46,649.902,605.469,-492.188,675.293
1742124215.464,967.773,-750.0,-566.406,844.727
1742124215.468,-508.789,-1000.0,-535.645,-607.91
1742124215.472,-1000.0,49.316,-484.375,-1000.0
1742124215.476,-122.559,999.512,-433.105,-53.711
1742124215.479,972.656,134.277,-402.832,982.422
1742124215.483,999.512,20.996,-404.785,999.512
1742124215.487,175.781,113.281,-430.664,180.664
1742124215.491,-1000.0,-937.012,-421.387,-1000.0
1742124215.495,-1000.0,371.582,-398.438,-1000.0
1742124215.499,-14.648,999.512,-339.355,40.039
1742124215.503,999.512,334.961,-308.594,999.512
1742124215.506,27.832,-995.605,-425.293,-38.086
1742124215.51,-1000.0,-998.047,-483.398,-1000.0
1742124215.514,-286.621,356.934,-455.566,-321.289
1742124215.518,999.512,999.512,-437.988,999.512
1742124215.522,535.156,-284.18,-414.062,516.602
1742124215.479,972.656,134.277,-402.832,982.422
1742124215.483,999.512,20.996,-404.785,999.512
1742124215.487,175.781,113.281,-430.664,180.664
1742124215.491,-1000.0,-937.012,-421.387,-1000.0
1742124215.495,-1000.0,371.582,-398.438,-1000.0
1742124215.499,-14.648,999.512,-339.355,40.039
1742124215.503,999.512,334.961,-308.594,999.512
1742124215.506,27.832,-995.605,-425.293,-38.086
1742124215.51,-1000.0,-998.047,-483.398,-1000.0
1742124215.514,-286.621,356.934,-455.566,-321.289
1742124215.518,999.512,999.512,-437.988,999.512
1742124215.522,535.156,-284.18,-414.062,516.602
1742124215.523,-835.449,-1000.0,-451.172,-826.66
1742124215.527,-1000.0,-33.691,-505.859,-1000.0
1742124215.531,-474.609,937.012,-465.82,-460.938
1742124215.535,999.512,999.512,-384.277,999.512
1742124215.539,484.375,20.996,-367.188,503.418
1742124215.543,-1000.0,-581.543,-402.832,-978.027
1742124215.547,-996.094,758.789,-464.844,-1000.0
1742124215.55,-928.223,-412.109,-544.922,-923.34
1742124215.554,-1000.0,-1000.0,-595.703,-1000.0
1742124215.558,77.148,490.234,-507.324,57.129
1742124215.562,999.512,481.934,-447.266,999.512
1742124215.566,187.5,-1000.0,-511.23,101.074
1742124215.523,-835.449,-1000.0,-451.172,-826.66
1742124215.527,-1000.0,-33.691,-505.859,-1000.0
1742124215.531,-474.609,937.012,-465.82,-460.938
1742124215.535,999.512,999.512,-384.277,999.512
1742124215.539,484.375,20.996,-367.188,503.418
1742124215.543,-1000.0,-581.543,-402.832,-978.027
1742124215.547,-996.094,758.789,-464.844,-1000.0
1742124215.55,-928.223,-412.109,-544.922,-923.34
1742124215.554,-1000.0,-1000.0,-595.703,-1000.0
1742124215.558,77.148,490.234,-507.324,57.129
1742124215.562,999.512,481.934,-447.266,999.512
1742124215.566,187.5,-1000.0,-511.23,101.074
1742124215.583,-1000.0,-422.363,-488.77,-1000.0
1742124215.587,-274.414,999.512,-397.461,-261.719
1742124215.591,999.512,915.039,-335.449,999.512
1742124215.595,393.555,-467.773,-391.113,388.672
1742124215.599,-1000.0,-1000.0,-461.914,-1000.0
1742124215.603,-444.824,425.781,-396.973,-458.496
1742124215.607,999.512,999.512,-308.105,999.512
1742124215.61,316.406,-147.461,-313.477,358.398
1742124215.614,-1000.0,-1000.0,-344.727,-1000.0
1742124215.618,-468.262,44.922,-301.27,-552.734
1742124215.622,999.512,999.512,-246.094,999.512
1742124215.626,288.086,-151.855,-208.008,347.168
1742124215.583,-1000.0,-422.363,-488.77,-1000.0
1742124215.587,-274.414,999.512,-397.461,-261.719
1742124215.591,999.512,915.039,-335.449,999.512
1742124215.595,393.555,-467.773,-391.113,388.672
1742124215.599,-1000.0,-1000.0,-461.914,-1000.0
1742124215.603,-444.824,425.781,-396.973,-458.496
1742124215.607,999.512,999.512,-308.105,999.512
1742124215.61,316.406,-147.461,-313.477,358.398
1742124215.614,-1000.0,-1000.0,-344.727,-1000.0
1742124215.618,-468.262,44.922,-301.27,-552.734
1742124215.622,999.512,999.512,-246.094,999.512
1742124215.626,288.086,-151.855,-208.008,347.168
1742124215.628,-1000.0,-1000.0,-231.445,-1000.0
1742124215.632,-245.605,411.133,-195.801,-240.723
1742124215.636,999.512,761.23,-153.32,999.512
1742124215.64,57.129,-988.77,-231.934,35.645
1742124215.644,-1000.0,-430.176,-193.359,-1000.0
1742124215.648,-147.461,999.512,-76.66,-114.746
1742124215.652,999.512,622.07,-65.918,999.512
1742124215.655,100.586,-1000.0,-164.551,30.273
1742124215.659,-1000.0,-335.449,-274.902,-1000.0
1742124215.663,-1000.0,105.469,-233.887,-1000.0
1742124215.667,-835.449,-580.566,-165.039,-882.812
1742124215.671,751.953,970.703,-128.418,676.27
1742124215.628,-1000.0,-1000.0,-231.445,-1000.0
1742124215.632,-245.605,411.133,-195.801,-240.723
1742124215.636,999.512,761.23,-153.32,999.512
1742124215.64,57.129,-988.77,-231.934,35.645
1742124215.644,-1000.0,-430.176,-193.359,-1000.0
1742124215.648,-147.461,999.512,-76.66,-114.746
1742124215.652,999.512,622.07,-65.918,999.512
1742124215.655,100.586,-1000.0,-164.551,30.273
1742124215.659,-1000.0,-335.449,-274.902,-1000.0
1742124215.663,-1000.0,105.469,-233.887,-1000.0
1742124215.667,-835.449,-580.566,-165.039,-882.812
1742124215.671,751.953,970.703,-128.418,676.27
1742124215.673,645.996,106.934,-215.82,621.582
1742124215.677,-956.055,-902.344,-305.176,-956.543
1742124215.681,-975.586,860.352,-245.117,-972.168
1742124215.685,-1000.0,-44.434,-224.121,-1000.0
1742124215.689,-305.176,-384.277,-242.676,-303.711
1742124215.693,999.512,999.512,-200.684,999.512
1742124215.697,347.656,101.562,-265.137,371.094
1742124215.7,-1000.0,-1000.0,-302.246,-1000.0
1742124215.704,-586.914,55.664,-192.383,-625.488
1742124215.708,978.027,999.512,-152.832,934.57
1742124215.712,862.793,38.086,-112.305,789.551
1742124215.716,-553.223,-1000.0,-170.898,-607.422
1742124215.673,645.996,106.934,-215.82,621.582
1742124215.677,-956.055,-902.344,-305.176,-956.543
1742124215.681,-975.586,860.352,-245.117,-972.168
1742124215.685,-1000.0,-44.434,-224.121,-1000.0
1742124215.689,-305.176,-384.277,-242.676,-303.711
1742124215.693,999.512,999.512,-200.684,999.512
1742124215.697,347.656,101.562,-265.137,371.094
1742124215.7,-1000.0,-1000.0,-302.246,-1000.0
1742124215.704,-586.914,55.664,-192.383,-625.488
1742124215.708,978.027,999.512,-152.832,934.57
1742124215.712,862.793,38.086,-112.305,789.551
1742124215.716,-553.223,-1000.0,-170.898,-607.422
1742124215.718,-1000.0,-618.652,-263.184,-1000.0
1742124215.722,-212.891,758.789,-190.43,-183.594
1742124215.726,999.512,940.43,-156.25,999.512
1742124215.73,285.156,-459.473,-211.914,303.711
1742124215.734,-1000.0,-1000.0,-303.711,-1000.0
1742124215.738,-449.219,218.75,-277.344,-466.309
1742124215.742,999.512,999.512,-195.312,999.512
1742124215.745,536.133,2.93,-219.727,561.035
1742124215.749,-919.434,-1000.0,-281.738,-894.043
1742124215.753,-1000.0,-112.793,-214.844,-1000.0
1742124215.757,41.992,999.512,-123.047,80.566
1742124215.761,999.512,336.426,-100.586,999.512
1742124215.718,-1000.0,-618.652,-263.184,-1000.0
1742124215.722,-212.891,758.789,-190.43,-183.594
1742124215.726,999.512,940.43,-156.25,999.512
1742124215.73,285.156,-459.473,-211.914,303.711
1742124215.734,-1000.0,-1000.0,-303.711,-1000.0
1742124215.738,-449.219,218.75,-277.344,-466.309
1742124215.742,999.512,999.512,-195.312,999.512
1742124215.745,536.133,2.93,-219.727,561.035
1742124215.749,-919.434,-1000.0,-281.738,-894.043
1742124215.753,-1000.0,-112.793,-214.844,-1000.0
1742124215.757,41.992,999.512,-123.047,80.566
1742124215.761,999.512,336.426,-100.586,999.512
1742124215.764,-316.406,-1000.0,-96.68,-322.754
1742124215.768,-619.629,134.277,-30.762,-645.508
1742124215.772,999.512,877.93,-51.758,999.512
1742124215.776,119.629,-873.535,-189.453,141.602
1742124215.78,-1000.0,-236.816,-190.43,-1000.0
1742124215.784,-236.816,999.512,-122.559,-263.672
1742124215.788,999.512,634.277,-153.32,999.512
1742124215.791,191.895,-775.879,-308.594,130.859
1742124215.795,-1000.0,-1000.0,-369.141,-1000.0
1742124215.799,-255.859,411.621,-224.121,-246.094
1742124215.803,999.512,738.77,-204.59,999.512
1742124215.807,176.758,-847.168,-236.328,166.992
1742124215.808,-1000.0,-992.676,-260.254,-1000.0
1742124215.812,-1000.0,384.277,-312.988,-1000.0
1742124215.816,-258.301,999.512,-231.445,-202.148
1742124215.82,999.512,992.188,-137.695,999.512
1742124215.824,395.996,-93.262,-149.902,398.926
1742124215.828,-1000.0,-708.008,-187.988,-994.629
1742124215.832,-1000.0,818.359,-181.152,-1000.0
1742124215.835,-918.945,-86.426,-234.375,-910.156
1742124215.839,-1000.0,-1000.0,-358.887,-1000.0
1742124215.843,-11.23,397.461,-270.508,-66.895
1742124215.847,999.512,770.996,-154.297,999.512
1742124215.851,90.332,-1000.0,-241.699,24.414
1742124215.853,-1000.0,-245.117,-285.156,-1000.0
1742124215.857,-975.586,707.031,-255.859,-944.336
1742124215.861,-1000.0,-634.766,-230.957,-1000.0
1742124215.865,439.453,598.145,-230.469,344.238
1742124215.869,760.742,238.77,-282.227,767.09
1742124215.873,-888.672,-667.48,-265.625,-864.746
1742124215.877,-988.77,996.582,-186.035,-974.121
1742124215.88,-1000.0,-225.098,-225.098,-1000.0
1742124215.884,-556.152,-667.969,-259.766,-638.184
1742124215.888,999.512,999.512,-171.875,933.594
1742124215.892,759.277,141.113,-88.867,787.109
1742124215.896,-956.543,-1000.0,-56.152,-911.621
1742124215.853,-1000.0,-245.117,-285.156,-1000.0
1742124215.857,-975.586,707.031,-255.859,-944.336
1742124215.861,-1000.0,-634.766,-230.957,-1000.0
1742124215.865,439.453,598.145,-230.469,344.238
1742124215.869,760.742,238.77,-282.227,767.09
1742124215.873,-888.672,-667.48,-265.625,-864.746
1742124215.877,-988.77,996.582,-186.035,-974.121
1742124215.88,-1000.0,-225.098,-225.098,-1000.0
1742124215.884,-556.152,-667.969,-259.766,-638.184
1742124215.888,999.512,999.512,-171.875,933.594
1742124215.892,759.277,141.113,-88.867,787.109
1742124215.896,-956.543,-1000.0,-56.152,-911.621
1742124215.898,-576.66,170.41,-3.906,-591.797
1742124215.902,999.512,999.512,6.348,999.512
1742124215.906,353.027,43.945,-80.078,383.301
1742124215.91,-1000.0,-1000.0,-151.367,-995.117
1742124215.914,-1000.0,108.398,-152.344,-1000.0
1742124215.918,-80.566,999.512,-68.848,-97.656
1742124215.922,999.512,516.602,-64.453,999.512
1742124215.925,147.949,-1000.0,-229.98,64.453
1742124215.929,-1000.0,-565.43,-269.531,-1000.0
1742124215.933,-266.113,999.512,-181.641,-229.98
1742124215.937,999.512,446.289,-150.879,999.512
1742124215.941,442.383,-965.82,-117.676,379.883
1742124215.898,-576.66,170.41,-3.906,-591.797
1742124215.902,999.512,999.512,6.348,999.512
1742124215.906,353.027,43.945,-80.078,383.301
1742124215.91,-1000.0,-1000.0,-151.367,-995.117
1742124215.914,-1000.0,108.398,-152.344,-1000.0
1742124215.918,-80.566,999.512,-68.848,-97.656
1742124215.922,999.512,516.602,-64.453,999.512
1742124215.925,147.949,-1000.0,-229.98,64.453
1742124215.929,-1000.0,-565.43,-269.531,-1000.0
1742124215.933,-266.113,999.512,-181.641,-229.98
