timestamps,TP9,AF7,AF8,TP10
1742199033.312,988.77,999.512,101.562,975.098
1742199033.315,955.078,-135.254,-97.656,999.512
1742199033.319,-620.605,-1000.0,-213.867,-525.879
1742199033.323,-621.094,-580.078,-195.801,-508.789
1742199033.327,922.852,750.488,-62.988,980.469
1742199033.331,999.512,999.512,29.297,999.512
1742199033.312,988.77,999.512,101.562,975.098
1742199033.315,955.078,-135.254,-97.656,999.512
1742199033.319,-620.605,-1000.0,-213.867,-525.879
1742199033.323,-621.094,-580.078,-195.801,-508.789
1742199033.327,922.852,750.488,-62.988,980.469
1742199033.331,999.512,999.512,29.297,999.512
1742199033.334,874.023,197.754,-56.152,885.254
1742199033.338,-643.066,-1000.0,-108.887,-628.906
1742199033.342,-690.918,-657.715,-132.324,-591.309
1742199033.346,935.059,801.758,-70.801,987.793
1742199033.35,999.512,999.512,-0.488,988.77
1742199033.354,910.156,915.039,26.855,918.457
1742199033.358,981.934,911.133,28.809,980.469
1742199033.361,966.309,999.512,-13.184,966.797
1742199033.365,966.309,377.441,-35.156,966.797
1742199033.369,966.309,-1000.0,-23.438,966.797
1742199033.373,966.309,-965.332,-54.199,966.797
1742199033.377,966.309,-1000.0,-86.914,966.797
1742199033.334,874.023,197.754,-56.152,885.254
1742199033.338,-643.066,-1000.0,-108.887,-628.906
1742199033.342,-690.918,-657.715,-132.324,-591.309
1742199033.346,935.059,801.758,-70.801,987.793
1742199033.35,999.512,999.512,-0.488,988.77
1742199033.354,910.156,915.039,26.855,918.457
1742199033.358,981.934,911.133,28.809,980.469
1742199033.361,966.309,999.512,-13.184,966.797
1742199033.365,966.309,377.441,-35.156,966.797
1742199033.369,966.309,-1000.0,-23.438,966.797
1742199033.373,966.309,-965.332,-54.199,966.797
1742199033.377,966.309,-1000.0,-86.914,966.797
1742199033.38,966.309,-783.691,-100.098,967.285
1742199033.384,966.309,501.465,-56.152,966.797
1742199033.388,966.309,999.512,39.551,966.797
1742199033.392,966.309,540.039,27.344,966.797
1742199033.396,966.309,-1000.0,-83.008,966.797
1742199033.4,966.797,-515.137,-106.445,967.285
1742199033.404,962.891,918.457,-55.176,967.773
1742199033.407,908.203,999.512,-58.594,899.414
1742199033.411,999.512,159.668,-69.824,999.512
1742199033.415,174.805,-992.188,-140.137,212.891
1742199033.419,-1000.0,-1000.0,-169.922,-1000.0
1742199033.423,-47.363,-155.762,-71.777,146.973
1742199033.38,966.309,-783.691,-100.098,967.285
1742199033.384,966.309,501.465,-56.152,966.797
1742199033.388,966.309,999.512,39.551,966.797
1742199033.392,966.309,540.039,27.344,966.797
1742199033.396,966.309,-1000.0,-83.008,966.797
1742199033.4,966.797,-515.137,-106.445,967.285
1742199033.404,962.891,918.457,-55.176,967.773
1742199033.407,908.203,999.512,-58.594,899.414
1742199033.411,999.512,159.668,-69.824,999.512
1742199033.415,174.805,-992.188,-140.137,212.891
1742199033.419,-1000.0,-1000.0,-169.922,-1000.0
1742199033.423,-47.363,-155.762,-71.777,146.973
1742199033.423,999.512,999.512,31.25,999.512
1742199033.427,999.512,999.512,18.555,999.512
1742199033.431,427.246,-53.223,-82.031,602.539
1742199033.435,-1000.0,-1000.0,-184.57,-1000.0
1742199033.439,-238.281,-166.016,-155.762,-242.188
1742199033.443,999.512,999.512,37.598,999.512
1742199033.447,866.211,932.129,86.914,865.723
1742199033.45,999.512,999.512,-14.16,999.512
1742199033.454,23.438,-376.465,-155.273,33.203
1742199033.458,-536.621,-723.633,-220.703,-376.465
1742199033.462,888.672,851.074,-20.508,949.707
1742199033.466,999.512,999.512,74.219,999.512
1742199033.423,999.512,999.512,31.25,999.512
1742199033.427,999.512,999.512,18.555,999.512
1742199033.431,427.246,-53.223,-82.031,602.539
1742199033.435,-1000.0,-1000.0,-184.57,-1000.0
1742199033.439,-238.281,-166.016,-155.762,-242.188
1742199033.443,999.512,999.512,37.598,999.512
1742199033.447,866.211,932.129,86.914,865.723
1742199033.45,999.512,999.512,-14.16,999.512
1742199033.454,23.438,-376.465,-155.273,33.203
1742199033.458,-536.621,-723.633,-220.703,-376.465
1742199033.462,888.672,851.074,-20.508,949.707
1742199033.466,999.512,999.512,74.219,999.512
1742199033.468,340.82,60.059,-105.469,489.746
1742199033.472,-1000.0,-1000.0,-182.617,-1000.0
1742199033.476,-393.555,-413.574,-177.246,-303.223
1742199033.48,999.512,972.656,-71.289,999.512
1742199033.484,967.285,943.359,-18.066,944.336
1742199033.488,926.27,948.242,-73.242,936.035
1742199033.492,977.051,908.203,-114.746,975.098
1742199033.495,972.656,-438.477,-181.152,976.562
1742199033.499,899.902,-1000.0,-127.441,928.223
1742199033.503,999.512,-951.172,-49.805,965.82
1742199033.507,751.953,-952.148,-76.172,999.512
1742199033.511,-791.016,-1000.0,-141.113,-473.145
1742199033.468,340.82,60.059,-105.469,489.746
1742199033.472,-1000.0,-1000.0,-182.617,-1000.0
1742199033.476,-393.555,-413.574,-177.246,-303.223
1742199033.48,999.512,972.656,-71.289,999.512
1742199033.484,967.285,943.359,-18.066,944.336
1742199033.488,926.27,948.242,-73.242,936.035
1742199033.492,977.051,908.203,-114.746,975.098
1742199033.495,972.656,-438.477,-181.152,976.562
1742199033.499,899.902,-1000.0,-127.441,928.223
1742199033.503,999.512,-951.172,-49.805,965.82
1742199033.507,751.953,-952.148,-76.172,999.512
1742199033.511,-791.016,-1000.0,-141.113,-473.145
1742199033.514,-911.621,-839.355,-174.805,-782.715
1742199033.518,598.145,481.934,-7.812,812.5
1742199033.522,999.512,999.512,72.754,992.676
1742199033.526,937.988,439.941,-65.43,999.512
1742199033.53,-306.152,-900.391,-145.996,-163.574
1742199033.534,-1000.0,-1000.0,-114.258,-1000.0
1742199033.538,210.449,193.848,64.453,436.523
1742199033.541,999.512,999.512,123.535,999.512
1742199033.545,632.812,125.0,-61.523,799.805
1742199033.549,-671.387,-1000.0,-168.945,-458.008
1742199033.553,-1000.0,-1000.0,-170.898,-1000.0
1742199033.557,-147.949,-186.035,-68.848,-28.32
1742199033.573,962.891,970.215,43.457,996.582
1742199033.577,999.512,999.512,52.246,999.512
1742199033.581,230.469,234.375,12.207,203.613
1742199033.585,-1000.0,-1000.0,-94.238,-1000.0
1742199033.589,-353.516,-480.469,-131.348,-246.094
1742199033.593,979.492,961.426,29.297,999.512
1742199033.597,999.512,999.512,47.852,999.512
1742199033.6,-41.504,-254.395,-208.984,-38.574
1742199033.604,-1000.0,-1000.0,-276.855,-1000.0
1742199033.608,-333.496,-371.094,-189.453,-239.258
1742199033.612,918.457,888.672,-56.641,955.078
1742199033.616,999.512,999.512,8.789,999.512
1742199033.573,962.891,970.215,43.457,996.582
1742199033.577,999.512,999.512,52.246,999.512
1742199033.581,230.469,234.375,12.207,203.613
1742199033.585,-1000.0,-1000.0,-94.238,-1000.0
1742199033.589,-353.516,-480.469,-131.348,-246.094
1742199033.593,979.492,961.426,29.297,999.512
1742199033.597,999.512,999.512,47.852,999.512
1742199033.6,-41.504,-254.395,-208.984,-38.574
1742199033.604,-1000.0,-1000.0,-276.855,-1000.0
1742199033.608,-333.496,-371.094,-189.453,-239.258
1742199033.612,918.457,888.672,-56.641,955.078
1742199033.616,999.512,999.512,8.789,999.512
1742199033.603,249.512,212.891,-109.863,264.16
1742199033.607,-1000.0,-1000.0,-213.379,-1000.0
1742199033.611,-296.387,-335.938,-188.477,-241.211
1742199033.615,999.512,999.512,-58.105,999.512
1742199033.619,956.055,966.309,-54.199,947.266
1742199033.623,932.129,941.895,-133.301,937.012
1742199033.627,975.586,923.828,-116.699,974.609
1742199033.63,977.539,999.512,-105.957,979.004
1742199033.634,893.555,811.035,-43.945,916.016
1742199033.638,999.512,-590.332,-60.547,999.512
1742199033.642,493.652,-1000.0,-151.367,899.902
1742199033.646,-1000.0,-1000.0,-177.734,-676.758
1742199033.603,249.512,212.891,-109.863,264.16
1742199033.607,-1000.0,-1000.0,-213.379,-1000.0
1742199033.611,-296.387,-335.938,-188.477,-241.211
1742199033.615,999.512,999.512,-58.105,999.512
1742199033.619,956.055,966.309,-54.199,947.266
1742199033.623,932.129,941.895,-133.301,937.012
1742199033.627,975.586,923.828,-116.699,974.609
1742199033.63,977.539,999.512,-105.957,979.004
1742199033.634,893.555,811.035,-43.945,916.016
1742199033.638,999.512,-590.332,-60.547,999.512
1742199033.642,493.652,-1000.0,-151.367,899.902
1742199033.646,-1000.0,-1000.0,-177.734,-676.758
1742199033.666,-351.074,-465.332,-236.816,-326.66
1742199033.67,999.512,870.117,-98.145,999.512
1742199033.674,919.922,999.512,54.199,874.512
1742199033.678,999.512,336.426,-63.477,999.512
1742199033.682,-279.785,-1000.0,-166.016,30.273
1742199033.686,-608.887,-520.02,-186.035,-397.461
1742199033.69,974.609,878.418,-17.09,999.512
1742199033.693,936.523,999.512,-14.16,915.527
1742199033.697,999.512,213.867,-138.184,999.512
1742199033.701,78.613,-1000.0,-123.047,111.328
1742199033.705,-1000.0,-1000.0,-206.055,-800.293
1742199033.709,442.871,278.32,-136.719,714.844
1742199033.666,-351.074,-465.332,-236.816,-326.66
1742199033.67,999.512,870.117,-98.145,999.512
1742199033.674,919.922,999.512,54.199,874.512
1742199033.678,999.512,336.426,-63.477,999.512
1742199033.682,-279.785,-1000.0,-166.016,30.273
1742199033.686,-608.887,-520.02,-186.035,-397.461
1742199033.69,974.609,878.418,-17.09,999.512
1742199033.693,936.523,999.512,-14.16,915.527
1742199033.697,999.512,213.867,-138.184,999.512
1742199033.701,78.613,-1000.0,-123.047,111.328
1742199033.705,-1000.0,-1000.0,-206.055,-800.293
1742199033.709,442.871,278.32,-136.719,714.844
1742199033.709,999.512,999.512,4.395,999.512
1742199033.713,999.512,999.512,-21.484,999.512
1742199033.717,241.699,91.797,-60.059,219.727
1742199033.721,-1000.0,-1000.0,-154.785,-1000.0
1742199033.725,-28.32,-97.656,-104.98,172.363
1742199033.729,999.512,999.512,52.734,999.512
1742199033.733,999.512,999.512,11.23,999.512
1742199033.736,216.309,72.266,-115.234,230.957
1742199033.74,-1000.0,-1000.0,-268.555,-1000.0
1742199033.744,-204.102,-211.914,-259.277,-148.438
1742199033.748,999.512,999.512,-90.332,999.512
1742199033.752,999.512,997.07,-30.762,999.512
1742199033.709,999.512,999.512,4.395,999.512
1742199033.713,999.512,999.512,-21.484,999.512
1742199033.717,241.699,91.797,-60.059,219.727
1742199033.721,-1000.0,-1000.0,-154.785,-1000.0
1742199033.725,-28.32,-97.656,-104.98,172.363
1742199033.729,999.512,999.512,52.734,999.512
1742199033.733,999.512,999.512,11.23,999.512
1742199033.736,216.309,72.266,-115.234,230.957
1742199033.74,-1000.0,-1000.0,-268.555,-1000.0
1742199033.744,-204.102,-211.914,-259.277,-148.438
1742199033.748,999.512,999.512,-90.332,999.512
1742199033.752,999.512,997.07,-30.762,999.512
1742199033.753,169.922,-179.199,-148.438,200.195
1742199033.757,-1000.0,-1000.0,-217.285,-1000.0
1742199033.761,-191.406,-163.574,-58.105,-65.918
1742199033.765,999.512,999.512,104.98,999.512
1742199033.769,943.848,945.801,83.008,926.27
1742199033.773,939.453,885.742,12.207,949.707
1742199033.777,973.145,999.512,-51.27,970.703
1742199033.78,968.262,107.91,-58.594,980.469
1742199033.784,901.855,-1000.0,4.883,897.949
1742199033.788,999.512,-975.098,2.93,999.512
1742199033.792,271.484,-916.016,-56.152,643.555
1742199033.796,-1000.0,-1000.0,-112.793,-977.051
1742199033.799,-207.52,-221.68,-81.055,-265.137
1742199033.803,999.512,978.027,80.566,999.512
1742199033.807,999.512,999.512,96.191,999.512
1742199033.811,213.867,198.242,-20.02,296.387
1742199033.815,-1000.0,-1000.0,-121.582,-1000.0
1742199033.819,-841.797,-703.125,-128.418,-710.449
1742199033.823,510.254,685.059,33.691,687.012
1742199033.826,999.512,999.512,74.219,999.512
1742199033.83,97.168,-6.836,-141.602,104.492
1742199033.834,-988.77,-1000.0,-316.895,-993.164
1742199033.838,-1000.0,-1000.0,-259.766,-1000.0
1742199033.842,-485.352,-500.0,-145.996,-354.492
1742199033.799,-207.52,-221.68,-81.055,-265.137
1742199033.803,999.512,978.027,80.566,999.512
1742199033.807,999.512,999.512,96.191,999.512
1742199033.811,213.867,198.242,-20.02,296.387
1742199033.815,-1000.0,-1000.0,-121.582,-1000.0
1742199033.819,-841.797,-703.125,-128.418,-710.449
1742199033.823,510.254,685.059,33.691,687.012
1742199033.826,999.512,999.512,74.219,999.512
1742199033.83,97.168,-6.836,-141.602,104.492
1742199033.834,-988.77,-1000.0,-316.895,-993.164
1742199033.838,-1000.0,-1000.0,-259.766,-1000.0
1742199033.842,-485.352,-500.0,-145.996,-354.492
1742199033.843,999.512,999.512,-83.008,999.512
1742199033.847,209.473,251.465,-99.609,188.477
1742199033.851,-1000.0,-1000.0,-211.426,-1000.0
1742199033.855,-1000.0,-930.664,-230.469,-1000.0
1742199033.859,-262.207,302.734,-122.559,-235.352
1742199033.863,999.512,999.512,-13.672,999.512
1742199033.867,254.883,270.02,-50.293,225.586
1742199033.87,-994.629,-936.523,-269.531,-1000.0
1742199033.874,-1000.0,-1000.0,-331.543,-1000.0
1742199033.878,-417.48,-416.504,-187.5,-345.703
1742199033.882,999.512,999.512,-41.504,999.512
1742199033.886,724.609,795.41,-31.25,629.883
1742199033.843,999.512,999.512,-83.008,999.512
1742199033.847,209.473,251.465,-99.609,188.477
1742199033.851,-1000.0,-1000.0,-211.426,-1000.0
1742199033.855,-1000.0,-930.664,-230.469,-1000.0
1742199033.859,-262.207,302.734,-122.559,-235.352
1742199033.863,999.512,999.512,-13.672,999.512
1742199033.867,254.883,270.02,-50.293,225.586
1742199033.87,-994.629,-936.523,-269.531,-1000.0
1742199033.874,-1000.0,-1000.0,-331.543,-1000.0
1742199033.878,-417.48,-416.504,-187.5,-345.703
1742199033.882,999.512,999.512,-41.504,999.512
1742199033.886,724.609,795.41,-31.25,629.883
1742199033.888,-700.684,-615.234,-182.129,-772.461
1742199033.892,-1000.0,-1000.0,-289.551,-1000.0
1742199033.896,-199.707,-195.312,-265.137,-206.055
1742199033.9,999.512,999.512,-334.473,999.512
1742199033.904,908.691,921.387,-577.637,881.348
1742199033.908,-388.672,-367.676,-790.039,-417.969
1742199033.912,-1000.0,-1000.0,-875.0,-1000.0
1742199033.915,-153.809,-131.836,-900.391,-156.25
1742199033.919,967.773,999.512,-863.281,969.238
1742199033.923,999.512,976.562,-847.656,999.512
1742199033.927,211.914,-200.684,-784.18,198.73
1742199033.931,-1000.0,-1000.0,-735.84,-1000.0
1742199033.888,-700.684,-615.234,-182.129,-772.461
1742199033.892,-1000.0,-1000.0,-289.551,-1000.0
1742199033.896,-199.707,-195.312,-265.137,-206.055
1742199033.9,999.512,999.512,-334.473,999.512
1742199033.904,908.691,921.387,-577.637,881.348
1742199033.908,-388.672,-367.676,-790.039,-417.969
1742199033.912,-1000.0,-1000.0,-875.0,-1000.0
1742199033.915,-153.809,-131.836,-900.391,-156.25
1742199033.919,967.773,999.512,-863.281,969.238
1742199033.923,999.512,976.562,-847.656,999.512
1742199033.927,211.914,-200.684,-784.18,198.73
1742199033.931,-1000.0,-1000.0,-735.84,-1000.0
1742199033.935,-203.125,-163.574,-777.832,-183.105
1742199033.939,999.512,999.512,-554.199,999.512
1742199033.943,943.359,884.766,-333.496,941.895
1742199033.947,938.965,999.512,-349.121,941.406
1742199033.951,973.145,553.223,-384.766,973.145
1742199033.955,966.309,-84.961,-347.168,966.797
1742199033.959,966.309,999.512,-416.992,966.797
1742199033.962,966.309,541.504,-694.336,967.285
1742199033.966,966.309,-900.879,-915.527,966.797
1742199033.97,966.309,-1000.0,-984.863,966.797
1742199033.974,966.309,-203.613,-991.211,966.797
1742199033.978,966.309,999.512,-932.129,966.797
1742199033.935,-203.125,-163.574,-777.832,-183.105
1742199033.939,999.512,999.512,-554.199,999.512
1742199033.943,943.359,884.766,-333.496,941.895
1742199033.947,938.965,999.512,-349.121,941.406
1742199033.951,973.145,553.223,-384.766,973.145
1742199033.955,966.309,-84.961,-347.168,966.797
1742199033.959,966.309,999.512,-416.992,966.797
1742199033.962,966.309,541.504,-694.336,967.285
1742199033.966,966.309,-900.879,-915.527,966.797
1742199033.97,966.309,-1000.0,-984.863,966.797
1742199033.974,966.309,-203.613,-991.211,966.797
1742199033.978,966.309,999.512,-932.129,966.797
1742199033.978,966.309,527.832,-829.102,966.797
1742199033.982,966.309,-828.613,-827.148,967.285
1742199033.986,966.309,-1000.0,-870.117,966.797
1742199033.99,966.309,-160.156,-897.949,966.797
1742199033.994,966.309,955.566,-791.992,966.797
1742199033.998,966.309,999.512,-670.41,966.797
1742199034.002,966.309,574.219,-702.148,966.797
1742199034.005,966.309,-733.398,-770.508,966.797
1742199034.009,966.309,-1000.0,-846.191,966.797
1742199034.013,966.309,-253.906,-698.242,966.797
1742199034.017,966.309,968.75,-427.246,966.797
1742199034.021,965.82,999.512,-347.168,967.285
1742199033.978,966.309,527.832,-829.102,966.797
1742199033.982,966.309,-828.613,-827.148,967.285
1742199033.986,966.309,-1000.0,-870.117,966.797
1742199033.99,966.309,-160.156,-897.949,966.797
1742199033.994,966.309,955.566,-791.992,966.797
1742199033.998,966.309,999.512,-670.41,966.797
1742199034.002,966.309,574.219,-702.148,966.797
1742199034.005,966.309,-733.398,-770.508,966.797
1742199034.009,966.309,-1000.0,-846.191,966.797
1742199034.013,966.309,-253.906,-698.242,966.797
1742199034.017,966.309,968.75,-427.246,966.797
1742199034.021,965.82,999.512,-347.168,967.285
1742199034.025,966.309,-127.441,-443.848,967.285
1742199034.029,966.309,-1000.0,-583.984,966.797
1742199034.033,966.309,49.805,-564.453,966.797
1742199034.037,966.309,999.512,-451.172,966.797
1742199034.041,966.309,850.586,-432.617,966.797
1742199034.045,966.309,-326.172,-506.836,966.797
1742199034.049,966.309,-1000.0,-592.285,966.797
1742199034.052,966.309,8.301,-595.703,966.797
1742199034.056,966.309,999.512,-539.551,966.797
1742199034.06,966.309,830.566,-475.586,966.797
1742199034.064,966.309,-447.754,-459.961,967.285
1742199034.068,966.309,-1000.0,-503.418,966.797
1742199034.025,966.309,-127.441,-443.848,967.285
1742199034.029,966.309,-1000.0,-583.984,966.797
1742199034.033,966.309,49.805,-564.453,966.797
1742199034.037,966.309,999.512,-451.172,966.797
1742199034.041,966.309,850.586,-432.617,966.797
1742199034.045,966.309,-326.172,-506.836,966.797
1742199034.049,966.309,-1000.0,-592.285,966.797
1742199034.052,966.309,8.301,-595.703,966.797
1742199034.056,966.309,999.512,-539.551,966.797
1742199034.06,966.309,830.566,-475.586,966.797
1742199034.064,966.309,-447.754,-459.961,967.285
1742199034.068,966.309,-1000.0,-503.418,966.797
1742199034.084,966.309,-152.344,-444.336,966.797
1742199034.088,966.309,999.512,-241.699,966.797
1742199034.092,966.309,728.027,-133.789,966.797
1742199034.096,966.309,-686.523,-289.062,966.797
1742199034.1,966.309,-1000.0,-356.934,966.797
1742199034.104,966.309,137.695,-132.324,966.797
1742199034.108,966.309,999.512,87.402,967.285
1742199034.111,966.309,786.133,137.207,966.797
1742199034.115,966.309,-454.59,74.707,966.797
1742199034.119,966.309,-1000.0,30.762,967.285
1742199034.123,966.309,-433.594,83.984,966.797
1742199034.127,966.309,852.051,259.766,966.797
1742199034.129,966.309,999.512,541.992,966.309
1742199034.133,966.309,81.543,639.648,966.797
1742199034.137,966.309,-1000.0,678.223,967.285
1742199034.141,976.562,-405.762,740.723,966.797
1742199034.145,924.805,883.789,807.129,966.797
1742199034.149,975.098,999.512,833.008,966.797
1742199034.153,999.512,508.301,559.57,966.797
1742199034.156,-540.039,-1000.0,106.934,967.285
1742199034.16,-558.594,-690.43,-181.641,967.285
1742199034.164,999.512,772.949,-211.914,966.797
1742199034.168,980.957,999.512,-225.098,966.797
1742199034.172,921.387,223.633,-316.406,966.797
1742199034.129,966.309,999.512,541.992,966.309
1742199034.133,966.309,81.543,639.648,966.797
1742199034.137,966.309,-1000.0,678.223,967.285
1742199034.141,976.562,-405.762,740.723,966.797
1742199034.145,924.805,883.789,807.129,966.797
1742199034.149,975.098,999.512,833.008,966.797
1742199034.153,999.512,508.301,559.57,966.797
1742199034.156,-540.039,-1000.0,106.934,967.285
1742199034.16,-558.594,-690.43,-181.641,967.285
1742199034.164,999.512,772.949,-211.914,966.797
1742199034.168,980.957,999.512,-225.098,966.797
1742199034.172,921.387,223.633,-316.406,966.797
1742199034.173,979.004,-1000.0,-314.941,967.285
1742199034.177,969.238,-877.441,-373.047,967.285
1742199034.181,953.125,448.73,-364.258,966.797
1742199034.185,914.062,999.512,-281.738,966.797
1742199034.189,999.512,164.062,-278.809,967.285
1742199034.193,-59.082,-1000.0,-289.551,966.797
1742199034.197,-989.258,-980.469,-388.672,967.285
1742199034.2,450.684,385.254,-392.578,973.633
1742199034.204,999.512,999.512,-346.191,887.207
1742199034.208,431.641,-273.926,-380.859,999.512
1742199034.212,-891.602,-1000.0,-331.543,288.574
1742199034.216,-1000.0,-1000.0,-303.223,-925.781
1742199034.173,979.004,-1000.0,-314.941,967.285
1742199034.177,969.238,-877.441,-373.047,967.285
1742199034.181,953.125,448.73,-364.258,966.797
1742199034.185,914.062,999.512,-281.738,966.797
1742199034.189,999.512,164.062,-278.809,967.285
1742199034.193,-59.082,-1000.0,-289.551,966.797
1742199034.197,-989.258,-980.469,-388.672,967.285
1742199034.2,450.684,385.254,-392.578,973.633
1742199034.204,999.512,999.512,-346.191,887.207
1742199034.208,431.641,-273.926,-380.859,999.512
1742199034.212,-891.602,-1000.0,-331.543,288.574
1742199034.216,-1000.0,-1000.0,-303.223,-925.781
1742199034.219,23.926,-41.992,-222.168,364.258
1742199034.223,999.512,999.512,-29.785,999.512
1742199034.227,499.023,397.461,36.133,704.59
1742199034.231,-814.941,-894.043,-77.148,-540.527
1742199034.235,-1000.0,-1000.0,-186.523,-1000.0
1742199034.239,-544.434,-356.445,-50.293,-404.785
1742199034.243,999.512,999.512,155.273,999.512
1742199034.246,387.695,422.852,160.156,401.855
1742199034.25,-1000.0,-1000.0,74.707,-1000.0
1742199034.254,-996.094,-1000.0,108.887,-1000.0
1742199034.258,-959.961,-954.102,200.195,-957.031
1742199034.262,-1000.0,-1000.0,235.84,-1000.0
1742199034.219,23.926,-41.992,-222.168,364.258
1742199034.223,999.512,999.512,-29.785,999.512
1742199034.227,499.023,397.461,36.133,704.59
1742199034.231,-814.941,-894.043,-77.148,-540.527
1742199034.235,-1000.0,-1000.0,-186.523,-1000.0
1742199034.239,-544.434,-356.445,-50.293,-404.785
1742199034.243,999.512,999.512,155.273,999.512
1742199034.246,387.695,422.852,160.156,401.855
1742199034.25,-1000.0,-1000.0,74.707,-1000.0
1742199034.254,-996.094,-1000.0,108.887,-1000.0
1742199034.258,-959.961,-954.102,200.195,-957.031
1742199034.262,-1000.0,-1000.0,235.84,-1000.0
1742199034.263,-1000.0,-939.941,260.742,-1000.0
1742199034.267,-1000.0,-1000.0,275.391,-1000.0
1742199034.271,-1000.0,-752.441,278.809,-1000.0
1742199034.275,-1000.0,664.551,331.055,-1000.0
1742199034.279,-1000.0,981.934,349.609,-1000.0
1742199034.283,-1000.0,999.512,365.234,-1000.0
1742199034.287,-1000.0,385.742,361.328,-1000.0
1742199034.29,-1000.0,-988.77,307.617,-1000.0
1742199034.294,-1000.0,-1000.0,248.535,-1000.0
1742199034.298,-1000.0,-926.27,287.109,-1000.0
1742199034.302,-1000.0,-1000.0,416.016,-1000.0
1742199034.306,-1000.0,-991.699,424.316,-1000.0
1742199034.263,-1000.0,-939.941,260.742,-1000.0
1742199034.267,-1000.0,-1000.0,275.391,-1000.0
1742199034.271,-1000.0,-752.441,278.809,-1000.0
1742199034.275,-1000.0,664.551,331.055,-1000.0
1742199034.279,-1000.0,981.934,349.609,-1000.0
1742199034.283,-1000.0,999.512,365.234,-1000.0
1742199034.287,-1000.0,385.742,361.328,-1000.0
1742199034.29,-1000.0,-988.77,307.617,-1000.0
1742199034.294,-1000.0,-1000.0,248.535,-1000.0
1742199034.298,-1000.0,-926.27,287.109,-1000.0
1742199034.302,-1000.0,-1000.0,416.016,-1000.0
1742199034.306,-1000.0,-991.699,424.316,-1000.0
1742199034.309,-1000.0,263.184,342.285,-1000.0
1742199034.313,-1000.0,999.512,380.859,-1000.0
1742199034.317,-1000.0,969.727,516.113,-1000.0
1742199034.321,-1000.0,795.41,487.305,-1000.0
1742199034.325,-1000.0,-716.309,360.84,-1000.0
1742199034.329,-1000.0,-909.668,343.262,-1000.0
1742199034.333,-1000.0,579.59,398.926,-1000.0
1742199034.336,-1000.0,999.512,352.539,-1000.0
1742199034.34,-1000.0,59.082,273.438,-1000.0
1742199034.344,-1000.0,-1000.0,251.953,-1000.0
1742199034.348,-1000.0,-1000.0,249.023,-1000.0
1742199034.352,-1000.0,-730.469,219.238,-1000.0
1742199034.309,-1000.0,263.184,342.285,-1000.0
1742199034.313,-1000.0,999.512,380.859,-1000.0
1742199034.317,-1000.0,969.727,516.113,-1000.0
1742199034.321,-1000.0,795.41,487.305,-1000.0
1742199034.325,-1000.0,-716.309,360.84,-1000.0
1742199034.329,-1000.0,-909.668,343.262,-1000.0
1742199034.333,-1000.0,579.59,398.926,-1000.0
1742199034.336,-1000.0,999.512,352.539,-1000.0
1742199034.34,-1000.0,59.082,273.438,-1000.0
1742199034.344,-1000.0,-1000.0,251.953,-1000.0
1742199034.348,-1000.0,-1000.0,249.023,-1000.0
1742199034.352,-1000.0,-730.469,219.238,-1000.0
1742199034.354,-1000.0,573.242,255.859,-1000.0
1742199034.358,-1000.0,999.512,315.43,-1000.0
1742199034.362,-1000.0,361.328,285.645,-1000.0
1742199034.366,-1000.0,-928.223,161.133,-1000.0
1742199034.37,-1000.0,-1000.0,95.703,-1000.0
1742199034.374,-1000.0,15.625,221.68,-1000.0
1742199034.378,-1000.0,999.512,297.363,-1000.0
1742199034.381,-1000.0,231.934,161.621,-1000.0
1742199034.385,-1000.0,-982.91,3.906,-1000.0
1742199034.389,-1000.0,-1000.0,23.438,-1000.0
1742199034.393,-1000.0,-240.234,171.875,-1000.0
1742199034.397,-1000.0,999.512,214.844,-1000.0
1742199034.354,-1000.0,573.242,255.859,-1000.0
1742199034.358,-1000.0,999.512,315.43,-1000.0
1742199034.362,-1000.0,361.328,285.645,-1000.0
1742199034.366,-1000.0,-928.223,161.133,-1000.0
1742199034.37,-1000.0,-1000.0,95.703,-1000.0
1742199034.374,-1000.0,15.625,221.68,-1000.0
1742199034.378,-1000.0,999.512,297.363,-1000.0
1742199034.381,-1000.0,231.934,161.621,-1000.0
1742199034.385,-1000.0,-982.91,3.906,-1000.0
1742199034.389,-1000.0,-1000.0,23.438,-1000.0
1742199034.393,-1000.0,-240.234,171.875,-1000.0
1742199034.397,-1000.0,999.512,214.844,-1000.0
1742199034.414,-1000.0,734.863,156.25,-1000.0
1742199034.418,-1000.0,-623.535,60.547,-1000.0
1742199034.422,-1000.0,-1000.0,46.387,-1000.0
1742199034.426,-1000.0,-108.398,114.746,-1000.0
1742199034.43,-1000.0,971.191,157.715,-1000.0
1742199034.434,-1000.0,999.512,180.664,-1000.0
1742199034.438,-1000.0,210.449,96.191,-1000.0
1742199034.441,-1000.0,-984.375,-22.461,-1000.0
1742199034.445,-1000.0,-1000.0,-5.859,-1000.0
1742199034.449,-1000.0,-267.09,108.398,-1000.0
1742199034.453,-1000.0,999.512,134.277,-1000.0
1742199034.457,-1000.0,217.285,45.41,-1000.0
1742199034.414,-1000.0,734.863,156.25,-1000.0
1742199034.418,-1000.0,-623.535,60.547,-1000.0
1742199034.422,-1000.0,-1000.0,46.387,-1000.0
1742199034.426,-1000.0,-108.398,114.746,-1000.0
1742199034.43,-1000.0,971.191,157.715,-1000.0
1742199034.434,-1000.0,999.512,180.664,-1000.0
1742199034.438,-1000.0,210.449,96.191,-1000.0
1742199034.441,-1000.0,-984.375,-22.461,-1000.0
1742199034.445,-1000.0,-1000.0,-5.859,-1000.0
1742199034.449,-1000.0,-267.09,108.398,-1000.0
1742199034.453,-1000.0,999.512,134.277,-1000.0
1742199034.457,-1000.0,217.285,45.41,-1000.0
1742199034.458,-1000.0,-1000.0,0.0,-1000.0
1742199034.462,-1000.0,-270.996,33.691,-1000.0
1742199034.466,-1000.0,973.633,78.125,-1000.0
1742199034.47,-1000.0,999.512,85.938,-1000.0
1742199034.474,-986.328,157.715,24.902,-1000.0
1742199034.478,-946.289,-1000.0,42.48,-920.898
1742199034.482,-1000.0,-38.574,99.609,-1000.0
1742199034.485,78.125,999.512,129.883,-170.41
1742199034.489,875.0,663.574,79.102,521.484
1742199034.493,-703.613,-663.574,-63.965,-936.035
1742199034.497,-1000.0,-1000.0,-92.285,-1000.0
1742199034.501,-1000.0,-794.922,-20.996,-1000.0
1742199034.458,-1000.0,-1000.0,0.0,-1000.0
1742199034.462,-1000.0,-270.996,33.691,-1000.0
1742199034.466,-1000.0,973.633,78.125,-1000.0
1742199034.47,-1000.0,999.512,85.938,-1000.0
1742199034.474,-986.328,157.715,24.902,-1000.0
1742199034.478,-946.289,-1000.0,42.48,-920.898
1742199034.482,-1000.0,-38.574,99.609,-1000.0
1742199034.485,78.125,999.512,129.883,-170.41
1742199034.489,875.0,663.574,79.102,521.484
1742199034.493,-703.613,-663.574,-63.965,-936.035
1742199034.497,-1000.0,-1000.0,-92.285,-1000.0
1742199034.501,-1000.0,-794.922,-20.996,-1000.0
1742199034.504,-175.781,442.871,26.367,-260.742
1742199034.508,999.512,999.512,71.289,999.512
1742199034.512,86.426,138.184,31.738,-181.152
1742199034.516,-1000.0,-1000.0,-107.422,-1000.0
1742199034.52,-1000.0,-1000.0,-139.16,-1000.0
1742199034.524,-247.559,68.359,15.137,-268.066
1742199034.528,999.512,999.512,117.676,999.512
1742199034.531,125.488,145.02,-83.984,-113.281
1742199034.535,-1000.0,-1000.0,-226.074,-1000.0
1742199034.539,-1000.0,-918.457,-115.234,-1000.0
1742199034.543,-261.719,335.449,-10.742,-396.973
1742199034.547,999.512,999.512,58.594,999.512
1742199034.504,-175.781,442.871,26.367,-260.742
1742199034.508,999.512,999.512,71.289,999.512
1742199034.512,86.426,138.184,31.738,-181.152
1742199034.516,-1000.0,-1000.0,-107.422,-1000.0
1742199034.52,-1000.0,-1000.0,-139.16,-1000.0
1742199034.524,-247.559,68.359,15.137,-268.066
1742199034.528,999.512,999.512,117.676,999.512
1742199034.531,125.488,145.02,-83.984,-113.281
1742199034.535,-1000.0,-1000.0,-226.074,-1000.0
1742199034.539,-1000.0,-918.457,-115.234,-1000.0
1742199034.543,-261.719,335.449,-10.742,-396.973
1742199034.547,999.512,999.512,58.594,999.512
1742199034.549,203.613,146.484,-15.137,189.941
1742199034.553,-1000.0,-1000.0,-138.672,-1000.0
1742199034.557,-1000.0,-1000.0,-105.469,-1000.0
1742199034.561,-242.676,-201.172,5.371,-279.785
1742199034.565,999.512,999.512,62.5,999.512
1742199034.569,831.055,887.207,-4.883,666.016
1742199034.573,-483.398,-361.816,-159.18,-720.703
1742199034.576,-1000.0,-1000.0,-287.109,-1000.0
1742199034.58,-521.484,-646.484,-279.297,-549.805
1742199034.584,823.242,709.961,-176.27,821.289
1742199034.588,999.512,999.512,-155.273,999.512
1742199034.592,-47.363,-67.383,-253.418,-239.258
1742199034.549,203.613,146.484,-15.137,189.941
1742199034.553,-1000.0,-1000.0,-138.672,-1000.0
1742199034.557,-1000.0,-1000.0,-105.469,-1000.0
1742199034.561,-242.676,-201.172,5.371,-279.785
1742199034.565,999.512,999.512,62.5,999.512
1742199034.569,831.055,887.207,-4.883,666.016
1742199034.573,-483.398,-361.816,-159.18,-720.703
1742199034.576,-1000.0,-1000.0,-287.109,-1000.0
1742199034.58,-521.484,-646.484,-279.297,-549.805
1742199034.584,823.242,709.961,-176.27,821.289
1742199034.588,999.512,999.512,-155.273,999.512
1742199034.592,-47.363,-67.383,-253.418,-239.258
1742199034.595,-1000.0,-1000.0,-299.805,-1000.0
1742199034.599,-646.973,-727.539,-249.512,-633.301
1742199034.603,706.543,604.492,-163.086,714.844
1742199034.607,999.512,999.512,-110.84,999.512
1742199034.611,135.254,147.949,-211.914,-37.598
1742199034.615,-1000.0,-1000.0,-254.395,-1000.0
1742199034.619,-563.965,-411.621,-156.738,-589.355
1742199034.622,818.359,905.762,-126.465,755.859
1742199034.626,999.512,999.512,-94.727,999.512
1742199034.63,202.148,211.426,-131.836,185.059
1742199034.634,-1000.0,-1000.0,-162.109,-1000.0
1742199034.638,-606.445,-667.48,-117.188,-574.219
1742199034.64,840.332,776.367,-31.25,831.543
1742199034.644,958.008,973.145,-12.695,995.117
1742199034.648,999.512,999.512,-50.293,999.512
1742199034.652,-94.727,-67.871,-100.586,-353.516
1742199034.656,-726.562,-850.586,-148.926,-661.133
1742199034.66,827.148,653.32,-9.277,888.672
1742199034.664,999.512,999.512,86.426,999.512
1742199034.667,946.289,564.453,-47.852,924.316
1742199034.671,-434.082,-866.699,-239.258,-507.812
1742199034.675,-919.922,-974.609,-264.648,-810.547
1742199034.679,611.328,438.965,-62.5,725.098
1742199034.683,999.512,999.512,-4.395,999.512
1742199034.684,636.719,237.793,-162.109,631.348
1742199034.688,-722.168,-989.746,-262.695,-747.07
1742199034.692,-1000.0,-1000.0,-238.77,-1000.0
1742199034.696,180.664,89.355,-114.746,281.738
1742199034.7,999.512,999.512,-4.883,999.512
1742199034.704,999.512,999.512,-38.574,999.512
1742199034.708,233.887,242.188,-152.832,113.77
1742199034.711,-1000.0,-1000.0,-298.828,-1000.0
1742199034.715,-211.426,-214.844,-268.555,-127.93
1742199034.719,999.512,999.512,-108.398,999.512
1742199034.723,999.512,999.512,-103.516,999.512
1742199034.727,75.195,43.457,-185.547,-14.16
1742199034.684,636.719,237.793,-162.109,631.348
1742199034.688,-722.168,-989.746,-262.695,-747.07
1742199034.692,-1000.0,-1000.0,-238.77,-1000.0
1742199034.696,180.664,89.355,-114.746,281.738
1742199034.7,999.512,999.512,-4.883,999.512
1742199034.704,999.512,999.512,-38.574,999.512
1742199034.708,233.887,242.188,-152.832,113.77
1742199034.711,-1000.0,-1000.0,-298.828,-1000.0
1742199034.715,-211.426,-214.844,-268.555,-127.93
1742199034.719,999.512,999.512,-108.398,999.512
1742199034.723,999.512,999.512,-103.516,999.512
1742199034.727,75.195,43.457,-185.547,-14.16
1742199034.73,-1000.0,-1000.0,-223.145,-1000.0
1742199034.734,-185.547,-186.035,-152.344,-181.152
1742199034.738,993.164,997.559,-30.762,996.094
1742199034.742,999.512,999.512,-47.852,999.512
1742199034.746,193.848,121.582,-171.387,113.77
1742199034.75,-1000.0,-1000.0,-171.875,-1000.0
1742199034.754,-214.844,-207.031,-101.562,-205.078
1742199034.757,999.512,999.512,-27.344,999.512
1742199034.761,999.512,451.172,-74.707,999.512
1742199034.765,-9.766,-884.277,-267.578,-32.227
1742199034.769,-1000.0,-1000.0,-272.949,-1000.0
1742199034.773,-245.605,-293.457,-166.992,-210.449
1742199034.73,-1000.0,-1000.0,-223.145,-1000.0
1742199034.734,-185.547,-186.035,-152.344,-181.152
1742199034.738,993.164,997.559,-30.762,996.094
1742199034.742,999.512,999.512,-47.852,999.512
1742199034.746,193.848,121.582,-171.387,113.77
1742199034.75,-1000.0,-1000.0,-171.875,-1000.0
1742199034.754,-214.844,-207.031,-101.562,-205.078
1742199034.757,999.512,999.512,-27.344,999.512
1742199034.761,999.512,451.172,-74.707,999.512
1742199034.765,-9.766,-884.277,-267.578,-32.227
1742199034.769,-1000.0,-1000.0,-272.949,-1000.0
1742199034.773,-245.605,-293.457,-166.992,-210.449
1742199034.789,959.961,916.992,-43.945,971.68
1742199034.793,999.512,999.512,-7.324,999.512
1742199034.797,186.035,168.457,-101.074,200.684
1742199034.801,-1000.0,-1000.0,-170.898,-1000.0
1742199034.805,-1000.0,-1000.0,-179.688,-931.152
1742199034.809,220.703,207.031,-10.742,385.254
1742199034.813,999.512,999.512,62.012,999.512
1742199034.816,58.105,121.582,-147.949,-29.297
1742199034.82,-1000.0,-1000.0,-284.18,-1000.0
1742199034.824,-1000.0,-492.188,-167.48,-1000.0
1742199034.828,-207.031,910.645,-108.887,-166.504
1742199034.832,999.512,999.512,-397.461,949.707
1742199034.789,959.961,916.992,-43.945,971.68
1742199034.793,999.512,999.512,-7.324,999.512
1742199034.797,186.035,168.457,-101.074,200.684
1742199034.801,-1000.0,-1000.0,-170.898,-1000.0
1742199034.805,-1000.0,-1000.0,-179.688,-931.152
1742199034.809,220.703,207.031,-10.742,385.254
1742199034.813,999.512,999.512,62.012,999.512
1742199034.816,58.105,121.582,-147.949,-29.297
1742199034.82,-1000.0,-1000.0,-284.18,-1000.0
1742199034.824,-1000.0,-492.188,-167.48,-1000.0
1742199034.828,-207.031,910.645,-108.887,-166.504
1742199034.832,999.512,999.512,-397.461,949.707
1742199034.833,-283.691,-158.691,-811.523,-496.582
1742199034.837,-1000.0,-1000.0,-1000.0,-1000.0
1742199034.841,-907.715,-847.168,-990.723,-928.711
1742199034.845,-1000.0,383.301,-993.164,-1000.0
1742199034.849,282.227,999.512,-1000.0,374.023
1742199034.853,319.336,178.223,-890.137,290.039
1742199034.857,-1000.0,-1000.0,-859.863,-1000.0
1742199034.86,-986.328,-992.676,-974.609,-984.863
1742199034.864,-972.656,-974.121,-968.75,-972.656
1742199034.868,-1000.0,-983.887,-993.652,-1000.0
1742199034.872,-1000.0,-981.445,-1000.0,-1000.0
1742199034.876,-937.5,-1000.0,-999.023,-933.105
1742199034.833,-283.691,-158.691,-811.523,-496.582
1742199034.837,-1000.0,-1000.0,-1000.0,-1000.0
1742199034.841,-907.715,-847.168,-990.723,-928.711
1742199034.845,-1000.0,383.301,-993.164,-1000.0
1742199034.849,282.227,999.512,-1000.0,374.023
1742199034.853,319.336,178.223,-890.137,290.039
1742199034.857,-1000.0,-1000.0,-859.863,-1000.0
1742199034.86,-986.328,-992.676,-974.609,-984.863
1742199034.864,-972.656,-974.121,-968.75,-972.656
1742199034.868,-1000.0,-983.887,-993.652,-1000.0
1742199034.872,-1000.0,-981.445,-1000.0,-1000.0
1742199034.876,-937.5,-1000.0,-999.023,-933.105
1742199034.88,-1000.0,158.203,-996.094,-1000.0
1742199034.884,-291.504,999.512,-1000.0,-357.422
1742199034.888,999.512,999.512,-956.055,999.512
1742199034.892,308.105,348.633,-772.461,210.938
1742199034.896,-1000.0,-948.73,-789.062,-1000.0
1742199034.9,-1000.0,-1000.0,-945.312,-979.98
1742199034.904,-961.914,-155.762,-1000.0,-970.703
1742199034.907,-1000.0,999.512,-897.949,-1000.0
1742199034.911,-1000.0,-80.078,-680.176,-1000.0
1742199034.915,-936.035,-1000.0,-623.535,-932.617
1742199034.919,-1000.0,-1000.0,-567.871,-1000.0
1742199034.923,-309.082,-6.836,-444.336,-710.938
1742199034.88,-1000.0,158.203,-996.094,-1000.0
1742199034.884,-291.504,999.512,-1000.0,-357.422
1742199034.888,999.512,999.512,-956.055,999.512
1742199034.892,308.105,348.633,-772.461,210.938
1742199034.896,-1000.0,-948.73,-789.062,-1000.0
1742199034.9,-1000.0,-1000.0,-945.312,-979.98
1742199034.904,-961.914,-155.762,-1000.0,-970.703
1742199034.907,-1000.0,999.512,-897.949,-1000.0
1742199034.911,-1000.0,-80.078,-680.176,-1000.0
1742199034.915,-936.035,-1000.0,-623.535,-932.617
1742199034.919,-1000.0,-1000.0,-567.871,-1000.0
1742199034.923,-309.082,-6.836,-444.336,-710.938
1742199034.923,999.512,999.512,-395.996,914.062
1742199034.927,238.281,263.184,-331.543,246.582
1742199034.931,-1000.0,-970.703,-308.594,-1000.0
1742199034.935,-903.32,-1000.0,-434.57,-969.238
1742199034.939,-1000.0,-668.457,-484.863,-973.633
1742199034.943,-282.715,719.727,-448.73,-1000.0
1742199034.947,715.332,999.512,-372.559,-1000.0
1742199034.95,-713.379,-341.309,-416.016,-1000.0
1742199034.954,-1000.0,-1000.0,-565.918,-923.828
1742199034.958,-1000.0,-742.676,-568.359,-1000.0
1742199034.962,-115.723,604.004,-486.328,-142.578
1742199034.966,999.512,999.512,-349.609,788.086
1742199034.923,999.512,999.512,-395.996,914.062
1742199034.927,238.281,263.184,-331.543,246.582
1742199034.931,-1000.0,-970.703,-308.594,-1000.0
1742199034.935,-903.32,-1000.0,-434.57,-969.238
1742199034.939,-1000.0,-668.457,-484.863,-973.633
1742199034.943,-282.715,719.727,-448.73,-1000.0
1742199034.947,715.332,999.512,-372.559,-1000.0
1742199034.95,-713.379,-341.309,-416.016,-1000.0
1742199034.954,-1000.0,-1000.0,-565.918,-923.828
1742199034.958,-1000.0,-742.676,-568.359,-1000.0
1742199034.962,-115.723,604.004,-486.328,-142.578
1742199034.966,999.512,999.512,-349.609,788.086
1742199034.969,-361.328,-207.52,-400.391,-708.496
1742199034.973,-1000.0,-1000.0,-505.371,-1000.0
1742199034.977,-1000.0,-515.137,-464.844,-1000.0
1742199034.981,-26.855,786.621,-381.836,-196.289
1742199034.985,999.512,999.512,-301.758,999.512
1742199034.989,122.559,119.141,-272.461,-3.906
1742199034.993,-1000.0,-1000.0,-330.078,-1000.0
1742199034.996,-1000.0,-1000.0,-475.098,-1000.0
1742199035.0,-716.797,-893.555,-562.988,-706.543
1742199035.004,901.855,686.035,-495.605,886.719
1742199035.008,330.566,448.242,-301.758,254.883
1742199035.012,-1000.0,-1000.0,-263.184,-1000.0
1742199035.014,-1000.0,-1000.0,-369.141,-1000.0
1742199035.018,-236.816,-213.867,-353.027,-239.746
1742199035.022,999.512,999.512,-246.094,999.512
1742199035.026,860.352,930.664,-275.879,653.809
1742199035.03,-664.551,-650.879,-465.82,-874.512
1742199035.034,-944.824,-612.793,-501.465,-942.871
1742199035.038,641.602,893.555,-373.047,569.824
1742199035.041,972.168,999.512,-302.734,979.492
1742199035.045,999.512,390.625,-286.133,999.512
1742199035.049,466.309,-959.473,-346.68,318.848
1742199035.053,-870.605,-1000.0,-449.219,-777.832
1742199035.057,396.484,298.34,-409.18,598.633
1742199035.058,999.512,999.512,-243.164,999.512
1742199035.062,884.766,902.832,-180.176,891.602
1742199035.066,975.098,970.215,-252.441,979.492
1742199035.07,966.309,981.934,-296.875,966.797
1742199035.074,966.309,899.902,-289.062,966.797
1742199035.078,966.309,999.512,-160.645,966.797
1742199035.082,966.309,665.039,-72.754,966.797
1742199035.085,966.309,-701.66,-209.473,966.797
1742199035.089,966.309,-1000.0,-277.344,966.797
1742199035.093,966.309,-172.363,-278.32,966.797
1742199035.097,966.309,988.281,-206.543,966.797
1742199035.101,966.309,999.512,-78.613,966.797
1742199035.058,999.512,999.512,-243.164,999.512
1742199035.062,884.766,902.832,-180.176,891.602
1742199035.066,975.098,970.215,-252.441,979.492
1742199035.07,966.309,981.934,-296.875,966.797
1742199035.074,966.309,899.902,-289.062,966.797
1742199035.078,966.309,999.512,-160.645,966.797
1742199035.082,966.309,665.039,-72.754,966.797
1742199035.085,966.309,-701.66,-209.473,966.797
1742199035.089,966.309,-1000.0,-277.344,966.797
1742199035.093,966.309,-172.363,-278.32,966.797
1742199035.097,966.309,988.281,-206.543,966.797
1742199035.101,966.309,999.512,-78.613,966.797
1742199035.103,966.309,-18.066,-89.844,966.797
1742199035.107,966.309,-1000.0,-129.883,967.285
1742199035.111,966.309,-222.168,-28.809,966.797
1742199035.115,966.309,999.512,138.184,966.797
1742199035.119,966.309,408.203,245.117,966.797
1742199035.123,966.309,-913.086,259.766,966.797
1742199035.127,966.797,-1000.0,173.34,967.285
1742199035.13,964.355,-580.078,92.773,967.773
1742199035.134,907.227,949.219,44.922,904.297
1742199035.138,999.512,160.645,41.992,999.512
1742199035.142,144.531,-1000.0,-1.953,187.012
1742199035.146,-1000.0,-960.449,-110.84,-1000.0
1742199035.103,966.309,-18.066,-89.844,966.797
1742199035.107,966.309,-1000.0,-129.883,967.285
1742199035.111,966.309,-222.168,-28.809,966.797
1742199035.115,966.309,999.512,138.184,966.797
1742199035.119,966.309,408.203,245.117,966.797
1742199035.123,966.309,-913.086,259.766,966.797
1742199035.127,966.797,-1000.0,173.34,967.285
1742199035.13,964.355,-580.078,92.773,967.773
1742199035.134,907.227,949.219,44.922,904.297
1742199035.138,999.512,160.645,41.992,999.512
1742199035.142,144.531,-1000.0,-1.953,187.012
1742199035.146,-1000.0,-960.449,-110.84,-1000.0
1742199035.149,-978.027,-978.516,-115.723,-1000.0
1742199035.153,-976.074,-1000.0,-149.414,-886.719
1742199035.157,-1000.0,-999.512,-166.016,-900.391
1742199035.161,-1000.0,-939.453,29.297,-1000.0
1742199035.165,-1000.0,-1000.0,427.734,-998.535
1742199035.169,-1000.0,-260.254,834.473,-998.535
1742199035.173,-1000.0,999.512,972.656,-1000.0
1742199035.176,-1000.0,199.707,964.844,-1000.0
1742199035.18,-1000.0,-1000.0,926.758,-1000.0
1742199035.184,-1000.0,-925.781,846.191,-1000.0
1742199035.188,-1000.0,-1000.0,855.469,-1000.0
1742199035.192,-1000.0,2.93,911.133,-1000.0
1742199035.149,-978.027,-978.516,-115.723,-1000.0
1742199035.153,-976.074,-1000.0,-149.414,-886.719
1742199035.157,-1000.0,-999.512,-166.016,-900.391
1742199035.161,-1000.0,-939.453,29.297,-1000.0
1742199035.165,-1000.0,-1000.0,427.734,-998.535
1742199035.169,-1000.0,-260.254,834.473,-998.535
1742199035.173,-1000.0,999.512,972.656,-1000.0
1742199035.176,-1000.0,199.707,964.844,-1000.0
1742199035.18,-1000.0,-1000.0,926.758,-1000.0
1742199035.184,-1000.0,-925.781,846.191,-1000.0
1742199035.188,-1000.0,-1000.0,855.469,-1000.0
1742199035.192,-1000.0,2.93,911.133,-1000.0
1742199035.208,-1000.0,860.352,938.965,-1000.0
1742199035.212,-1000.0,-611.328,841.797,-1000.0
1742199035.216,-1000.0,-1000.0,821.777,-1000.0
1742199035.22,-1000.0,-122.559,792.969,-1000.0
1742199035.224,-1000.0,990.723,770.508,-1000.0
1742199035.228,-1000.0,999.512,865.723,-1000.0
1742199035.232,-1000.0,3.418,783.203,-1000.0
1742199035.235,-1000.0,-1000.0,590.82,-1000.0
1742199035.239,-1000.0,-965.332,442.383,-1000.0
1742199035.243,-1000.0,-983.887,507.324,-1000.0
1742199035.247,-1000.0,-1000.0,580.078,-1000.0
1742199035.251,-1000.0,-1000.0,473.145,-1000.0
1742199035.208,-1000.0,860.352,938.965,-1000.0
1742199035.212,-1000.0,-611.328,841.797,-1000.0
1742199035.216,-1000.0,-1000.0,821.777,-1000.0
1742199035.22,-1000.0,-122.559,792.969,-1000.0
1742199035.224,-1000.0,990.723,770.508,-1000.0
1742199035.228,-1000.0,999.512,865.723,-1000.0
1742199035.232,-1000.0,3.418,783.203,-1000.0
1742199035.235,-1000.0,-1000.0,590.82,-1000.0
1742199035.239,-1000.0,-965.332,442.383,-1000.0
1742199035.243,-1000.0,-983.887,507.324,-1000.0
1742199035.247,-1000.0,-1000.0,580.078,-1000.0
1742199035.251,-1000.0,-1000.0,473.145,-1000.0
1742199035.254,-1000.0,-935.547,353.027,-1000.0
1742199035.258,-1000.0,-1000.0,375.0,-1000.0
1742199035.262,-1000.0,-711.426,474.609,-1000.0
1742199035.266,-1000.0,893.066,485.352,-1000.0
1742199035.27,-1000.0,247.559,444.336,-1000.0
1742199035.274,-1000.0,-1000.0,387.207,-1000.0
1742199035.278,-1000.0,-970.215,359.375,-1000.0
1742199035.281,-1000.0,-973.633,382.812,-1000.0
1742199035.285,-1000.0,-1000.0,318.359,-1000.0
1742199035.289,-1000.0,-939.941,285.645,-1000.0
1742199035.293,-1000.0,-1000.0,282.227,-1000.0
1742199035.297,-1000.0,-752.93,260.254,-1000.0
1742199035.254,-1000.0,-935.547,353.027,-1000.0
1742199035.258,-1000.0,-1000.0,375.0,-1000.0
1742199035.262,-1000.0,-711.426,474.609,-1000.0
1742199035.266,-1000.0,893.066,485.352,-1000.0
1742199035.27,-1000.0,247.559,444.336,-1000.0
1742199035.274,-1000.0,-1000.0,387.207,-1000.0
1742199035.278,-1000.0,-970.215,359.375,-1000.0
1742199035.281,-1000.0,-973.633,382.812,-1000.0
1742199035.285,-1000.0,-1000.0,318.359,-1000.0
1742199035.289,-1000.0,-939.941,285.645,-1000.0
1742199035.293,-1000.0,-1000.0,282.227,-1000.0
1742199035.297,-1000.0,-752.93,260.254,-1000.0
1742199035.299,-1000.0,655.762,282.715,-1000.0
1742199035.303,-1000.0,999.512,357.422,-1000.0
1742199035.307,-1000.0,905.762,394.043,-1000.0
1742199035.311,-1000.0,980.957,336.914,-1000.0
1742199035.315,-1000.0,953.125,276.855,-1000.0
1742199035.319,-1000.0,967.285,367.188,-1000.0
1742199035.323,-1000.0,898.926,474.609,-1000.0
1742199035.326,-1000.0,999.512,461.914,-1000.0
1742199035.33,-930.176,395.02,353.516,-961.426
1742199035.334,-1000.0,-1000.0,256.836,-1000.0
1742199035.338,-355.957,-187.012,290.039,-977.539
1742199035.342,986.816,999.512,418.945,342.285
1742199035.299,-1000.0,655.762,282.715,-1000.0
1742199035.303,-1000.0,999.512,357.422,-1000.0
1742199035.307,-1000.0,905.762,394.043,-1000.0
1742199035.311,-1000.0,980.957,336.914,-1000.0
1742199035.315,-1000.0,953.125,276.855,-1000.0
1742199035.319,-1000.0,967.285,367.188,-1000.0
1742199035.323,-1000.0,898.926,474.609,-1000.0
1742199035.326,-1000.0,999.512,461.914,-1000.0
1742199035.33,-930.176,395.02,353.516,-961.426
1742199035.334,-1000.0,-1000.0,256.836,-1000.0
1742199035.338,-355.957,-187.012,290.039,-977.539
1742199035.342,986.816,999.512,418.945,342.285
1742199035.344,972.656,934.082,478.516,999.512
1742199035.348,928.223,942.871,359.375,902.832
1742199035.352,976.562,972.656,287.109,972.168
1742199035.356,966.309,974.121,268.066,966.797
1742199035.36,966.309,937.5,297.852,967.285
1742199035.364,966.309,958.496,382.812,967.285
1742199035.368,966.309,999.512,348.633,966.797
1742199035.371,966.309,-186.523,212.402,966.797
1742199035.375,966.309,-1000.0,111.328,966.797
1742199035.379,966.309,-224.609,140.137,966.797
1742199035.383,966.309,999.512,268.066,966.797
1742199035.387,966.309,391.602,199.707,966.797
1742199035.344,972.656,934.082,478.516,999.512
1742199035.348,928.223,942.871,359.375,902.832
1742199035.352,976.562,972.656,287.109,972.168
1742199035.356,966.309,974.121,268.066,966.797
1742199035.36,966.309,937.5,297.852,967.285
1742199035.364,966.309,958.496,382.812,967.285
1742199035.368,966.309,999.512,348.633,966.797
1742199035.371,966.309,-186.523,212.402,966.797
1742199035.375,966.309,-1000.0,111.328,966.797
1742199035.379,966.309,-224.609,140.137,966.797
1742199035.383,966.309,999.512,268.066,966.797
1742199035.387,966.309,391.602,199.707,966.797
1742199035.388,966.309,-958.008,52.734,966.797
1742199035.392,966.797,-1000.0,32.227,967.285
1742199035.396,967.285,-92.773,140.625,967.285
1742199035.4,903.32,999.512,242.188,904.297
1742199035.404,999.512,252.441,215.82,999.512
1742199035.408,248.047,-987.305,233.887,236.816
1742199035.412,-1000.0,-1000.0,237.305,-1000.0
1742199035.415,-187.988,-215.332,221.68,-164.062
1742199035.419,999.512,999.512,249.512,999.512
1742199035.423,999.512,962.402,235.352,999.512
1742199035.427,235.352,-209.473,189.453,161.133
1742199035.431,-1000.0,-1000.0,99.121,-1000.0
1742199035.388,966.309,-958.008,52.734,966.797
1742199035.392,966.797,-1000.0,32.227,967.285
1742199035.396,967.285,-92.773,140.625,967.285
1742199035.4,903.32,999.512,242.188,904.297
1742199035.404,999.512,252.441,215.82,999.512
1742199035.408,248.047,-987.305,233.887,236.816
1742199035.412,-1000.0,-1000.0,237.305,-1000.0
1742199035.415,-187.988,-215.332,221.68,-164.062
1742199035.419,999.512,999.512,249.512,999.512
1742199035.423,999.512,962.402,235.352,999.512
1742199035.427,235.352,-209.473,189.453,161.133
1742199035.431,-1000.0,-1000.0,99.121,-1000.0
1742199035.434,-466.797,-460.938,115.234,-489.258
1742199035.438,869.141,827.148,240.234,851.074
1742199035.442,999.512,999.512,229.98,999.512
1742199035.446,504.395,389.16,170.898,321.777
1742199035.45,-1000.0,-1000.0,108.887,-1000.0
1742199035.454,-54.688,-150.879,223.145,-15.137
1742199035.458,999.512,999.512,420.898,999.512
1742199035.461,907.227,926.27,320.312,912.598
1742199035.465,954.59,946.777,230.957,955.078
1742199035.469,968.262,971.68,278.32,969.238
1742199035.473,966.309,966.797,361.328,966.797
1742199035.477,966.309,966.797,457.031,966.797
1742199035.434,-466.797,-460.938,115.234,-489.258
1742199035.438,869.141,827.148,240.234,851.074
1742199035.442,999.512,999.512,229.98,999.512
1742199035.446,504.395,389.16,170.898,321.777
1742199035.45,-1000.0,-1000.0,108.887,-1000.0
1742199035.454,-54.688,-150.879,223.145,-15.137
1742199035.458,999.512,999.512,420.898,999.512
1742199035.461,907.227,926.27,320.312,912.598
1742199035.465,954.59,946.777,230.957,955.078
1742199035.469,968.262,971.68,278.32,969.238
1742199035.473,966.309,966.797,361.328,966.797
1742199035.477,966.309,966.797,457.031,966.797
1742199035.478,966.309,966.797,412.109,966.797
1742199035.482,966.309,966.797,314.941,966.797
1742199035.486,966.309,966.797,360.84,966.797
1742199035.49,966.309,966.797,456.543,966.797
1742199035.494,966.309,967.285,496.094,966.797
1742199035.498,966.309,967.285,562.988,966.797
1742199035.502,966.309,967.285,509.277,966.797
1742199035.505,966.309,967.285,337.402,966.797
1742199035.509,966.309,966.797,298.34,966.797
1742199035.513,966.309,966.797,441.406,966.797
1742199035.517,966.309,966.797,512.695,966.797
1742199035.521,966.309,966.797,400.391,966.797
1742199035.478,966.309,966.797,412.109,966.797
1742199035.482,966.309,966.797,314.941,966.797
1742199035.486,966.309,966.797,360.84,966.797
1742199035.49,966.309,966.797,456.543,966.797
1742199035.494,966.309,967.285,496.094,966.797
1742199035.498,966.309,967.285,562.988,966.797
1742199035.502,966.309,967.285,509.277,966.797
1742199035.505,966.309,967.285,337.402,966.797
1742199035.509,966.309,966.797,298.34,966.797
1742199035.513,966.309,966.797,441.406,966.797
1742199035.517,966.309,966.797,512.695,966.797
1742199035.521,966.309,966.797,400.391,966.797
1742199035.54,966.309,968.75,325.195,966.797
1742199035.544,966.309,959.473,316.406,966.797
1742199035.548,966.309,916.992,391.602,967.285
1742199035.552,966.309,999.512,343.262,966.797
1742199035.556,966.309,66.895,195.312,966.797
1742199035.56,966.309,-1000.0,89.355,966.797
1742199035.564,966.309,-969.727,24.902,966.797
1742199035.567,966.309,-981.445,32.715,966.797
1742199035.571,966.309,-1000.0,3.418,966.797
1742199035.575,966.309,-1000.0,-98.145,966.797
1742199035.579,966.309,-1000.0,-157.715,967.285
1742199035.583,966.309,-1000.0,-159.668,967.285
1742199035.54,966.309,968.75,325.195,966.797
1742199035.544,966.309,959.473,316.406,966.797
1742199035.548,966.309,916.992,391.602,967.285
1742199035.552,966.309,999.512,343.262,966.797
1742199035.556,966.309,66.895,195.312,966.797
1742199035.56,966.309,-1000.0,89.355,966.797
1742199035.564,966.309,-969.727,24.902,966.797
1742199035.567,966.309,-981.445,32.715,966.797
1742199035.571,966.309,-1000.0,3.418,966.797
1742199035.575,966.309,-1000.0,-98.145,966.797
1742199035.579,966.309,-1000.0,-157.715,967.285
1742199035.583,966.309,-1000.0,-159.668,967.285
1742199035.583,967.773,-1000.0,-141.602,969.238
1742199035.587,902.344,-1000.0,-128.418,957.031
1742199035.591,999.512,-1000.0,-199.707,920.41
1742199035.595,203.125,-1000.0,-342.773,999.512
1742199035.599,-1000.0,-1000.0,-420.41,23.926
1742199035.603,-986.816,-1000.0,-370.117,-1000.0
1742199035.607,-971.68,-1000.0,-311.035,-963.379
1742199035.61,-1000.0,-1000.0,-372.07,-984.863
1742199035.614,-1000.0,-1000.0,-545.898,-1000.0
1742199035.618,-1000.0,-1000.0,-644.043,-1000.0
1742199035.622,-1000.0,-1000.0,-525.879,-1000.0
1742199035.626,-1000.0,-1000.0,-412.109,-1000.0
1742199035.583,967.773,-1000.0,-141.602,969.238
1742199035.587,902.344,-1000.0,-128.418,957.031
1742199035.591,999.512,-1000.0,-199.707,920.41
1742199035.595,203.125,-1000.0,-342.773,999.512
1742199035.599,-1000.0,-1000.0,-420.41,23.926
1742199035.603,-986.816,-1000.0,-370.117,-1000.0
1742199035.607,-971.68,-1000.0,-311.035,-963.379
1742199035.61,-1000.0,-1000.0,-372.07,-984.863
1742199035.614,-1000.0,-1000.0,-545.898,-1000.0
1742199035.618,-1000.0,-1000.0,-644.043,-1000.0
1742199035.622,-1000.0,-1000.0,-525.879,-1000.0
1742199035.626,-1000.0,-1000.0,-412.109,-1000.0
1742199035.628,-1000.0,-1000.0,-442.383,-1000.0
1742199035.632,-1000.0,-1000.0,-523.926,-1000.0
1742199035.636,-1000.0,-1000.0,-543.945,-1000.0
1742199035.64,-1000.0,-1000.0,-511.23,-1000.0
1742199035.644,-1000.0,-1000.0,-436.523,-1000.0
1742199035.648,-1000.0,-1000.0,-398.438,-1000.0
1742199035.652,-1000.0,-1000.0,-505.859,-1000.0
1742199035.655,-1000.0,-1000.0,-629.395,-1000.0
1742199035.659,-1000.0,-1000.0,-639.16,-1000.0
1742199035.663,-1000.0,-1000.0,-508.789,-1000.0
1742199035.667,-1000.0,-1000.0,-382.812,-1000.0
1742199035.671,-1000.0,-1000.0,-490.723,-1000.0
1742199035.628,-1000.0,-1000.0,-442.383,-1000.0
1742199035.632,-1000.0,-1000.0,-523.926,-1000.0
1742199035.636,-1000.0,-1000.0,-543.945,-1000.0
1742199035.64,-1000.0,-1000.0,-511.23,-1000.0
1742199035.644,-1000.0,-1000.0,-436.523,-1000.0
1742199035.648,-1000.0,-1000.0,-398.438,-1000.0
1742199035.652,-1000.0,-1000.0,-505.859,-1000.0
1742199035.655,-1000.0,-1000.0,-629.395,-1000.0
1742199035.659,-1000.0,-1000.0,-639.16,-1000.0
1742199035.663,-1000.0,-1000.0,-508.789,-1000.0
1742199035.667,-1000.0,-1000.0,-382.812,-1000.0
1742199035.671,-1000.0,-1000.0,-490.723,-1000.0
1742199035.674,-1000.0,-1000.0,-584.961,-1000.0
1742199035.678,-1000.0,-1000.0,-492.676,-1000.0
1742199035.682,-1000.0,-1000.0,-361.816,-1000.0
1742199035.686,-1000.0,-1000.0,-351.562,-1000.0
1742199035.69,-1000.0,-1000.0,-450.195,-1000.0
1742199035.694,-1000.0,-936.035,-484.375,-1000.0
1742199035.698,-1000.0,-1000.0,-524.902,-1000.0
1742199035.701,-1000.0,-242.188,-394.043,-1000.0
1742199035.705,-1000.0,999.512,-194.336,-1000.0
1742199035.709,-1000.0,954.59,-137.207,-1000.0
1742199035.713,-1000.0,937.988,-72.754,-1000.0
1742199035.717,-1000.0,974.609,-20.996,-1000.0
1742199035.72,-1000.0,967.285,109.375,-1000.0
1742199035.724,-1000.0,967.285,284.18,-1000.0
1742199035.728,-1000.0,967.285,371.094,-1000.0
1742199035.732,-1000.0,967.285,408.691,-1000.0
1742199035.736,-1000.0,967.285,306.641,-1000.0
1742199035.74,-1000.0,967.285,337.402,-1000.0
1742199035.744,-1000.0,967.285,365.723,-1000.0
1742199035.747,-960.449,967.285,203.125,-1000.0
1742199035.751,-1000.0,967.285,123.535,-937.5
1742199035.755,-974.121,967.285,121.094,-1000.0
1742199035.759,355.469,967.285,221.191,-220.703
1742199035.763,999.512,967.285,340.332,999.512
1742199035.72,-1000.0,967.285,109.375,-1000.0
1742199035.724,-1000.0,967.285,284.18,-1000.0
1742199035.728,-1000.0,967.285,371.094,-1000.0
1742199035.732,-1000.0,967.285,408.691,-1000.0
1742199035.736,-1000.0,967.285,306.641,-1000.0
1742199035.74,-1000.0,967.285,337.402,-1000.0
1742199035.744,-1000.0,967.285,365.723,-1000.0
1742199035.747,-960.449,967.285,203.125,-1000.0
1742199035.751,-1000.0,967.285,123.535,-937.5
1742199035.755,-974.121,967.285,121.094,-1000.0
1742199035.759,355.469,967.285,221.191,-220.703
1742199035.763,999.512,967.285,340.332,999.512
1742199035.778,900.879,967.285,315.43,950.684
1742199035.782,972.656,967.285,248.047,939.453
1742199035.786,966.309,966.797,309.082,973.633
1742199035.79,966.309,966.797,441.895,966.797
1742199035.794,966.309,966.797,450.195,967.285
1742199035.798,966.309,966.797,389.16,966.797
1742199035.802,966.309,966.797,327.148,966.797
1742199035.805,966.309,967.285,177.246,966.797
1742199035.809,966.309,966.797,68.359,966.797
1742199035.813,966.309,967.285,81.055,966.797
1742199035.817,966.309,967.285,93.75,966.797
1742199035.821,966.309,966.797,39.062,966.797
1742199035.81,966.309,966.797,-13.184,966.797
1742199035.814,966.309,972.656,42.969,966.797
1742199035.818,966.309,940.43,151.855,966.797
1742199035.822,966.309,999.512,131.348,967.285
1742199035.826,966.309,797.363,14.16,966.797
1742199035.83,966.309,570.312,-11.23,966.797
1742199035.834,966.309,914.062,60.547,967.285
1742199035.837,966.309,999.512,61.035,966.797
1742199035.841,966.309,14.648,-37.109,966.797
1742199035.845,966.309,-1000.0,-97.656,966.797
1742199035.849,966.309,-965.332,-91.797,966.797
1742199035.853,966.309,-983.887,-104.98,966.797
1742199035.81,966.309,966.797,-13.184,966.797
1742199035.814,966.309,972.656,42.969,966.797
1742199035.818,966.309,940.43,151.855,966.797
1742199035.822,966.309,999.512,131.348,967.285
1742199035.826,966.309,797.363,14.16,966.797
1742199035.83,966.309,570.312,-11.23,966.797
1742199035.834,966.309,914.062,60.547,967.285
1742199035.837,966.309,999.512,61.035,966.797
1742199035.841,966.309,14.648,-37.109,966.797
1742199035.845,966.309,-1000.0,-97.656,966.797
1742199035.849,966.309,-965.332,-91.797,966.797
1742199035.853,966.309,-983.887,-104.98,966.797
1742199035.853,966.309,-1000.0,-77.637,967.285
1742199035.857,966.309,-1000.0,-63.477,967.285
1742199035.861,966.309,-995.117,-127.441,966.797
1742199035.865,966.309,-937.012,-177.734,966.797
1742199035.869,966.309,-1000.0,-173.828,967.285
1742199035.873,972.168,-113.77,-105.957,970.703
1742199035.877,897.461,999.512,-55.176,900.391
1742199035.88,999.512,-403.32,-191.406,999.512
1742199035.884,350.098,-1000.0,-324.219,303.711
1742199035.888,-1000.0,-1000.0,-307.129,-1000.0
1742199035.892,-252.93,-297.363,-243.652,-204.59
1742199035.896,999.512,999.512,-132.812,999.512
1742199035.853,966.309,-1000.0,-77.637,967.285
1742199035.857,966.309,-1000.0,-63.477,967.285
1742199035.861,966.309,-995.117,-127.441,966.797
1742199035.865,966.309,-937.012,-177.734,966.797
1742199035.869,966.309,-1000.0,-173.828,967.285
1742199035.873,972.168,-113.77,-105.957,970.703
1742199035.877,897.461,999.512,-55.176,900.391
1742199035.88,999.512,-403.32,-191.406,999.512
1742199035.884,350.098,-1000.0,-324.219,303.711
1742199035.888,-1000.0,-1000.0,-307.129,-1000.0
1742199035.892,-252.93,-297.363,-243.652,-204.59
1742199035.896,999.512,999.512,-132.812,999.512
1742199035.853,966.309,-1000.0,-77.637,967.285
1742199035.857,966.309,-1000.0,-63.477,967.285
1742199035.861,966.309,-995.117,-127.441,966.797
1742199035.865,966.309,-937.012,-177.734,966.797
1742199035.869,966.309,-1000.0,-173.828,967.285
1742199035.873,972.168,-113.77,-105.957,970.703
1742199035.877,897.461,999.512,-55.176,900.391
1742199035.88,999.512,-403.32,-191.406,999.512
1742199035.884,350.098,-1000.0,-324.219,303.711
1742199035.888,-1000.0,-1000.0,-307.129,-1000.0
1742199035.892,-252.93,-297.363,-243.652,-204.59
1742199035.896,999.512,999.512,-132.812,999.512
1742199035.913,980.957,370.117,-113.77,922.363
1742199035.917,-240.723,-955.078,-195.801,-313.477
1742199035.921,-1000.0,-1000.0,-218.75,-1000.0
1742199035.925,-147.949,-166.016,-152.832,-144.531
1742199035.929,962.891,952.148,-29.785,967.285
1742199035.933,999.512,999.512,27.344,999.512
1742199035.937,402.344,462.891,-9.766,329.59
1742199035.94,-1000.0,-1000.0,-102.539,-1000.0
1742199035.944,-467.773,-636.23,-160.645,-318.848
1742199035.948,958.496,833.008,-40.039,999.512
1742199035.952,948.242,999.512,69.824,937.988
1742199035.956,999.512,970.703,16.113,999.512
1742199035.913,980.957,370.117,-113.77,922.363
1742199035.917,-240.723,-955.078,-195.801,-313.477
1742199035.921,-1000.0,-1000.0,-218.75,-1000.0
1742199035.925,-147.949,-166.016,-152.832,-144.531
1742199035.929,962.891,952.148,-29.785,967.285
1742199035.933,999.512,999.512,27.344,999.512
1742199035.937,402.344,462.891,-9.766,329.59
1742199035.94,-1000.0,-1000.0,-102.539,-1000.0
1742199035.944,-467.773,-636.23,-160.645,-318.848
1742199035.948,958.496,833.008,-40.039,999.512
1742199035.952,948.242,999.512,69.824,937.988
1742199035.956,999.512,970.703,16.113,999.512
1742199035.958,-270.02,-459.961,-80.078,-300.293
1742199035.962,-428.711,-539.551,-86.426,-349.121
1742199035.966,999.512,939.941,24.902,999.512
1742199035.97,965.82,999.512,89.844,955.566
1742199035.974,932.129,138.672,83.496,938.477
1742199035.978,975.586,-788.574,137.207,974.121
1742199035.982,969.238,588.867,185.059,980.957
1742199035.985,900.879,999.512,200.195,902.832
1742199035.989,999.512,107.91,95.215,999.512
1742199035.993,297.852,-987.305,-13.184,732.422
1742199035.997,-1000.0,-1000.0,-4.395,-886.23
1742199036.001,-333.496,-376.953,-27.832,-290.527
1742199035.958,-270.02,-459.961,-80.078,-300.293
1742199035.962,-428.711,-539.551,-86.426,-349.121
1742199035.966,999.512,939.941,24.902,999.512
1742199035.97,965.82,999.512,89.844,955.566
1742199035.974,932.129,138.672,83.496,938.477
1742199035.978,975.586,-788.574,137.207,974.121
1742199035.982,969.238,588.867,185.059,980.957
1742199035.985,900.879,999.512,200.195,902.832
1742199035.989,999.512,107.91,95.215,999.512
1742199035.993,297.852,-987.305,-13.184,732.422
1742199035.997,-1000.0,-1000.0,-4.395,-886.23
1742199036.001,-333.496,-376.953,-27.832,-290.527
1742199036.019,956.543,898.926,18.555,999.512
1742199036.023,999.512,999.512,61.035,999.512
1742199036.027,192.871,131.836,-98.633,368.164
1742199036.031,-984.375,-1000.0,-238.281,-933.594
1742199036.035,-1000.0,-1000.0,-240.234,-1000.0
1742199036.039,-240.723,-165.039,-75.195,-98.145
1742199036.043,999.512,999.512,-0.977,999.512
1742199036.046,168.945,158.203,-132.812,135.254
1742199036.05,-1000.0,-1000.0,-277.832,-1000.0
1742199036.054,-977.539,-979.492,-274.414,-977.539
1742199036.058,-973.145,-974.121,-136.719,-974.609
1742199036.062,-1000.0,-1000.0,-80.566,-1000.0
1742199036.019,956.543,898.926,18.555,999.512
1742199036.023,999.512,999.512,61.035,999.512
1742199036.027,192.871,131.836,-98.633,368.164
1742199036.031,-984.375,-1000.0,-238.281,-933.594
1742199036.035,-1000.0,-1000.0,-240.234,-1000.0
1742199036.039,-240.723,-165.039,-75.195,-98.145
1742199036.043,999.512,999.512,-0.977,999.512
1742199036.046,168.945,158.203,-132.812,135.254
1742199036.05,-1000.0,-1000.0,-277.832,-1000.0
1742199036.054,-977.539,-979.492,-274.414,-977.539
1742199036.058,-973.145,-974.121,-136.719,-974.609
1742199036.062,-1000.0,-1000.0,-80.566,-1000.0
1742199036.049,-1000.0,-944.336,-161.133,-1000.0
1742199036.053,-1000.0,-1000.0,-171.875,-1000.0
1742199036.057,-1000.0,-225.098,-136.23,-1000.0
1742199036.061,-1000.0,999.512,-44.922,-1000.0
1742199036.065,-1000.0,448.73,-24.414,-1000.0
1742199036.069,-1000.0,-894.043,-109.863,-1000.0
1742199036.073,-1000.0,-1000.0,-77.637,-1000.0
1742199036.076,-1000.0,-238.281,-97.656,-1000.0
1742199036.08,-1000.0,999.512,-109.375,-1000.0
1742199036.084,-1000.0,979.004,-76.66,-1000.0
1742199036.088,-1000.0,-279.785,-66.406,-1000.0
1742199036.092,-925.781,-1000.0,-103.027,-933.105
1742199036.049,-1000.0,-944.336,-161.133,-1000.0
1742199036.053,-1000.0,-1000.0,-171.875,-1000.0
1742199036.057,-1000.0,-225.098,-136.23,-1000.0
1742199036.061,-1000.0,999.512,-44.922,-1000.0
1742199036.065,-1000.0,448.73,-24.414,-1000.0
1742199036.069,-1000.0,-894.043,-109.863,-1000.0
1742199036.073,-1000.0,-1000.0,-77.637,-1000.0
1742199036.076,-1000.0,-238.281,-97.656,-1000.0
1742199036.08,-1000.0,999.512,-109.375,-1000.0
1742199036.084,-1000.0,979.004,-76.66,-1000.0
1742199036.088,-1000.0,-279.785,-66.406,-1000.0
1742199036.092,-925.781,-1000.0,-103.027,-933.105
1742199036.049,-1000.0,-944.336,-161.133,-1000.0
1742199036.053,-1000.0,-1000.0,-171.875,-1000.0
1742199036.057,-1000.0,-225.098,-136.23,-1000.0
1742199036.061,-1000.0,999.512,-44.922,-1000.0
1742199036.065,-1000.0,448.73,-24.414,-1000.0
1742199036.069,-1000.0,-894.043,-109.863,-1000.0
1742199036.073,-1000.0,-1000.0,-77.637,-1000.0
1742199036.076,-1000.0,-238.281,-97.656,-1000.0
1742199036.08,-1000.0,999.512,-109.375,-1000.0
1742199036.084,-1000.0,979.004,-76.66,-1000.0
1742199036.088,-1000.0,-279.785,-66.406,-1000.0
1742199036.092,-925.781,-1000.0,-103.027,-933.105
1742199036.095,-1000.0,-1000.0,-136.719,-1000.0
1742199036.099,-558.594,-170.898,-61.523,-690.918
1742199036.103,817.871,985.84,64.453,691.406
1742199036.107,999.512,999.512,91.797,999.512
1742199036.111,194.824,226.562,14.16,116.211
1742199036.115,-1000.0,-1000.0,-8.789,-1000.0
1742199036.119,-204.59,-196.289,37.109,-194.824
1742199036.122,999.512,995.117,76.172,999.512
1742199036.126,943.359,999.512,20.02,945.312
1742199036.13,938.965,393.066,-73.242,939.941
1742199036.134,972.656,-1000.0,-81.055,973.633
1742199036.138,966.309,-385.742,-32.227,967.285
1742199036.095,-1000.0,-1000.0,-136.719,-1000.0
1742199036.099,-558.594,-170.898,-61.523,-690.918
1742199036.103,817.871,985.84,64.453,691.406
1742199036.107,999.512,999.512,91.797,999.512
1742199036.111,194.824,226.562,14.16,116.211
1742199036.115,-1000.0,-1000.0,-8.789,-1000.0
1742199036.119,-204.59,-196.289,37.109,-194.824
1742199036.122,999.512,995.117,76.172,999.512
1742199036.126,943.359,999.512,20.02,945.312
1742199036.13,938.965,393.066,-73.242,939.941
1742199036.134,972.656,-1000.0,-81.055,973.633
1742199036.138,966.309,-385.742,-32.227,967.285
1742199036.138,966.309,958.496,23.438,966.797
1742199036.142,966.309,999.512,31.25,966.797
1742199036.146,966.309,160.156,-25.879,966.797
1742199036.15,966.309,-1000.0,-86.914,966.797
1742199036.154,977.539,-451.172,-73.73,981.445
1742199036.158,893.066,826.172,38.574,895.508
1742199036.162,999.512,999.512,89.844,999.512
1742199036.165,463.379,172.363,-38.574,637.695
1742199036.169,-1000.0,-1000.0,-156.738,-954.59
1742199036.173,-924.316,-1000.0,-160.645,-748.535
1742199036.177,433.594,207.52,-83.984,705.566
1742199036.181,999.512,999.512,-1.465,999.512
1742199036.138,966.309,958.496,23.438,966.797
1742199036.142,966.309,999.512,31.25,966.797
1742199036.146,966.309,160.156,-25.879,966.797
1742199036.15,966.309,-1000.0,-86.914,966.797
1742199036.154,977.539,-451.172,-73.73,981.445
1742199036.158,893.066,826.172,38.574,895.508
1742199036.162,999.512,999.512,89.844,999.512
1742199036.165,463.379,172.363,-38.574,637.695
1742199036.169,-1000.0,-1000.0,-156.738,-954.59
1742199036.173,-924.316,-1000.0,-160.645,-748.535
1742199036.177,433.594,207.52,-83.984,705.566
1742199036.181,999.512,999.512,-1.465,999.512
1742199036.183,428.223,204.59,-78.125,498.047
1742199036.187,-889.16,-994.141,-148.438,-862.793
1742199036.191,-1000.0,-1000.0,-117.188,-1000.0
1742199036.195,43.945,-32.715,-55.664,189.941
1742199036.199,999.512,999.512,16.602,999.512
1742199036.203,999.512,999.512,31.25,999.512
1742199036.207,215.82,222.168,-25.391,144.531
1742199036.21,-1000.0,-1000.0,-125.488,-1000.0
1742199036.214,24.414,-69.336,-97.656,185.547
1742199036.218,999.512,999.512,46.387,999.512
1742199036.222,913.086,862.305,73.242,904.297
1742199036.226,955.566,999.512,32.715,964.844
1742199036.183,428.223,204.59,-78.125,498.047
1742199036.187,-889.16,-994.141,-148.438,-862.793
1742199036.191,-1000.0,-1000.0,-117.188,-1000.0
1742199036.195,43.945,-32.715,-55.664,189.941
1742199036.199,999.512,999.512,16.602,999.512
1742199036.203,999.512,999.512,31.25,999.512
1742199036.207,215.82,222.168,-25.391,144.531
1742199036.21,-1000.0,-1000.0,-125.488,-1000.0
1742199036.214,24.414,-69.336,-97.656,185.547
1742199036.218,999.512,999.512,46.387,999.512
1742199036.222,913.086,862.305,73.242,904.297
1742199036.226,955.566,999.512,32.715,964.844
1742199036.229,968.262,684.57,-67.383,967.773
1742199036.233,966.309,-763.672,-18.066,966.797
1742199036.237,966.309,-1000.0,99.121,966.797
1742199036.241,966.309,586.426,66.895,967.285
1742199036.245,966.309,472.656,-3.906,967.285
1742199036.249,966.309,-288.086,11.23,966.797
1742199036.253,966.309,892.578,125.488,966.797
1742199036.256,966.309,999.512,110.352,966.797
1742199036.26,966.309,122.07,2.93,966.797
1742199036.264,966.309,-1000.0,-25.879,966.797
1742199036.268,966.309,-1000.0,-5.859,967.285
1742199036.272,966.309,-124.023,68.848,966.797
1742199036.229,968.262,684.57,-67.383,967.773
1742199036.233,966.309,-763.672,-18.066,966.797
1742199036.237,966.309,-1000.0,99.121,966.797
1742199036.241,966.309,586.426,66.895,967.285
1742199036.245,966.309,472.656,-3.906,967.285
1742199036.249,966.309,-288.086,11.23,966.797
1742199036.253,966.309,892.578,125.488,966.797
1742199036.256,966.309,999.512,110.352,966.797
1742199036.26,966.309,122.07,2.93,966.797
1742199036.264,966.309,-1000.0,-25.879,966.797
1742199036.268,966.309,-1000.0,-5.859,967.285
1742199036.272,966.309,-124.023,68.848,966.797
1742199036.275,966.309,997.559,136.23,966.797
1742199036.279,966.309,999.512,155.762,966.797
1742199036.283,966.309,78.125,52.734,966.797
1742199036.287,966.309,-1000.0,-62.5,966.797
1742199036.291,966.309,-1000.0,-41.504,966.797
1742199036.295,966.309,156.738,83.496,966.797
1742199036.299,966.309,999.512,131.836,966.797
1742199036.302,966.309,-4.883,-2.93,966.797
1742199036.306,966.309,-1000.0,-65.918,967.285
1742199036.31,966.309,-396.973,11.719,967.285
1742199036.314,966.309,882.324,129.395,966.797
1742199036.318,966.309,999.512,124.023,966.797
1742199036.275,966.309,997.559,136.23,966.797
1742199036.279,966.309,999.512,155.762,966.797
1742199036.283,966.309,78.125,52.734,966.797
1742199036.287,966.309,-1000.0,-62.5,966.797
1742199036.291,966.309,-1000.0,-41.504,966.797
1742199036.295,966.309,156.738,83.496,966.797
1742199036.299,966.309,999.512,131.836,966.797
1742199036.302,966.309,-4.883,-2.93,966.797
1742199036.306,966.309,-1000.0,-65.918,967.285
1742199036.31,966.309,-396.973,11.719,967.285
1742199036.314,966.309,882.324,129.395,966.797
1742199036.318,966.309,999.512,124.023,966.797
1742199036.333,966.309,385.742,54.199,966.797
1742199036.337,966.309,-1000.0,13.184,966.797
1742199036.341,966.309,-804.199,8.301,966.797
1742199036.345,966.309,657.715,92.285,966.797
1742199036.349,966.309,999.512,118.164,966.797
1742199036.353,966.309,896.484,50.781,966.797
1742199036.357,966.309,920.41,37.598,966.797
1742199036.36,966.309,999.512,34.668,966.797
1742199036.364,966.309,163.574,26.855,967.285
1742199036.368,966.309,-1000.0,6.836,967.285
1742199036.372,966.309,-965.332,-21.484,966.797
1742199036.376,966.309,-937.988,-32.715,966.797
1742199036.379,972.168,-1000.0,-60.547,966.797
1742199036.383,941.895,-44.922,7.324,966.797
1742199036.387,944.824,999.512,75.195,966.797
1742199036.391,999.512,289.551,19.043,966.797
1742199036.395,-137.207,-972.168,-53.223,966.797
1742199036.399,-1000.0,-1000.0,-32.715,973.145
1742199036.403,-60.059,-133.301,83.984,940.918
1742199036.406,999.512,999.512,80.078,951.172
1742199036.41,460.449,191.895,-16.113,999.512
1742199036.414,-879.883,-1000.0,-173.34,-151.367
1742199036.418,-1000.0,-1000.0,-213.379,-1000.0
1742199036.422,-171.875,-193.848,-106.445,-72.266
1742199036.379,972.168,-1000.0,-60.547,966.797
1742199036.383,941.895,-44.922,7.324,966.797
1742199036.387,944.824,999.512,75.195,966.797
1742199036.391,999.512,289.551,19.043,966.797
1742199036.395,-137.207,-972.168,-53.223,966.797
1742199036.399,-1000.0,-1000.0,-32.715,973.145
1742199036.403,-60.059,-133.301,83.984,940.918
1742199036.406,999.512,999.512,80.078,951.172
1742199036.41,460.449,191.895,-16.113,999.512
1742199036.414,-879.883,-1000.0,-173.34,-151.367
1742199036.418,-1000.0,-1000.0,-213.379,-1000.0
1742199036.422,-171.875,-193.848,-106.445,-72.266
1742199036.423,966.309,973.633,-56.152,999.512
1742199036.427,999.512,999.512,-4.395,999.512
1742199036.431,148.926,154.785,-29.785,222.656
1742199036.435,-1000.0,-1000.0,-123.047,-1000.0
1742199036.439,-719.727,-770.02,-142.09,-452.148
1742199036.443,656.25,586.914,-13.672,895.508
1742199036.447,999.512,999.512,83.008,999.512
1742199036.45,93.75,152.832,-46.875,157.715
1742199036.454,-1000.0,-1000.0,-210.938,-1000.0
1742199036.458,-1000.0,-1000.0,-135.742,-778.809
1742199036.462,217.773,199.707,26.367,564.453
1742199036.466,999.512,999.512,74.219,999.512
1742199036.423,966.309,973.633,-56.152,999.512
1742199036.427,999.512,999.512,-4.395,999.512
1742199036.431,148.926,154.785,-29.785,222.656
1742199036.435,-1000.0,-1000.0,-123.047,-1000.0
1742199036.439,-719.727,-770.02,-142.09,-452.148
1742199036.443,656.25,586.914,-13.672,895.508
1742199036.447,999.512,999.512,83.008,999.512
1742199036.45,93.75,152.832,-46.875,157.715
1742199036.454,-1000.0,-1000.0,-210.938,-1000.0
1742199036.458,-1000.0,-1000.0,-135.742,-778.809
1742199036.462,217.773,199.707,26.367,564.453
1742199036.466,999.512,999.512,74.219,999.512
1742199036.468,165.039,167.48,10.742,183.594
1742199036.472,-1000.0,-1000.0,-58.105,-1000.0
1742199036.476,-933.594,-919.922,-7.324,-743.164
1742199036.48,335.449,358.887,83.496,596.191
1742199036.484,999.512,999.512,111.328,999.512
1742199036.488,462.891,627.441,26.367,526.855
1742199036.492,-892.578,-727.539,-76.172,-902.344
1742199036.495,-1000.0,-1000.0,-221.191,-962.402
1742199036.499,134.766,110.84,-256.348,456.055
1742199036.503,999.512,999.512,-281.25,999.512
1742199036.507,884.766,979.492,-466.309,948.73
1742199036.511,-364.258,-180.176,-604.004,-278.809
1742199036.468,165.039,167.48,10.742,183.594
1742199036.472,-1000.0,-1000.0,-58.105,-1000.0
1742199036.476,-933.594,-919.922,-7.324,-743.164
1742199036.48,335.449,358.887,83.496,596.191
1742199036.484,999.512,999.512,111.328,999.512
1742199036.488,462.891,627.441,26.367,526.855
1742199036.492,-892.578,-727.539,-76.172,-902.344
1742199036.495,-1000.0,-1000.0,-221.191,-962.402
1742199036.499,134.766,110.84,-256.348,456.055
1742199036.503,999.512,999.512,-281.25,999.512
1742199036.507,884.766,979.492,-466.309,948.73
1742199036.511,-364.258,-180.176,-604.004,-278.809
1742199036.513,-1000.0,-1000.0,-806.641,-1000.0
1742199036.517,22.949,-47.363,-794.922,272.949
1742199036.521,999.512,999.512,-659.18,999.512
1742199036.525,926.27,934.57,-711.914,907.227
1742199036.529,953.125,957.52,-668.457,965.332
1742199036.533,965.332,899.902,-635.254,976.562
1742199036.537,910.645,999.512,-660.156,895.996
1742199036.54,999.512,366.211,-651.367,999.512
1742199036.544,133.789,-981.445,-659.668,414.551
1742199036.548,-1000.0,-979.492,-620.605,-987.793
1742199036.552,-1000.0,-1000.0,-558.105,-1000.0
1742199036.556,70.312,42.48,-423.34,309.082
1742199036.513,-1000.0,-1000.0,-806.641,-1000.0
1742199036.517,22.949,-47.363,-794.922,272.949
1742199036.521,999.512,999.512,-659.18,999.512
1742199036.525,926.27,934.57,-711.914,907.227
1742199036.529,953.125,957.52,-668.457,965.332
1742199036.533,965.332,899.902,-635.254,976.562
1742199036.537,910.645,999.512,-660.156,895.996
1742199036.54,999.512,366.211,-651.367,999.512
1742199036.544,133.789,-981.445,-659.668,414.551
1742199036.548,-1000.0,-979.492,-620.605,-987.793
1742199036.552,-1000.0,-1000.0,-558.105,-1000.0
1742199036.556,70.312,42.48,-423.34,309.082
1742199036.559,999.512,999.512,-291.504,999.512
1742199036.563,964.355,967.285,-292.48,936.523
1742199036.567,881.348,841.797,-337.402,947.266
1742199036.571,-716.797,-747.07,-421.387,-604.98
1742199036.575,-457.52,-657.715,-473.633,-338.379
1742199036.579,999.512,936.035,-288.086,999.512
1742199036.583,999.512,999.512,-200.684,999.512
1742199036.586,78.613,-147.461,-356.445,155.762
1742199036.59,-1000.0,-1000.0,-429.688,-1000.0
1742199036.594,-212.402,-213.867,-410.156,-182.129
1742199036.598,975.586,960.938,-276.367,999.512
1742199036.602,999.512,999.512,-187.5,999.512
1742199036.559,999.512,999.512,-291.504,999.512
1742199036.563,964.355,967.285,-292.48,936.523
1742199036.567,881.348,841.797,-337.402,947.266
1742199036.571,-716.797,-747.07,-421.387,-604.98
1742199036.575,-457.52,-657.715,-473.633,-338.379
1742199036.579,999.512,936.035,-288.086,999.512
1742199036.583,999.512,999.512,-200.684,999.512
1742199036.586,78.613,-147.461,-356.445,155.762
1742199036.59,-1000.0,-1000.0,-429.688,-1000.0
1742199036.594,-212.402,-213.867,-410.156,-182.129
1742199036.598,975.586,960.938,-276.367,999.512
1742199036.602,999.512,999.512,-187.5,999.512
1742199036.603,752.93,793.945,-278.32,783.203
1742199036.607,-850.098,-790.039,-312.5,-790.039
1742199036.611,-545.41,-606.934,-339.844,-380.371
1742199036.615,976.562,960.938,-266.113,999.512
1742199036.619,949.219,943.848,-114.746,918.945
1742199036.623,999.512,999.512,-135.742,999.512
1742199036.627,-119.629,63.477,-221.68,-193.848
1742199036.63,-1000.0,-1000.0,-332.52,-977.539
1742199036.634,114.746,-98.633,-349.121,482.422
1742199036.638,999.512,999.512,-243.652,999.512
1742199036.642,602.051,612.305,-168.945,643.555
1742199036.646,-791.504,-796.875,-153.809,-796.387
1742199036.603,752.93,793.945,-278.32,783.203
1742199036.607,-850.098,-790.039,-312.5,-790.039
1742199036.611,-545.41,-606.934,-339.844,-380.371
1742199036.615,976.562,960.938,-266.113,999.512
1742199036.619,949.219,943.848,-114.746,918.945
1742199036.623,999.512,999.512,-135.742,999.512
1742199036.627,-119.629,63.477,-221.68,-193.848
1742199036.63,-1000.0,-1000.0,-332.52,-977.539
1742199036.634,114.746,-98.633,-349.121,482.422
1742199036.638,999.512,999.512,-243.652,999.512
1742199036.642,602.051,612.305,-168.945,643.555
1742199036.646,-791.504,-796.875,-153.809,-796.387
1742199036.663,-1000.0,-1000.0,-229.004,-971.191
1742199036.667,203.125,154.297,-193.359,519.043
1742199036.671,999.512,999.512,-61.523,999.512
1742199036.675,999.512,999.512,-80.566,999.512
1742199036.679,31.738,132.324,-145.02,2.93
1742199036.683,-1000.0,-1000.0,-133.301,-908.203
1742199036.687,206.055,192.871,-168.457,547.363
1742199036.69,999.512,999.512,-330.078,999.512
1742199036.694,583.496,411.621,-483.398,725.586
1742199036.698,-734.375,-864.258,-586.914,-586.426
1742199036.702,-1000.0,-1000.0,-748.047,-1000.0
1742199036.706,-136.719,-154.785,-799.316,78.613
1742199036.663,-1000.0,-1000.0,-229.004,-971.191
1742199036.667,203.125,154.297,-193.359,519.043
1742199036.671,999.512,999.512,-61.523,999.512
1742199036.675,999.512,999.512,-80.566,999.512
1742199036.679,31.738,132.324,-145.02,2.93
1742199036.683,-1000.0,-1000.0,-133.301,-908.203
1742199036.687,206.055,192.871,-168.457,547.363
1742199036.69,999.512,999.512,-330.078,999.512
1742199036.694,583.496,411.621,-483.398,725.586
1742199036.698,-734.375,-864.258,-586.914,-586.426
1742199036.702,-1000.0,-1000.0,-748.047,-1000.0
1742199036.706,-136.719,-154.785,-799.316,78.613
1742199036.708,999.023,994.629,-656.25,999.512
1742199036.712,999.512,999.512,-552.246,999.512
1742199036.716,-50.781,-13.672,-600.098,-44.434
1742199036.72,-1000.0,-1000.0,-726.562,-1000.0
1742199036.724,-273.926,-335.449,-745.605,-210.449
1742199036.728,999.512,976.562,-545.898,999.512
1742199036.732,967.773,999.512,-423.828,903.809
1742199036.735,-349.121,-222.656,-537.109,-384.766
1742199036.739,-1000.0,-1000.0,-668.945,-1000.0
1742199036.743,-1000.0,-1000.0,-630.859,-935.547
1742199036.747,53.223,-42.48,-568.848,422.852
1742199036.751,974.609,999.512,-472.656,887.695
1742199036.708,999.023,994.629,-656.25,999.512
1742199036.712,999.512,999.512,-552.246,999.512
1742199036.716,-50.781,-13.672,-600.098,-44.434
1742199036.72,-1000.0,-1000.0,-726.562,-1000.0
1742199036.724,-273.926,-335.449,-745.605,-210.449
1742199036.728,999.512,976.562,-545.898,999.512
1742199036.732,967.773,999.512,-423.828,903.809
1742199036.735,-349.121,-222.656,-537.109,-384.766
1742199036.739,-1000.0,-1000.0,-668.945,-1000.0
1742199036.743,-1000.0,-1000.0,-630.859,-935.547
1742199036.747,53.223,-42.48,-568.848,422.852
1742199036.751,974.609,999.512,-472.656,887.695
1742199036.755,-581.055,-348.633,-454.59,-684.082
1742199036.759,-1000.0,-1000.0,-483.398,-1000.0
1742199036.763,-1000.0,-792.969,-450.195,-1000.0
1742199036.767,-153.32,597.168,-385.742,-45.41
1742199036.771,816.895,966.797,-244.629,720.215
1742199036.775,-699.219,-568.848,-212.402,-827.637
1742199036.779,-1000.0,-1000.0,-290.527,-1000.0
1742199036.782,-928.711,-933.594,-285.156,-936.035
1742199036.786,-1000.0,-1000.0,-254.395,-1000.0
1742199036.79,-1000.0,-936.523,-209.473,-1000.0
1742199036.794,-1000.0,-1000.0,-210.938,-1000.0
1742199036.798,-1000.0,-228.027,-265.137,-1000.0
1742199036.755,-581.055,-348.633,-454.59,-684.082
1742199036.759,-1000.0,-1000.0,-483.398,-1000.0
1742199036.763,-1000.0,-792.969,-450.195,-1000.0
1742199036.767,-153.32,597.168,-385.742,-45.41
1742199036.771,816.895,966.797,-244.629,720.215
1742199036.775,-699.219,-568.848,-212.402,-827.637
1742199036.779,-1000.0,-1000.0,-290.527,-1000.0
1742199036.782,-928.711,-933.594,-285.156,-936.035
1742199036.786,-1000.0,-1000.0,-254.395,-1000.0
1742199036.79,-1000.0,-936.523,-209.473,-1000.0
1742199036.794,-1000.0,-1000.0,-210.938,-1000.0
1742199036.798,-1000.0,-228.027,-265.137,-1000.0
1742199036.799,-1000.0,963.379,-336.914,-1000.0
1742199036.803,-1000.0,999.512,-377.93,-1000.0
1742199036.807,-1000.0,335.938,-275.391,-1000.0
1742199036.811,-1000.0,-970.215,-250.488,-1000.0
1742199036.815,-1000.0,-1000.0,-330.566,-1000.0
1742199036.819,-1000.0,92.773,-380.371,-1000.0
1742199036.823,-1000.0,999.512,-354.98,-1000.0
1742199036.826,-1000.0,911.621,-299.805,-1000.0
1742199036.83,-1000.0,-250.488,-386.23,-1000.0
1742199036.834,-937.988,-1000.0,-434.082,-985.84
1742199036.838,-1000.0,-875.488,-417.48,-962.891
1742199036.842,-788.086,325.684,-425.781,-1000.0
1742199036.799,-1000.0,963.379,-336.914,-1000.0
1742199036.803,-1000.0,999.512,-377.93,-1000.0
1742199036.807,-1000.0,335.938,-275.391,-1000.0
1742199036.811,-1000.0,-970.215,-250.488,-1000.0
1742199036.815,-1000.0,-1000.0,-330.566,-1000.0
1742199036.819,-1000.0,92.773,-380.371,-1000.0
1742199036.823,-1000.0,999.512,-354.98,-1000.0
1742199036.826,-1000.0,911.621,-299.805,-1000.0
1742199036.83,-1000.0,-250.488,-386.23,-1000.0
1742199036.834,-937.988,-1000.0,-434.082,-985.84
1742199036.838,-1000.0,-875.488,-417.48,-962.891
1742199036.842,-788.086,325.684,-425.781,-1000.0
1742199036.844,824.219,999.512,-365.234,135.254
1742199036.848,266.602,173.828,-249.512,276.855
1742199036.852,-1000.0,-1000.0,-148.926,-1000.0
1742199036.856,-971.191,-931.152,-228.027,-994.141
1742199036.86,-973.145,-1000.0,-286.133,-971.191
1742199036.864,-1000.0,-74.219,-183.594,-1000.0
1742199036.868,-1000.0,999.512,-163.086,-1000.0
1742199036.871,-1000.0,-468.75,-246.582,-1000.0
1742199036.875,-1000.0,-1000.0,-327.637,-1000.0
1742199036.879,-1000.0,-931.641,-280.273,-1000.0
1742199036.883,-1000.0,-1000.0,-149.414,-1000.0
1742199036.887,-1000.0,-1000.0,-118.652,-1000.0
1742199036.844,824.219,999.512,-365.234,135.254
1742199036.848,266.602,173.828,-249.512,276.855
1742199036.852,-1000.0,-1000.0,-148.926,-1000.0
1742199036.856,-971.191,-931.152,-228.027,-994.141
1742199036.86,-973.145,-1000.0,-286.133,-971.191
1742199036.864,-1000.0,-74.219,-183.594,-1000.0
1742199036.868,-1000.0,999.512,-163.086,-1000.0
1742199036.871,-1000.0,-468.75,-246.582,-1000.0
1742199036.875,-1000.0,-1000.0,-327.637,-1000.0
1742199036.879,-1000.0,-931.641,-280.273,-1000.0
1742199036.883,-1000.0,-1000.0,-149.414,-1000.0
1742199036.887,-1000.0,-1000.0,-118.652,-1000.0
1742199036.889,-1000.0,-937.5,-161.621,-1000.0
1742199036.893,-1000.0,-1000.0,-224.609,-1000.0
1742199036.897,-1000.0,-223.145,-261.719,-1000.0
1742199036.901,-1000.0,999.512,-276.367,-1000.0
1742199036.905,-1000.0,951.66,-244.141,-1000.0
1742199036.909,-1000.0,941.406,-235.84,-1000.0
1742199036.913,-1000.0,910.156,-317.383,-1000.0
1742199036.916,-1000.0,999.512,-390.625,-1000.0
1742199036.92,-1000.0,202.148,-409.18,-1000.0
1742199036.924,-975.098,-1000.0,-336.426,-999.512
1742199036.928,-982.422,-1000.0,-262.695,-939.453
1742199036.932,-1000.0,-177.734,-209.473,-1000.0
1742199036.889,-1000.0,-937.5,-161.621,-1000.0
1742199036.893,-1000.0,-1000.0,-224.609,-1000.0
1742199036.897,-1000.0,-223.145,-261.719,-1000.0
1742199036.901,-1000.0,999.512,-276.367,-1000.0
1742199036.905,-1000.0,951.66,-244.141,-1000.0
1742199036.909,-1000.0,941.406,-235.84,-1000.0
1742199036.913,-1000.0,910.156,-317.383,-1000.0
1742199036.916,-1000.0,999.512,-390.625,-1000.0
1742199036.92,-1000.0,202.148,-409.18,-1000.0
1742199036.924,-975.098,-1000.0,-336.426,-999.512
1742199036.928,-982.422,-1000.0,-262.695,-939.453
1742199036.932,-1000.0,-177.734,-209.473,-1000.0
1742199036.934,123.047,996.094,-178.223,-254.395
1742199036.938,999.512,955.566,-150.391,999.512
1742199036.942,903.809,946.289,-104.492,743.164
1742199036.946,-271.973,-268.066,-167.48,-604.98
1742199036.95,-1000.0,-1000.0,-273.926,-1000.0
1742199036.954,-650.391,-166.504,-236.816,-856.445
1742199036.958,689.941,999.512,-142.578,457.031
1742199036.961,999.512,999.512,-134.766,999.512
1742199036.965,-98.633,-101.562,-233.887,-284.18
1742199036.969,-1000.0,-1000.0,-275.391,-1000.0
1742199036.973,-1000.0,-1000.0,-227.051,-1000.0
1742199036.977,-112.793,-93.75,-168.457,-138.184
1742199036.934,123.047,996.094,-178.223,-254.395
1742199036.938,999.512,955.566,-150.391,999.512
1742199036.942,903.809,946.289,-104.492,743.164
1742199036.946,-271.973,-268.066,-167.48,-604.98
1742199036.95,-1000.0,-1000.0,-273.926,-1000.0
1742199036.954,-650.391,-166.504,-236.816,-856.445
1742199036.958,689.941,999.512,-142.578,457.031
1742199036.961,999.512,999.512,-134.766,999.512
1742199036.965,-98.633,-101.562,-233.887,-284.18
1742199036.969,-1000.0,-1000.0,-275.391,-1000.0
1742199036.973,-1000.0,-1000.0,-227.051,-1000.0
1742199036.977,-112.793,-93.75,-168.457,-138.184
1742199036.979,999.512,999.512,-79.102,999.512
1742199036.983,536.133,593.262,-28.809,337.402
1742199036.987,-869.141,-790.527,-105.469,-989.258
1742199036.991,-1000.0,-1000.0,-217.285,-1000.0
1742199036.995,102.539,11.719,-174.805,85.938
1742199036.999,999.512,999.512,84.961,999.512
1742199037.003,999.512,999.512,237.305,922.852
1742199037.006,49.805,65.918,109.863,-264.16
1742199037.01,-1000.0,-1000.0,-71.777,-1000.0
1742199037.014,-114.258,-221.68,-69.824,-65.43
1742199037.018,999.512,999.512,57.129,999.512
1742199037.022,999.512,914.551,60.059,935.059
1742199036.979,999.512,999.512,-79.102,999.512
1742199036.983,536.133,593.262,-28.809,337.402
1742199036.987,-869.141,-790.527,-105.469,-989.258
1742199036.991,-1000.0,-1000.0,-217.285,-1000.0
1742199036.995,102.539,11.719,-174.805,85.938
1742199036.999,999.512,999.512,84.961,999.512
1742199037.003,999.512,999.512,237.305,922.852
1742199037.006,49.805,65.918,109.863,-264.16
1742199037.01,-1000.0,-1000.0,-71.777,-1000.0
1742199037.014,-114.258,-221.68,-69.824,-65.43
1742199037.018,999.512,999.512,57.129,999.512
1742199037.022,999.512,914.551,60.059,935.059
1742199037.039,-116.211,-356.445,-32.227,-286.133
1742199037.043,-1000.0,-1000.0,-60.059,-1000.0
1742199037.047,-238.281,-229.004,63.965,-196.289
1742199037.051,999.512,999.512,123.535,999.512
1742199037.055,499.023,386.719,80.078,395.02
1742199037.059,-949.219,-1000.0,46.387,-999.023
1742199037.063,-1000.0,-1000.0,-111.328,-1000.0
1742199037.066,-946.289,-955.566,-259.766,-954.59
1742199037.07,-1000.0,-1000.0,-235.84,-1000.0
1742199037.074,-999.023,-933.105,-201.66,-1000.0
1742199037.078,-939.941,-1000.0,-160.156,-930.176
1742199037.082,-1000.0,-302.246,-20.508,-1000.0
1742199037.039,-116.211,-356.445,-32.227,-286.133
1742199037.043,-1000.0,-1000.0,-60.059,-1000.0
1742199037.047,-238.281,-229.004,63.965,-196.289
1742199037.051,999.512,999.512,123.535,999.512
1742199037.055,499.023,386.719,80.078,395.02
1742199037.059,-949.219,-1000.0,46.387,-999.023
1742199037.063,-1000.0,-1000.0,-111.328,-1000.0
1742199037.066,-946.289,-955.566,-259.766,-954.59
1742199037.07,-1000.0,-1000.0,-235.84,-1000.0
1742199037.074,-999.023,-933.105,-201.66,-1000.0
1742199037.078,-939.941,-1000.0,-160.156,-930.176
1742199037.082,-1000.0,-302.246,-20.508,-1000.0
1742199037.083,-253.418,944.824,178.223,-418.457
1742199037.087,999.512,999.512,342.285,999.512
1742199037.091,166.504,154.297,427.246,155.273
1742199037.095,-1000.0,-1000.0,331.543,-1000.0
1742199037.099,-978.027,-1000.0,254.395,-968.262
1742199037.103,-973.145,-242.188,261.719,-976.074
1742199037.107,-1000.0,999.512,301.27,-1000.0
1742199037.11,-1000.0,437.5,305.664,-1000.0
1742199037.114,-1000.0,-937.988,193.359,-1000.0
1742199037.118,-1000.0,-1000.0,179.199,-1000.0
1742199037.122,-1000.0,-1000.0,228.027,-1000.0
1742199037.126,-1000.0,376.465,276.367,-1000.0
1742199037.083,-253.418,944.824,178.223,-418.457
1742199037.087,999.512,999.512,342.285,999.512
1742199037.091,166.504,154.297,427.246,155.273
1742199037.095,-1000.0,-1000.0,331.543,-1000.0
1742199037.099,-978.027,-1000.0,254.395,-968.262
1742199037.103,-973.145,-242.188,261.719,-976.074
1742199037.107,-1000.0,999.512,301.27,-1000.0
1742199037.11,-1000.0,437.5,305.664,-1000.0
1742199037.114,-1000.0,-937.988,193.359,-1000.0
1742199037.118,-1000.0,-1000.0,179.199,-1000.0
1742199037.122,-1000.0,-1000.0,228.027,-1000.0
1742199037.126,-1000.0,376.465,276.367,-1000.0
1742199037.129,-1000.0,715.332,279.785,-1000.0
1742199037.133,-1000.0,-973.145,228.516,-1000.0
1742199037.137,-1000.0,-902.832,200.684,-1000.0
1742199037.141,-1000.0,556.641,164.551,-1000.0
1742199037.145,-1000.0,984.375,183.105,-1000.0
1742199037.149,-1000.0,999.512,254.883,-1000.0
1742199037.153,-980.469,645.02,220.215,-988.77
1742199037.156,-969.727,-815.43,125.0,-956.543
1742199037.16,-1000.0,-1000.0,84.961,-1000.0
1742199037.164,85.938,313.477,49.316,-25.391
1742199037.168,999.512,999.512,143.066,999.512
1742199037.172,912.598,905.762,274.902,924.805
1742199037.129,-1000.0,715.332,279.785,-1000.0
1742199037.133,-1000.0,-973.145,228.516,-1000.0
1742199037.137,-1000.0,-902.832,200.684,-1000.0
1742199037.141,-1000.0,556.641,164.551,-1000.0
1742199037.145,-1000.0,984.375,183.105,-1000.0
1742199037.149,-1000.0,999.512,254.883,-1000.0
1742199037.153,-980.469,645.02,220.215,-988.77
1742199037.156,-969.727,-815.43,125.0,-956.543
1742199037.16,-1000.0,-1000.0,84.961,-1000.0
1742199037.164,85.938,313.477,49.316,-25.391
1742199037.168,999.512,999.512,143.066,999.512
1742199037.172,912.598,905.762,274.902,924.805
1742199037.174,960.449,968.75,429.199,954.102
1742199037.178,967.285,967.285,696.289,969.238
1742199037.182,966.309,966.797,913.086,966.797
1742199037.186,966.309,966.797,970.215,966.797
1742199037.19,966.309,966.797,961.426,966.797
1742199037.194,966.309,966.797,967.773,966.797
1742199037.198,966.309,966.797,967.285,966.797
1742199037.201,966.309,966.797,967.285,966.797
1742199037.205,966.309,966.797,966.797,967.285
1742199037.209,966.309,966.797,966.797,966.797
1742199037.213,966.309,966.797,966.797,966.797
1742199037.217,966.309,966.797,966.797,967.285
1742199037.174,960.449,968.75,429.199,954.102
1742199037.178,967.285,967.285,696.289,969.238
1742199037.182,966.309,966.797,913.086,966.797
1742199037.186,966.309,966.797,970.215,966.797
1742199037.19,966.309,966.797,961.426,966.797
1742199037.194,966.309,966.797,967.773,966.797
1742199037.198,966.309,966.797,967.285,966.797
1742199037.201,966.309,966.797,967.285,966.797
1742199037.205,966.309,966.797,966.797,967.285
1742199037.209,966.309,966.797,966.797,966.797
1742199037.213,966.309,966.797,966.797,966.797
1742199037.217,966.309,966.797,966.797,967.285
1742199037.219,966.309,966.797,967.285,966.797
1742199037.223,966.309,966.797,965.332,966.797
1742199037.227,966.309,966.797,965.332,967.285
1742199037.231,966.309,966.797,972.168,966.797
1742199037.235,966.309,971.191,874.512,966.797
1742199037.239,966.309,946.777,859.863,966.797
1742199037.243,966.309,937.988,890.137,966.797
1742199037.246,966.309,999.512,756.348,966.797
1742199037.25,966.309,-159.18,628.418,966.797
1742199037.254,966.309,-995.117,575.195,966.797
1742199037.258,966.309,487.305,636.23,966.797
1742199037.262,966.309,999.512,672.363,967.285
1742199037.219,966.309,966.797,967.285,966.797
1742199037.223,966.309,966.797,965.332,966.797
1742199037.227,966.309,966.797,965.332,967.285
1742199037.231,966.309,966.797,972.168,966.797
1742199037.235,966.309,971.191,874.512,966.797
1742199037.239,966.309,946.777,859.863,966.797
1742199037.243,966.309,937.988,890.137,966.797
1742199037.246,966.309,999.512,756.348,966.797
1742199037.25,966.309,-159.18,628.418,966.797
1742199037.254,966.309,-995.117,575.195,966.797
1742199037.258,966.309,487.305,636.23,966.797
1742199037.262,966.309,999.512,672.363,967.285
1742199037.263,966.309,899.414,601.074,967.285
1742199037.267,966.309,975.586,587.891,966.797
1742199037.271,966.309,967.285,629.883,966.797
1742199037.275,966.309,967.285,600.098,966.797
1742199037.279,966.309,904.297,562.012,966.797
1742199037.283,966.309,999.512,585.938,966.797
1742199037.287,965.82,184.082,556.641,966.797
1742199037.29,966.309,-1000.0,463.379,966.797
1742199037.294,966.309,-983.398,410.645,966.797
1742199037.298,966.309,-973.145,436.523,966.797
1742199037.302,966.309,-1000.0,450.195,966.797
1742199037.306,966.309,-1000.0,318.848,966.797
1742199037.31,976.074,-1000.0,184.57,967.285
1742199037.314,927.734,-1000.0,169.922,978.027
1742199037.318,977.539,-1000.0,198.73,894.043
1742199037.322,956.543,-1000.0,179.199,999.512
1742199037.326,-365.234,-1000.0,44.922,412.598
1742199037.33,-1000.0,-1000.0,-31.25,-977.539
1742199037.334,-935.059,-1000.0,-30.273,-1000.0
1742199037.337,-1000.0,-1000.0,-135.742,-954.59
1742199037.341,-1000.0,-1000.0,-281.738,-1000.0
1742199037.345,-1000.0,-1000.0,-445.312,-1000.0
1742199037.349,-1000.0,-1000.0,-565.918,-1000.0
1742199037.353,-1000.0,-1000.0,-776.367,-1000.0
1742199037.31,976.074,-1000.0,184.57,967.285
1742199037.314,927.734,-1000.0,169.922,978.027
1742199037.318,977.539,-1000.0,198.73,894.043
1742199037.322,956.543,-1000.0,179.199,999.512
1742199037.326,-365.234,-1000.0,44.922,412.598
1742199037.33,-1000.0,-1000.0,-31.25,-977.539
1742199037.334,-935.059,-1000.0,-30.273,-1000.0
1742199037.337,-1000.0,-1000.0,-135.742,-954.59
1742199037.341,-1000.0,-1000.0,-281.738,-1000.0
1742199037.345,-1000.0,-1000.0,-445.312,-1000.0
1742199037.349,-1000.0,-1000.0,-565.918,-1000.0
1742199037.353,-1000.0,-1000.0,-776.367,-1000.0
1742199037.355,-1000.0,-1000.0,-772.461,-1000.0
1742199037.359,-1000.0,-1000.0,-764.16,-1000.0
1742199037.363,-1000.0,-1000.0,-968.75,-1000.0
1742199037.367,-1000.0,-1000.0,-995.605,-1000.0
1742199037.371,-1000.0,-1000.0,-1000.0,-1000.0
1742199037.375,-1000.0,-947.754,-820.312,-1000.0
1742199037.379,-1000.0,-1000.0,-461.426,-1000.0
1742199037.382,-1000.0,-854.98,-248.535,-1000.0
1742199037.386,-1000.0,528.32,-91.309,-1000.0
1742199037.39,-1000.0,999.512,32.715,-1000.0
1742199037.394,-1000.0,902.832,120.117,-1000.0
1742199037.398,-1000.0,977.539,210.449,-1000.0
1742199037.355,-1000.0,-1000.0,-772.461,-1000.0
1742199037.359,-1000.0,-1000.0,-764.16,-1000.0
1742199037.363,-1000.0,-1000.0,-968.75,-1000.0
1742199037.367,-1000.0,-1000.0,-995.605,-1000.0
1742199037.371,-1000.0,-1000.0,-1000.0,-1000.0
1742199037.375,-1000.0,-947.754,-820.312,-1000.0
1742199037.379,-1000.0,-1000.0,-461.426,-1000.0
1742199037.382,-1000.0,-854.98,-248.535,-1000.0
1742199037.386,-1000.0,528.32,-91.309,-1000.0
1742199037.39,-1000.0,999.512,32.715,-1000.0
1742199037.394,-1000.0,902.832,120.117,-1000.0
1742199037.398,-1000.0,977.539,210.449,-1000.0
1742199037.414,-1000.0,967.285,270.996,-1000.0
1742199037.418,-1000.0,967.285,267.578,-1000.0
1742199037.422,-1000.0,967.285,322.754,-1000.0
1742199037.426,-1000.0,967.285,428.711,-1000.0
1742199037.43,-1000.0,967.285,447.754,-1000.0
1742199037.434,-1000.0,967.285,508.789,-1000.0
1742199037.438,-1000.0,967.285,495.117,-1000.0
1742199037.441,-1000.0,967.285,382.812,-1000.0
1742199037.445,-1000.0,967.285,370.605,-1000.0
1742199037.449,-1000.0,967.285,406.738,-1000.0
1742199037.453,-1000.0,967.285,397.949,-1000.0
1742199037.457,-1000.0,967.285,326.66,-1000.0
1742199037.414,-1000.0,967.285,270.996,-1000.0
1742199037.418,-1000.0,967.285,267.578,-1000.0
1742199037.422,-1000.0,967.285,322.754,-1000.0
1742199037.426,-1000.0,967.285,428.711,-1000.0
1742199037.43,-1000.0,967.285,447.754,-1000.0
1742199037.434,-1000.0,967.285,508.789,-1000.0
1742199037.438,-1000.0,967.285,495.117,-1000.0
1742199037.441,-1000.0,967.285,382.812,-1000.0
1742199037.445,-1000.0,967.285,370.605,-1000.0
1742199037.449,-1000.0,967.285,406.738,-1000.0
1742199037.453,-1000.0,967.285,397.949,-1000.0
1742199037.457,-1000.0,967.285,326.66,-1000.0
1742199037.459,-1000.0,967.285,221.68,-1000.0
1742199037.463,-1000.0,971.68,220.215,-1000.0
1742199037.467,-1000.0,887.695,230.957,-1000.0
1742199037.471,-1000.0,999.512,130.371,-1000.0
1742199037.475,-1000.0,137.695,67.871,-1000.0
1742199037.479,-1000.0,-550.781,67.871,-1000.0
1742199037.483,-1000.0,836.426,129.395,-1000.0
1742199037.486,-1000.0,999.512,157.715,-1000.0
1742199037.49,-1000.0,192.383,56.641,-1000.0
1742199037.494,-1000.0,-967.285,-44.922,-1000.0
1742199037.498,-1000.0,-1000.0,-38.574,-1000.0
1742199037.502,-1000.0,-707.031,6.836,-1000.0
1742199037.459,-1000.0,967.285,221.68,-1000.0
1742199037.463,-1000.0,971.68,220.215,-1000.0
1742199037.467,-1000.0,887.695,230.957,-1000.0
1742199037.471,-1000.0,999.512,130.371,-1000.0
1742199037.475,-1000.0,137.695,67.871,-1000.0
1742199037.479,-1000.0,-550.781,67.871,-1000.0
1742199037.483,-1000.0,836.426,129.395,-1000.0
1742199037.486,-1000.0,999.512,157.715,-1000.0
1742199037.49,-1000.0,192.383,56.641,-1000.0
1742199037.494,-1000.0,-967.285,-44.922,-1000.0
1742199037.498,-1000.0,-1000.0,-38.574,-1000.0
1742199037.502,-1000.0,-707.031,6.836,-1000.0
1742199037.504,-1000.0,601.074,50.781,-1000.0
1742199037.508,-1000.0,999.512,51.758,-1000.0
1742199037.512,-1000.0,180.176,24.902,-1000.0
1742199037.516,-1000.0,-1000.0,-25.391,-1000.0
1742199037.52,-1000.0,-867.188,-83.496,-1000.0
1742199037.524,-1000.0,540.039,27.832,-1000.0
1742199037.528,-1000.0,984.375,62.012,-1000.0
1742199037.531,-957.031,999.512,-4.883,-1000.0
1742199037.535,-1000.0,387.207,-32.715,-1000.0
1742199037.539,-955.078,-623.535,-23.926,-1000.0
1742199037.543,394.043,704.102,91.797,-1000.0
1742199037.547,999.512,999.512,199.707,-929.688
1742199037.504,-1000.0,601.074,50.781,-1000.0
1742199037.508,-1000.0,999.512,51.758,-1000.0
1742199037.512,-1000.0,180.176,24.902,-1000.0
1742199037.516,-1000.0,-1000.0,-25.391,-1000.0
1742199037.52,-1000.0,-867.188,-83.496,-1000.0
1742199037.524,-1000.0,540.039,27.832,-1000.0
1742199037.528,-1000.0,984.375,62.012,-1000.0
1742199037.531,-957.031,999.512,-4.883,-1000.0
1742199037.535,-1000.0,387.207,-32.715,-1000.0
1742199037.539,-955.078,-623.535,-23.926,-1000.0
1742199037.543,394.043,704.102,91.797,-1000.0
1742199037.547,999.512,999.512,199.707,-929.688
1742199037.548,899.902,893.066,189.453,-1000.0
1742199037.552,974.121,981.445,166.992,-385.254
1742199037.556,966.309,967.285,223.145,971.68
1742199037.56,966.309,966.797,279.297,979.492
1742199037.564,966.309,967.773,251.953,926.27
1742199037.568,966.309,963.379,286.133,978.027
1742199037.572,966.309,910.645,293.457,966.797
1742199037.575,966.309,999.512,182.129,967.285
1742199037.579,966.309,121.094,87.891,966.797
1742199037.583,966.309,-1000.0,25.391,966.797
1742199037.587,966.309,-963.867,36.133,966.797
1742199037.591,966.309,-934.082,32.227,966.797
1742199037.548,899.902,893.066,189.453,-1000.0
1742199037.552,974.121,981.445,166.992,-385.254
1742199037.556,966.309,967.285,223.145,971.68
1742199037.56,966.309,966.797,279.297,979.492
1742199037.564,966.309,967.773,251.953,926.27
1742199037.568,966.309,963.379,286.133,978.027
1742199037.572,966.309,910.645,293.457,966.797
1742199037.575,966.309,999.512,182.129,967.285
1742199037.579,966.309,121.094,87.891,966.797
1742199037.583,966.309,-1000.0,25.391,966.797
1742199037.587,966.309,-963.867,36.133,966.797
1742199037.591,966.309,-934.082,32.227,966.797
1742199037.594,966.309,-1000.0,-12.207,967.285
1742199037.598,966.309,-75.195,79.59,969.727
1742199037.602,966.309,999.512,194.336,901.367
1742199037.606,966.309,831.055,144.531,999.512
1742199037.61,966.309,-429.688,44.434,302.246
1742199037.614,978.516,-1000.0,33.691,-1000.0
1742199037.618,918.945,-883.789,77.637,-652.344
1742199037.621,999.512,615.234,25.879,991.699
1742199037.625,881.348,667.48,36.621,481.445
1742199037.629,-423.828,-873.535,-23.438,-941.406
1742199037.633,-1000.0,-1000.0,-126.465,-1000.0
1742199037.637,-147.949,-231.934,-62.012,-632.812
1742199037.594,966.309,-1000.0,-12.207,967.285
1742199037.598,966.309,-75.195,79.59,969.727
1742199037.602,966.309,999.512,194.336,901.367
1742199037.606,966.309,831.055,144.531,999.512
1742199037.61,966.309,-429.688,44.434,302.246
1742199037.614,978.516,-1000.0,33.691,-1000.0
1742199037.618,918.945,-883.789,77.637,-652.344
1742199037.621,999.512,615.234,25.879,991.699
1742199037.625,881.348,667.48,36.621,481.445
1742199037.629,-423.828,-873.535,-23.438,-941.406
1742199037.633,-1000.0,-1000.0,-126.465,-1000.0
1742199037.637,-147.949,-231.934,-62.012,-632.812
1742199037.64,958.984,936.035,98.633,673.34
1742199037.644,999.512,999.512,215.82,999.512
1742199037.648,274.902,154.297,192.871,117.676
1742199037.652,-1000.0,-1000.0,99.609,-1000.0
1742199037.656,-1000.0,-983.887,-9.766,-982.422
1742199037.66,-963.867,-973.145,-5.859,-973.633
1742199037.664,-1000.0,-1000.0,72.266,-1000.0
1742199037.667,-987.793,-976.562,26.367,-1000.0
1742199037.671,-957.52,-980.469,-53.223,-1000.0
1742199037.675,-1000.0,-1000.0,-34.668,-1000.0
1742199037.679,-86.426,67.871,91.309,-1000.0
1742199037.683,999.512,999.512,149.902,-1000.0
1742199037.685,438.965,319.336,70.312,-995.605
1742199037.689,-1000.0,-1000.0,5.859,-938.477
1742199037.693,-883.789,-829.102,-42.969,-1000.0
1742199037.697,533.203,597.656,123.535,-147.461
1742199037.701,999.512,999.512,255.371,999.512
1742199037.705,59.57,-81.055,6.348,-261.719
1742199037.709,-1000.0,-1000.0,-197.266,-1000.0
1742199037.712,-916.992,-895.02,-207.031,-936.035
1742199037.716,-1000.0,-1000.0,-122.07,-1000.0
1742199037.72,-232.91,-280.762,-28.32,-1000.0
1742199037.724,999.512,999.512,-28.809,-1000.0
1742199037.728,179.688,208.496,-73.73,-1000.0
1742199037.685,438.965,319.336,70.312,-995.605
1742199037.689,-1000.0,-1000.0,5.859,-938.477
1742199037.693,-883.789,-829.102,-42.969,-1000.0
1742199037.697,533.203,597.656,123.535,-147.461
1742199037.701,999.512,999.512,255.371,999.512
1742199037.705,59.57,-81.055,6.348,-261.719
1742199037.709,-1000.0,-1000.0,-197.266,-1000.0
1742199037.712,-916.992,-895.02,-207.031,-936.035
1742199037.716,-1000.0,-1000.0,-122.07,-1000.0
1742199037.72,-232.91,-280.762,-28.32,-1000.0
1742199037.724,999.512,999.512,-28.809,-1000.0
1742199037.728,179.688,208.496,-73.73,-1000.0
1742199037.728,-1000.0,-1000.0,-138.672,-1000.0
1742199037.732,-829.59,-965.82,-140.137,-1000.0
1742199037.736,483.887,281.738,-75.195,-1000.0
1742199037.74,999.512,999.512,-106.934,-998.535
1742199037.744,54.688,41.992,-117.676,-940.918
1742199037.748,-907.715,-806.152,-35.156,-1000.0
1742199037.752,526.855,620.605,46.387,-243.652
1742199037.755,999.512,999.512,143.066,999.512
1742199037.759,889.16,285.156,111.328,691.406
1742199037.763,-346.68,-991.211,-138.184,-739.258
1742199037.767,-1000.0,-1000.0,-331.543,-1000.0
1742199037.771,-934.57,-959.473,-349.609,-937.012
1742199037.728,-1000.0,-1000.0,-138.672,-1000.0
1742199037.732,-829.59,-965.82,-140.137,-1000.0
1742199037.736,483.887,281.738,-75.195,-1000.0
1742199037.74,999.512,999.512,-106.934,-998.535
1742199037.744,54.688,41.992,-117.676,-940.918
1742199037.748,-907.715,-806.152,-35.156,-1000.0
1742199037.752,526.855,620.605,46.387,-243.652
1742199037.755,999.512,999.512,143.066,999.512
1742199037.759,889.16,285.156,111.328,691.406
1742199037.763,-346.68,-991.211,-138.184,-739.258
1742199037.767,-1000.0,-1000.0,-331.543,-1000.0
1742199037.771,-934.57,-959.473,-349.609,-937.012
1742199037.774,-1000.0,-1000.0,-371.094,-1000.0
1742199037.778,-1000.0,-1000.0,-417.969,-1000.0
1742199037.782,-1000.0,-1000.0,-481.934,-1000.0
1742199037.786,-1000.0,-1000.0,-522.949,-1000.0
1742199037.79,-1000.0,-1000.0,-487.305,-1000.0
1742199037.794,-1000.0,-1000.0,-348.633,-1000.0
1742199037.798,-1000.0,-1000.0,-289.551,-1000.0
1742199037.801,-1000.0,-930.664,-417.969,-1000.0
1742199037.805,-1000.0,-1000.0,-429.199,-1000.0
1742199037.809,-1000.0,-360.352,-402.832,-1000.0
1742199037.813,-1000.0,900.391,-343.75,-1000.0
1742199037.817,-1000.0,999.512,-292.969,-1000.0
1742199037.774,-1000.0,-1000.0,-371.094,-1000.0
1742199037.778,-1000.0,-1000.0,-417.969,-1000.0
1742199037.782,-1000.0,-1000.0,-481.934,-1000.0
1742199037.786,-1000.0,-1000.0,-522.949,-1000.0
1742199037.79,-1000.0,-1000.0,-487.305,-1000.0
1742199037.794,-1000.0,-1000.0,-348.633,-1000.0
1742199037.798,-1000.0,-1000.0,-289.551,-1000.0
1742199037.801,-1000.0,-930.664,-417.969,-1000.0
1742199037.805,-1000.0,-1000.0,-429.199,-1000.0
1742199037.809,-1000.0,-360.352,-402.832,-1000.0
1742199037.813,-1000.0,900.391,-343.75,-1000.0
1742199037.817,-1000.0,999.512,-292.969,-1000.0
1742199037.833,-1000.0,160.156,-330.566,-1000.0
1742199037.837,-1000.0,-854.004,-312.988,-1000.0
1742199037.841,-957.031,585.449,-174.805,-1000.0
1742199037.845,-1000.0,999.512,18.066,-1000.0
1742199037.849,-947.266,894.043,57.129,-937.5
1742199037.853,400.391,979.004,84.473,-1000.0
1742199037.857,999.512,967.285,158.691,-220.703
1742199037.86,900.391,967.285,228.027,999.512
1742199037.864,974.121,967.285,273.926,950.684
1742199037.868,966.309,967.285,264.648,939.941
1742199037.872,966.309,966.797,264.16,973.633
1742199037.876,966.309,967.285,198.242,966.797
1742199037.833,-1000.0,160.156,-330.566,-1000.0
1742199037.837,-1000.0,-854.004,-312.988,-1000.0
1742199037.841,-957.031,585.449,-174.805,-1000.0
1742199037.845,-1000.0,999.512,18.066,-1000.0
1742199037.849,-947.266,894.043,57.129,-937.5
1742199037.853,400.391,979.004,84.473,-1000.0
1742199037.857,999.512,967.285,158.691,-220.703
1742199037.86,900.391,967.285,228.027,999.512
1742199037.864,974.121,967.285,273.926,950.684
1742199037.868,966.309,967.285,264.648,939.941
1742199037.872,966.309,966.797,264.16,973.633
1742199037.876,966.309,967.285,198.242,966.797
1742199037.878,966.309,966.797,160.645,966.797
1742199037.882,966.309,966.797,235.84,966.797
1742199037.886,966.309,967.285,280.762,966.797
1742199037.89,966.309,966.797,195.312,966.797
1742199037.894,966.309,967.285,62.5,966.797
1742199037.898,966.309,968.262,67.383,967.285
1742199037.902,966.309,903.809,169.922,966.797
1742199037.905,966.309,999.512,63.965,966.797
1742199037.909,966.309,246.582,-51.758,967.285
1742199037.913,966.309,-1000.0,-62.5,966.797
1742199037.917,966.309,-865.234,-65.43,966.797
1742199037.921,966.309,519.531,37.109,967.285
1742199037.878,966.309,966.797,160.645,966.797
1742199037.882,966.309,966.797,235.84,966.797
1742199037.886,966.309,967.285,280.762,966.797
1742199037.89,966.309,966.797,195.312,966.797
1742199037.894,966.309,967.285,62.5,966.797
1742199037.898,966.309,968.262,67.383,967.285
1742199037.902,966.309,903.809,169.922,966.797
1742199037.905,966.309,999.512,63.965,966.797
1742199037.909,966.309,246.582,-51.758,967.285
1742199037.913,966.309,-1000.0,-62.5,966.797
1742199037.917,966.309,-865.234,-65.43,966.797
1742199037.921,966.309,519.531,37.109,967.285
1742199037.923,966.309,999.512,121.582,966.797
1742199037.927,966.309,902.344,88.867,966.797
1742199037.931,966.309,976.562,20.02,966.797
1742199037.935,966.309,967.773,-9.766,966.797
1742199037.939,966.309,963.379,28.32,966.797
1742199037.943,966.309,911.133,124.023,966.797
1742199037.947,966.309,999.512,164.551,966.797
1742199037.95,966.309,123.535,55.176,966.797
1742199037.954,966.309,-1000.0,-165.527,966.797
1742199037.958,966.309,-976.074,-363.281,966.797
1742199037.962,966.309,-977.539,-519.531,966.797
1742199037.966,966.309,-1000.0,-668.457,967.285
1742199037.923,966.309,999.512,121.582,966.797
1742199037.927,966.309,902.344,88.867,966.797
1742199037.931,966.309,976.562,20.02,966.797
1742199037.935,966.309,967.773,-9.766,966.797
1742199037.939,966.309,963.379,28.32,966.797
1742199037.943,966.309,911.133,124.023,966.797
1742199037.947,966.309,999.512,164.551,966.797
1742199037.95,966.309,123.535,55.176,966.797
1742199037.954,966.309,-1000.0,-165.527,966.797
1742199037.958,966.309,-976.074,-363.281,966.797
1742199037.962,966.309,-977.539,-519.531,966.797
1742199037.966,966.309,-1000.0,-668.457,967.285
1742199037.97,966.309,-1000.0,-761.23,966.797
1742199037.974,966.309,-1000.0,-808.594,966.797
1742199037.978,966.309,-1000.0,-777.832,966.797
1742199037.982,975.586,-1000.0,-612.793,966.797
1742199037.986,890.137,-1000.0,-562.012,967.285
1742199037.99,999.512,-999.023,-498.047,966.797
1742199037.994,400.879,-939.941,-426.758,966.797
1742199037.997,-1000.0,-1000.0,-545.41,966.797
1742199038.001,95.703,-190.918,-645.02,966.797
1742199038.005,999.512,999.512,-573.73,966.797
1742199038.009,899.902,946.289,-468.75,966.797
1742199038.013,961.914,941.895,-518.066,966.797
1742199037.97,966.309,-1000.0,-761.23,966.797
1742199037.974,966.309,-1000.0,-808.594,966.797
1742199037.978,966.309,-1000.0,-777.832,966.797
1742199037.982,975.586,-1000.0,-612.793,966.797
1742199037.986,890.137,-1000.0,-562.012,967.285
1742199037.99,999.512,-999.023,-498.047,966.797
1742199037.994,400.879,-939.941,-426.758,966.797
1742199037.997,-1000.0,-1000.0,-545.41,966.797
1742199038.001,95.703,-190.918,-645.02,966.797
1742199038.005,999.512,999.512,-573.73,966.797
1742199038.009,899.902,946.289,-468.75,966.797
1742199038.013,961.914,941.895,-518.066,966.797
1742199038.014,967.285,973.145,-587.402,966.797
1742199038.018,966.309,967.285,-577.637,966.797
1742199038.022,966.309,967.285,-524.414,966.797
1742199038.026,966.309,966.797,-518.555,966.797
1742199038.03,966.309,967.285,-477.051,966.797
1742199038.034,966.309,968.75,-406.25,966.797
1742199038.038,966.309,902.832,-333.496,967.285
1742199038.041,966.309,999.512,-316.895,967.285
1742199038.045,966.309,235.84,-395.996,967.285
1742199038.049,966.309,-1000.0,-487.305,966.797
1742199038.053,966.309,-1000.0,-561.035,966.797
1742199038.057,966.309,150.391,-611.816,966.797
1742199038.058,966.309,999.512,-617.676,966.797
1742199038.062,966.309,-10.742,-603.027,967.285
1742199038.066,966.309,-1000.0,-531.738,967.285
1742199038.07,977.539,-967.285,-468.75,966.797
1742199038.074,922.363,-982.422,-474.121,967.773
1742199038.078,992.188,-1000.0,-417.48,964.355
1742199038.082,909.18,-1000.0,-485.352,909.668
1742199038.085,-441.406,-1000.0,-648.926,999.512
1742199038.089,-1000.0,-1000.0,-634.766,133.301
1742199038.093,-934.57,-1000.0,-500.0,-1000.0
1742199038.097,-1000.0,-1000.0,-436.035,-977.051
1742199038.101,-1000.0,-1000.0,-492.676,-977.051
1742199038.058,966.309,999.512,-617.676,966.797
1742199038.062,966.309,-10.742,-603.027,967.285
1742199038.066,966.309,-1000.0,-531.738,967.285
1742199038.07,977.539,-967.285,-468.75,966.797
1742199038.074,922.363,-982.422,-474.121,967.773
1742199038.078,992.188,-1000.0,-417.48,964.355
1742199038.082,909.18,-1000.0,-485.352,909.668
1742199038.085,-441.406,-1000.0,-648.926,999.512
1742199038.089,-1000.0,-1000.0,-634.766,133.301
1742199038.093,-934.57,-1000.0,-500.0,-1000.0
1742199038.097,-1000.0,-1000.0,-436.035,-977.051
1742199038.101,-1000.0,-1000.0,-492.676,-977.051
1742199038.103,-1000.0,-1000.0,-487.305,-1000.0
1742199038.107,-1000.0,-1000.0,-552.734,-1000.0
1742199038.111,-1000.0,-1000.0,-686.035,-1000.0
1742199038.115,-1000.0,-1000.0,-615.723,-1000.0
1742199038.119,-1000.0,-1000.0,-588.379,-1000.0
1742199038.123,-1000.0,-1000.0,-623.535,-1000.0
1742199038.127,-1000.0,-1000.0,-566.406,-1000.0
1742199038.13,-1000.0,-1000.0,-487.305,-1000.0
1742199038.134,-1000.0,-930.176,-460.449,-1000.0
1742199038.138,-1000.0,-1000.0,-274.902,-1000.0
1742199038.142,-1000.0,-309.082,4.395,-1000.0
1742199038.146,-1000.0,999.512,88.867,-1000.0
1742199038.103,-1000.0,-1000.0,-487.305,-1000.0
1742199038.107,-1000.0,-1000.0,-552.734,-1000.0
1742199038.111,-1000.0,-1000.0,-686.035,-1000.0
1742199038.115,-1000.0,-1000.0,-615.723,-1000.0
1742199038.119,-1000.0,-1000.0,-588.379,-1000.0
1742199038.123,-1000.0,-1000.0,-623.535,-1000.0
1742199038.127,-1000.0,-1000.0,-566.406,-1000.0
1742199038.13,-1000.0,-1000.0,-487.305,-1000.0
1742199038.134,-1000.0,-930.176,-460.449,-1000.0
1742199038.138,-1000.0,-1000.0,-274.902,-1000.0
1742199038.142,-1000.0,-309.082,4.395,-1000.0
1742199038.146,-1000.0,999.512,88.867,-1000.0
1742199038.628,966.309,822.754,-349.609,966.797
1742199038.632,966.309,999.512,-317.871,966.797
1742199038.636,966.309,914.551,-290.527,966.797
1742199038.64,975.098,987.793,-304.199,966.797
1742199038.644,929.199,896.973,-260.254,966.797
1742199038.648,971.191,999.512,-175.781,966.797
1742199038.652,999.512,408.203,-130.371,966.797
1742199038.655,-485.352,-1000.0,-208.008,967.285
1742199038.659,-412.598,-682.129,-314.453,967.285
1742199038.663,999.512,727.539,-258.301,967.285
1742199038.667,909.18,999.512,-155.762,966.797
1742199038.671,999.512,248.047,-98.633,966.797
1742199038.149,-1000.0,972.656,166.992,-1000.0
1742199038.153,-1000.0,901.855,251.953,-1000.0
1742199038.157,-1000.0,978.027,261.23,-1000.0
1742199038.161,-1000.0,999.512,230.957,-1000.0
1742199038.165,-1000.0,-394.043,151.367,-1000.0
1742199038.169,-1000.0,-264.16,215.332,-1000.0
1742199038.173,-1000.0,999.512,223.633,-1000.0
1742199038.176,-1000.0,999.512,-1.465,-1000.0
1742199038.18,-977.051,433.594,-198.242,-966.797
1742199038.184,-976.562,-1000.0,-314.941,-1000.0
1742199038.188,-1000.0,-533.203,-408.203,-1000.0
1742199038.192,113.77,927.734,-485.84,242.676
1742199038.149,-1000.0,972.656,166.992,-1000.0
1742199038.153,-1000.0,901.855,251.953,-1000.0
1742199038.157,-1000.0,978.027,261.23,-1000.0
1742199038.161,-1000.0,999.512,230.957,-1000.0
1742199038.165,-1000.0,-394.043,151.367,-1000.0
1742199038.169,-1000.0,-264.16,215.332,-1000.0
1742199038.173,-1000.0,999.512,223.633,-1000.0
1742199038.176,-1000.0,999.512,-1.465,-1000.0
1742199038.18,-977.051,433.594,-198.242,-966.797
1742199038.184,-976.562,-1000.0,-314.941,-1000.0
1742199038.188,-1000.0,-533.203,-408.203,-1000.0
1742199038.192,113.77,927.734,-485.84,242.676
1742199038.208,999.512,950.684,-533.691,999.512
1742199038.212,997.559,999.512,-545.898,977.539
1742199038.216,-86.426,47.363,-651.367,-124.023
1742199038.22,-1000.0,-1000.0,-884.277,-1000.0
1742199038.224,-174.805,-174.316,-902.832,-51.27
1742199038.228,995.117,992.188,-676.758,999.512
1742199038.232,999.512,999.512,-566.895,999.512
1742199038.235,54.688,187.012,-649.414,48.34
1742199038.239,-1000.0,-1000.0,-796.387,-1000.0
1742199038.243,-463.867,-529.785,-852.051,-313.477
1742199038.247,999.512,957.031,-701.172,999.512
1742199038.251,862.305,956.543,-516.602,794.922
1742199038.208,999.512,950.684,-533.691,999.512
1742199038.212,997.559,999.512,-545.898,977.539
1742199038.216,-86.426,47.363,-651.367,-124.023
1742199038.22,-1000.0,-1000.0,-884.277,-1000.0
1742199038.224,-174.805,-174.316,-902.832,-51.27
1742199038.228,995.117,992.188,-676.758,999.512
1742199038.232,999.512,999.512,-566.895,999.512
1742199038.235,54.688,187.012,-649.414,48.34
1742199038.239,-1000.0,-1000.0,-796.387,-1000.0
1742199038.243,-463.867,-529.785,-852.051,-313.477
1742199038.247,999.512,957.031,-701.172,999.512
1742199038.251,862.305,956.543,-516.602,794.922
1742199038.255,-610.352,-473.145,-544.434,-638.672
1742199038.259,-1000.0,-1000.0,-619.141,-1000.0
1742199038.263,-1000.0,-1000.0,-522.461,-1000.0
1742199038.267,-436.523,-246.094,-430.176,-323.242
1742199038.271,786.621,999.512,-390.625,719.238
1742199038.275,-549.805,-215.332,-361.816,-686.523
1742199038.279,-1000.0,-1000.0,-458.984,-1000.0
1742199038.282,-1000.0,-1000.0,-561.035,-1000.0
1742199038.286,-295.41,-273.438,-506.348,-226.074
1742199038.29,999.512,999.512,-371.094,999.512
1742199038.294,238.77,230.469,-302.734,194.824
1742199038.298,-1000.0,-1000.0,-373.047,-1000.0
1742199038.255,-610.352,-473.145,-544.434,-638.672
1742199038.259,-1000.0,-1000.0,-619.141,-1000.0
1742199038.263,-1000.0,-1000.0,-522.461,-1000.0
1742199038.267,-436.523,-246.094,-430.176,-323.242
1742199038.271,786.621,999.512,-390.625,719.238
1742199038.275,-549.805,-215.332,-361.816,-686.523
1742199038.279,-1000.0,-1000.0,-458.984,-1000.0
1742199038.282,-1000.0,-1000.0,-561.035,-1000.0
1742199038.286,-295.41,-273.438,-506.348,-226.074
1742199038.29,999.512,999.512,-371.094,999.512
1742199038.294,238.77,230.469,-302.734,194.824
1742199038.298,-1000.0,-1000.0,-373.047,-1000.0
1742199038.299,-669.434,-764.16,-462.891,-542.969
1742199038.303,781.738,666.504,-388.672,880.371
1742199038.307,999.512,999.512,-255.371,999.512
1742199038.311,904.297,901.855,-281.738,912.598
1742199038.315,981.445,980.957,-391.113,981.445
1742199038.319,966.309,967.773,-484.375,966.797
1742199038.323,966.309,904.297,-390.625,966.797
1742199038.326,965.82,999.512,-210.938,966.797
1742199038.33,966.309,235.352,-204.59,966.797
1742199038.334,966.309,-1000.0,-277.832,966.797
1742199038.338,966.309,-912.109,-277.344,966.797
1742199038.342,966.309,528.809,-213.379,966.797
1742199038.299,-669.434,-764.16,-462.891,-542.969
1742199038.303,781.738,666.504,-388.672,880.371
1742199038.307,999.512,999.512,-255.371,999.512
1742199038.311,904.297,901.855,-281.738,912.598
1742199038.315,981.445,980.957,-391.113,981.445
1742199038.319,966.309,967.773,-484.375,966.797
1742199038.323,966.309,904.297,-390.625,966.797
1742199038.326,965.82,999.512,-210.938,966.797
1742199038.33,966.309,235.352,-204.59,966.797
1742199038.334,966.309,-1000.0,-277.832,966.797
1742199038.338,966.309,-912.109,-277.344,966.797
1742199038.342,966.309,528.809,-213.379,966.797
1742199038.344,966.309,974.121,-159.668,966.797
1742199038.348,966.309,-432.129,-130.371,966.797
1742199038.352,966.309,-1000.0,-231.445,966.797
1742199038.356,966.309,-244.141,-445.312,966.797
1742199038.36,966.309,960.449,-462.891,966.797
1742199038.364,966.309,971.68,-227.539,966.797
1742199038.368,966.309,979.492,-59.57,967.285
1742199038.371,966.309,-489.746,-98.633,966.797
1742199038.375,966.309,-442.871,-94.727,966.797
1742199038.379,966.309,985.84,-35.156,966.797
1742199038.383,966.309,999.512,16.113,966.797
1742199038.387,966.309,437.988,116.211,966.797
1742199038.344,966.309,974.121,-159.668,966.797
1742199038.348,966.309,-432.129,-130.371,966.797
1742199038.352,966.309,-1000.0,-231.445,966.797
1742199038.356,966.309,-244.141,-445.312,966.797
1742199038.36,966.309,960.449,-462.891,966.797
1742199038.364,966.309,971.68,-227.539,966.797
1742199038.368,966.309,979.492,-59.57,967.285
1742199038.371,966.309,-489.746,-98.633,966.797
1742199038.375,966.309,-442.871,-94.727,966.797
1742199038.379,966.309,985.84,-35.156,966.797
1742199038.383,966.309,999.512,16.113,966.797
1742199038.387,966.309,437.988,116.211,966.797
1742199038.388,966.309,-908.691,127.441,966.797
1742199038.392,966.309,-1000.0,38.086,966.797
1742199038.396,966.309,74.707,-31.738,966.797
1742199038.4,966.309,999.512,-40.527,966.797
1742199038.404,966.309,214.844,-34.668,967.285
1742199038.408,966.309,-1000.0,8.301,967.285
1742199038.412,966.309,-281.738,20.02,966.797
1742199038.415,966.309,999.512,-12.695,966.797
1742199038.419,966.309,173.828,48.828,966.797
1742199038.423,966.309,-1000.0,159.668,967.285
1742199038.427,966.309,-1000.0,247.07,967.285
1742199038.431,966.797,-60.547,323.73,967.285
1742199038.433,963.379,993.652,377.441,968.262
1742199038.437,908.203,999.512,332.52,959.961
1742199038.441,999.512,180.664,319.824,985.84
1742199038.445,190.918,-1000.0,292.969,900.391
1742199038.449,-1000.0,-1000.0,186.523,863.281
1742199038.453,-176.758,-160.645,270.508,975.098
1742199038.457,999.512,999.512,340.332,968.262
1742199038.46,999.512,919.922,227.539,963.867
1742199038.464,226.074,-303.711,210.938,967.285
1742199038.468,-1000.0,-1000.0,264.648,966.797
1742199038.472,-243.164,-303.223,188.477,966.797
1742199038.476,999.512,980.469,111.816,966.797
1742199038.433,963.379,993.652,377.441,968.262
1742199038.437,908.203,999.512,332.52,959.961
1742199038.441,999.512,180.664,319.824,985.84
1742199038.445,190.918,-1000.0,292.969,900.391
1742199038.449,-1000.0,-1000.0,186.523,863.281
1742199038.453,-176.758,-160.645,270.508,975.098
1742199038.457,999.512,999.512,340.332,968.262
1742199038.46,999.512,919.922,227.539,963.867
1742199038.464,226.074,-303.711,210.938,967.285
1742199038.468,-1000.0,-1000.0,264.648,966.797
1742199038.472,-243.164,-303.223,188.477,966.797
1742199038.476,999.512,980.469,111.816,966.797
1742199038.48,863.281,907.715,161.621,966.797
1742199038.484,999.512,999.512,177.734,966.797
1742199038.488,376.953,243.652,156.738,966.797
1742199038.492,-833.008,-1000.0,161.133,967.285
1742199038.496,508.301,90.332,243.652,966.797
1742199038.5,999.512,999.512,393.555,966.797
1742199038.504,818.359,879.395,362.793,966.797
1742199038.507,999.512,999.512,270.996,967.285
1742199038.511,166.504,-127.441,203.125,967.285
1742199038.515,-263.672,-1000.0,101.074,968.262
