timestamps,TP9,AF7,AF8,TP10
1742201279.418,-932.129,-944.824,-778.32,-937.012
1742201279.422,-1000.0,-1000.0,-731.445,-1000.0
1742201279.426,-755.859,-265.625,-161.133,-813.965
1742201279.43,673.828,953.613,350.586,596.68
1742201279.434,999.512,951.66,-166.016,999.512
1742201279.438,922.363,999.512,-580.566,873.047
1742201279.442,-330.566,-196.289,-889.16,-423.34
1742201279.445,-1000.0,-1000.0,-1000.0,-1000.0
1742201279.449,-930.176,-940.43,-258.789,-928.223
1742201279.453,-1000.0,-999.512,13.184,-1000.0
1742201279.457,-1000.0,-1000.0,-440.918,-1000.0
1742201279.461,-972.656,-956.543,-674.316,-994.141
1742201279.462,-985.352,-1000.0,-571.777,-949.707
1742201279.466,-1000.0,-968.262,12.695,-1000.0
1742201279.47,110.352,327.637,374.512,-212.402
1742201279.474,999.512,999.512,54.199,999.512
1742201279.478,570.312,706.543,-575.684,206.543
1742201279.482,-838.867,-686.035,-500.0,-1000.0
1742201279.486,-1000.0,-1000.0,18.066,-994.141
1742201279.489,-937.5,-928.711,-161.621,-968.262
1742201279.493,-1000.0,-1000.0,-540.039,-1000.0
1742201279.497,-942.383,-939.453,-488.77,-942.383
1742201279.501,-1000.0,-1000.0,-275.879,-1000.0
1742201279.505,-889.16,-851.074,123.047,-891.113
1742201279.462,-985.352,-1000.0,-571.777,-949.707
1742201279.466,-1000.0,-968.262,12.695,-1000.0
1742201279.47,110.352,327.637,374.512,-212.402
1742201279.474,999.512,999.512,54.199,999.512
1742201279.478,570.312,706.543,-575.684,206.543
1742201279.482,-838.867,-686.035,-500.0,-1000.0
1742201279.486,-1000.0,-1000.0,18.066,-994.141
1742201279.489,-937.5,-928.711,-161.621,-968.262
1742201279.493,-1000.0,-1000.0,-540.039,-1000.0
1742201279.497,-942.383,-939.453,-488.77,-942.383
1742201279.501,-1000.0,-1000.0,-275.879,-1000.0
1742201279.505,-889.16,-851.074,123.047,-891.113
1742201279.507,566.406,611.816,563.965,564.453
1742201279.511,999.512,999.512,409.668,999.512
1742201279.515,891.602,894.043,-36.133,892.09
1742201279.519,982.422,983.398,-145.996,982.91
1742201279.523,977.051,978.027,169.922,978.027
1742201279.527,914.551,915.527,609.375,915.527
1742201279.531,999.512,999.512,315.918,999.512
1742201279.534,756.836,746.094,-426.27,773.926
1742201279.538,-573.73,-560.547,-713.379,-598.633
1742201279.542,-1000.0,-1000.0,-97.168,-1000.0
1742201279.546,-213.867,-446.289,606.934,58.594
1742201279.55,970.703,881.836,712.891,999.512
1742201279.507,566.406,611.816,563.965,564.453
1742201279.511,999.512,999.512,409.668,999.512
1742201279.515,891.602,894.043,-36.133,892.09
1742201279.519,982.422,983.398,-145.996,982.91
1742201279.523,977.051,978.027,169.922,978.027
1742201279.527,914.551,915.527,609.375,915.527
1742201279.531,999.512,999.512,315.918,999.512
1742201279.534,756.836,746.094,-426.27,773.926
1742201279.538,-573.73,-560.547,-713.379,-598.633
1742201279.542,-1000.0,-1000.0,-97.168,-1000.0
1742201279.546,-213.867,-446.289,606.934,58.594
1742201279.55,970.703,881.836,712.891,999.512
1742201279.507,566.406,611.816,563.965,564.453
1742201279.511,999.512,999.512,409.668,999.512
1742201279.515,891.602,894.043,-36.133,892.09
1742201279.519,982.422,983.398,-145.996,982.91
1742201279.523,977.051,978.027,169.922,978.027
1742201279.527,914.551,915.527,609.375,915.527
1742201279.531,999.512,999.512,315.918,999.512
1742201279.534,756.836,746.094,-426.27,773.926
1742201279.538,-573.73,-560.547,-713.379,-598.633
1742201279.542,-1000.0,-1000.0,-97.168,-1000.0
1742201279.546,-213.867,-446.289,606.934,58.594
1742201279.55,970.703,881.836,712.891,999.512
1742201279.627,966.797,-473.633,-84.473,966.797
1742201279.631,977.051,-1000.0,615.234,966.797
1742201279.635,899.414,-933.105,935.547,966.797
1742201279.639,999.512,-999.512,696.289,966.797
1742201279.643,561.523,-959.961,275.391,967.285
1742201279.647,-1000.0,-1000.0,320.312,967.285
1742201279.651,-513.184,-104.492,590.332,966.797
1742201279.654,963.867,999.512,583.008,966.797
1742201279.658,998.047,961.914,421.387,971.191
1742201279.662,867.676,888.184,385.254,954.59
1742201279.666,999.512,999.512,160.156,929.199
1742201279.67,908.203,857.91,173.828,999.512
1742201279.657,-514.16,-597.656,217.285,38.574
1742201279.661,-1000.0,-1000.0,127.441,-1000.0
1742201279.665,-925.781,-942.383,85.938,-974.609
1742201279.669,-1000.0,-944.336,50.781,-981.934
1742201279.673,-1000.0,-1000.0,214.355,-1000.0
1742201279.677,-1000.0,-848.633,725.098,-1000.0
1742201279.681,-1000.0,588.379,611.816,-1000.0
1742201279.684,-1000.0,-296.875,-227.051,-1000.0
1742201279.688,-1000.0,-1000.0,-625.977,-1000.0
1742201279.692,-1000.0,-912.109,-723.633,-1000.0
1742201279.696,-1000.0,-1000.0,-968.75,-1000.0
1742201279.7,-1000.0,-1000.0,-1000.0,-1000.0
1742201279.657,-514.16,-597.656,217.285,38.574
1742201279.661,-1000.0,-1000.0,127.441,-1000.0
1742201279.665,-925.781,-942.383,85.938,-974.609
1742201279.669,-1000.0,-944.336,50.781,-981.934
1742201279.673,-1000.0,-1000.0,214.355,-1000.0
1742201279.677,-1000.0,-848.633,725.098,-1000.0
1742201279.681,-1000.0,588.379,611.816,-1000.0
1742201279.684,-1000.0,-296.875,-227.051,-1000.0
1742201279.688,-1000.0,-1000.0,-625.977,-1000.0
1742201279.692,-1000.0,-912.109,-723.633,-1000.0
1742201279.696,-1000.0,-1000.0,-968.75,-1000.0
1742201279.7,-1000.0,-1000.0,-1000.0,-1000.0
1742201279.702,-1000.0,-1000.0,-981.934,-1000.0
1742201279.706,-1000.0,-1000.0,-997.559,-1000.0
1742201279.71,-1000.0,-980.957,-991.699,-1000.0
1742201279.714,-1000.0,-972.656,-552.246,-1000.0
1742201279.718,-1000.0,-1000.0,67.871,-1000.0
1742201279.722,-1000.0,50.293,387.695,-1000.0
1742201279.726,-1000.0,999.512,55.664,-1000.0
1742201279.729,-1000.0,854.492,-188.477,-1000.0
1742201279.733,-1000.0,999.512,178.711,-1000.0
1742201279.737,-1000.0,612.305,-77.148,-1000.0
1742201279.741,-937.5,-767.578,-266.602,-942.383
1742201279.745,-1000.0,-1000.0,-215.332,-1000.0
1742201279.702,-1000.0,-1000.0,-981.934,-1000.0
1742201279.706,-1000.0,-1000.0,-997.559,-1000.0
1742201279.71,-1000.0,-980.957,-991.699,-1000.0
1742201279.714,-1000.0,-972.656,-552.246,-1000.0
1742201279.718,-1000.0,-1000.0,67.871,-1000.0
1742201279.722,-1000.0,50.293,387.695,-1000.0
1742201279.726,-1000.0,999.512,55.664,-1000.0
1742201279.729,-1000.0,854.492,-188.477,-1000.0
1742201279.733,-1000.0,999.512,178.711,-1000.0
1742201279.737,-1000.0,612.305,-77.148,-1000.0
1742201279.741,-937.5,-767.578,-266.602,-942.383
1742201279.745,-1000.0,-1000.0,-215.332,-1000.0
1742201279.747,-831.055,-821.289,94.238,-891.113
1742201279.751,636.719,558.105,857.91,564.453
1742201279.755,999.512,999.512,999.512,999.512
1742201279.759,894.043,892.578,686.523,892.09
1742201279.763,982.91,982.91,409.668,982.91
1742201279.767,966.309,966.797,747.559,966.797
1742201279.771,966.309,966.797,999.512,966.797
1742201279.774,966.309,966.797,851.562,966.797
1742201279.778,966.309,966.797,360.84,966.797
1742201279.782,966.309,966.797,265.625,966.797
1742201279.786,966.309,966.797,479.492,966.797
1742201279.79,966.309,966.797,569.824,966.797
1742201279.747,-831.055,-821.289,94.238,-891.113
1742201279.751,636.719,558.105,857.91,564.453
1742201279.755,999.512,999.512,999.512,999.512
1742201279.759,894.043,892.578,686.523,892.09
1742201279.763,982.91,982.91,409.668,982.91
1742201279.767,966.309,966.797,747.559,966.797
1742201279.771,966.309,966.797,999.512,966.797
1742201279.774,966.309,966.797,851.562,966.797
1742201279.778,966.309,966.797,360.84,966.797
1742201279.782,966.309,966.797,265.625,966.797
1742201279.786,966.309,966.797,479.492,966.797
1742201279.79,966.309,966.797,569.824,966.797
1742201279.792,966.309,966.797,431.152,966.797
1742201279.796,966.309,967.285,198.242,967.285
1742201279.8,966.309,966.797,185.547,966.797
1742201279.804,966.309,966.797,303.711,966.797
1742201279.808,966.309,967.285,554.199,966.797
1742201279.812,966.309,966.797,912.109,967.285
1742201279.816,966.309,966.797,984.863,966.797
1742201279.819,966.309,966.797,889.648,966.797
1742201279.823,966.309,966.797,913.574,966.797
1742201279.827,966.309,966.797,960.449,966.797
1742201279.831,966.309,967.285,971.68,966.797
1742201279.835,966.309,966.797,887.207,966.797
1742201279.792,966.309,966.797,431.152,966.797
1742201279.796,966.309,967.285,198.242,967.285
1742201279.8,966.309,966.797,185.547,966.797
1742201279.804,966.309,966.797,303.711,966.797
1742201279.808,966.309,967.285,554.199,966.797
1742201279.812,966.309,966.797,912.109,967.285
1742201279.816,966.309,966.797,984.863,966.797
1742201279.819,966.309,966.797,889.648,966.797
1742201279.823,966.309,966.797,913.574,966.797
1742201279.827,966.309,966.797,960.449,966.797
1742201279.831,966.309,967.285,971.68,966.797
1742201279.835,966.309,966.797,887.207,966.797
1742201279.882,966.309,967.285,78.125,966.797
1742201279.886,966.309,966.797,396.973,966.797
1742201279.89,966.309,966.797,512.207,966.797
1742201279.894,966.309,966.797,30.273,967.285
1742201279.898,966.309,966.797,-666.504,966.797
1742201279.902,966.309,967.285,-99.121,966.797
1742201279.906,966.309,967.285,533.203,967.285
1742201279.909,966.309,966.797,114.258,966.797
1742201279.913,966.309,966.797,-48.828,966.797
1742201279.917,966.309,966.797,140.137,966.797
1742201279.921,966.309,966.797,-37.109,966.797
1742201279.925,966.309,967.285,52.734,966.797
1742201279.882,966.309,967.285,78.125,966.797
1742201279.886,966.309,966.797,396.973,966.797
1742201279.89,966.309,966.797,512.207,966.797
1742201279.894,966.309,966.797,30.273,967.285
1742201279.898,966.309,966.797,-666.504,966.797
1742201279.902,966.309,967.285,-99.121,966.797
1742201279.906,966.309,967.285,533.203,967.285
1742201279.909,966.309,966.797,114.258,966.797
1742201279.913,966.309,966.797,-48.828,966.797
1742201279.917,966.309,966.797,140.137,966.797
1742201279.921,966.309,966.797,-37.109,966.797
1742201279.925,966.309,967.285,52.734,966.797
1742201279.928,966.309,981.934,160.156,966.797
1742201279.932,966.309,913.086,-306.152,966.797
1742201279.936,966.309,993.652,-706.055,966.797
1742201279.94,966.797,959.473,-421.387,966.797
1742201279.944,979.004,-631.836,86.426,966.797
1742201279.948,895.996,-893.066,398.926,966.797
1742201279.952,999.512,958.008,109.375,966.797
1742201279.955,502.441,562.988,-591.309,966.797
1742201279.959,-911.133,-976.074,-794.434,967.285
1742201279.963,-1000.0,-1000.0,-461.426,979.98
1742201279.967,-947.266,-947.754,-502.441,900.879
1742201279.971,-1000.0,-1000.0,-765.137,999.512
1742201279.987,-1000.0,-988.77,-816.406,599.609
1742201279.991,-934.082,-960.938,-694.336,-787.598
1742201279.995,-1000.0,-1000.0,-184.082,-1000.0
1742201279.999,-400.391,-59.57,396.484,-52.246
1742201280.003,884.277,995.605,143.066,958.496
1742201280.007,999.512,957.031,-304.199,973.633
1742201280.011,862.793,942.871,-442.383,916.504
1742201280.014,-505.371,-410.645,-712.891,-448.73
1742201280.018,-1000.0,-1000.0,-211.426,-1000.0
1742201280.022,-925.781,-927.734,162.598,-927.246
1742201280.026,-1000.0,-1000.0,-251.953,-1000.0
1742201280.03,-1000.0,-1000.0,-595.215,-1000.0
1742201279.987,-1000.0,-988.77,-816.406,599.609
1742201279.991,-934.082,-960.938,-694.336,-787.598
1742201279.995,-1000.0,-1000.0,-184.082,-1000.0
1742201279.999,-400.391,-59.57,396.484,-52.246
1742201280.003,884.277,995.605,143.066,958.496
1742201280.007,999.512,957.031,-304.199,973.633
1742201280.011,862.793,942.871,-442.383,916.504
1742201280.014,-505.371,-410.645,-712.891,-448.73
1742201280.018,-1000.0,-1000.0,-211.426,-1000.0
1742201280.022,-925.781,-927.734,162.598,-927.246
1742201280.026,-1000.0,-1000.0,-251.953,-1000.0
1742201280.03,-1000.0,-1000.0,-595.215,-1000.0
1742201280.033,-1000.0,-1000.0,-356.934,-1000.0
1742201280.037,-1000.0,-1000.0,-82.031,-1000.0
1742201280.041,-1000.0,-1000.0,-382.812,-1000.0
1742201280.045,-1000.0,-931.641,-540.039,-1000.0
1742201280.049,-1000.0,-1000.0,-836.426,-1000.0
1742201280.053,-1000.0,-705.566,-919.922,-1000.0
1742201280.057,-1000.0,848.145,-825.684,-1000.0
1742201280.06,-1000.0,923.828,-982.422,-1000.0
1742201280.064,-1000.0,-661.133,-996.582,-1000.0
1742201280.068,-1000.0,-1000.0,-1000.0,-1000.0
1742201280.072,-1000.0,-925.781,-911.621,-1000.0
1742201280.076,-1000.0,-1000.0,-539.062,-1000.0
1742201280.033,-1000.0,-1000.0,-356.934,-1000.0
1742201280.037,-1000.0,-1000.0,-82.031,-1000.0
1742201280.041,-1000.0,-1000.0,-382.812,-1000.0
1742201280.045,-1000.0,-931.641,-540.039,-1000.0
1742201280.049,-1000.0,-1000.0,-836.426,-1000.0
1742201280.053,-1000.0,-705.566,-919.922,-1000.0
1742201280.057,-1000.0,848.145,-825.684,-1000.0
1742201280.06,-1000.0,923.828,-982.422,-1000.0
1742201280.064,-1000.0,-661.133,-996.582,-1000.0
1742201280.068,-1000.0,-1000.0,-1000.0,-1000.0
1742201280.072,-1000.0,-925.781,-911.621,-1000.0
1742201280.076,-1000.0,-1000.0,-539.062,-1000.0
1742201280.107,-1000.0,-1000.0,-453.613,-1000.0
1742201280.111,-1000.0,-1000.0,-749.512,-1000.0
1742201280.115,-1000.0,-965.82,-979.492,-1000.0
1742201280.119,-1000.0,-993.652,-978.516,-1000.0
1742201280.123,-1000.0,-1000.0,-806.641,-1000.0
1742201280.127,-1000.0,256.348,-595.215,-1000.0
1742201280.131,-1000.0,999.512,-706.055,-1000.0
1742201280.134,-1000.0,-239.258,-993.652,-1000.0
1742201280.138,-1000.0,-1000.0,-806.641,-1000.0
1742201280.142,-1000.0,-946.289,-541.504,-1000.0
1742201280.146,-1000.0,-997.07,-590.332,-1000.0
1742201280.15,-1000.0,-1000.0,-713.379,-1000.0
1742201280.107,-1000.0,-1000.0,-453.613,-1000.0
1742201280.111,-1000.0,-1000.0,-749.512,-1000.0
1742201280.115,-1000.0,-965.82,-979.492,-1000.0
1742201280.119,-1000.0,-993.652,-978.516,-1000.0
1742201280.123,-1000.0,-1000.0,-806.641,-1000.0
1742201280.127,-1000.0,256.348,-595.215,-1000.0
1742201280.131,-1000.0,999.512,-706.055,-1000.0
1742201280.134,-1000.0,-239.258,-993.652,-1000.0
1742201280.138,-1000.0,-1000.0,-806.641,-1000.0
1742201280.142,-1000.0,-946.289,-541.504,-1000.0
1742201280.146,-1000.0,-997.07,-590.332,-1000.0
1742201280.15,-1000.0,-1000.0,-713.379,-1000.0
1742201280.126,-1000.0,-1000.0,-590.82,-1000.0
1742201280.13,-1000.0,-1000.0,-6.348,-1000.0
1742201280.134,-1000.0,-1000.0,329.102,-1000.0
1742201280.138,-1000.0,-1000.0,375.0,-1000.0
1742201280.142,-1000.0,-1000.0,119.629,-1000.0
1742201280.146,-1000.0,-1000.0,-56.152,-1000.0
1742201280.15,-1000.0,-1000.0,73.242,-1000.0
1742201280.153,-1000.0,-1000.0,181.641,-1000.0
1742201280.157,-1000.0,-1000.0,115.723,-1000.0
1742201280.161,-1000.0,-1000.0,-56.641,-1000.0
1742201280.165,-1000.0,-1000.0,89.355,-1000.0
1742201280.169,-1000.0,-1000.0,294.922,-1000.0
1742201280.126,-1000.0,-1000.0,-590.82,-1000.0
1742201280.13,-1000.0,-1000.0,-6.348,-1000.0
1742201280.134,-1000.0,-1000.0,329.102,-1000.0
1742201280.138,-1000.0,-1000.0,375.0,-1000.0
1742201280.142,-1000.0,-1000.0,119.629,-1000.0
1742201280.146,-1000.0,-1000.0,-56.152,-1000.0
1742201280.15,-1000.0,-1000.0,73.242,-1000.0
1742201280.153,-1000.0,-1000.0,181.641,-1000.0
1742201280.157,-1000.0,-1000.0,115.723,-1000.0
1742201280.161,-1000.0,-1000.0,-56.641,-1000.0
1742201280.165,-1000.0,-1000.0,89.355,-1000.0
1742201280.169,-1000.0,-1000.0,294.922,-1000.0
1742201280.167,-1000.0,-1000.0,192.383,-1000.0
1742201280.171,-1000.0,-1000.0,257.324,-1000.0
1742201280.175,-1000.0,-1000.0,408.203,-1000.0
1742201280.179,-1000.0,-1000.0,155.762,-1000.0
1742201280.183,-1000.0,-1000.0,-649.414,-1000.0
1742201280.187,-1000.0,-1000.0,-1000.0,-1000.0
1742201280.191,-1000.0,-1000.0,-981.445,-1000.0
1742201280.194,-1000.0,-1000.0,-990.723,-1000.0
1742201280.198,-1000.0,-1000.0,-1000.0,-1000.0
1742201280.202,-1000.0,-1000.0,-967.285,-1000.0
1742201280.206,-1000.0,-1000.0,-645.996,-1000.0
1742201280.21,-1000.0,-1000.0,-362.793,-1000.0
1742201280.167,-1000.0,-1000.0,192.383,-1000.0
1742201280.171,-1000.0,-1000.0,257.324,-1000.0
1742201280.175,-1000.0,-1000.0,408.203,-1000.0
1742201280.179,-1000.0,-1000.0,155.762,-1000.0
1742201280.183,-1000.0,-1000.0,-649.414,-1000.0
1742201280.187,-1000.0,-1000.0,-1000.0,-1000.0
1742201280.191,-1000.0,-1000.0,-981.445,-1000.0
1742201280.194,-1000.0,-1000.0,-990.723,-1000.0
1742201280.198,-1000.0,-1000.0,-1000.0,-1000.0
1742201280.202,-1000.0,-1000.0,-967.285,-1000.0
1742201280.206,-1000.0,-1000.0,-645.996,-1000.0
1742201280.21,-1000.0,-1000.0,-362.793,-1000.0
1742201280.213,-1000.0,-1000.0,-646.484,-1000.0
1742201280.217,-1000.0,-1000.0,-948.242,-1000.0
1742201280.221,-1000.0,-1000.0,-992.676,-1000.0
1742201280.225,-1000.0,-1000.0,-997.559,-1000.0
1742201280.229,-1000.0,-1000.0,-1000.0,-1000.0
1742201280.233,-1000.0,-1000.0,-1000.0,-1000.0
1742201280.237,-1000.0,-1000.0,-1000.0,-1000.0
1742201280.24,-1000.0,-1000.0,-1000.0,-1000.0
1742201280.244,-1000.0,-1000.0,-990.234,-1000.0
1742201280.248,-1000.0,-1000.0,-1000.0,-1000.0
1742201280.252,-1000.0,-1000.0,-968.75,-1000.0
1742201280.256,-1000.0,-1000.0,-684.082,-1000.0
1742201280.213,-1000.0,-1000.0,-646.484,-1000.0
1742201280.217,-1000.0,-1000.0,-948.242,-1000.0
1742201280.221,-1000.0,-1000.0,-992.676,-1000.0
1742201280.225,-1000.0,-1000.0,-997.559,-1000.0
1742201280.229,-1000.0,-1000.0,-1000.0,-1000.0
1742201280.233,-1000.0,-1000.0,-1000.0,-1000.0
1742201280.237,-1000.0,-1000.0,-1000.0,-1000.0
1742201280.24,-1000.0,-1000.0,-1000.0,-1000.0
1742201280.244,-1000.0,-1000.0,-990.234,-1000.0
1742201280.248,-1000.0,-1000.0,-1000.0,-1000.0
1742201280.252,-1000.0,-1000.0,-968.75,-1000.0
1742201280.256,-1000.0,-1000.0,-684.082,-1000.0
1742201280.257,-1000.0,-1000.0,-434.082,-1000.0
1742201280.261,-1000.0,-1000.0,17.09,-1000.0
1742201280.265,-1000.0,-1000.0,454.102,-1000.0
1742201280.269,-1000.0,-1000.0,434.57,-1000.0
1742201280.273,-1000.0,-1000.0,-39.062,-1000.0
1742201280.277,-1000.0,-1000.0,-325.195,-1000.0
1742201280.281,-982.91,-947.754,-205.078,-1000.0
1742201280.284,-964.355,-1000.0,12.695,-1000.0
1742201280.288,-1000.0,-915.039,471.68,-1000.0
1742201280.292,-6.836,426.758,844.238,-1000.0
1742201280.296,999.512,999.512,321.289,-1000.0
1742201280.3,-54.688,551.27,-80.078,-1000.0
1742201280.257,-1000.0,-1000.0,-434.082,-1000.0
1742201280.261,-1000.0,-1000.0,17.09,-1000.0
1742201280.265,-1000.0,-1000.0,454.102,-1000.0
1742201280.269,-1000.0,-1000.0,434.57,-1000.0
1742201280.273,-1000.0,-1000.0,-39.062,-1000.0
1742201280.277,-1000.0,-1000.0,-325.195,-1000.0
1742201280.281,-982.91,-947.754,-205.078,-1000.0
1742201280.284,-964.355,-1000.0,12.695,-1000.0
1742201280.288,-1000.0,-915.039,471.68,-1000.0
1742201280.292,-6.836,426.758,844.238,-1000.0
1742201280.296,999.512,999.512,321.289,-1000.0
1742201280.3,-54.688,551.27,-80.078,-1000.0
1742201280.317,-1000.0,-819.336,255.371,-1000.0
1742201280.321,-977.051,-1000.0,466.797,-1000.0
1742201280.325,-933.594,-886.719,22.949,-968.262
1742201280.329,-1000.0,-1000.0,-316.895,-1000.0
1742201280.333,-791.504,-791.504,-215.82,-916.992
1742201280.337,597.656,598.145,580.078,360.84
1742201280.341,999.512,999.512,954.59,999.512
1742201280.344,899.902,900.391,290.039,905.273
1742201280.348,979.492,979.98,-247.559,971.68
1742201280.352,966.309,966.797,-331.055,967.285
1742201280.356,966.309,966.797,-175.781,966.797
1742201280.36,966.309,967.285,215.332,966.797
1742201280.317,-1000.0,-819.336,255.371,-1000.0
1742201280.321,-977.051,-1000.0,466.797,-1000.0
1742201280.325,-933.594,-886.719,22.949,-968.262
1742201280.329,-1000.0,-1000.0,-316.895,-1000.0
1742201280.333,-791.504,-791.504,-215.82,-916.992
1742201280.337,597.656,598.145,580.078,360.84
1742201280.341,999.512,999.512,954.59,999.512
1742201280.344,899.902,900.391,290.039,905.273
1742201280.348,979.492,979.98,-247.559,971.68
1742201280.352,966.309,966.797,-331.055,967.285
1742201280.356,966.309,966.797,-175.781,966.797
1742201280.36,966.309,967.285,215.332,966.797
1742201280.362,966.309,966.797,541.992,967.285
1742201280.366,966.309,966.797,763.184,966.797
1742201280.37,966.309,967.285,945.801,966.797
1742201280.374,966.309,967.285,971.68,966.797
1742201280.378,966.309,981.934,951.66,966.797
1742201280.382,966.309,903.32,986.328,966.797
1742201280.386,966.309,999.512,934.082,966.797
1742201280.389,966.309,884.766,772.949,967.285
1742201280.393,966.309,-537.109,909.668,966.797
1742201280.397,966.309,226.074,983.887,966.797
1742201280.401,966.309,999.512,960.938,966.797
1742201280.405,966.309,882.324,961.914,966.797
1742201280.362,966.309,966.797,541.992,967.285
1742201280.366,966.309,966.797,763.184,966.797
1742201280.37,966.309,967.285,945.801,966.797
1742201280.374,966.309,967.285,971.68,966.797
1742201280.378,966.309,981.934,951.66,966.797
1742201280.382,966.309,903.32,986.328,966.797
1742201280.386,966.309,999.512,934.082,966.797
1742201280.389,966.309,884.766,772.949,967.285
1742201280.393,966.309,-537.109,909.668,966.797
1742201280.397,966.309,226.074,983.887,966.797
1742201280.401,966.309,999.512,960.938,966.797
1742201280.405,966.309,882.324,961.914,966.797
1742201280.422,966.309,975.586,804.199,966.797
1742201280.426,966.309,967.285,762.695,966.797
1742201280.43,966.309,966.797,958.496,967.285
1742201280.434,966.309,966.797,925.293,966.797
1742201280.438,966.309,966.797,565.43,966.797
1742201280.442,966.309,966.797,612.793,966.797
1742201280.446,966.309,967.285,714.844,966.797
1742201280.449,966.309,966.797,649.414,966.797
1742201280.453,966.309,966.797,720.215,967.285
1742201280.457,966.309,967.285,903.809,967.285
1742201280.461,966.309,967.285,927.734,966.797
1742201280.465,966.309,967.285,955.078,966.797
1742201280.422,966.309,975.586,804.199,966.797
1742201280.426,966.309,967.285,762.695,966.797
1742201280.43,966.309,966.797,958.496,967.285
1742201280.434,966.309,966.797,925.293,966.797
1742201280.438,966.309,966.797,565.43,966.797
1742201280.442,966.309,966.797,612.793,966.797
1742201280.446,966.309,967.285,714.844,966.797
1742201280.449,966.309,966.797,649.414,966.797
1742201280.453,966.309,966.797,720.215,967.285
1742201280.457,966.309,967.285,903.809,967.285
1742201280.461,966.309,967.285,927.734,966.797
1742201280.465,966.309,967.285,955.078,966.797
1742201280.452,966.309,967.285,971.68,966.797
1742201280.456,966.309,967.285,964.844,966.797
1742201280.46,966.309,966.797,967.285,966.797
1742201280.464,966.309,966.797,967.285,966.797
1742201280.468,966.309,967.285,969.238,966.797
1742201280.472,966.309,965.332,957.52,967.285
1742201280.476,966.309,970.703,984.863,966.797
1742201280.479,966.309,956.055,928.711,966.797
1742201280.483,966.309,948.242,813.965,966.797
1742201280.487,966.309,968.75,937.988,966.797
1742201280.491,966.309,967.285,981.934,966.797
1742201280.495,966.309,966.309,958.496,966.797
1742201280.452,966.309,967.285,971.68,966.797
1742201280.456,966.309,967.285,964.844,966.797
1742201280.46,966.309,966.797,967.285,966.797
1742201280.464,966.309,966.797,967.285,966.797
1742201280.468,966.309,967.285,969.238,966.797
1742201280.472,966.309,965.332,957.52,967.285
1742201280.476,966.309,970.703,984.863,966.797
1742201280.479,966.309,956.055,928.711,966.797
1742201280.483,966.309,948.242,813.965,966.797
1742201280.487,966.309,968.75,937.988,966.797
1742201280.491,966.309,967.285,981.934,966.797
1742201280.495,966.309,966.309,958.496,966.797
1742201280.452,966.309,967.285,971.68,966.797
1742201280.456,966.309,967.285,964.844,966.797
1742201280.46,966.309,966.797,967.285,966.797
1742201280.464,966.309,966.797,967.285,966.797
1742201280.468,966.309,967.285,969.238,966.797
1742201280.472,966.309,965.332,957.52,967.285
1742201280.476,966.309,970.703,984.863,966.797
1742201280.479,966.309,956.055,928.711,966.797
1742201280.483,966.309,948.242,813.965,966.797
1742201280.487,966.309,968.75,937.988,966.797
1742201280.491,966.309,967.285,981.934,966.797
1742201280.495,966.309,966.309,958.496,966.797
1742201280.498,966.309,966.797,968.262,966.797
1742201280.502,966.309,966.797,966.797,966.797
1742201280.506,966.309,966.797,966.797,967.285
1742201280.51,966.309,967.285,966.797,966.797
1742201280.514,966.309,980.957,966.797,967.285
1742201280.518,966.309,916.016,966.797,966.797
1742201280.522,966.309,999.512,966.797,966.797
1742201280.525,966.309,909.668,966.797,966.797
1742201280.529,966.309,-510.742,967.285,966.797
1742201280.533,966.309,-1000.0,966.797,966.797
1742201280.537,966.309,-942.871,966.797,966.797
1742201280.541,966.309,-951.172,968.75,966.797
1742201280.498,966.309,966.797,968.262,966.797
1742201280.502,966.309,966.797,966.797,966.797
1742201280.506,966.309,966.797,966.797,967.285
1742201280.51,966.309,967.285,966.797,966.797
1742201280.514,966.309,980.957,966.797,967.285
1742201280.518,966.309,916.016,966.797,966.797
1742201280.522,966.309,999.512,966.797,966.797
1742201280.525,966.309,909.668,966.797,966.797
1742201280.529,966.309,-510.742,967.285,966.797
1742201280.533,966.309,-1000.0,966.797,966.797
1742201280.537,966.309,-942.871,966.797,966.797
1742201280.541,966.309,-951.172,968.75,966.797
1742201280.542,966.309,-1000.0,959.473,967.285
1742201280.546,966.309,-829.59,974.121,967.285
1742201280.55,966.309,633.301,958.984,966.797
1742201280.554,977.051,999.512,776.855,968.75
1742201280.558,926.758,856.934,780.762,971.191
1742201280.562,976.074,991.211,892.578,906.738
1742201280.566,976.562,984.375,980.469,999.512
1742201280.569,-373.535,-359.863,905.762,334.473
1742201280.573,-1000.0,-1000.0,308.105,-973.145
1742201280.577,-930.176,-930.176,-239.258,-1000.0
1742201280.581,-1000.0,-1000.0,-791.016,-959.961
1742201280.585,-1000.0,-1000.0,-984.375,-1000.0
1742201280.542,966.309,-1000.0,959.473,967.285
1742201280.546,966.309,-829.59,974.121,967.285
1742201280.55,966.309,633.301,958.984,966.797
1742201280.554,977.051,999.512,776.855,968.75
1742201280.558,926.758,856.934,780.762,971.191
1742201280.562,976.074,991.211,892.578,906.738
1742201280.566,976.562,984.375,980.469,999.512
1742201280.569,-373.535,-359.863,905.762,334.473
1742201280.573,-1000.0,-1000.0,308.105,-973.145
1742201280.577,-930.176,-930.176,-239.258,-1000.0
1742201280.581,-1000.0,-1000.0,-791.016,-959.961
1742201280.585,-1000.0,-1000.0,-984.375,-1000.0
1742201280.587,-1000.0,-1000.0,-870.605,-1000.0
1742201280.591,-1000.0,-1000.0,-974.121,-1000.0
1742201280.595,-1000.0,-963.867,-995.117,-1000.0
1742201280.599,-1000.0,-1000.0,-1000.0,-1000.0
1742201280.603,-1000.0,-1000.0,-929.688,-1000.0
1742201280.607,-1000.0,240.723,-389.16,-1000.0
1742201280.611,-1000.0,999.512,-168.945,-1000.0
1742201280.614,-1000.0,762.207,-639.16,-1000.0
1742201280.618,-1000.0,-625.488,-961.914,-1000.0
1742201280.622,-1000.0,-1000.0,-629.883,-1000.0
1742201280.626,-1000.0,-936.523,-40.527,-1000.0
1742201280.63,-990.234,-980.957,83.496,-1000.0
1742201280.587,-1000.0,-1000.0,-870.605,-1000.0
1742201280.591,-1000.0,-1000.0,-974.121,-1000.0
1742201280.595,-1000.0,-963.867,-995.117,-1000.0
1742201280.599,-1000.0,-1000.0,-1000.0,-1000.0
1742201280.603,-1000.0,-1000.0,-929.688,-1000.0
1742201280.607,-1000.0,240.723,-389.16,-1000.0
1742201280.611,-1000.0,999.512,-168.945,-1000.0
1742201280.614,-1000.0,762.207,-639.16,-1000.0
1742201280.618,-1000.0,-625.488,-961.914,-1000.0
1742201280.622,-1000.0,-1000.0,-629.883,-1000.0
1742201280.626,-1000.0,-936.523,-40.527,-1000.0
1742201280.63,-990.234,-980.957,83.496,-1000.0
1742201280.632,-957.52,-1000.0,-368.164,-1000.0
1742201280.636,-1000.0,-1000.0,-534.18,-965.332
1742201280.64,-88.867,294.434,220.703,-1000.0
1742201280.644,999.512,999.512,903.809,-1000.0
1742201280.648,920.898,878.906,903.809,228.516
1742201280.652,916.016,944.336,964.355,999.512
1742201280.656,999.512,999.512,930.176,899.414
1742201280.659,-98.145,-120.605,576.66,-400.391
1742201280.663,-1000.0,-1000.0,746.582,-1000.0
1742201280.667,-950.195,-947.754,998.047,-930.176
1742201280.671,-1000.0,-1000.0,969.727,-1000.0
1742201280.675,-953.613,-955.078,896.973,-955.566
1742201280.632,-957.52,-1000.0,-368.164,-1000.0
1742201280.636,-1000.0,-1000.0,-534.18,-965.332
1742201280.64,-88.867,294.434,220.703,-1000.0
1742201280.644,999.512,999.512,903.809,-1000.0
1742201280.648,920.898,878.906,903.809,228.516
1742201280.652,916.016,944.336,964.355,999.512
1742201280.656,999.512,999.512,930.176,899.414
1742201280.659,-98.145,-120.605,576.66,-400.391
1742201280.663,-1000.0,-1000.0,746.582,-1000.0
1742201280.667,-950.195,-947.754,998.047,-930.176
1742201280.671,-1000.0,-1000.0,969.727,-1000.0
1742201280.675,-953.613,-955.078,896.973,-955.566
1742201280.678,-1000.0,-1000.0,740.723,-1000.0
1742201280.682,-959.961,-974.121,909.18,-981.934
1742201280.686,448.73,423.828,999.512,402.832
1742201280.69,999.512,999.512,767.09,999.512
1742201280.694,892.09,893.066,343.262,894.531
1742201280.698,995.117,994.629,327.637,994.141
1742201280.702,908.691,909.18,364.746,908.203
1742201280.705,999.512,999.512,240.723,999.512
1742201280.709,856.934,857.91,26.367,848.633
1742201280.713,-597.656,-597.656,-685.059,-608.887
1742201280.717,-1000.0,-1000.0,-957.031,-1000.0
1742201280.721,-925.781,-925.781,-604.492,-925.781
1742201280.678,-1000.0,-1000.0,740.723,-1000.0
1742201280.682,-959.961,-974.121,909.18,-981.934
1742201280.686,448.73,423.828,999.512,402.832
1742201280.69,999.512,999.512,767.09,999.512
1742201280.694,892.09,893.066,343.262,894.531
1742201280.698,995.117,994.629,327.637,994.141
1742201280.702,908.691,909.18,364.746,908.203
1742201280.705,999.512,999.512,240.723,999.512
1742201280.709,856.934,857.91,26.367,848.633
1742201280.713,-597.656,-597.656,-685.059,-608.887
1742201280.717,-1000.0,-1000.0,-957.031,-1000.0
1742201280.721,-925.781,-925.781,-604.492,-925.781
1742201280.678,-1000.0,-1000.0,740.723,-1000.0
1742201280.682,-959.961,-974.121,909.18,-981.934
1742201280.686,448.73,423.828,999.512,402.832
1742201280.69,999.512,999.512,767.09,999.512
1742201280.694,892.09,893.066,343.262,894.531
1742201280.698,995.117,994.629,327.637,994.141
1742201280.702,908.691,909.18,364.746,908.203
1742201280.705,999.512,999.512,240.723,999.512
1742201280.709,856.934,857.91,26.367,848.633
1742201280.713,-597.656,-597.656,-685.059,-608.887
1742201280.717,-1000.0,-1000.0,-957.031,-1000.0
1742201280.721,-925.781,-925.781,-604.492,-925.781
1742201280.737,-1000.0,-1000.0,-471.191,-1000.0
1742201280.741,-1000.0,-1000.0,-731.445,-1000.0
1742201280.745,-1000.0,-965.332,-866.211,-1000.0
1742201280.749,-1000.0,-1000.0,-829.102,-1000.0
1742201280.753,-1000.0,-1000.0,-992.188,-1000.0
1742201280.757,-1000.0,223.633,-889.16,-1000.0
1742201280.761,-1000.0,999.512,-740.723,-1000.0
1742201280.764,-1000.0,735.352,-897.949,-1000.0
1742201280.768,-1000.0,-656.25,-898.438,-1000.0
1742201280.772,-1000.0,-1000.0,-466.797,-1000.0
1742201280.776,-1000.0,-899.902,-167.969,-1000.0
1742201280.78,-937.988,-1000.0,-106.445,-996.094
1742201280.737,-1000.0,-1000.0,-471.191,-1000.0
1742201280.741,-1000.0,-1000.0,-731.445,-1000.0
1742201280.745,-1000.0,-965.332,-866.211,-1000.0
1742201280.749,-1000.0,-1000.0,-829.102,-1000.0
1742201280.753,-1000.0,-1000.0,-992.188,-1000.0
1742201280.757,-1000.0,223.633,-889.16,-1000.0
1742201280.761,-1000.0,999.512,-740.723,-1000.0
1742201280.764,-1000.0,735.352,-897.949,-1000.0
1742201280.768,-1000.0,-656.25,-898.438,-1000.0
1742201280.772,-1000.0,-1000.0,-466.797,-1000.0
1742201280.776,-1000.0,-899.902,-167.969,-1000.0
1742201280.78,-937.988,-1000.0,-106.445,-996.094
1742201280.783,-1000.0,-1000.0,-376.953,-1000.0
1742201280.787,-367.676,189.941,-194.336,-991.211
1742201280.791,955.566,999.512,247.07,-923.34
1742201280.795,958.008,905.762,317.383,-976.562
1742201280.799,905.762,914.062,309.082,-1000.0
1742201280.803,999.512,999.512,194.336,-995.117
1742201280.807,-157.227,177.734,-245.605,-1000.0
1742201280.81,-1000.0,-1000.0,-736.328,-1000.0
1742201280.814,-947.754,-990.723,-331.543,-1000.0
1742201280.818,-996.094,-972.168,11.23,-1000.0
1742201280.822,-1000.0,-1000.0,-522.461,-1000.0
1742201280.826,-1000.0,-1000.0,-603.516,-1000.0
1742201280.783,-1000.0,-1000.0,-376.953,-1000.0
1742201280.787,-367.676,189.941,-194.336,-991.211
1742201280.791,955.566,999.512,247.07,-923.34
1742201280.795,958.008,905.762,317.383,-976.562
1742201280.799,905.762,914.062,309.082,-1000.0
1742201280.803,999.512,999.512,194.336,-995.117
1742201280.807,-157.227,177.734,-245.605,-1000.0
1742201280.81,-1000.0,-1000.0,-736.328,-1000.0
1742201280.814,-947.754,-990.723,-331.543,-1000.0
1742201280.818,-996.094,-972.168,11.23,-1000.0
1742201280.822,-1000.0,-1000.0,-522.461,-1000.0
1742201280.826,-1000.0,-1000.0,-603.516,-1000.0
1742201280.828,-1000.0,-1000.0,-264.16,-1000.0
1742201280.832,-942.383,-931.641,236.328,-1000.0
1742201280.836,-1000.0,-1000.0,501.953,-1000.0
1742201280.84,-891.113,-749.512,147.949,-1000.0
1742201280.844,580.566,741.699,22.461,-1000.0
1742201280.848,999.512,997.07,43.457,-1000.0
1742201280.852,947.754,953.125,131.348,-1000.0
1742201280.855,864.746,875.488,-45.41,-1000.0
1742201280.859,-608.398,-597.656,-184.082,-1000.0
1742201280.863,-1000.0,-1000.0,-358.887,-1000.0
1742201280.867,-925.781,-925.781,-722.656,-1000.0
1742201280.871,-1000.0,-1000.0,-270.508,-1000.0
1742201280.828,-1000.0,-1000.0,-264.16,-1000.0
1742201280.832,-942.383,-931.641,236.328,-1000.0
1742201280.836,-1000.0,-1000.0,501.953,-1000.0
1742201280.84,-891.113,-749.512,147.949,-1000.0
1742201280.844,580.566,741.699,22.461,-1000.0
1742201280.848,999.512,997.07,43.457,-1000.0
1742201280.852,947.754,953.125,131.348,-1000.0
1742201280.855,864.746,875.488,-45.41,-1000.0
1742201280.859,-608.398,-597.656,-184.082,-1000.0
1742201280.863,-1000.0,-1000.0,-358.887,-1000.0
1742201280.867,-925.781,-925.781,-722.656,-1000.0
1742201280.871,-1000.0,-1000.0,-270.508,-1000.0
1742201280.872,-1000.0,-1000.0,260.254,-1000.0
1742201280.876,-1000.0,-1000.0,15.137,-1000.0
1742201280.88,-929.688,-932.129,-129.883,-940.918
1742201280.884,-1000.0,-1000.0,-141.113,-1000.0
1742201280.888,-697.266,-745.117,219.727,-858.398
1742201280.892,704.102,658.691,882.324,525.879
1742201280.896,999.512,999.512,611.816,999.512
1742201280.899,791.016,789.062,-64.941,763.672
1742201280.903,-580.566,-580.078,-847.656,-606.445
1742201280.907,-1000.0,-1000.0,-493.652,-1000.0
1742201280.911,-925.781,-925.781,464.844,-926.27
1742201280.915,-1000.0,-1000.0,424.805,-1000.0
1742201280.872,-1000.0,-1000.0,260.254,-1000.0
1742201280.876,-1000.0,-1000.0,15.137,-1000.0
1742201280.88,-929.688,-932.129,-129.883,-940.918
1742201280.884,-1000.0,-1000.0,-141.113,-1000.0
1742201280.888,-697.266,-745.117,219.727,-858.398
1742201280.892,704.102,658.691,882.324,525.879
1742201280.896,999.512,999.512,611.816,999.512
1742201280.899,791.016,789.062,-64.941,763.672
1742201280.903,-580.566,-580.078,-847.656,-606.445
1742201280.907,-1000.0,-1000.0,-493.652,-1000.0
1742201280.911,-925.781,-925.781,464.844,-926.27
1742201280.915,-1000.0,-1000.0,424.805,-1000.0
1742201280.917,-1000.0,-1000.0,-10.254,-1000.0
1742201280.921,-928.711,-936.035,-420.898,-929.688
1742201280.925,-1000.0,-1000.0,-362.305,-1000.0
1742201280.929,-570.801,-424.805,245.605,-714.844
1742201280.933,860.84,924.805,614.746,762.207
1742201280.937,999.512,982.91,619.629,999.512
1742201280.941,837.891,882.324,288.574,839.355
1742201280.944,999.512,999.512,82.52,999.512
1742201280.948,629.395,71.777,191.406,400.391
1742201280.952,-840.82,-1000.0,510.742,-937.012
1742201280.956,-1000.0,-979.492,909.668,-1000.0
1742201280.96,-937.988,-979.004,978.027,-955.078
1742201280.962,-1000.0,-1000.0,954.102,-1000.0
1742201280.966,-1000.0,-1000.0,970.703,-1000.0
1742201280.97,-957.031,-943.848,967.285,-967.285
1742201280.974,-1000.0,-1000.0,967.285,-996.582
1742201280.978,-991.699,-901.367,967.285,-1000.0
1742201280.982,387.695,548.34,967.285,260.742
1742201280.986,999.512,999.512,966.797,999.512
1742201280.989,893.555,892.09,966.797,900.391
1742201280.993,976.562,992.676,966.797,971.191
1742201280.997,966.309,929.688,967.285,966.797
1742201281.001,966.309,973.633,967.285,966.797
1742201281.005,966.309,980.469,966.797,966.797
1742201280.962,-1000.0,-1000.0,954.102,-1000.0
1742201280.966,-1000.0,-1000.0,970.703,-1000.0
1742201280.97,-957.031,-943.848,967.285,-967.285
1742201280.974,-1000.0,-1000.0,967.285,-996.582
1742201280.978,-991.699,-901.367,967.285,-1000.0
1742201280.982,387.695,548.34,967.285,260.742
1742201280.986,999.512,999.512,966.797,999.512
1742201280.989,893.555,892.09,966.797,900.391
1742201280.993,976.562,992.676,966.797,971.191
1742201280.997,966.309,929.688,967.285,966.797
1742201281.001,966.309,973.633,967.285,966.797
1742201281.005,966.309,980.469,966.797,966.797
1742201281.007,966.309,-344.238,966.797,966.797
1742201281.011,966.309,-1000.0,966.797,966.797
1742201281.015,966.309,-865.234,966.797,967.285
1742201281.019,966.309,-1000.0,966.797,967.285
1742201281.023,966.309,-750.488,966.797,966.797
1742201281.027,966.309,724.121,967.773,966.797
1742201281.031,966.309,999.512,963.867,966.797
1742201281.034,966.309,894.043,972.656,966.797
1742201281.038,966.309,988.281,956.055,966.797
1742201281.042,982.422,923.828,905.762,966.797
1742201281.046,901.855,985.84,937.5,967.285
1742201281.05,999.512,941.406,946.289,966.797
1742201281.007,966.309,-344.238,966.797,966.797
1742201281.011,966.309,-1000.0,966.797,966.797
1742201281.015,966.309,-865.234,966.797,967.285
1742201281.019,966.309,-1000.0,966.797,967.285
1742201281.023,966.309,-750.488,966.797,966.797
1742201281.027,966.309,724.121,967.773,966.797
1742201281.031,966.309,999.512,963.867,966.797
1742201281.034,966.309,894.043,972.656,966.797
1742201281.038,966.309,988.281,956.055,966.797
1742201281.042,982.422,923.828,905.762,966.797
1742201281.046,901.855,985.84,937.5,967.285
1742201281.05,999.512,941.406,946.289,966.797
1742201281.053,818.359,-373.047,816.895,966.797
1742201281.057,-772.949,-1000.0,824.219,966.797
1742201281.061,-935.059,-559.57,961.914,966.797
1742201281.065,697.754,729.492,975.098,967.285
1742201281.069,999.512,999.512,930.664,966.797
1742201281.073,893.555,856.445,693.848,966.797
1742201281.077,983.398,999.512,534.668,966.797
1742201281.08,977.051,900.391,649.414,966.797
1742201281.084,897.949,-526.367,863.281,966.797
1742201281.088,999.512,-1000.0,978.516,966.797
1742201281.092,474.609,-937.988,526.367,967.285
1742201281.096,-859.375,-943.848,-265.137,967.285
1742201281.053,818.359,-373.047,816.895,966.797
1742201281.057,-772.949,-1000.0,824.219,966.797
1742201281.061,-935.059,-559.57,961.914,966.797
1742201281.065,697.754,729.492,975.098,967.285
1742201281.069,999.512,999.512,930.664,966.797
1742201281.073,893.555,856.445,693.848,966.797
1742201281.077,983.398,999.512,534.668,966.797
1742201281.08,977.051,900.391,649.414,966.797
1742201281.084,897.949,-526.367,863.281,966.797
1742201281.088,999.512,-1000.0,978.516,966.797
1742201281.092,474.609,-937.988,526.367,967.285
1742201281.096,-859.375,-943.848,-265.137,967.285
1742201281.112,-1000.0,-1000.0,-94.238,967.285
1742201281.116,-256.348,-507.324,856.934,967.285
1742201281.12,955.078,896.484,890.137,966.797
1742201281.124,972.168,999.512,28.32,966.797
1742201281.128,947.754,926.27,-311.523,984.375
1742201281.132,903.809,914.062,17.578,902.832
1742201281.136,999.512,999.512,550.293,999.512
1742201281.139,648.438,454.59,296.875,784.18
1742201281.143,-823.242,-926.758,-389.16,-686.523
1742201281.147,-1000.0,-1000.0,-431.152,-1000.0
1742201281.151,-936.523,-951.172,-570.801,-928.711
1742201281.155,-1000.0,-1000.0,-244.629,-1000.0
1742201281.112,-1000.0,-1000.0,-94.238,967.285
1742201281.116,-256.348,-507.324,856.934,967.285
1742201281.12,955.078,896.484,890.137,966.797
1742201281.124,972.168,999.512,28.32,966.797
1742201281.128,947.754,926.27,-311.523,984.375
1742201281.132,903.809,914.062,17.578,902.832
1742201281.136,999.512,999.512,550.293,999.512
1742201281.139,648.438,454.59,296.875,784.18
1742201281.143,-823.242,-926.758,-389.16,-686.523
1742201281.147,-1000.0,-1000.0,-431.152,-1000.0
1742201281.151,-936.523,-951.172,-570.801,-928.711
1742201281.155,-1000.0,-1000.0,-244.629,-1000.0
1742201281.157,-1000.0,-1000.0,63.477,-1000.0
1742201281.161,-1000.0,-1000.0,-124.512,-1000.0
1742201281.165,-984.863,-948.242,-184.57,-1000.0
1742201281.169,-965.82,-1000.0,-217.773,-931.641
1742201281.173,-1000.0,-917.48,-130.371,-1000.0
1742201281.177,-76.172,421.387,368.164,-500.977
1742201281.181,999.512,999.512,347.168,999.512
1742201281.184,479.004,582.031,-359.375,197.754
1742201281.188,-924.805,-803.223,-978.027,-1000.0
1742201281.192,-1000.0,-1000.0,-866.699,-978.516
1742201281.196,-946.289,-936.035,-387.695,-972.656
1742201281.2,-1000.0,-1000.0,-401.855,-1000.0
1742201281.157,-1000.0,-1000.0,63.477,-1000.0
1742201281.161,-1000.0,-1000.0,-124.512,-1000.0
1742201281.165,-984.863,-948.242,-184.57,-1000.0
1742201281.169,-965.82,-1000.0,-217.773,-931.641
1742201281.173,-1000.0,-917.48,-130.371,-1000.0
1742201281.177,-76.172,421.387,368.164,-500.977
1742201281.181,999.512,999.512,347.168,999.512
1742201281.184,479.004,582.031,-359.375,197.754
1742201281.188,-924.805,-803.223,-978.027,-1000.0
1742201281.192,-1000.0,-1000.0,-866.699,-978.516
1742201281.196,-946.289,-936.035,-387.695,-972.656
1742201281.2,-1000.0,-1000.0,-401.855,-1000.0
1742201281.202,-996.094,-994.629,-713.867,-1000.0
1742201281.206,-949.219,-951.66,-1000.0,-928.711
1742201281.21,-1000.0,-1000.0,-739.258,-1000.0
1742201281.214,-179.199,-156.738,220.215,-623.535
1742201281.218,939.941,954.59,424.316,770.996
1742201281.222,999.512,999.512,0.977,999.512
1742201281.226,708.984,821.289,-297.363,224.609
1742201281.229,-733.887,-604.98,-520.02,-964.355
1742201281.233,-1000.0,-1000.0,191.895,-1000.0
1742201281.237,-944.824,-937.012,794.922,-971.191
1742201281.241,-969.238,-976.562,369.141,-981.445
1742201281.245,-1000.0,-1000.0,89.355,-989.258
1742201281.202,-996.094,-994.629,-713.867,-1000.0
1742201281.206,-949.219,-951.66,-1000.0,-928.711
1742201281.21,-1000.0,-1000.0,-739.258,-1000.0
1742201281.214,-179.199,-156.738,220.215,-623.535
1742201281.218,939.941,954.59,424.316,770.996
1742201281.222,999.512,999.512,0.977,999.512
1742201281.226,708.984,821.289,-297.363,224.609
1742201281.229,-733.887,-604.98,-520.02,-964.355
1742201281.233,-1000.0,-1000.0,191.895,-1000.0
1742201281.237,-944.824,-937.012,794.922,-971.191
1742201281.241,-969.238,-976.562,369.141,-981.445
1742201281.245,-1000.0,-1000.0,89.355,-989.258
1742201281.247,-955.078,-1000.0,500.0,-1000.0
1742201281.251,446.289,342.773,945.312,177.734
1742201281.255,999.512,999.512,433.105,999.512
1742201281.259,999.512,999.512,-137.207,950.195
1742201281.263,143.555,214.355,-312.012,-228.516
1742201281.267,-1000.0,-1000.0,-176.758,-1000.0
1742201281.271,-983.398,-995.117,240.723,-943.359
1742201281.274,-976.074,-970.703,53.223,-999.512
1742201281.278,-1000.0,-1000.0,-38.574,-1000.0
1742201281.282,-927.734,-933.594,-247.07,-928.223
1742201281.286,-1000.0,-1000.0,-420.41,-1000.0
1742201281.29,-531.738,-416.992,310.059,-653.32
1742201281.247,-955.078,-1000.0,500.0,-1000.0
1742201281.251,446.289,342.773,945.312,177.734
1742201281.255,999.512,999.512,433.105,999.512
1742201281.259,999.512,999.512,-137.207,950.195
1742201281.263,143.555,214.355,-312.012,-228.516
1742201281.267,-1000.0,-1000.0,-176.758,-1000.0
1742201281.271,-983.398,-995.117,240.723,-943.359
1742201281.274,-976.074,-970.703,53.223,-999.512
1742201281.278,-1000.0,-1000.0,-38.574,-1000.0
1742201281.282,-927.734,-933.594,-247.07,-928.223
1742201281.286,-1000.0,-1000.0,-420.41,-1000.0
1742201281.29,-531.738,-416.992,310.059,-653.32
1742201281.292,821.289,868.164,581.543,736.816
1742201281.296,999.512,999.512,-191.406,999.512
1742201281.3,803.223,812.988,-443.848,727.539
1742201281.304,-582.52,-584.961,-394.043,-649.902
1742201281.308,-1000.0,-1000.0,-58.594,-1000.0
1742201281.312,-925.781,-925.781,431.152,-929.199
1742201281.316,-1000.0,-1000.0,-195.801,-1000.0
1742201281.319,-1000.0,-1000.0,-956.055,-1000.0
1742201281.323,-1000.0,-1000.0,-995.117,-1000.0
1742201281.327,-1000.0,-1000.0,-835.938,-1000.0
1742201281.331,-1000.0,-1000.0,-949.219,-1000.0
1742201281.335,-942.383,-939.941,-1000.0,-949.219
1742201281.292,821.289,868.164,581.543,736.816
1742201281.296,999.512,999.512,-191.406,999.512
1742201281.3,803.223,812.988,-443.848,727.539
1742201281.304,-582.52,-584.961,-394.043,-649.902
1742201281.308,-1000.0,-1000.0,-58.594,-1000.0
1742201281.312,-925.781,-925.781,431.152,-929.199
1742201281.316,-1000.0,-1000.0,-195.801,-1000.0
1742201281.319,-1000.0,-1000.0,-956.055,-1000.0
1742201281.323,-1000.0,-1000.0,-995.117,-1000.0
1742201281.327,-1000.0,-1000.0,-835.938,-1000.0
1742201281.331,-1000.0,-1000.0,-949.219,-1000.0
1742201281.335,-942.383,-939.941,-1000.0,-949.219
1742201281.338,-1000.0,-1000.0,-994.629,-1000.0
1742201281.342,-891.113,-862.793,-1000.0,-940.918
1742201281.346,563.965,598.633,-442.383,481.445
1742201281.35,999.512,999.512,-323.242,999.512
1742201281.354,874.512,873.535,-784.18,858.887
1742201281.358,949.707,955.566,-509.766,980.469
1742201281.362,999.512,999.512,-328.613,994.629
1742201281.365,-64.941,-105.957,-811.035,-295.898
1742201281.369,-1000.0,-1000.0,-844.238,-1000.0
1742201281.373,-956.543,-952.148,-595.215,-937.5
1742201281.377,-1000.0,-1000.0,-479.004,-1000.0
1742201281.381,-930.176,-930.664,-427.246,-930.664
1742201281.397,-1000.0,-1000.0,-494.141,-1000.0
1742201281.401,-640.625,-692.383,6.348,-661.133
1742201281.405,821.777,782.227,434.57,794.434
1742201281.409,999.512,999.512,-233.398,999.512
1742201281.413,917.969,913.086,-581.055,914.551
1742201281.417,918.945,918.945,5.371,919.922
1742201281.421,999.512,999.512,401.367,999.512
1742201281.424,597.656,518.066,-200.684,504.883
1742201281.428,-814.941,-875.488,-577.637,-873.535
1742201281.432,-1000.0,-1000.0,-36.621,-1000.0
1742201281.436,-940.918,-946.777,194.824,-947.754
1742201281.44,-1000.0,-1000.0,331.543,-1000.0
1742201281.397,-1000.0,-1000.0,-494.141,-1000.0
1742201281.401,-640.625,-692.383,6.348,-661.133
1742201281.405,821.777,782.227,434.57,794.434
1742201281.409,999.512,999.512,-233.398,999.512
1742201281.413,917.969,913.086,-581.055,914.551
1742201281.417,918.945,918.945,5.371,919.922
1742201281.421,999.512,999.512,401.367,999.512
1742201281.424,597.656,518.066,-200.684,504.883
1742201281.428,-814.941,-875.488,-577.637,-873.535
1742201281.432,-1000.0,-1000.0,-36.621,-1000.0
1742201281.436,-940.918,-946.777,194.824,-947.754
1742201281.44,-1000.0,-1000.0,331.543,-1000.0
1742201281.427,-1000.0,-1000.0,363.77,-1000.0
1742201281.431,-1000.0,-1000.0,375.0,-1000.0
1742201281.435,-955.078,-946.289,394.043,-962.402
1742201281.439,-1000.0,-1000.0,584.961,-1000.0
1742201281.443,-964.844,-905.273,663.086,-1000.0
1742201281.447,353.516,458.984,532.227,258.789
1742201281.451,999.512,999.512,-254.883,999.512
1742201281.454,783.691,783.203,-984.375,772.461
1742201281.458,-586.426,-583.008,-999.023,-609.375
1742201281.462,-1000.0,-1000.0,-813.965,-1000.0
1742201281.466,-937.012,-942.383,-769.531,-941.406
1742201281.47,-946.289,-942.871,-785.156,-944.824
1742201281.427,-1000.0,-1000.0,363.77,-1000.0
1742201281.431,-1000.0,-1000.0,375.0,-1000.0
1742201281.435,-955.078,-946.289,394.043,-962.402
1742201281.439,-1000.0,-1000.0,584.961,-1000.0
1742201281.443,-964.844,-905.273,663.086,-1000.0
1742201281.447,353.516,458.984,532.227,258.789
1742201281.451,999.512,999.512,-254.883,999.512
1742201281.454,783.691,783.203,-984.375,772.461
1742201281.458,-586.426,-583.008,-999.023,-609.375
1742201281.462,-1000.0,-1000.0,-813.965,-1000.0
1742201281.466,-937.012,-942.383,-769.531,-941.406
1742201281.47,-946.289,-942.871,-785.156,-944.824
1742201281.487,-1000.0,-1000.0,-332.031,-1000.0
1742201281.491,-496.094,-650.391,481.934,-610.352
1742201281.495,901.855,818.359,961.426,838.867
1742201281.499,999.512,999.512,928.711,999.512
1742201281.503,863.281,838.867,527.344,873.047
1742201281.507,999.512,999.512,-168.457,999.512
1742201281.511,179.199,390.137,-844.238,18.066
1742201281.514,-1000.0,-964.844,-1000.0,-1000.0
1742201281.518,-990.723,-1000.0,-563.965,-972.656
1742201281.522,-988.77,-972.656,66.895,-999.512
1742201281.526,-950.195,-955.078,38.574,-947.266
1742201281.53,-1000.0,-1000.0,62.012,-1000.0
1742201281.547,-891.113,-891.113,227.051,-883.301
1742201281.551,563.965,564.453,612.793,574.219
1742201281.555,999.512,999.512,782.715,999.512
1742201281.559,891.602,893.555,461.426,892.578
1742201281.563,998.535,988.77,594.727,999.512
1742201281.567,908.691,904.785,916.504,907.227
1742201281.571,999.512,999.512,999.512,999.512
1742201281.574,856.934,362.305,860.352,837.891
1742201281.578,-597.656,-964.355,274.414,-622.559
1742201281.582,-1000.0,-1000.0,401.367,-1000.0
1742201281.586,-925.781,-958.008,897.949,-926.27
1742201281.59,-1000.0,-1000.0,997.559,-1000.0
1742201281.577,-1000.0,-1000.0,789.551,-1000.0
1742201281.581,-995.605,-1000.0,278.32,-987.305
1742201281.585,-949.219,-937.988,324.219,-965.332
1742201281.589,-1000.0,-1000.0,633.301,-1000.0
1742201281.593,-182.617,-341.797,707.031,-63.477
1742201281.597,999.512,963.867,755.859,999.512
1742201281.601,952.148,977.539,258.301,941.895
1742201281.604,940.43,929.199,26.855,948.242
1742201281.608,989.258,993.652,298.34,988.281
1742201281.612,909.668,909.18,511.23,912.109
1742201281.616,999.512,999.512,398.438,999.512
1742201281.62,865.723,857.422,412.109,883.789
1742201281.623,-583.984,-597.656,125.488,-557.129
1742201281.627,-1000.0,-1000.0,-162.109,-1000.0
1742201281.631,-934.082,-942.383,364.258,-934.57
1742201281.635,-984.375,-956.055,255.371,-982.422
1742201281.639,-992.676,-1000.0,-615.723,-996.582
1742201281.643,-1000.0,-863.281,-478.516,-1000.0
1742201281.647,239.258,597.168,205.078,249.512
1742201281.65,999.512,999.512,519.043,999.512
1742201281.654,908.691,907.715,337.402,909.18
1742201281.658,937.988,933.594,43.457,944.824
1742201281.662,959.473,999.512,-360.84,948.242
1742201281.666,999.512,915.039,-423.828,999.512
1742201281.623,-583.984,-597.656,125.488,-557.129
1742201281.627,-1000.0,-1000.0,-162.109,-1000.0
1742201281.631,-934.082,-942.383,364.258,-934.57
1742201281.635,-984.375,-956.055,255.371,-982.422
1742201281.639,-992.676,-1000.0,-615.723,-996.582
1742201281.643,-1000.0,-863.281,-478.516,-1000.0
1742201281.647,239.258,597.168,205.078,249.512
1742201281.65,999.512,999.512,519.043,999.512
1742201281.654,908.691,907.715,337.402,909.18
1742201281.658,937.988,933.594,43.457,944.824
1742201281.662,959.473,999.512,-360.84,948.242
1742201281.666,999.512,915.039,-423.828,999.512
1742201281.668,-278.32,-501.465,-305.664,-226.074
1742201281.672,-1000.0,-1000.0,-436.035,-1000.0
1742201281.676,-938.965,-877.93,-645.508,-942.871
1742201281.68,-940.918,-1000.0,-923.828,-943.848
1742201281.684,-1000.0,-958.008,-1000.0,-1000.0
1742201281.688,-360.84,449.219,-639.16,-297.363
1742201281.692,956.543,999.512,-465.82,968.75
1742201281.695,979.492,893.555,-929.199,972.656
1742201281.699,932.617,994.629,-1000.0,937.988
1742201281.703,956.055,914.551,-893.066,955.566
1742201281.707,940.43,999.512,-262.695,941.895
1742201281.711,999.512,895.508,527.832,999.512
1742201281.712,-125.977,-536.621,-55.664,-115.234
1742201281.716,-1000.0,-1000.0,-583.496,-1000.0
1742201281.72,-965.82,-942.871,-63.965,-968.262
1742201281.724,-936.523,-947.754,288.086,-937.988
1742201281.728,-1000.0,-1000.0,312.988,-1000.0
1742201281.732,-921.387,-793.457,267.578,-952.148
1742201281.736,553.223,674.805,425.293,545.41
1742201281.739,999.512,999.512,-132.324,999.512
1742201281.743,-330.078,-202.637,-983.887,-460.938
1742201281.747,-1000.0,-1000.0,-879.883,-1000.0
1742201281.751,-935.547,-948.73,-424.805,-930.664
1742201281.755,-1000.0,-1000.0,-687.988,-1000.0
1742201281.712,-125.977,-536.621,-55.664,-115.234
1742201281.716,-1000.0,-1000.0,-583.496,-1000.0
1742201281.72,-965.82,-942.871,-63.965,-968.262
1742201281.724,-936.523,-947.754,288.086,-937.988
1742201281.728,-1000.0,-1000.0,312.988,-1000.0
1742201281.732,-921.387,-793.457,267.578,-952.148
1742201281.736,553.223,674.805,425.293,545.41
1742201281.739,999.512,999.512,-132.324,999.512
1742201281.743,-330.078,-202.637,-983.887,-460.938
1742201281.747,-1000.0,-1000.0,-879.883,-1000.0
1742201281.751,-935.547,-948.73,-424.805,-930.664
1742201281.755,-1000.0,-1000.0,-687.988,-1000.0
1742201281.757,-940.43,-934.57,-996.094,-942.383
1742201281.761,-1000.0,-1000.0,-502.93,-1000.0
1742201281.765,-921.387,-646.973,-39.062,-949.707
1742201281.769,652.344,871.094,-203.613,627.93
1742201281.773,970.215,942.871,-773.438,947.266
1742201281.777,-671.387,-611.328,-1000.0,-707.031
1742201281.781,-1000.0,-1000.0,-874.023,-1000.0
1742201281.784,-925.781,-925.781,-770.996,-926.758
1742201281.788,-1000.0,-1000.0,-984.375,-1000.0
1742201281.792,-1000.0,-1000.0,-1000.0,-1000.0
1742201281.796,-1000.0,-1000.0,-991.211,-1000.0
1742201281.8,-1000.0,-1000.0,-1000.0,-1000.0
1742201281.757,-940.43,-934.57,-996.094,-942.383
1742201281.761,-1000.0,-1000.0,-502.93,-1000.0
1742201281.765,-921.387,-646.973,-39.062,-949.707
1742201281.769,652.344,871.094,-203.613,627.93
1742201281.773,970.215,942.871,-773.438,947.266
1742201281.777,-671.387,-611.328,-1000.0,-707.031
1742201281.781,-1000.0,-1000.0,-874.023,-1000.0
1742201281.784,-925.781,-925.781,-770.996,-926.758
1742201281.788,-1000.0,-1000.0,-984.375,-1000.0
1742201281.792,-1000.0,-1000.0,-1000.0,-1000.0
1742201281.796,-1000.0,-1000.0,-991.211,-1000.0
1742201281.8,-1000.0,-1000.0,-1000.0,-1000.0
1742201281.802,-1000.0,-1000.0,-949.219,-1000.0
1742201281.806,-1000.0,-1000.0,-975.586,-1000.0
1742201281.81,-942.383,-942.383,-995.605,-951.172
1742201281.814,-1000.0,-1000.0,-767.09,-1000.0
1742201281.818,-880.859,-880.371,-536.621,-939.941
1742201281.822,526.855,526.855,225.586,408.691
1742201281.826,999.512,999.512,661.621,999.512
1742201281.829,919.434,913.574,-108.398,844.238
1742201281.833,-325.684,-340.332,-918.457,-481.445
1742201281.837,-1000.0,-1000.0,-775.879,-1000.0
1742201281.841,-930.664,-930.176,-54.199,-926.758
1742201281.845,-1000.0,-1000.0,263.672,-1000.0
1742201281.802,-1000.0,-1000.0,-949.219,-1000.0
1742201281.806,-1000.0,-1000.0,-975.586,-1000.0
1742201281.81,-942.383,-942.383,-995.605,-951.172
1742201281.814,-1000.0,-1000.0,-767.09,-1000.0
1742201281.818,-880.859,-880.371,-536.621,-939.941
1742201281.822,526.855,526.855,225.586,408.691
1742201281.826,999.512,999.512,661.621,999.512
1742201281.829,919.434,913.574,-108.398,844.238
1742201281.833,-325.684,-340.332,-918.457,-481.445
1742201281.837,-1000.0,-1000.0,-775.879,-1000.0
1742201281.841,-930.664,-930.176,-54.199,-926.758
1742201281.845,-1000.0,-1000.0,263.672,-1000.0
1742201282.327,-955.078,-1000.0,-1000.0,-1000.0
1742201282.331,-1000.0,-975.098,-1000.0,-1000.0
1742201282.335,-133.789,414.551,-1000.0,-1000.0
1742201282.339,999.512,999.512,-1000.0,-1000.0
1742201282.343,962.402,911.133,-997.07,-1000.0
1742201282.347,889.648,920.41,-1000.0,-1000.0
1742201282.351,999.512,999.512,-985.84,-1000.0
1742201282.354,884.766,857.91,-951.66,-1000.0
1742201282.358,-555.176,-597.656,-990.723,-1000.0
1742201282.362,-1000.0,-1000.0,-1000.0,-1000.0
1742201282.366,-889.648,-895.508,-998.047,-969.727
1742201282.37,-1000.0,-1000.0,-1000.0,-992.188
1742201281.848,-1000.0,-1000.0,141.113,-1000.0
1742201281.852,-941.895,-941.895,-512.695,-942.383
1742201281.856,-1000.0,-1000.0,-638.184,-1000.0
1742201281.86,-885.254,-882.812,-114.746,-891.113
1742201281.864,571.289,575.195,399.414,564.453
1742201281.868,999.512,999.512,588.379,999.512
1742201281.872,891.602,892.578,144.043,892.578
1742201281.875,981.934,982.91,-170.898,982.91
1742201281.879,966.309,982.422,550.293,966.797
1742201281.883,966.309,911.621,899.414,967.285
1742201281.887,966.309,999.512,543.945,967.285
1742201281.891,966.309,903.32,493.652,966.797
1742201281.848,-1000.0,-1000.0,141.113,-1000.0
1742201281.852,-941.895,-941.895,-512.695,-942.383
1742201281.856,-1000.0,-1000.0,-638.184,-1000.0
1742201281.86,-885.254,-882.812,-114.746,-891.113
1742201281.864,571.289,575.195,399.414,564.453
1742201281.868,999.512,999.512,588.379,999.512
1742201281.872,891.602,892.578,144.043,892.578
1742201281.875,981.934,982.91,-170.898,982.91
1742201281.879,966.309,982.422,550.293,966.797
1742201281.883,966.309,911.621,899.414,967.285
1742201281.887,966.309,999.512,543.945,967.285
1742201281.891,966.309,903.32,493.652,966.797
1742201281.909,966.309,-553.223,279.785,967.285
1742201281.913,966.309,-1000.0,484.863,967.285
1742201281.917,966.309,245.117,753.906,967.285
1742201281.921,966.309,999.512,315.918,966.797
1742201281.925,966.309,909.18,-132.324,966.797
1742201281.929,966.309,965.82,208.008,966.797
1742201281.933,966.309,968.262,717.773,966.797
1742201281.936,966.309,966.797,958.008,966.797
1742201281.94,966.309,966.797,962.402,966.797
1742201281.944,966.309,966.797,961.914,966.797
1742201281.948,966.309,966.797,968.75,966.797
1742201281.952,966.309,966.797,966.797,966.797
1742201281.909,966.309,-553.223,279.785,967.285
1742201281.913,966.309,-1000.0,484.863,967.285
1742201281.917,966.309,245.117,753.906,967.285
1742201281.921,966.309,999.512,315.918,966.797
1742201281.925,966.309,909.18,-132.324,966.797
1742201281.929,966.309,965.82,208.008,966.797
1742201281.933,966.309,968.262,717.773,966.797
1742201281.936,966.309,966.797,958.008,966.797
1742201281.94,966.309,966.797,962.402,966.797
1742201281.944,966.309,966.797,961.914,966.797
1742201281.948,966.309,966.797,968.75,966.797
1742201281.952,966.309,966.797,966.797,966.797
1742201281.952,966.309,966.797,966.797,966.797
1742201281.956,966.309,966.797,967.285,966.797
1742201281.96,966.309,967.285,967.285,966.797
1742201281.964,966.309,966.797,972.168,966.797
1742201281.968,982.91,983.887,945.801,967.285
1742201281.972,907.227,903.32,970.703,966.797
1742201281.976,999.512,999.512,858.398,966.797
1742201281.979,844.238,785.156,-38.086,971.191
1742201281.983,-614.746,-684.57,-904.297,954.59
1742201281.987,-1000.0,-1000.0,-894.531,930.176
1742201281.991,-926.27,-928.711,-828.613,999.512
1742201281.995,-1000.0,-1000.0,-937.012,30.273
1742201281.952,966.309,966.797,966.797,966.797
1742201281.956,966.309,966.797,967.285,966.797
1742201281.96,966.309,967.285,967.285,966.797
1742201281.964,966.309,966.797,972.168,966.797
1742201281.968,982.91,983.887,945.801,967.285
1742201281.972,907.227,903.32,970.703,966.797
1742201281.976,999.512,999.512,858.398,966.797
1742201281.979,844.238,785.156,-38.086,971.191
1742201281.983,-614.746,-684.57,-904.297,954.59
1742201281.987,-1000.0,-1000.0,-894.531,930.176
1742201281.991,-926.27,-928.711,-828.613,999.512
1742201281.995,-1000.0,-1000.0,-937.012,30.273
1742201281.997,-1000.0,-1000.0,-1000.0,-1000.0
1742201282.001,-1000.0,-1000.0,-998.047,-973.633
1742201282.005,-1000.0,-1000.0,-999.512,-982.422
1742201282.009,-1000.0,-1000.0,-1000.0,-1000.0
1742201282.013,-1000.0,-1000.0,-1000.0,-1000.0
1742201282.017,-1000.0,-1000.0,-1000.0,-1000.0
1742201282.021,-1000.0,-1000.0,-1000.0,-1000.0
1742201282.024,-1000.0,-1000.0,-1000.0,-1000.0
1742201282.028,-1000.0,-1000.0,-993.164,-1000.0
1742201282.032,-1000.0,-1000.0,-1000.0,-1000.0
1742201282.036,-1000.0,-1000.0,-970.215,-1000.0
1742201282.04,-1000.0,-1000.0,-739.746,-1000.0
1742201281.997,-1000.0,-1000.0,-1000.0,-1000.0
1742201282.001,-1000.0,-1000.0,-998.047,-973.633
1742201282.005,-1000.0,-1000.0,-999.512,-982.422
1742201282.009,-1000.0,-1000.0,-1000.0,-1000.0
1742201282.013,-1000.0,-1000.0,-1000.0,-1000.0
1742201282.017,-1000.0,-1000.0,-1000.0,-1000.0
1742201282.021,-1000.0,-1000.0,-1000.0,-1000.0
1742201282.024,-1000.0,-1000.0,-1000.0,-1000.0
1742201282.028,-1000.0,-1000.0,-993.164,-1000.0
1742201282.032,-1000.0,-1000.0,-1000.0,-1000.0
1742201282.036,-1000.0,-1000.0,-970.215,-1000.0
1742201282.04,-1000.0,-1000.0,-739.746,-1000.0
1742201282.042,-1000.0,-931.641,-264.16,-1000.0
1742201282.046,-1000.0,-1000.0,527.344,-1000.0
1742201282.05,-1000.0,-594.238,935.547,-1000.0
1742201282.054,-929.688,832.031,864.746,-1000.0
1742201282.058,-1000.0,999.512,242.676,-988.281
1742201282.062,-693.359,910.156,328.613,-962.891
1742201282.066,791.504,998.535,967.285,-1000.0
1742201282.069,983.887,909.18,940.43,-143.066
1742201282.073,955.566,999.512,364.746,999.512
1742201282.077,874.512,857.91,-114.258,676.758
1742201282.081,-597.656,-597.656,-304.688,-761.719
1742201282.085,-1000.0,-1000.0,86.914,-1000.0
1742201282.042,-1000.0,-931.641,-264.16,-1000.0
1742201282.046,-1000.0,-1000.0,527.344,-1000.0
1742201282.05,-1000.0,-594.238,935.547,-1000.0
1742201282.054,-929.688,832.031,864.746,-1000.0
1742201282.058,-1000.0,999.512,242.676,-988.281
1742201282.062,-693.359,910.156,328.613,-962.891
1742201282.066,791.504,998.535,967.285,-1000.0
1742201282.069,983.887,909.18,940.43,-143.066
1742201282.073,955.566,999.512,364.746,999.512
1742201282.077,874.512,857.91,-114.258,676.758
1742201282.081,-597.656,-597.656,-304.688,-761.719
1742201282.085,-1000.0,-1000.0,86.914,-1000.0
1742201282.087,-925.781,-925.781,715.332,-934.57
1742201282.091,-1000.0,-1000.0,548.828,-1000.0
1742201282.095,-962.402,-956.543,-147.949,-965.332
1742201282.099,-1000.0,-1000.0,-726.074,-1000.0
1742201282.103,-1000.0,-988.281,-776.367,-1000.0
1742201282.107,317.871,392.09,-121.094,281.738
1742201282.111,999.512,999.512,-60.547,999.512
1742201282.114,895.996,894.531,-731.934,898.926
1742201282.118,988.281,993.164,-295.41,986.816
1742201282.122,915.527,910.645,582.031,916.992
1742201282.126,999.512,999.512,999.512,999.512
1742201282.13,910.156,867.188,553.223,914.062
1742201282.087,-925.781,-925.781,715.332,-934.57
1742201282.091,-1000.0,-1000.0,548.828,-1000.0
1742201282.095,-962.402,-956.543,-147.949,-965.332
1742201282.099,-1000.0,-1000.0,-726.074,-1000.0
1742201282.103,-1000.0,-988.281,-776.367,-1000.0
1742201282.107,317.871,392.09,-121.094,281.738
1742201282.111,999.512,999.512,-60.547,999.512
1742201282.114,895.996,894.531,-731.934,898.926
1742201282.118,988.281,993.164,-295.41,986.816
1742201282.122,915.527,910.645,582.031,916.992
1742201282.126,999.512,999.512,999.512,999.512
1742201282.13,910.156,867.188,553.223,914.062
1742201282.132,-513.184,-583.008,-659.18,-504.395
1742201282.136,-1000.0,-1000.0,-1000.0,-1000.0
1742201282.14,-933.594,-911.621,-711.426,-937.012
1742201282.144,-947.266,-979.98,179.199,-944.336
1742201282.148,-1000.0,-1000.0,532.715,-1000.0
1742201282.152,-423.828,-30.762,541.992,-496.094
1742201282.156,931.152,999.512,507.324,897.949
1742201282.159,990.234,934.082,46.875,999.512
1742201282.163,922.363,963.379,483.887,916.992
1742201282.167,978.516,929.688,999.512,980.957
1742201282.171,966.309,969.238,540.039,966.797
1742201282.175,966.309,999.512,332.52,966.797
1742201282.132,-513.184,-583.008,-659.18,-504.395
1742201282.136,-1000.0,-1000.0,-1000.0,-1000.0
1742201282.14,-933.594,-911.621,-711.426,-937.012
1742201282.144,-947.266,-979.98,179.199,-944.336
1742201282.148,-1000.0,-1000.0,532.715,-1000.0
1742201282.152,-423.828,-30.762,541.992,-496.094
1742201282.156,931.152,999.512,507.324,897.949
1742201282.159,990.234,934.082,46.875,999.512
1742201282.163,922.363,963.379,483.887,916.992
1742201282.167,978.516,929.688,999.512,980.957
1742201282.171,966.309,969.238,540.039,966.797
1742201282.175,966.309,999.512,332.52,966.797
1742201282.177,966.309,-437.5,565.918,966.797
1742201282.181,966.309,-1000.0,615.723,966.797
1742201282.185,966.309,543.457,758.301,966.797
1742201282.189,966.309,999.512,396.484,967.285
1742201282.193,966.309,893.066,-177.246,967.285
1742201282.197,966.309,979.98,226.562,966.797
1742201282.201,966.309,966.797,570.312,966.797
1742201282.204,966.309,966.797,291.504,966.797
1742201282.208,966.309,967.285,188.965,967.285
1742201282.212,966.309,966.797,613.281,966.797
1742201282.216,966.309,966.797,850.098,966.797
1742201282.22,966.309,966.797,916.504,967.285
1742201282.177,966.309,-437.5,565.918,966.797
1742201282.181,966.309,-1000.0,615.723,966.797
1742201282.185,966.309,543.457,758.301,966.797
1742201282.189,966.309,999.512,396.484,967.285
1742201282.193,966.309,893.066,-177.246,967.285
1742201282.197,966.309,979.98,226.562,966.797
1742201282.201,966.309,966.797,570.312,966.797
1742201282.204,966.309,966.797,291.504,966.797
1742201282.208,966.309,967.285,188.965,967.285
1742201282.212,966.309,966.797,613.281,966.797
1742201282.216,966.309,966.797,850.098,966.797
1742201282.22,966.309,966.797,916.504,967.285
1742201282.237,970.215,980.957,977.051,966.797
1742201282.241,952.148,916.504,953.125,966.797
1742201282.245,930.664,999.512,977.051,966.797
1742201282.249,999.512,912.109,886.23,967.285
1742201282.253,-10.742,-506.348,527.832,982.422
1742201282.257,-1000.0,-1000.0,458.496,898.438
1742201282.261,-965.332,-926.27,449.219,999.512
1742201282.264,-985.84,-1000.0,-122.07,630.859
1742201282.268,-1000.0,-1000.0,-715.82,-816.406
1742201282.272,-1000.0,-1000.0,-571.289,-1000.0
1742201282.276,-1000.0,-1000.0,-325.195,-938.477
1742201282.28,-1000.0,-1000.0,-559.082,-1000.0
1742201282.237,970.215,980.957,977.051,966.797
1742201282.241,952.148,916.504,953.125,966.797
1742201282.245,930.664,999.512,977.051,966.797
1742201282.249,999.512,912.109,886.23,967.285
1742201282.253,-10.742,-506.348,527.832,982.422
1742201282.257,-1000.0,-1000.0,458.496,898.438
1742201282.261,-965.332,-926.27,449.219,999.512
1742201282.264,-985.84,-1000.0,-122.07,630.859
1742201282.268,-1000.0,-1000.0,-715.82,-816.406
1742201282.272,-1000.0,-1000.0,-571.289,-1000.0
1742201282.276,-1000.0,-1000.0,-325.195,-938.477
1742201282.28,-1000.0,-1000.0,-559.082,-1000.0
1742201282.282,-1000.0,-1000.0,-958.496,-1000.0
1742201282.286,-1000.0,-1000.0,-842.285,-1000.0
1742201282.29,-1000.0,-1000.0,-542.969,-1000.0
1742201282.294,-1000.0,-938.477,-189.941,-1000.0
1742201282.298,-1000.0,-1000.0,-397.461,-1000.0
1742201282.302,-1000.0,-384.766,-825.195,-1000.0
1742201282.306,-1000.0,869.141,-770.996,-1000.0
1742201282.309,-1000.0,999.512,-861.816,-1000.0
1742201282.313,-1000.0,812.5,-992.188,-1000.0
1742201282.317,-1000.0,-589.355,-999.023,-1000.0
1742201282.321,-1000.0,-1000.0,-998.047,-1000.0
1742201282.325,-992.676,-879.883,-1000.0,-1000.0
1742201282.372,-1000.0,-1000.0,-1000.0,-1000.0
1742201282.376,293.457,221.191,-1000.0,218.75
1742201282.38,999.512,999.512,-987.305,999.512
1742201282.384,897.461,902.344,-1000.0,905.762
1742201282.388,972.168,983.398,-989.746,968.262
1742201282.392,966.309,918.457,-650.391,967.773
1742201282.396,966.309,983.887,-700.195,966.797
1742201282.399,966.309,974.609,-1000.0,966.797
1742201282.403,966.309,-522.461,-976.074,966.797
1742201282.407,966.309,-1000.0,-255.371,967.285
1742201282.411,966.309,554.688,595.703,966.797
1742201282.415,966.309,999.512,914.062,966.797
1742201282.372,-1000.0,-1000.0,-1000.0,-1000.0
1742201282.376,293.457,221.191,-1000.0,218.75
1742201282.38,999.512,999.512,-987.305,999.512
1742201282.384,897.461,902.344,-1000.0,905.762
1742201282.388,972.168,983.398,-989.746,968.262
1742201282.392,966.309,918.457,-650.391,967.773
1742201282.396,966.309,983.887,-700.195,966.797
1742201282.399,966.309,974.609,-1000.0,966.797
1742201282.403,966.309,-522.461,-976.074,966.797
1742201282.407,966.309,-1000.0,-255.371,967.285
1742201282.411,966.309,554.688,595.703,966.797
1742201282.415,966.309,999.512,914.062,966.797
1742201282.417,966.309,893.066,927.734,967.285
1742201282.421,966.309,980.469,942.383,966.797
1742201282.425,966.309,966.797,965.332,966.797
1742201282.429,966.309,967.285,969.238,966.797
1742201282.433,966.309,973.633,962.402,966.797
1742201282.437,966.309,946.289,675.781,966.797
1742201282.441,966.309,946.289,598.633,966.797
1742201282.444,966.309,999.512,821.777,966.797
1742201282.448,966.309,-81.055,977.051,966.797
1742201282.452,966.309,-1000.0,930.176,966.797
1742201282.456,966.309,-1000.0,590.332,966.797
1742201282.46,966.309,-921.387,754.883,966.797
1742201282.462,966.309,487.793,999.512,966.797
1742201282.466,966.309,999.512,926.758,966.797
1742201282.47,966.309,892.578,999.512,966.797
1742201282.474,966.309,980.957,893.555,966.797
1742201282.478,983.398,983.887,313.477,966.797
1742201282.482,903.809,902.344,570.312,966.797
1742201282.486,999.512,999.512,912.109,966.797
1742201282.489,806.152,771.484,88.867,966.797
1742201282.493,-661.133,-697.754,-623.535,966.797
1742201282.497,-1000.0,-1000.0,-355.957,967.285
1742201282.501,-927.734,-929.688,172.852,983.398
1742201282.505,-1000.0,-1000.0,482.91,908.691
1742201282.507,-1000.0,-1000.0,612.793,999.512
1742201282.511,-1000.0,-1000.0,647.461,853.516
1742201282.515,-1000.0,-1000.0,144.531,-603.027
1742201282.519,-1000.0,-930.176,-126.953,-1000.0
1742201282.523,-1000.0,-1000.0,140.625,-926.27
1742201282.527,-1000.0,-701.172,572.754,-1000.0
1742201282.531,-1000.0,861.328,793.457,-996.582
1742201282.534,-1000.0,918.945,164.551,-1000.0
1742201282.538,-1000.0,-664.551,-161.133,-1000.0
1742201282.542,-1000.0,-1000.0,68.848,-1000.0
1742201282.546,-1000.0,-925.781,-4.395,-1000.0
1742201282.55,-1000.0,-1000.0,-295.41,-1000.0
1742201282.507,-1000.0,-1000.0,612.793,999.512
1742201282.511,-1000.0,-1000.0,647.461,853.516
1742201282.515,-1000.0,-1000.0,144.531,-603.027
1742201282.519,-1000.0,-930.176,-126.953,-1000.0
1742201282.523,-1000.0,-1000.0,140.625,-926.27
1742201282.527,-1000.0,-701.172,572.754,-1000.0
1742201282.531,-1000.0,861.328,793.457,-996.582
1742201282.534,-1000.0,918.945,164.551,-1000.0
1742201282.538,-1000.0,-664.551,-161.133,-1000.0
1742201282.542,-1000.0,-1000.0,68.848,-1000.0
1742201282.546,-1000.0,-925.781,-4.395,-1000.0
1742201282.55,-1000.0,-1000.0,-295.41,-1000.0
1742201282.567,-963.867,-946.289,-399.414,-983.398
1742201282.571,-1000.0,-1000.0,-133.301,-968.262
1742201282.575,-1000.0,-918.945,302.734,-1000.0
1742201282.579,303.711,519.531,854.004,19.531
1742201282.583,999.512,999.512,556.152,999.512
1742201282.587,896.973,892.09,208.008,926.758
1742201282.591,972.656,981.445,435.547,956.055
1742201282.594,966.309,966.797,520.508,970.215
1742201282.598,966.309,981.445,680.664,966.797
1742201282.602,966.309,917.48,284.668,967.285
1742201282.606,966.309,999.512,-95.215,966.797
1742201282.61,982.91,918.457,16.113,979.004
1742201282.567,-963.867,-946.289,-399.414,-983.398
1742201282.571,-1000.0,-1000.0,-133.301,-968.262
1742201282.575,-1000.0,-918.945,302.734,-1000.0
1742201282.579,303.711,519.531,854.004,19.531
1742201282.583,999.512,999.512,556.152,999.512
1742201282.587,896.973,892.09,208.008,926.758
1742201282.591,972.656,981.445,435.547,956.055
1742201282.594,966.309,966.797,520.508,970.215
1742201282.598,966.309,981.445,680.664,966.797
1742201282.602,966.309,917.48,284.668,967.285
1742201282.606,966.309,999.512,-95.215,966.797
1742201282.61,982.91,918.457,16.113,979.004
1742201282.612,903.809,-495.605,100.098,922.852
1742201282.616,999.512,-1000.0,261.23,988.281
1742201282.62,781.25,-942.383,2.441,931.152
1742201282.624,-609.375,-955.566,-418.457,-371.094
1742201282.628,-1000.0,-1000.0,-282.715,-1000.0
1742201282.632,-819.336,-891.113,130.859,-809.57
1742201282.636,546.875,564.453,772.949,567.383
1742201282.639,999.512,999.512,512.207,999.512
1742201282.643,908.691,908.203,47.363,910.156
1742201282.647,910.645,912.109,-82.52,915.039
1742201282.651,999.512,999.512,-373.047,999.512
1742201282.655,662.109,629.883,-560.547,735.352
1742201282.612,903.809,-495.605,100.098,922.852
1742201282.616,999.512,-1000.0,261.23,988.281
1742201282.62,781.25,-942.383,2.441,931.152
1742201282.624,-609.375,-955.566,-418.457,-371.094
1742201282.628,-1000.0,-1000.0,-282.715,-1000.0
1742201282.632,-819.336,-891.113,130.859,-809.57
1742201282.636,546.875,564.453,772.949,567.383
1742201282.639,999.512,999.512,512.207,999.512
1742201282.643,908.691,908.203,47.363,910.156
1742201282.647,910.645,912.109,-82.52,915.039
1742201282.651,999.512,999.512,-373.047,999.512
1742201282.655,662.109,629.883,-560.547,735.352
1742201282.657,-811.523,-829.59,-937.012,-741.211
1742201282.661,-1000.0,-1000.0,-1000.0,-1000.0
1742201282.665,-935.547,-937.988,-1000.0,-931.152
1742201282.669,-1000.0,-1000.0,-729.004,-1000.0
1742201282.673,-1000.0,-1000.0,-289.062,-1000.0
1742201282.677,-1000.0,-1000.0,-499.512,-1000.0
1742201282.681,-1000.0,-1000.0,-842.285,-1000.0
1742201282.684,-1000.0,-1000.0,-992.188,-1000.0
1742201282.688,-1000.0,-1000.0,-441.406,-1000.0
1742201282.692,-1000.0,-1000.0,581.543,-1000.0
1742201282.696,-965.82,-942.383,750.488,-1000.0
1742201282.7,-999.512,-1000.0,424.316,-935.059
1742201282.657,-811.523,-829.59,-937.012,-741.211
1742201282.661,-1000.0,-1000.0,-1000.0,-1000.0
1742201282.665,-935.547,-937.988,-1000.0,-931.152
1742201282.669,-1000.0,-1000.0,-729.004,-1000.0
1742201282.673,-1000.0,-1000.0,-289.062,-1000.0
1742201282.677,-1000.0,-1000.0,-499.512,-1000.0
1742201282.681,-1000.0,-1000.0,-842.285,-1000.0
1742201282.684,-1000.0,-1000.0,-992.188,-1000.0
1742201282.688,-1000.0,-1000.0,-441.406,-1000.0
1742201282.692,-1000.0,-1000.0,581.543,-1000.0
1742201282.696,-965.82,-942.383,750.488,-1000.0
1742201282.7,-999.512,-1000.0,424.316,-935.059
1742201282.702,-1000.0,-888.184,6.836,-1000.0
1742201282.706,284.668,580.566,115.723,-484.375
1742201282.71,999.512,999.512,347.168,879.395
1742201282.714,999.512,999.512,-5.859,999.512
1742201282.718,371.582,500.977,-533.203,-148.438
1742201282.722,-974.121,-931.641,-397.949,-1000.0
1742201282.726,-1000.0,-1000.0,276.367,-959.473
1742201282.729,-969.727,-923.828,199.219,-994.141
1742201282.733,-970.215,-1000.0,-167.48,-993.652
1742201282.737,-1000.0,45.898,-208.496,-958.984
1742201282.741,-997.07,999.512,-204.102,-1000.0
1742201282.745,370.605,927.734,330.078,-87.891
1742201282.702,-1000.0,-888.184,6.836,-1000.0
1742201282.706,284.668,580.566,115.723,-484.375
1742201282.71,999.512,999.512,347.168,879.395
1742201282.714,999.512,999.512,-5.859,999.512
1742201282.718,371.582,500.977,-533.203,-148.438
1742201282.722,-974.121,-931.641,-397.949,-1000.0
1742201282.726,-1000.0,-1000.0,276.367,-959.473
1742201282.729,-969.727,-923.828,199.219,-994.141
1742201282.733,-970.215,-1000.0,-167.48,-993.652
1742201282.737,-1000.0,45.898,-208.496,-958.984
1742201282.741,-997.07,999.512,-204.102,-1000.0
1742201282.745,370.605,927.734,330.078,-87.891
1742201282.748,999.512,956.055,930.664,999.512
1742201282.752,894.531,970.215,955.566,940.918
1742201282.756,975.586,968.75,979.004,947.754
1742201282.76,966.309,962.402,899.414,972.168
1742201282.764,965.82,973.145,655.762,966.797
1742201282.768,966.309,910.645,856.934,967.285
1742201282.772,966.309,999.512,999.512,966.797
1742201282.775,966.309,874.512,768.555,966.797
1742201282.779,966.309,-542.48,395.02,967.285
1742201282.783,966.309,-1000.0,787.598,967.285
1742201282.787,966.309,-44.922,999.512,966.797
1742201282.791,966.309,999.512,934.57,966.797
1742201282.748,999.512,956.055,930.664,999.512
1742201282.752,894.531,970.215,955.566,940.918
1742201282.756,975.586,968.75,979.004,947.754
1742201282.76,966.309,962.402,899.414,972.168
1742201282.764,965.82,973.145,655.762,966.797
1742201282.768,966.309,910.645,856.934,967.285
1742201282.772,966.309,999.512,999.512,966.797
1742201282.775,966.309,874.512,768.555,966.797
1742201282.779,966.309,-542.48,395.02,967.285
1742201282.783,966.309,-1000.0,787.598,967.285
1742201282.787,966.309,-44.922,999.512,966.797
1742201282.791,966.309,999.512,934.57,966.797
1742201282.792,966.309,946.777,943.359,966.797
1742201282.796,966.309,945.312,959.961,966.797
1742201282.8,966.309,973.145,974.121,967.285
1742201282.804,966.309,967.285,960.938,966.797
1742201282.808,966.309,967.285,897.461,966.797
1742201282.812,966.309,966.797,947.754,966.797
1742201282.816,982.422,983.398,984.375,966.797
1742201282.819,908.691,907.715,603.027,966.797
1742201282.823,999.512,999.512,560.059,967.285
1742201282.827,856.934,840.82,330.566,967.285
1742201282.831,-597.656,-618.652,-678.223,966.797
1742201282.835,-1000.0,-1000.0,-1000.0,966.797
1742201282.837,-925.781,-926.27,-720.215,966.797
1742201282.841,-1000.0,-1000.0,-244.629,966.797
1742201282.845,-1000.0,-956.543,-24.414,966.797
1742201282.849,-937.5,-1000.0,-160.645,966.797
1742201282.853,-1000.0,-988.281,-540.527,967.285
1742201282.857,-394.531,390.137,-666.992,967.285
1742201282.861,921.387,999.512,-892.09,979.492
1742201282.864,945.801,827.637,-1000.0,896.484
1742201282.868,999.512,999.512,-986.816,999.512
1742201282.872,85.449,412.598,-1000.0,505.859
1742201282.876,-1000.0,-955.078,-1000.0,-908.691
1742201282.88,-978.027,-1000.0,-989.746,-1000.0
1742201282.837,-925.781,-926.27,-720.215,966.797
1742201282.841,-1000.0,-1000.0,-244.629,966.797
1742201282.845,-1000.0,-956.543,-24.414,966.797
1742201282.849,-937.5,-1000.0,-160.645,966.797
1742201282.853,-1000.0,-988.281,-540.527,967.285
1742201282.857,-394.531,390.137,-666.992,967.285
1742201282.861,921.387,999.512,-892.09,979.492
1742201282.864,945.801,827.637,-1000.0,896.484
1742201282.868,999.512,999.512,-986.816,999.512
1742201282.872,85.449,412.598,-1000.0,505.859
1742201282.876,-1000.0,-955.078,-1000.0,-908.691
1742201282.88,-978.027,-1000.0,-989.746,-1000.0
1742201282.882,-979.492,-954.59,-1000.0,-947.266
1742201282.886,-1000.0,-1000.0,-890.625,-1000.0
1742201282.89,-1000.0,-1000.0,-566.895,-1000.0
1742201282.894,-1000.0,-937.5,-612.793,-1000.0
1742201282.898,-1000.0,-1000.0,-790.039,-1000.0
1742201282.902,-1000.0,-797.363,-307.129,-1000.0
1742201282.906,-1000.0,796.875,-67.383,-1000.0
1742201282.909,-1000.0,279.785,-789.551,-1000.0
1742201282.913,-1000.0,-1000.0,-1000.0,-1000.0
1742201282.917,-1000.0,-978.027,-908.691,-1000.0
1742201282.921,-1000.0,-971.68,-712.891,-1000.0
1742201282.925,-1000.0,-1000.0,-451.172,-1000.0
1742201282.882,-979.492,-954.59,-1000.0,-947.266
1742201282.886,-1000.0,-1000.0,-890.625,-1000.0
1742201282.89,-1000.0,-1000.0,-566.895,-1000.0
1742201282.894,-1000.0,-937.5,-612.793,-1000.0
1742201282.898,-1000.0,-1000.0,-790.039,-1000.0
1742201282.902,-1000.0,-797.363,-307.129,-1000.0
1742201282.906,-1000.0,796.875,-67.383,-1000.0
1742201282.909,-1000.0,279.785,-789.551,-1000.0
1742201282.913,-1000.0,-1000.0,-1000.0,-1000.0
1742201282.917,-1000.0,-978.027,-908.691,-1000.0
1742201282.921,-1000.0,-971.68,-712.891,-1000.0
1742201282.925,-1000.0,-1000.0,-451.172,-1000.0
1742201282.927,-1000.0,-1000.0,-699.707,-1000.0
1742201282.931,-982.422,-989.258,-795.898,-1000.0
1742201282.935,-970.215,-959.473,-642.578,-1000.0
1742201282.939,-1000.0,-1000.0,-32.715,-1000.0
1742201282.943,-21.484,-115.723,648.438,-1000.0
1742201282.947,999.512,999.512,726.074,-1000.0
1742201282.951,833.008,924.805,248.047,-1000.0
1742201282.954,-580.566,-448.73,-614.746,-1000.0
1742201282.958,-1000.0,-1000.0,-1000.0,-1000.0
1742201282.962,-927.734,-935.059,-983.887,-1000.0
1742201282.966,-1000.0,-981.445,-992.676,-1000.0
1742201282.97,-948.73,-990.234,-978.027,-934.57
1742201282.927,-1000.0,-1000.0,-699.707,-1000.0
1742201282.931,-982.422,-989.258,-795.898,-1000.0
1742201282.935,-970.215,-959.473,-642.578,-1000.0
1742201282.939,-1000.0,-1000.0,-32.715,-1000.0
1742201282.943,-21.484,-115.723,648.438,-1000.0
1742201282.947,999.512,999.512,726.074,-1000.0
1742201282.951,833.008,924.805,248.047,-1000.0
1742201282.954,-580.566,-448.73,-614.746,-1000.0
1742201282.958,-1000.0,-1000.0,-1000.0,-1000.0
1742201282.962,-927.734,-935.059,-983.887,-1000.0
1742201282.966,-1000.0,-981.445,-992.676,-1000.0
1742201282.97,-948.73,-990.234,-978.027,-934.57
1742201282.973,-1000.0,-1000.0,-1000.0,-1000.0
1742201282.977,-192.871,208.984,-530.273,-775.391
1742201282.981,999.512,999.512,203.125,690.918
1742201282.985,954.102,905.762,-217.285,999.512
1742201282.989,939.941,981.445,-595.215,900.391
1742201282.993,987.793,920.41,-183.594,982.91
1742201282.997,893.555,995.117,-21.484,913.574
1742201283.0,999.512,930.664,206.543,999.512
1742201283.004,525.391,-470.215,350.098,240.723
1742201283.008,-922.852,-1000.0,207.52,-1000.0
1742201283.012,-979.98,-864.746,94.727,-936.523
1742201283.016,-1000.0,-1000.0,354.492,-1000.0
1742201282.973,-1000.0,-1000.0,-1000.0,-1000.0
1742201282.977,-192.871,208.984,-530.273,-775.391
1742201282.981,999.512,999.512,203.125,690.918
1742201282.985,954.102,905.762,-217.285,999.512
1742201282.989,939.941,981.445,-595.215,900.391
1742201282.993,987.793,920.41,-183.594,982.91
1742201282.997,893.555,995.117,-21.484,913.574
1742201283.0,999.512,930.664,206.543,999.512
1742201283.004,525.391,-470.215,350.098,240.723
1742201283.008,-922.852,-1000.0,207.52,-1000.0
1742201283.012,-979.98,-864.746,94.727,-936.523
1742201283.016,-1000.0,-1000.0,354.492,-1000.0
1742201283.032,-783.691,-844.238,876.465,-740.234
1742201283.036,708.984,624.512,985.84,730.469
1742201283.04,999.512,999.512,848.633,999.512
1742201283.044,896.973,895.996,624.023,900.391
1742201283.048,999.512,981.934,118.652,999.512
1742201283.052,893.066,914.062,312.5,896.484
1742201283.056,999.512,999.512,961.914,999.512
1742201283.059,633.301,207.52,385.254,669.922
1742201283.063,-836.914,-1000.0,-73.242,-800.293
1742201283.067,-1000.0,-997.07,465.82,-1000.0
1742201283.071,-937.5,-969.727,811.035,-935.059
1742201283.075,-1000.0,-1000.0,882.812,-1000.0
1742201283.032,-783.691,-844.238,876.465,-740.234
1742201283.036,708.984,624.512,985.84,730.469
1742201283.04,999.512,999.512,848.633,999.512
1742201283.044,896.973,895.996,624.023,900.391
1742201283.048,999.512,981.934,118.652,999.512
1742201283.052,893.066,914.062,312.5,896.484
1742201283.056,999.512,999.512,961.914,999.512
1742201283.059,633.301,207.52,385.254,669.922
1742201283.063,-836.914,-1000.0,-73.242,-800.293
1742201283.067,-1000.0,-997.07,465.82,-1000.0
1742201283.071,-937.5,-969.727,811.035,-935.059
1742201283.075,-1000.0,-1000.0,882.812,-1000.0
1742201283.077,-1000.0,-1000.0,890.137,-1000.0
1742201283.081,-1000.0,-1000.0,294.434,-1000.0
1742201283.085,-970.703,-942.383,-697.754,-970.703
1742201283.089,-988.77,-1000.0,-1000.0,-990.723
1742201283.093,-1000.0,-891.113,-969.727,-1000.0
1742201283.097,216.797,564.453,-1000.0,205.078
1742201283.101,999.512,999.512,-1000.0,999.512
1742201283.104,901.855,892.578,-1000.0,907.227
1742201283.108,984.375,999.512,-1000.0,982.422
1742201283.112,912.598,909.668,-1000.0,915.527
1742201283.116,999.512,999.512,-1000.0,999.512
1742201283.12,885.742,857.91,-1000.0,897.949
1742201283.077,-1000.0,-1000.0,890.137,-1000.0
1742201283.081,-1000.0,-1000.0,294.434,-1000.0
1742201283.085,-970.703,-942.383,-697.754,-970.703
1742201283.089,-988.77,-1000.0,-1000.0,-990.723
1742201283.093,-1000.0,-891.113,-969.727,-1000.0
1742201283.097,216.797,564.453,-1000.0,205.078
1742201283.101,999.512,999.512,-1000.0,999.512
1742201283.104,901.855,892.578,-1000.0,907.227
1742201283.108,984.375,999.512,-1000.0,982.422
1742201283.112,912.598,909.668,-1000.0,915.527
1742201283.116,999.512,999.512,-1000.0,999.512
1742201283.12,885.742,857.91,-1000.0,897.949
1742201283.137,-553.223,-597.656,-1000.0,-532.715
1742201283.141,-1000.0,-1000.0,-1000.0,-1000.0
1742201283.145,-942.871,-911.621,-1000.0,-941.895
1742201283.149,-942.871,-980.957,-988.77,-943.848
1742201283.153,-1000.0,-1000.0,-1000.0,-1000.0
1742201283.157,-686.035,-31.25,-954.59,-668.457
1742201283.161,786.621,999.512,-781.25,791.504
1742201283.164,999.512,935.059,-898.438,999.512
1742201283.168,901.855,951.66,-864.746,904.297
1742201283.172,983.887,971.68,-883.789,983.887
1742201283.176,966.309,967.285,-781.25,966.797
1742201283.18,967.773,976.562,-109.375,968.262
1742201283.137,-553.223,-597.656,-1000.0,-532.715
1742201283.141,-1000.0,-1000.0,-1000.0,-1000.0
1742201283.145,-942.871,-911.621,-1000.0,-941.895
1742201283.149,-942.871,-980.957,-988.77,-943.848
1742201283.153,-1000.0,-1000.0,-1000.0,-1000.0
1742201283.157,-686.035,-31.25,-954.59,-668.457
1742201283.161,786.621,999.512,-781.25,791.504
1742201283.164,999.512,935.059,-898.438,999.512
1742201283.168,901.855,951.66,-864.746,904.297
1742201283.172,983.887,971.68,-883.789,983.887
1742201283.176,966.309,967.285,-781.25,966.797
1742201283.18,967.773,976.562,-109.375,968.262
1742201283.167,968.262,931.152,509.766,972.168
1742201283.171,906.738,969.727,794.434,904.297
1742201283.175,999.512,993.164,798.828,999.512
1742201283.179,271.973,-325.195,294.922,341.797
1742201283.183,-1000.0,-1000.0,191.895,-978.516
1742201283.187,-1000.0,-944.824,900.391,-1000.0
1742201283.191,-930.176,-964.844,938.965,-917.969
1742201283.194,-1000.0,-1000.0,460.938,-1000.0
1742201283.198,-1000.0,-1000.0,578.613,-996.582
1742201283.202,286.133,354.492,550.293,365.234
1742201283.206,999.512,999.512,-435.059,999.512
1742201283.21,897.461,895.508,-1000.0,896.484
1742201283.167,968.262,931.152,509.766,972.168
1742201283.171,906.738,969.727,794.434,904.297
1742201283.175,999.512,993.164,798.828,999.512
1742201283.179,271.973,-325.195,294.922,341.797
1742201283.183,-1000.0,-1000.0,191.895,-978.516
1742201283.187,-1000.0,-944.824,900.391,-1000.0
1742201283.191,-930.176,-964.844,938.965,-917.969
1742201283.194,-1000.0,-1000.0,460.938,-1000.0
1742201283.198,-1000.0,-1000.0,578.613,-996.582
1742201283.202,286.133,354.492,550.293,365.234
1742201283.206,999.512,999.512,-435.059,999.512
1742201283.21,897.461,895.508,-1000.0,896.484
1742201283.212,972.168,976.074,-948.73,975.586
1742201283.216,966.309,967.285,-1000.0,966.797
1742201283.22,966.309,967.285,-965.82,967.285
1742201283.224,969.238,980.469,119.141,968.262
1742201283.228,956.055,919.434,966.309,971.191
1742201283.232,923.34,996.094,953.125,905.762
1742201283.236,999.512,928.223,953.613,999.512
1742201283.239,55.664,-474.121,569.824,325.684
1742201283.243,-1000.0,-1000.0,641.113,-982.91
1742201283.247,-975.586,-930.176,991.211,-1000.0
1742201283.251,-977.539,-1000.0,963.867,-947.266
1742201283.255,-953.125,-955.566,967.773,-975.098
1742201283.258,-1000.0,-1000.0,648.438,-1000.0
1742201283.262,-195.801,-110.352,671.875,-33.691
1742201283.266,999.512,999.512,907.227,999.512
1742201283.27,953.613,942.871,443.359,934.082
1742201283.274,940.918,961.914,-9.766,951.66
1742201283.278,962.891,917.48,399.902,971.68
1742201283.282,972.168,999.512,987.305,966.797
1742201283.285,986.328,880.371,651.855,966.797
1742201283.289,639.16,-562.5,420.898,966.797
1742201283.293,739.258,-1000.0,819.336,981.934
1742201283.297,999.512,-925.781,960.938,911.621
1742201283.301,999.512,-1000.0,704.102,999.512
1742201283.258,-1000.0,-1000.0,648.438,-1000.0
1742201283.262,-195.801,-110.352,671.875,-33.691
1742201283.266,999.512,999.512,907.227,999.512
1742201283.27,953.613,942.871,443.359,934.082
1742201283.274,940.918,961.914,-9.766,951.66
1742201283.278,962.891,917.48,399.902,971.68
1742201283.282,972.168,999.512,987.305,966.797
1742201283.285,986.328,880.371,651.855,966.797
1742201283.289,639.16,-562.5,420.898,966.797
1742201283.293,739.258,-1000.0,819.336,981.934
1742201283.297,999.512,-925.781,960.938,911.621
1742201283.301,999.512,-1000.0,704.102,999.512
1742201283.302,-144.531,-1000.0,134.277,860.84
1742201283.306,-1000.0,-967.773,-340.82,-545.41
1742201283.31,-916.504,-995.117,-577.148,-1000.0
1742201283.314,-1000.0,-1000.0,-608.887,-993.164
1742201283.318,11.23,264.648,55.176,136.719
1742201283.322,999.512,999.512,226.074,999.512
1742201283.326,873.535,914.551,-747.07,844.238
1742201283.329,999.512,964.355,-1000.0,999.512
1742201283.333,208.008,-364.746,-957.031,745.117
1742201283.337,-1000.0,-1000.0,-1000.0,-805.176
1742201283.341,-1000.0,-990.234,-1000.0,-1000.0
1742201283.345,277.832,207.52,-1000.0,545.898
1742201283.302,-144.531,-1000.0,134.277,860.84
1742201283.306,-1000.0,-967.773,-340.82,-545.41
1742201283.31,-916.504,-995.117,-577.148,-1000.0
1742201283.314,-1000.0,-1000.0,-608.887,-993.164
1742201283.318,11.23,264.648,55.176,136.719
1742201283.322,999.512,999.512,226.074,999.512
1742201283.326,873.535,914.551,-747.07,844.238
1742201283.329,999.512,964.355,-1000.0,999.512
1742201283.333,208.008,-364.746,-957.031,745.117
1742201283.337,-1000.0,-1000.0,-1000.0,-805.176
1742201283.341,-1000.0,-990.234,-1000.0,-1000.0
1742201283.345,277.832,207.52,-1000.0,545.898
1742201283.362,999.512,999.512,-1000.0,999.512
1742201283.366,899.902,902.832,-1000.0,893.066
1742201283.37,970.215,969.727,-1000.0,980.469
1742201283.374,966.309,967.285,-1000.0,967.285
1742201283.378,966.309,967.285,-1000.0,966.797
1742201283.382,966.309,969.238,-1000.0,967.285
1742201283.386,982.422,964.844,-1000.0,984.375
1742201283.389,894.043,914.062,-1000.0,902.832
1742201283.393,999.512,999.512,-1000.0,999.512
1742201283.397,607.91,197.266,-1000.0,778.809
1742201283.401,-866.699,-1000.0,-994.629,-707.52
1742201283.405,-1000.0,-944.824,-996.094,-1000.0
1742201283.362,999.512,999.512,-1000.0,999.512
1742201283.366,899.902,902.832,-1000.0,893.066
1742201283.37,970.215,969.727,-1000.0,980.469
1742201283.374,966.309,967.285,-1000.0,967.285
1742201283.378,966.309,967.285,-1000.0,966.797
1742201283.382,966.309,969.238,-1000.0,967.285
1742201283.386,982.422,964.844,-1000.0,984.375
1742201283.389,894.043,914.062,-1000.0,902.832
1742201283.393,999.512,999.512,-1000.0,999.512
1742201283.397,607.91,197.266,-1000.0,778.809
1742201283.401,-866.699,-1000.0,-994.629,-707.52
1742201283.405,-1000.0,-944.824,-996.094,-1000.0
1742201283.407,-982.422,-1000.0,-1000.0,-983.887
1742201283.411,-940.43,-959.961,-768.066,-904.297
1742201283.415,513.184,465.82,-569.336,568.359
1742201283.419,999.512,999.512,-866.699,999.512
1742201283.423,891.602,892.578,-1000.0,892.578
1742201283.427,980.957,980.957,-852.539,982.91
1742201283.431,983.887,978.027,-920.898,984.375
1742201283.434,895.508,899.902,-1000.0,897.949
1742201283.438,999.512,999.512,-993.652,999.512
1742201283.442,680.176,468.75,-997.559,708.496
1742201283.446,-796.387,-919.434,-1000.0,-767.09
1742201283.45,-1000.0,-1000.0,-961.426,-1000.0
1742201283.407,-982.422,-1000.0,-1000.0,-983.887
1742201283.411,-940.43,-959.961,-768.066,-904.297
1742201283.415,513.184,465.82,-569.336,568.359
1742201283.419,999.512,999.512,-866.699,999.512
1742201283.423,891.602,892.578,-1000.0,892.578
1742201283.427,980.957,980.957,-852.539,982.91
1742201283.431,983.887,978.027,-920.898,984.375
1742201283.434,895.508,899.902,-1000.0,897.949
1742201283.438,999.512,999.512,-993.652,999.512
1742201283.442,680.176,468.75,-997.559,708.496
1742201283.446,-796.387,-919.434,-1000.0,-767.09
1742201283.45,-1000.0,-1000.0,-961.426,-1000.0
1742201283.452,-934.082,-950.195,-907.715,-932.617
1742201283.456,-1000.0,-1000.0,-977.539,-1000.0
1742201283.46,-950.195,-944.336,-995.605,-951.172
1742201283.464,-1000.0,-1000.0,-1000.0,-1000.0
1742201283.468,-950.684,-904.297,-1000.0,-953.613
1742201283.472,468.262,543.945,-604.492,459.961
1742201283.476,999.512,999.512,-543.457,999.512
1742201283.479,892.09,892.578,-910.156,893.066
1742201283.483,992.188,999.023,-943.359,991.699
1742201283.487,922.852,909.668,-762.207,924.805
1742201283.491,984.375,999.512,-525.879,982.91
1742201283.495,958.496,860.352,-491.211,962.891
1742201283.452,-934.082,-950.195,-907.715,-932.617
1742201283.456,-1000.0,-1000.0,-977.539,-1000.0
1742201283.46,-950.195,-944.336,-995.605,-951.172
1742201283.464,-1000.0,-1000.0,-1000.0,-1000.0
1742201283.468,-950.684,-904.297,-1000.0,-953.613
1742201283.472,468.262,543.945,-604.492,459.961
1742201283.476,999.512,999.512,-543.457,999.512
1742201283.479,892.09,892.578,-910.156,893.066
1742201283.483,992.188,999.023,-943.359,991.699
1742201283.487,922.852,909.668,-762.207,924.805
1742201283.491,984.375,999.512,-525.879,982.91
1742201283.495,958.496,860.352,-491.211,962.891
1742201283.497,-420.898,-594.238,-754.395,-407.227
1742201283.501,-1000.0,-1000.0,-483.887,-1000.0
1742201283.505,-943.848,-935.547,136.719,-944.824
1742201283.509,-952.637,-950.684,185.059,-951.172
1742201283.513,-1000.0,-1000.0,-184.082,-1000.0
1742201283.517,-889.648,-508.789,-87.402,-881.348
1742201283.521,565.918,873.535,26.367,576.66
1742201283.524,999.512,999.512,-310.059,999.512
1742201283.528,861.816,885.742,-331.543,854.492
1742201283.532,970.703,971.191,-191.895,990.723
1742201283.536,999.512,999.512,-145.02,980.957
1742201283.54,-252.441,-260.254,-397.949,-355.957
1742201283.497,-420.898,-594.238,-754.395,-407.227
1742201283.501,-1000.0,-1000.0,-483.887,-1000.0
1742201283.505,-943.848,-935.547,136.719,-944.824
1742201283.509,-952.637,-950.684,185.059,-951.172
1742201283.513,-1000.0,-1000.0,-184.082,-1000.0
1742201283.517,-889.648,-508.789,-87.402,-881.348
1742201283.521,565.918,873.535,26.367,576.66
1742201283.524,999.512,999.512,-310.059,999.512
1742201283.528,861.816,885.742,-331.543,854.492
1742201283.532,970.703,971.191,-191.895,990.723
1742201283.536,999.512,999.512,-145.02,980.957
1742201283.54,-252.441,-260.254,-397.949,-355.957
1742201283.543,-1000.0,-1000.0,-260.742,-1000.0
1742201283.547,-935.547,-935.547,529.297,-931.641
1742201283.551,-1000.0,-1000.0,532.227,-1000.0
1742201283.555,-942.383,-929.199,74.707,-942.871
1742201283.559,-1000.0,-1000.0,-197.754,-1000.0
1742201283.563,-882.812,-635.254,78.613,-881.348
1742201283.567,542.48,804.199,711.426,527.832
1742201283.57,999.512,987.305,211.914,999.512
1742201283.574,968.75,999.512,-430.176,911.621
1742201283.578,-150.879,81.055,-712.891,-319.824
1742201283.582,-1000.0,-1000.0,-1000.0,-1000.0
1742201283.586,-944.824,-974.121,-575.684,-933.594
1742201283.543,-1000.0,-1000.0,-260.742,-1000.0
1742201283.547,-935.547,-935.547,529.297,-931.641
1742201283.551,-1000.0,-1000.0,532.227,-1000.0
1742201283.555,-942.383,-929.199,74.707,-942.871
1742201283.559,-1000.0,-1000.0,-197.754,-1000.0
1742201283.563,-882.812,-635.254,78.613,-881.348
1742201283.567,542.48,804.199,711.426,527.832
1742201283.57,999.512,987.305,211.914,999.512
1742201283.574,968.75,999.512,-430.176,911.621
1742201283.578,-150.879,81.055,-712.891,-319.824
1742201283.582,-1000.0,-1000.0,-1000.0,-1000.0
1742201283.586,-944.824,-974.121,-575.684,-933.594
1742201283.587,-997.07,-980.957,-200.195,-1000.0
1742201283.591,-1000.0,-1000.0,-384.766,-1000.0
1742201283.595,-942.383,-932.129,-493.164,-951.66
1742201283.599,-1000.0,-1000.0,-568.848,-1000.0
1742201283.603,-904.297,-759.277,-506.348,-990.723
1742201283.607,525.391,669.434,-263.184,457.52
1742201283.611,999.512,999.512,-710.938,999.512
1742201283.614,-72.266,75.684,-1000.0,-393.066
1742201283.618,-1000.0,-1000.0,-906.738,-1000.0
1742201283.622,-965.82,-985.352,-267.09,-935.059
1742201283.626,-985.352,-975.098,93.262,-1000.0
1742201283.63,-1000.0,-1000.0,-144.531,-1000.0
1742201283.587,-997.07,-980.957,-200.195,-1000.0
1742201283.591,-1000.0,-1000.0,-384.766,-1000.0
1742201283.595,-942.383,-932.129,-493.164,-951.66
1742201283.599,-1000.0,-1000.0,-568.848,-1000.0
1742201283.603,-904.297,-759.277,-506.348,-990.723
1742201283.607,525.391,669.434,-263.184,457.52
1742201283.611,999.512,999.512,-710.938,999.512
1742201283.614,-72.266,75.684,-1000.0,-393.066
1742201283.618,-1000.0,-1000.0,-906.738,-1000.0
1742201283.622,-965.82,-985.352,-267.09,-935.059
1742201283.626,-985.352,-975.098,93.262,-1000.0
1742201283.63,-1000.0,-1000.0,-144.531,-1000.0
1742201283.662,-1000.0,-1000.0,-304.688,-1000.0
1742201283.666,-1000.0,-1000.0,-453.125,-1000.0
1742201283.67,-1000.0,-974.121,-371.094,-1000.0
1742201283.674,-1000.0,-983.887,-162.109,-1000.0
1742201283.678,-1000.0,-1000.0,-397.949,-1000.0
1742201283.682,-1000.0,109.863,-768.555,-1000.0
1742201283.686,-1000.0,999.512,-921.387,-1000.0
1742201283.689,-1000.0,852.051,-948.242,-1000.0
1742201283.693,-1000.0,-515.625,-928.223,-1000.0
1742201283.697,-1000.0,-1000.0,-699.707,-1000.0
1742201283.701,-1000.0,-926.27,-793.457,-1000.0
1742201283.705,-1000.0,-1000.0,-895.508,-1000.0
1742201283.662,-1000.0,-1000.0,-304.688,-1000.0
1742201283.666,-1000.0,-1000.0,-453.125,-1000.0
1742201283.67,-1000.0,-974.121,-371.094,-1000.0
1742201283.674,-1000.0,-983.887,-162.109,-1000.0
1742201283.678,-1000.0,-1000.0,-397.949,-1000.0
1742201283.682,-1000.0,109.863,-768.555,-1000.0
1742201283.686,-1000.0,999.512,-921.387,-1000.0
1742201283.689,-1000.0,852.051,-948.242,-1000.0
1742201283.693,-1000.0,-515.625,-928.223,-1000.0
1742201283.697,-1000.0,-1000.0,-699.707,-1000.0
1742201283.701,-1000.0,-926.27,-793.457,-1000.0
1742201283.705,-1000.0,-1000.0,-895.508,-1000.0
1742201283.677,-1000.0,-1000.0,-554.688,-1000.0
1742201283.681,-1000.0,-1000.0,-438.965,-1000.0
1742201283.685,-942.383,-942.383,-622.559,-958.984
1742201283.689,-1000.0,-1000.0,-567.871,-1000.0
1742201283.693,-885.742,-885.742,-450.195,-990.234
1742201283.697,542.48,543.457,386.23,317.871
1742201283.701,999.512,999.512,799.805,999.512
1742201283.704,976.074,976.562,-8.789,881.348
1742201283.708,-112.793,-101.562,-645.508,-411.621
1742201283.712,-1000.0,-1000.0,-776.855,-1000.0
1742201283.716,-948.73,-950.684,-599.121,-929.199
1742201283.72,-994.629,-993.652,-274.414,-1000.0
1742201283.677,-1000.0,-1000.0,-554.688,-1000.0
1742201283.681,-1000.0,-1000.0,-438.965,-1000.0
1742201283.685,-942.383,-942.383,-622.559,-958.984
1742201283.689,-1000.0,-1000.0,-567.871,-1000.0
1742201283.693,-885.742,-885.742,-450.195,-990.234
1742201283.697,542.48,543.457,386.23,317.871
1742201283.701,999.512,999.512,799.805,999.512
1742201283.704,976.074,976.562,-8.789,881.348
1742201283.708,-112.793,-101.562,-645.508,-411.621
1742201283.712,-1000.0,-1000.0,-776.855,-1000.0
1742201283.716,-948.73,-950.684,-599.121,-929.199
1742201283.72,-994.629,-993.652,-274.414,-1000.0
1742201283.677,-1000.0,-1000.0,-554.688,-1000.0
1742201283.681,-1000.0,-1000.0,-438.965,-1000.0
1742201283.685,-942.383,-942.383,-622.559,-958.984
1742201283.689,-1000.0,-1000.0,-567.871,-1000.0
1742201283.693,-885.742,-885.742,-450.195,-990.234
1742201283.697,542.48,543.457,386.23,317.871
1742201283.701,999.512,999.512,799.805,999.512
1742201283.704,976.074,976.562,-8.789,881.348
1742201283.708,-112.793,-101.562,-645.508,-411.621
1742201283.712,-1000.0,-1000.0,-776.855,-1000.0
1742201283.716,-948.73,-950.684,-599.121,-929.199
1742201283.72,-994.629,-993.652,-274.414,-1000.0
1742201283.722,-1000.0,-1000.0,-509.277,-1000.0
1742201283.726,-1000.0,-1000.0,-848.633,-1000.0
1742201283.73,-946.777,-942.383,-773.926,-958.984
1742201283.734,-1000.0,-1000.0,-624.023,-1000.0
1742201283.738,-908.203,-875.0,-464.844,-988.281
1742201283.742,453.613,506.836,-120.117,296.387
1742201283.746,999.512,999.512,-494.141,999.512
1742201283.749,782.227,783.691,-1000.0,677.246
1742201283.753,-583.496,-581.543,-904.785,-695.801
1742201283.757,-1000.0,-1000.0,-552.246,-1000.0
1742201283.761,-925.781,-925.781,-453.125,-931.641
1742201283.765,-1000.0,-1000.0,-427.734,-1000.0
1742201283.782,-972.168,-983.398,-303.223,-1000.0
1742201283.786,-988.281,-967.773,-236.816,-944.336
1742201283.79,-1000.0,-1000.0,30.762,-1000.0
1742201283.794,197.754,37.598,309.082,-245.605
1742201283.798,999.512,999.512,67.383,934.082
1742201283.802,930.176,943.359,-233.887,999.512
1742201283.806,948.73,947.754,-311.035,843.75
1742201283.809,-439.453,-418.945,-584.473,-559.082
1742201283.813,-1000.0,-1000.0,-550.293,-1000.0
1742201283.817,-926.758,-927.734,-370.117,-925.781
1742201283.821,-1000.0,-1000.0,-389.648,-1000.0
1742201283.825,-942.383,-938.477,-477.051,-942.383
1742201283.782,-972.168,-983.398,-303.223,-1000.0
1742201283.786,-988.281,-967.773,-236.816,-944.336
1742201283.79,-1000.0,-1000.0,30.762,-1000.0
1742201283.794,197.754,37.598,309.082,-245.605
1742201283.798,999.512,999.512,67.383,934.082
1742201283.802,930.176,943.359,-233.887,999.512
1742201283.806,948.73,947.754,-311.035,843.75
1742201283.809,-439.453,-418.945,-584.473,-559.082
1742201283.813,-1000.0,-1000.0,-550.293,-1000.0
1742201283.817,-926.758,-927.734,-370.117,-925.781
1742201283.821,-1000.0,-1000.0,-389.648,-1000.0
1742201283.825,-942.383,-938.477,-477.051,-942.383
1742201283.828,-1000.0,-1000.0,-270.996,-1000.0
1742201283.832,-891.113,-841.797,112.793,-891.113
1742201283.836,563.965,623.535,656.738,564.453
1742201283.84,999.512,999.512,808.105,999.512
1742201283.844,908.203,911.621,627.441,908.691
1742201283.848,921.387,919.434,895.508,917.969
1742201283.852,999.512,999.512,980.957,999.512
1742201283.855,824.707,784.668,355.469,740.234
1742201283.859,-640.625,-687.012,-251.953,-720.215
1742201283.863,-1000.0,-1000.0,-372.559,-1000.0
1742201283.867,-926.758,-928.711,-416.504,-931.641
1742201283.871,-1000.0,-1000.0,-363.281,-1000.0
1742201283.828,-1000.0,-1000.0,-270.996,-1000.0
1742201283.832,-891.113,-841.797,112.793,-891.113
1742201283.836,563.965,623.535,656.738,564.453
1742201283.84,999.512,999.512,808.105,999.512
1742201283.844,908.203,911.621,627.441,908.691
1742201283.848,921.387,919.434,895.508,917.969
1742201283.852,999.512,999.512,980.957,999.512
1742201283.855,824.707,784.668,355.469,740.234
1742201283.859,-640.625,-687.012,-251.953,-720.215
1742201283.863,-1000.0,-1000.0,-372.559,-1000.0
1742201283.867,-926.758,-928.711,-416.504,-931.641
1742201283.871,-1000.0,-1000.0,-363.281,-1000.0
1742201283.872,-1000.0,-1000.0,-477.539,-1000.0
1742201283.876,-1000.0,-992.188,-545.898,-1000.0
1742201283.88,-936.035,-956.055,-493.652,-933.594
1742201283.884,-1000.0,-1000.0,-624.512,-1000.0
1742201283.888,-372.07,-107.422,-296.875,-436.523
1742201283.892,952.637,999.512,472.656,923.828
1742201283.896,981.445,945.312,128.418,993.652
1742201283.899,926.27,945.801,-566.406,921.875
1742201283.903,991.699,988.281,-420.898,993.652
1742201283.907,915.527,912.109,-328.125,917.48
1742201283.911,999.512,999.512,-190.43,999.512
1742201283.915,911.621,883.301,28.32,917.969
1742201283.872,-1000.0,-1000.0,-477.539,-1000.0
1742201283.876,-1000.0,-992.188,-545.898,-1000.0
1742201283.88,-936.035,-956.055,-493.652,-933.594
1742201283.884,-1000.0,-1000.0,-624.512,-1000.0
1742201283.888,-372.07,-107.422,-296.875,-436.523
1742201283.892,952.637,999.512,472.656,923.828
1742201283.896,981.445,945.312,128.418,993.652
1742201283.899,926.27,945.801,-566.406,921.875
1742201283.903,991.699,988.281,-420.898,993.652
1742201283.907,915.527,912.109,-328.125,917.48
1742201283.911,999.512,999.512,-190.43,999.512
1742201283.915,911.621,883.301,28.32,917.969
1742201283.917,-510.742,-558.105,-598.145,-497.07
1742201283.921,-1000.0,-1000.0,-430.664,-1000.0
1742201283.925,-941.895,-942.383,158.691,-942.383
1742201283.929,-956.055,-953.125,448.73,-955.566
1742201283.933,-1000.0,-1000.0,341.797,-1000.0
1742201283.937,-891.113,-838.867,463.867,-891.113
1742201283.941,563.477,625.977,935.059,564.453
1742201283.944,999.512,999.512,953.613,999.512
1742201283.948,820.312,825.684,708.984,822.754
1742201283.952,999.512,999.512,451.66,999.512
1742201283.956,669.434,505.859,53.223,620.605
1742201283.96,-806.152,-902.344,-213.867,-830.078
1742201283.917,-510.742,-558.105,-598.145,-497.07
1742201283.921,-1000.0,-1000.0,-430.664,-1000.0
1742201283.925,-941.895,-942.383,158.691,-942.383
1742201283.929,-956.055,-953.125,448.73,-955.566
1742201283.933,-1000.0,-1000.0,341.797,-1000.0
1742201283.937,-891.113,-838.867,463.867,-891.113
1742201283.941,563.477,625.977,935.059,564.453
1742201283.944,999.512,999.512,953.613,999.512
1742201283.948,820.312,825.684,708.984,822.754
1742201283.952,999.512,999.512,451.66,999.512
1742201283.956,669.434,505.859,53.223,620.605
1742201283.96,-806.152,-902.344,-213.867,-830.078
1742201283.977,-1000.0,-1000.0,47.852,-1000.0
1742201283.981,-937.5,-954.59,341.309,-941.406
1742201283.985,-1000.0,-986.816,383.789,-1000.0
1742201283.989,-952.148,-987.793,360.84,-952.148
1742201283.993,-1000.0,-1000.0,95.215,-1000.0
1742201283.997,-144.043,191.406,387.695,-159.18
1742201284.001,999.512,999.512,801.27,999.512
1742201284.004,946.289,907.227,22.949,950.684
1742201284.008,943.359,967.773,-594.727,942.871
1742201284.012,987.793,976.074,-461.426,988.281
1742201284.016,893.066,901.367,-521.973,895.996
1742201284.02,999.512,999.512,-582.031,999.512
1742201284.472,-942.383,-938.965,770.02,-1000.0
1742201284.476,-1000.0,-1000.0,949.219,-941.406
1742201284.48,-891.113,-843.262,950.195,-1000.0
1742201284.484,577.637,635.742,990.723,-759.766
1742201284.488,999.512,999.512,719.238,653.809
1742201284.492,999.512,989.746,327.148,999.512
1742201284.496,547.852,712.402,212.891,-142.09
1742201284.499,-898.926,-782.715,197.266,-1000.0
1742201284.503,-1000.0,-1000.0,640.137,-963.379
1742201284.507,-961.426,-949.707,994.141,-1000.0
1742201284.511,-957.031,-959.961,923.34,-945.801
1742201284.515,-1000.0,-1000.0,791.504,-1000.0
1742201284.532,-883.301,-891.113,926.758,-880.371
1742201284.536,574.219,564.453,984.863,578.125
1742201284.54,999.512,999.512,959.961,999.512
1742201284.544,892.09,892.578,961.426,892.578
1742201284.548,982.422,995.605,945.312,982.91
1742201284.552,966.309,921.387,965.82,966.797
1742201284.556,966.309,975.098,968.262,966.797
1742201284.559,966.309,997.559,965.82,966.797
1742201284.563,966.309,-495.117,966.309,966.797
1742201284.567,966.309,-1000.0,966.797,966.797
1742201284.571,966.309,607.422,970.703,966.797
1742201284.575,974.121,999.512,945.801,971.68
1742201284.532,-883.301,-891.113,926.758,-880.371
1742201284.536,574.219,564.453,984.863,578.125
1742201284.54,999.512,999.512,959.961,999.512
1742201284.544,892.09,892.578,961.426,892.578
1742201284.548,982.422,995.605,945.312,982.91
1742201284.552,966.309,921.387,965.82,966.797
1742201284.556,966.309,975.098,968.262,966.797
1742201284.559,966.309,997.559,965.82,966.797
1742201284.563,966.309,-495.117,966.309,966.797
1742201284.567,966.309,-1000.0,966.797,966.797
1742201284.571,966.309,607.422,970.703,966.797
1742201284.575,974.121,999.512,945.801,971.68
1742201284.577,936.035,861.328,931.152,949.219
1742201284.581,956.055,974.121,953.613,936.035
1742201284.585,999.512,999.512,901.367,999.512
1742201284.589,-259.766,-269.043,-81.543,-71.777
1742201284.593,-1000.0,-1000.0,-988.281,-1000.0
1742201284.597,-935.059,-934.57,-991.699,-956.543
1742201284.601,-1000.0,-1000.0,-927.246,-990.723
1742201284.604,-1000.0,-1000.0,-127.93,-1000.0
1742201284.608,-1000.0,-1000.0,805.176,-1000.0
1742201284.612,-1000.0,-1000.0,962.891,-1000.0
1742201284.616,-931.152,-942.871,746.582,-941.895
1742201284.62,-1000.0,-1000.0,712.402,-1000.0
1742201284.577,936.035,861.328,931.152,949.219
1742201284.581,956.055,974.121,953.613,936.035
1742201284.585,999.512,999.512,901.367,999.512
1742201284.589,-259.766,-269.043,-81.543,-71.777
1742201284.593,-1000.0,-1000.0,-988.281,-1000.0
1742201284.597,-935.059,-934.57,-991.699,-956.543
1742201284.601,-1000.0,-1000.0,-927.246,-990.723
1742201284.604,-1000.0,-1000.0,-127.93,-1000.0
1742201284.608,-1000.0,-1000.0,805.176,-1000.0
1742201284.612,-1000.0,-1000.0,962.891,-1000.0
1742201284.616,-931.152,-942.871,746.582,-941.895
1742201284.62,-1000.0,-1000.0,712.402,-1000.0
1742201284.622,-740.234,-284.668,903.809,-884.766
1742201284.626,734.375,979.98,980.957,572.266
1742201284.63,999.512,969.238,956.055,999.512
1742201284.634,898.926,933.594,979.98,892.578
1742201284.638,983.887,976.562,887.695,982.91
1742201284.642,982.422,983.398,896.484,983.398
1742201284.646,908.691,908.691,970.703,908.691
1742201284.649,999.512,999.512,696.289,999.512
1742201284.653,856.934,851.074,215.332,851.562
1742201284.657,-597.656,-605.957,-489.746,-605.469
1742201284.661,-1000.0,-1000.0,-943.848,-1000.0
1742201284.665,-941.895,-942.383,-988.77,-942.383
1742201284.622,-740.234,-284.668,903.809,-884.766
1742201284.626,734.375,979.98,980.957,572.266
1742201284.63,999.512,969.238,956.055,999.512
1742201284.634,898.926,933.594,979.98,892.578
1742201284.638,983.887,976.562,887.695,982.91
1742201284.642,982.422,983.398,896.484,983.398
1742201284.646,908.691,908.691,970.703,908.691
1742201284.649,999.512,999.512,696.289,999.512
1742201284.653,856.934,851.074,215.332,851.562
1742201284.657,-597.656,-605.957,-489.746,-605.469
1742201284.661,-1000.0,-1000.0,-943.848,-1000.0
1742201284.665,-941.895,-942.383,-988.77,-942.383
1742201284.667,-958.496,-958.008,-995.605,-956.543
1742201284.671,-1000.0,-1000.0,-1000.0,-1000.0
1742201284.675,-891.113,-883.301,-1000.0,-862.793
1742201284.679,563.965,574.219,-1000.0,595.703
1742201284.683,999.512,999.512,-1000.0,999.512
1742201284.687,891.602,892.578,-1000.0,893.555
1742201284.691,982.422,983.398,-1000.0,982.91
1742201284.694,966.309,967.285,-1000.0,966.797
1742201284.698,967.285,983.398,-1000.0,966.797
1742201284.702,977.539,909.18,-1000.0,983.398
1742201284.706,902.344,999.512,-1000.0,908.691
1742201284.71,999.512,842.773,-1000.0,999.512
1742201284.667,-958.496,-958.008,-995.605,-956.543
1742201284.671,-1000.0,-1000.0,-1000.0,-1000.0
1742201284.675,-891.113,-883.301,-1000.0,-862.793
1742201284.679,563.965,574.219,-1000.0,595.703
1742201284.683,999.512,999.512,-1000.0,999.512
1742201284.687,891.602,892.578,-1000.0,893.555
1742201284.691,982.422,983.398,-1000.0,982.91
1742201284.694,966.309,967.285,-1000.0,966.797
1742201284.698,967.285,983.398,-1000.0,966.797
1742201284.702,977.539,909.18,-1000.0,983.398
1742201284.706,902.344,999.512,-1000.0,908.691
1742201284.71,999.512,842.773,-1000.0,999.512
1742201284.712,603.516,-543.945,-944.824,910.156
1742201284.716,-906.25,-1000.0,-1000.0,-659.668
1742201284.72,-948.242,-846.68,-713.379,-1000.0
1742201284.724,619.629,500.977,660.645,640.137
1742201284.728,999.512,999.512,843.262,999.512
1742201284.732,891.602,836.914,681.641,892.578
1742201284.736,981.934,999.512,985.352,982.91
1742201284.739,966.309,875.0,927.734,966.797
1742201284.743,966.309,-570.801,797.852,967.285
1742201284.747,966.309,-1000.0,931.152,966.797
1742201284.751,966.309,-901.855,995.605,966.797
1742201284.755,966.309,-995.605,937.012,967.285
1742201284.757,966.309,-1000.0,826.172,966.797
1742201284.761,966.309,122.07,922.852,966.797
1742201284.765,966.309,999.512,984.863,966.797
1742201284.769,969.727,924.805,958.008,967.773
1742201284.773,956.055,926.758,971.191,973.145
1742201284.777,923.828,969.727,953.613,903.32
1742201284.781,999.512,997.559,994.141,999.512
1742201284.784,50.781,-318.359,885.254,359.375
1742201284.788,-1000.0,-1000.0,720.215,-972.656
1742201284.792,-972.656,-933.105,794.922,-1000.0
1742201284.796,-998.047,-1000.0,688.477,-974.609
1742201284.8,-947.754,-940.918,735.352,-950.684
1742201284.802,-1000.0,-1000.0,652.832,-1000.0
1742201284.806,-891.113,-871.094,552.246,-833.008
1742201284.81,563.965,589.355,520.996,624.512
1742201284.814,999.512,999.512,230.957,999.512
1742201284.818,897.949,907.227,-29.785,899.414
1742201284.822,958.008,933.594,-68.359,970.215
1742201284.826,945.312,999.512,42.969,928.711
1742201284.829,999.512,916.504,188.477,999.512
1742201284.833,-165.039,-498.047,-88.379,10.742
1742201284.837,-1000.0,-1000.0,-142.578,-1000.0
1742201284.841,-961.914,-942.871,354.492,-984.863
1742201284.845,-938.477,-954.102,41.016,-921.387
1742201284.802,-1000.0,-1000.0,652.832,-1000.0
1742201284.806,-891.113,-871.094,552.246,-833.008
1742201284.81,563.965,589.355,520.996,624.512
1742201284.814,999.512,999.512,230.957,999.512
1742201284.818,897.949,907.227,-29.785,899.414
1742201284.822,958.008,933.594,-68.359,970.215
1742201284.826,945.312,999.512,42.969,928.711
1742201284.829,999.512,916.504,188.477,999.512
1742201284.833,-165.039,-498.047,-88.379,10.742
1742201284.837,-1000.0,-1000.0,-142.578,-1000.0
1742201284.841,-961.914,-942.871,354.492,-984.863
1742201284.845,-938.477,-954.102,41.016,-921.387
1742201284.862,-1000.0,-1000.0,-577.148,-1000.0
1742201284.866,-882.812,-876.465,-182.129,-822.754
1742201284.87,574.707,583.984,770.996,642.578
1742201284.874,999.512,999.512,542.48,999.512
1742201284.878,891.602,905.273,12.207,895.508
1742201284.882,982.422,938.965,125.977,983.887
1742201284.886,981.445,987.305,-13.672,974.121
1742201284.889,912.598,950.684,-281.738,940.43
1742201284.893,999.512,-429.688,-148.438,952.148
1742201284.897,884.766,-1000.0,-198.73,999.512
1742201284.901,-527.832,-910.645,-683.594,-164.062
1742201284.905,-1000.0,-979.004,-874.512,-1000.0
1742201284.862,-1000.0,-1000.0,-577.148,-1000.0
1742201284.866,-882.812,-876.465,-182.129,-822.754
1742201284.87,574.707,583.984,770.996,642.578
1742201284.874,999.512,999.512,542.48,999.512
1742201284.878,891.602,905.273,12.207,895.508
1742201284.882,982.422,938.965,125.977,983.887
1742201284.886,981.445,987.305,-13.672,974.121
1742201284.889,912.598,950.684,-281.738,940.43
1742201284.893,999.512,-429.688,-148.438,952.148
1742201284.897,884.766,-1000.0,-198.73,999.512
1742201284.901,-527.832,-910.645,-683.594,-164.062
1742201284.905,-1000.0,-979.004,-874.512,-1000.0
1742201284.907,-1000.0,-1000.0,-548.34,-979.98
1742201284.911,23.438,37.109,98.145,250.488
1742201284.915,999.512,999.512,94.727,999.512
1742201284.919,921.875,922.852,-419.922,904.297
1742201284.923,967.773,972.656,-513.672,976.562
1742201284.927,929.199,913.574,-72.266,940.918
1742201284.931,975.586,999.512,449.219,951.172
1742201284.934,979.492,873.047,261.23,999.512
1742201284.938,-388.672,-590.82,-387.207,-202.637
1742201284.942,-1000.0,-1000.0,-440.918,-1000.0
1742201284.946,-1000.0,-1000.0,281.738,-1000.0
1742201284.95,-592.773,-681.152,910.645,-322.266
1742201284.907,-1000.0,-1000.0,-548.34,-979.98
1742201284.911,23.438,37.109,98.145,250.488
1742201284.915,999.512,999.512,94.727,999.512
1742201284.919,921.875,922.852,-419.922,904.297
1742201284.923,967.773,972.656,-513.672,976.562
1742201284.927,929.199,913.574,-72.266,940.918
1742201284.931,975.586,999.512,449.219,951.172
1742201284.934,979.492,873.047,261.23,999.512
1742201284.938,-388.672,-590.82,-387.207,-202.637
1742201284.942,-1000.0,-1000.0,-440.918,-1000.0
1742201284.946,-1000.0,-1000.0,281.738,-1000.0
1742201284.95,-592.773,-681.152,910.645,-322.266
1742201284.952,858.398,806.152,970.703,953.613
1742201284.956,999.512,999.512,950.195,978.027
1742201284.96,909.668,910.156,972.168,930.176
1742201284.964,997.559,999.512,972.656,992.188
1742201284.968,912.598,703.613,944.336,915.039
1742201284.972,999.512,901.367,984.375,999.512
1742201284.976,888.184,902.344,961.914,904.297
1742201284.979,-549.316,-596.68,296.875,-521.484
1742201284.983,-1000.0,-1000.0,342.773,-1000.0
1742201284.987,-925.781,-925.781,753.418,-925.781
1742201284.991,-1000.0,-1000.0,-83.984,-1000.0
1742201284.995,-1000.0,-1000.0,-928.711,-1000.0
1742201284.997,-1000.0,-1000.0,-1000.0,-1000.0
1742201285.001,-939.941,-937.012,-702.637,-937.5
1742201285.005,-1000.0,-1000.0,-544.434,-1000.0
1742201285.009,-863.77,-425.293,-946.777,-829.59
1742201285.013,599.121,916.016,-1000.0,636.719
1742201285.017,999.512,994.141,-980.957,999.512
1742201285.021,892.578,922.852,-1000.0,895.02
1742201285.024,983.887,981.445,-1000.0,985.84
1742201285.028,973.633,966.797,-1000.0,967.773
1742201285.032,900.879,911.133,-1000.0,911.133
1742201285.036,999.512,999.512,-996.582,999.512
1742201285.04,370.605,235.84,-1000.0,275.879
1742201284.997,-1000.0,-1000.0,-1000.0,-1000.0
1742201285.001,-939.941,-937.012,-702.637,-937.5
1742201285.005,-1000.0,-1000.0,-544.434,-1000.0
1742201285.009,-863.77,-425.293,-946.777,-829.59
1742201285.013,599.121,916.016,-1000.0,636.719
1742201285.017,999.512,994.141,-980.957,999.512
1742201285.021,892.578,922.852,-1000.0,895.02
1742201285.024,983.887,981.445,-1000.0,985.84
1742201285.028,973.633,966.797,-1000.0,967.773
1742201285.032,900.879,911.133,-1000.0,911.133
1742201285.036,999.512,999.512,-996.582,999.512
1742201285.04,370.605,235.84,-1000.0,275.879
1742201285.042,-973.145,-1000.0,-1000.0,-992.676
1742201285.046,-1000.0,-1000.0,-900.391,-1000.0
1742201285.05,-972.656,-938.965,-941.895,-978.027
1742201285.054,-939.453,-998.047,-1000.0,-940.43
1742201285.058,-1000.0,-1000.0,-1000.0,-1000.0
1742201285.062,-592.773,195.312,-930.664,-594.727
1742201285.066,851.074,999.512,-717.773,837.402
1742201285.069,999.512,907.715,-930.176,999.512
1742201285.073,922.852,983.398,-1000.0,922.852
1742201285.077,934.57,909.668,-984.375,935.547
1742201285.081,995.117,999.512,-1000.0,994.141
1742201285.085,930.176,852.539,-1000.0,935.059
1742201285.042,-973.145,-1000.0,-1000.0,-992.676
1742201285.046,-1000.0,-1000.0,-900.391,-1000.0
1742201285.05,-972.656,-938.965,-941.895,-978.027
1742201285.054,-939.453,-998.047,-1000.0,-940.43
1742201285.058,-1000.0,-1000.0,-1000.0,-1000.0
1742201285.062,-592.773,195.312,-930.664,-594.727
1742201285.066,851.074,999.512,-717.773,837.402
1742201285.069,999.512,907.715,-930.176,999.512
1742201285.073,922.852,983.398,-1000.0,922.852
1742201285.077,934.57,909.668,-984.375,935.547
1742201285.081,995.117,999.512,-1000.0,994.141
1742201285.085,930.176,852.539,-1000.0,935.059
1742201285.102,-475.098,-604.98,-1000.0,-463.867
1742201285.106,-1000.0,-1000.0,-992.188,-1000.0
1742201285.11,-943.359,-920.41,-1000.0,-943.848
1742201285.114,-939.941,-969.727,-988.77,-941.406
1742201285.118,-1000.0,-1000.0,-750.0,-1000.0
1742201285.122,-674.316,-189.453,-553.711,-691.895
1742201285.126,797.363,996.094,-593.75,775.391
1742201285.129,999.512,958.984,-937.5,999.512
1742201285.133,917.969,955.566,-1000.0,917.969
1742201285.137,931.152,919.434,-664.062,930.664
1742201285.141,999.512,999.512,-560.547,999.512
1742201285.145,899.414,875.488,-779.785,894.531
1742201285.102,-475.098,-604.98,-1000.0,-463.867
1742201285.106,-1000.0,-1000.0,-992.188,-1000.0
1742201285.11,-943.359,-920.41,-1000.0,-943.848
1742201285.114,-939.941,-969.727,-988.77,-941.406
1742201285.118,-1000.0,-1000.0,-750.0,-1000.0
1742201285.122,-674.316,-189.453,-553.711,-691.895
1742201285.126,797.363,996.094,-593.75,775.391
1742201285.129,999.512,958.984,-937.5,999.512
1742201285.133,917.969,955.566,-1000.0,917.969
1742201285.137,931.152,919.434,-664.062,930.664
1742201285.141,999.512,999.512,-560.547,999.512
1742201285.145,899.414,875.488,-779.785,894.531
1742201285.132,-531.738,-569.824,-990.723,-539.062
1742201285.136,-1000.0,-1000.0,-972.656,-1000.0
1742201285.14,-933.594,-942.383,-714.355,-932.129
1742201285.144,-983.887,-954.59,-576.66,-990.723
1742201285.148,-990.234,-1000.0,-678.223,-979.98
1742201285.152,-1000.0,-850.586,-724.121,-1000.0
1742201285.156,226.074,611.328,-501.953,122.07
1742201285.159,999.512,999.512,-581.055,999.512
1742201285.163,830.078,823.73,-794.434,850.098
1742201285.167,999.512,999.512,-766.602,999.512
1742201285.171,674.316,690.43,-960.449,479.98
1742201285.175,-801.758,-787.598,-1000.0,-901.855
1742201285.132,-531.738,-569.824,-990.723,-539.062
1742201285.136,-1000.0,-1000.0,-972.656,-1000.0
1742201285.14,-933.594,-942.383,-714.355,-932.129
1742201285.144,-983.887,-954.59,-576.66,-990.723
1742201285.148,-990.234,-1000.0,-678.223,-979.98
1742201285.152,-1000.0,-850.586,-724.121,-1000.0
1742201285.156,226.074,611.328,-501.953,122.07
1742201285.159,999.512,999.512,-581.055,999.512
1742201285.163,830.078,823.73,-794.434,850.098
1742201285.167,999.512,999.512,-766.602,999.512
1742201285.171,674.316,690.43,-960.449,479.98
1742201285.175,-801.758,-787.598,-1000.0,-901.855
1742201285.178,-1000.0,-1000.0,-974.121,-1000.0
1742201285.182,-934.57,-933.594,-932.129,-949.219
1742201285.186,-1000.0,-1000.0,-981.934,-1000.0
1742201285.19,-965.332,-943.848,-997.559,-1000.0
1742201285.194,-983.887,-1000.0,-1000.0,-920.41
1742201285.198,-1000.0,-957.031,-698.73,-1000.0
1742201285.202,335.449,596.191,-235.84,-667.969
1742201285.205,995.605,997.559,-584.473,581.543
1742201285.209,-665.527,-643.555,-1000.0,-537.109
1742201285.213,-1000.0,-1000.0,-947.266,-1000.0
1742201285.217,-925.781,-925.781,-554.199,-910.645
1742201285.221,-1000.0,-1000.0,-120.117,-1000.0
1742201285.222,-1000.0,-1000.0,-82.52,-1000.0
1742201285.226,-936.523,-929.199,-147.461,-948.242
1742201285.23,-1000.0,-1000.0,-152.344,-1000.0
1742201285.234,-806.641,-670.898,92.773,-916.016
1742201285.238,590.82,724.609,399.414,429.199
1742201285.242,999.512,999.512,148.438,999.512
1742201285.246,785.156,793.457,-135.254,659.18
1742201285.249,-580.566,-580.566,-541.504,-716.309
1742201285.253,-1000.0,-1000.0,-263.184,-1000.0
1742201285.257,-925.781,-925.781,246.582,-932.129
1742201285.261,-1000.0,-1000.0,45.898,-1000.0
1742201285.265,-941.895,-941.406,-124.512,-942.383
1742201285.282,-1000.0,-1000.0,-297.852,-1000.0
1742201285.286,-885.254,-875.977,48.828,-891.113
1742201285.29,571.777,583.496,823.73,564.453
1742201285.294,999.512,999.512,464.355,999.512
1742201285.298,892.09,892.578,-135.742,892.09
1742201285.302,982.422,983.887,-95.215,982.422
1742201285.306,982.422,978.027,-68.848,983.398
1742201285.309,908.203,901.367,28.32,908.203
1742201285.313,999.512,999.512,-56.641,999.512
1742201285.317,852.539,529.297,-270.508,847.168
1742201285.321,-604.004,-870.605,-371.094,-611.328
1742201285.325,-1000.0,-1000.0,-84.961,-1000.0
1742201285.282,-1000.0,-1000.0,-297.852,-1000.0
1742201285.286,-885.254,-875.977,48.828,-891.113
1742201285.29,571.777,583.496,823.73,564.453
1742201285.294,999.512,999.512,464.355,999.512
1742201285.298,892.09,892.578,-135.742,892.09
1742201285.302,982.422,983.887,-95.215,982.422
1742201285.306,982.422,978.027,-68.848,983.398
1742201285.309,908.203,901.367,28.32,908.203
1742201285.313,999.512,999.512,-56.641,999.512
1742201285.317,852.539,529.297,-270.508,847.168
1742201285.321,-604.004,-870.605,-371.094,-611.328
1742201285.325,-1000.0,-1000.0,-84.961,-1000.0
1742201285.332,-925.781,-945.312,222.656,-926.27
1742201285.336,-1000.0,-1000.0,309.082,-1000.0
1742201285.34,-989.258,-957.52,45.898,-996.094
1742201285.344,-958.984,-1000.0,-298.828,-949.219
1742201285.348,-1000.0,-980.957,-447.266,-1000.0
1742201285.352,-109.375,345.215,72.754,-247.07
1742201285.356,999.512,999.512,313.965,999.512
1742201285.359,954.59,920.898,-439.941,915.039
1742201285.363,-382.812,-337.891,-803.711,-505.859
1742201285.367,-1000.0,-1000.0,-383.301,-1000.0
