timestamps,TP9,AF7,AF8,TP10
1742203330.783,-881.348,-318.848,-129.883,-982.91
1742203330.787,-788.574,61.523,-102.051,-584.961
1742203330.791,832.031,348.633,-96.191,913.086
1742203330.795,999.512,44.922,-119.141,999.512
1742203330.799,900.391,-64.453,-125.0,914.062
1742203330.803,983.887,81.055,-90.82,981.445
1742203330.807,966.309,105.957,-48.34,966.797
1742203330.81,966.309,4.883,-43.945,966.797
1742203330.814,966.309,-125.488,-120.117,967.285
1742203330.818,966.309,-89.355,-169.434,966.797
1742203330.822,966.309,-50.293,-136.719,966.797
1742203330.826,974.121,-44.922,-86.426,967.285
1742203330.83,937.012,-9.277,-42.48,980.469
1742203330.834,940.918,12.695,-24.414,888.184
1742203330.838,999.512,-24.902,-75.195,999.512
1742203330.842,-287.598,-266.113,-91.309,617.188
1742203330.846,-1000.0,-238.77,-64.453,-616.211
1742203330.85,621.582,330.566,-36.133,509.277
1742203330.854,999.512,140.137,-43.945,999.512
1742203330.857,890.137,-275.391,-79.59,878.418
1742203330.861,981.934,-205.078,-62.012,983.398
1742203330.865,968.75,-24.902,10.254,966.797
1742203330.869,962.891,24.902,41.992,983.398
1742203330.873,905.762,-45.898,20.508,889.648
1742203330.83,937.012,-9.277,-42.48,980.469
1742203330.834,940.918,12.695,-24.414,888.184
1742203330.838,999.512,-24.902,-75.195,999.512
1742203330.842,-287.598,-266.113,-91.309,617.188
1742203330.846,-1000.0,-238.77,-64.453,-616.211
1742203330.85,621.582,330.566,-36.133,509.277
1742203330.854,999.512,140.137,-43.945,999.512
1742203330.857,890.137,-275.391,-79.59,878.418
1742203330.861,981.934,-205.078,-62.012,983.398
1742203330.865,968.75,-24.902,10.254,966.797
1742203330.869,962.891,24.902,41.992,983.398
1742203330.873,905.762,-45.898,20.508,889.648
1742203330.873,999.512,-98.633,-9.766,999.512
1742203330.877,188.965,-241.211,-12.695,739.746
1742203330.881,-1000.0,-286.621,28.809,-602.539
1742203330.885,328.125,221.191,60.547,405.762
1742203330.889,999.512,223.633,21.484,999.512
1742203330.893,887.207,-70.312,-18.066,876.465
1742203330.897,973.633,-110.352,-20.508,980.957
1742203330.9,970.215,-152.832,-25.391,967.285
1742203330.904,953.125,-178.711,-15.137,981.445
1742203330.908,919.434,-85.449,4.883,884.766
1742203330.912,999.512,-55.176,-22.461,999.512
1742203330.916,20.02,-305.664,-50.781,598.633
1742203330.873,999.512,-98.633,-9.766,999.512
1742203330.877,188.965,-241.211,-12.695,739.746
1742203330.881,-1000.0,-286.621,28.809,-602.539
1742203330.885,328.125,221.191,60.547,405.762
1742203330.889,999.512,223.633,21.484,999.512
1742203330.893,887.207,-70.312,-18.066,876.465
1742203330.897,973.633,-110.352,-20.508,980.957
1742203330.9,970.215,-152.832,-25.391,967.285
1742203330.904,953.125,-178.711,-15.137,981.445
1742203330.908,919.434,-85.449,4.883,884.766
1742203330.912,999.512,-55.176,-22.461,999.512
1742203330.916,20.02,-305.664,-50.781,598.633
1742203330.921,-1000.0,-310.547,-14.648,-738.281
1742203330.925,309.082,292.48,50.293,418.945
1742203330.929,999.512,318.359,40.527,999.512
1742203330.933,893.066,-87.402,-12.695,876.465
1742203330.937,971.68,-164.551,-7.324,980.469
1742203330.941,966.309,60.547,42.48,966.797
1742203330.945,982.91,122.07,65.43,981.934
1742203330.948,907.227,-55.664,30.273,913.574
1742203330.952,999.512,-72.754,6.348,998.047
1742203330.956,906.738,-83.984,-27.344,959.473
1742203330.96,-702.637,-335.938,-62.5,-649.902
1742203330.964,-895.508,-3.906,-19.043,-641.602
1742203330.963,771.484,340.82,-8.301,946.777
1742203330.967,999.512,34.18,-77.148,995.605
1742203330.971,895.996,-124.512,-104.98,915.527
1742203330.975,983.887,-74.707,-69.824,980.957
1742203330.979,981.934,39.551,-15.137,979.004
1742203330.983,910.645,122.07,6.348,923.828
1742203330.987,999.023,44.434,-12.207,968.262
1742203330.99,928.711,-108.398,-53.223,999.512
1742203330.994,-629.395,-521.973,-53.711,-486.816
1742203330.998,-1000.0,-234.863,-29.297,-959.961
1742203331.002,638.184,297.852,-24.902,709.961
1742203331.006,999.512,41.016,-35.156,999.512
1742203331.009,891.602,-185.059,-56.641,895.02
1742203331.013,981.934,-150.879,-58.105,983.398
1742203331.017,966.309,-50.781,-19.043,966.797
1742203331.021,966.309,-14.16,20.508,966.797
1742203331.025,966.309,-65.43,19.043,966.797
1742203331.029,966.797,-41.992,10.254,966.797
1742203331.033,964.355,-120.117,4.883,966.797
1742203331.036,974.609,-101.074,25.391,971.68
1742203331.04,927.246,-55.664,48.34,952.637
1742203331.044,965.332,-64.453,43.457,916.992
1742203331.048,999.512,-56.641,20.996,999.512
1742203331.052,-382.812,-375.977,8.301,-42.48
1742203331.009,891.602,-185.059,-56.641,895.02
1742203331.013,981.934,-150.879,-58.105,983.398
1742203331.017,966.309,-50.781,-19.043,966.797
1742203331.021,966.309,-14.16,20.508,966.797
1742203331.025,966.309,-65.43,19.043,966.797
1742203331.029,966.797,-41.992,10.254,966.797
1742203331.033,964.355,-120.117,4.883,966.797
1742203331.036,974.609,-101.074,25.391,971.68
1742203331.04,927.246,-55.664,48.34,952.637
1742203331.044,965.332,-64.453,43.457,916.992
1742203331.048,999.512,-56.641,20.996,999.512
1742203331.052,-382.812,-375.977,8.301,-42.48
1742203331.068,-1000.0,-332.031,20.508,-1000.0
1742203331.072,406.25,277.832,60.059,540.527
1742203331.076,999.512,171.875,41.504,999.512
1742203331.08,895.02,-169.922,-18.555,887.695
1742203331.084,974.121,-143.066,-42.969,980.957
1742203331.088,966.309,52.734,-8.301,966.797
1742203331.092,966.309,83.984,32.715,967.285
1742203331.095,966.309,-84.961,22.949,966.797
1742203331.099,966.309,-179.688,-1.953,967.285
1742203331.103,966.309,-107.422,-17.578,967.285
1742203331.107,966.797,-82.52,-12.207,966.797
1742203331.111,978.027,-61.035,17.578,983.887
1742203331.068,-1000.0,-332.031,20.508,-1000.0
1742203331.072,406.25,277.832,60.059,540.527
1742203331.076,999.512,171.875,41.504,999.512
1742203331.08,895.02,-169.922,-18.555,887.695
1742203331.084,974.121,-143.066,-42.969,980.957
1742203331.088,966.309,52.734,-8.301,966.797
1742203331.092,966.309,83.984,32.715,967.285
1742203331.095,966.309,-84.961,22.949,966.797
1742203331.099,966.309,-179.688,-1.953,967.285
1742203331.103,966.309,-107.422,-17.578,967.285
1742203331.107,966.797,-82.52,-12.207,966.797
1742203331.111,978.027,-61.035,17.578,983.887
1742203331.114,897.949,-81.543,12.207,902.832
1742203331.118,999.512,-43.945,-36.621,999.512
1742203331.122,570.801,-148.926,-81.543,860.352
1742203331.126,-1000.0,-380.371,-81.543,-761.23
1742203331.13,-692.871,-4.883,-28.809,-344.727
1742203331.134,871.094,363.281,-10.742,999.512
1742203331.138,999.512,73.73,-56.152,947.754
1742203331.141,904.785,-198.242,-74.707,936.523
1742203331.145,983.398,-134.766,-53.711,975.586
1742203331.149,981.934,48.34,-39.062,977.051
1742203331.153,910.156,44.434,-28.809,929.199
1742203331.157,999.512,-16.113,-43.457,957.031
1742203331.114,897.949,-81.543,12.207,902.832
1742203331.118,999.512,-43.945,-36.621,999.512
1742203331.122,570.801,-148.926,-81.543,860.352
1742203331.126,-1000.0,-380.371,-81.543,-761.23
1742203331.13,-692.871,-4.883,-28.809,-344.727
1742203331.134,871.094,363.281,-10.742,999.512
1742203331.138,999.512,73.73,-56.152,947.754
1742203331.141,904.785,-198.242,-74.707,936.523
1742203331.145,983.398,-134.766,-53.711,975.586
1742203331.149,981.934,48.34,-39.062,977.051
1742203331.153,910.156,44.434,-28.809,929.199
1742203331.157,999.512,-16.113,-43.457,957.031
1742203331.158,928.223,-62.5,-74.219,999.512
1742203331.162,-630.371,-419.922,-58.105,-410.645
1742203331.166,-1000.0,-226.074,-27.832,-984.375
1742203331.17,638.184,280.273,-19.531,675.293
1742203331.174,999.512,145.996,-43.457,999.512
1742203331.178,891.602,-62.988,-80.566,894.531
1742203331.182,981.934,-99.121,-71.289,934.57
1742203331.185,983.887,-111.816,-44.434,958.984
1742203331.189,899.414,-104.004,-35.645,913.086
1742203331.193,999.512,-35.156,-61.035,999.512
1742203331.197,773.438,-172.852,-96.191,849.121
1742203331.201,-704.59,-412.109,-104.98,-669.434
1742203331.158,928.223,-62.5,-74.219,999.512
1742203331.162,-630.371,-419.922,-58.105,-410.645
1742203331.166,-1000.0,-226.074,-27.832,-984.375
1742203331.17,638.184,280.273,-19.531,675.293
1742203331.174,999.512,145.996,-43.457,999.512
1742203331.178,891.602,-62.988,-80.566,894.531
1742203331.182,981.934,-99.121,-71.289,934.57
1742203331.185,983.887,-111.816,-44.434,958.984
1742203331.189,899.414,-104.004,-35.645,913.086
1742203331.193,999.512,-35.156,-61.035,999.512
1742203331.197,773.438,-172.852,-96.191,849.121
1742203331.201,-704.59,-412.109,-104.98,-669.434
1742203331.206,-1000.0,-185.547,-64.453,-1000.0
1742203331.21,188.477,259.277,-21.484,406.738
1742203331.214,999.512,207.52,-23.438,999.512
1742203331.218,999.512,-35.156,-25.391,999.512
1742203331.222,68.848,-295.898,-6.836,-14.16
1742203331.226,-1000.0,-211.426,20.996,-1000.0
1742203331.23,125.488,280.762,24.902,348.145
1742203331.233,999.512,108.887,-9.277,999.512
1742203331.237,969.727,-167.48,-37.109,976.562
1742203331.241,856.934,-151.367,-24.902,752.441
1742203331.245,-797.363,-285.645,1.465,-832.031
1742203331.249,-636.23,26.855,43.457,-276.855
1742203331.206,-1000.0,-185.547,-64.453,-1000.0
1742203331.21,188.477,259.277,-21.484,406.738
1742203331.214,999.512,207.52,-23.438,999.512
1742203331.218,999.512,-35.156,-25.391,999.512
1742203331.222,68.848,-295.898,-6.836,-14.16
1742203331.226,-1000.0,-211.426,20.996,-1000.0
1742203331.23,125.488,280.762,24.902,348.145
1742203331.233,999.512,108.887,-9.277,999.512
1742203331.237,969.727,-167.48,-37.109,976.562
1742203331.241,856.934,-151.367,-24.902,752.441
1742203331.245,-797.363,-285.645,1.465,-832.031
1742203331.249,-636.23,26.855,43.457,-276.855
1742203331.206,-1000.0,-185.547,-64.453,-1000.0
1742203331.21,188.477,259.277,-21.484,406.738
1742203331.214,999.512,207.52,-23.438,999.512
1742203331.218,999.512,-35.156,-25.391,999.512
1742203331.222,68.848,-295.898,-6.836,-14.16
1742203331.226,-1000.0,-211.426,20.996,-1000.0
1742203331.23,125.488,280.762,24.902,348.145
1742203331.233,999.512,108.887,-9.277,999.512
1742203331.237,969.727,-167.48,-37.109,976.562
1742203331.241,856.934,-151.367,-24.902,752.441
1742203331.245,-797.363,-285.645,1.465,-832.031
1742203331.249,-636.23,26.855,43.457,-276.855
1742203331.248,878.906,207.52,62.012,999.512
1742203331.252,999.512,25.879,39.062,999.512
1742203331.256,585.938,-186.035,25.879,489.258
1742203331.26,-952.148,-361.816,48.34,-1000.0
1742203331.264,-788.574,6.348,76.172,-609.375
1742203331.268,720.215,262.695,66.406,819.336
1742203331.272,999.512,7.812,32.227,999.512
1742203331.275,729.98,-239.746,-3.906,645.508
1742203331.279,-772.461,-566.895,-21.484,-846.191
1742203331.283,-967.773,-219.727,15.625,-891.113
1742203331.287,560.059,222.168,25.879,634.766
1742203331.291,999.512,-44.922,-5.371,999.512
1742203331.248,878.906,207.52,62.012,999.512
1742203331.252,999.512,25.879,39.062,999.512
1742203331.256,585.938,-186.035,25.879,489.258
1742203331.26,-952.148,-361.816,48.34,-1000.0
1742203331.264,-788.574,6.348,76.172,-609.375
1742203331.268,720.215,262.695,66.406,819.336
1742203331.272,999.512,7.812,32.227,999.512
1742203331.275,729.98,-239.746,-3.906,645.508
1742203331.279,-772.461,-566.895,-21.484,-846.191
1742203331.283,-967.773,-219.727,15.625,-891.113
1742203331.287,560.059,222.168,25.879,634.766
1742203331.291,999.512,-44.922,-5.371,999.512
1742203331.295,597.656,-362.305,-14.16,469.727
1742203331.299,-877.441,-524.414,-30.762,-933.105
1742203331.303,-971.191,-226.562,-13.184,-928.711
1742203331.307,516.602,125.977,-13.184,536.133
1742203331.311,999.512,-27.344,-44.922,999.512
1742203331.315,802.246,-193.359,-59.57,717.773
1742203331.319,-657.227,-450.684,-69.336,-753.418
1742203331.322,-1000.0,-279.297,-59.57,-986.328
1742203331.326,485.84,106.445,-47.363,539.062
1742203331.33,999.512,-25.879,-50.293,999.512
1742203331.334,785.645,-294.922,-60.059,711.426
1742203331.338,-595.215,-479.98,-36.133,-695.801
1742203331.295,597.656,-362.305,-14.16,469.727
1742203331.299,-877.441,-524.414,-30.762,-933.105
1742203331.303,-971.191,-226.562,-13.184,-928.711
1742203331.307,516.602,125.977,-13.184,536.133
1742203331.311,999.512,-27.344,-44.922,999.512
1742203331.315,802.246,-193.359,-59.57,717.773
1742203331.319,-657.227,-450.684,-69.336,-753.418
1742203331.322,-1000.0,-279.297,-59.57,-986.328
1742203331.326,485.84,106.445,-47.363,539.062
1742203331.33,999.512,-25.879,-50.293,999.512
1742203331.334,785.645,-294.922,-60.059,711.426
1742203331.338,-595.215,-479.98,-36.133,-695.801
1742203331.338,-1000.0,-267.09,20.02,-1000.0
1742203331.342,171.875,167.969,43.457,279.785
1742203331.346,999.512,117.188,23.438,999.512
1742203331.35,788.574,-277.344,-4.883,725.586
1742203331.354,-541.504,-470.215,7.812,-625.0
1742203331.358,-1000.0,-177.734,58.594,-1000.0
1742203331.362,-360.352,144.531,56.152,-202.148
1742203331.365,989.746,57.129,-9.277,999.512
1742203331.369,848.145,-323.242,-51.758,752.441
1742203331.373,-583.496,-489.746,-67.383,-650.391
1742203331.377,-1000.0,-219.727,-51.27,-1000.0
1742203331.381,-803.223,-67.871,-20.996,-708.984
1742203331.338,-1000.0,-267.09,20.02,-1000.0
1742203331.342,171.875,167.969,43.457,279.785
1742203331.346,999.512,117.188,23.438,999.512
1742203331.35,788.574,-277.344,-4.883,725.586
1742203331.354,-541.504,-470.215,7.812,-625.0
1742203331.358,-1000.0,-177.734,58.594,-1000.0
1742203331.362,-360.352,144.531,56.152,-202.148
1742203331.365,989.746,57.129,-9.277,999.512
1742203331.369,848.145,-323.242,-51.758,752.441
1742203331.373,-583.496,-489.746,-67.383,-650.391
1742203331.377,-1000.0,-219.727,-51.27,-1000.0
1742203331.381,-803.223,-67.871,-20.996,-708.984
1742203331.398,691.406,107.91,-50.781,770.02
1742203331.402,944.336,-62.5,-88.379,918.457
1742203331.406,-612.305,-439.941,-90.332,-611.328
1742203331.41,-1000.0,-273.438,-81.055,-1000.0
1742203331.414,-871.094,-20.508,-50.781,-860.352
1742203331.418,593.262,387.207,-19.043,616.211
1742203331.422,988.281,105.469,-69.336,966.797
1742203331.425,-584.473,-535.645,-121.094,-610.84
1742203331.429,-1000.0,-324.707,-99.121,-1000.0
1742203331.433,-927.246,11.719,-79.59,-916.992
1742203331.437,429.688,300.781,-88.867,481.934
1742203331.441,995.117,25.879,-119.629,931.152
1742203331.398,691.406,107.91,-50.781,770.02
1742203331.402,944.336,-62.5,-88.379,918.457
1742203331.406,-612.305,-439.941,-90.332,-611.328
1742203331.41,-1000.0,-273.438,-81.055,-1000.0
1742203331.414,-871.094,-20.508,-50.781,-860.352
1742203331.418,593.262,387.207,-19.043,616.211
1742203331.422,988.281,105.469,-69.336,966.797
1742203331.425,-584.473,-535.645,-121.094,-610.84
1742203331.429,-1000.0,-324.707,-99.121,-1000.0
1742203331.433,-927.246,11.719,-79.59,-916.992
1742203331.437,429.688,300.781,-88.867,481.934
1742203331.441,995.117,25.879,-119.629,931.152
1742203331.429,-446.777,-469.727,-136.23,-558.594
1742203331.433,-1000.0,-270.02,-103.516,-1000.0
1742203331.437,-926.758,12.695,-61.523,-924.805
1742203331.441,366.211,258.301,-40.527,419.434
1742203331.445,999.512,123.535,-65.918,999.512
1742203331.449,-29.785,-287.109,-102.539,-288.086
1742203331.453,-1000.0,-283.691,-81.055,-1000.0
1742203331.456,-1000.0,-107.422,-29.297,-1000.0
1742203331.46,-280.762,27.832,-18.066,-110.84
1742203331.464,999.512,103.516,-45.898,999.512
1742203331.468,310.059,-292.48,-54.199,20.996
1742203331.472,-955.078,-375.488,-26.367,-1000.0
1742203331.429,-446.777,-469.727,-136.23,-558.594
1742203331.433,-1000.0,-270.02,-103.516,-1000.0
1742203331.437,-926.758,12.695,-61.523,-924.805
1742203331.441,366.211,258.301,-40.527,419.434
1742203331.445,999.512,123.535,-65.918,999.512
1742203331.449,-29.785,-287.109,-102.539,-288.086
1742203331.453,-1000.0,-283.691,-81.055,-1000.0
1742203331.456,-1000.0,-107.422,-29.297,-1000.0
1742203331.46,-280.762,27.832,-18.066,-110.84
1742203331.464,999.512,103.516,-45.898,999.512
1742203331.468,310.059,-292.48,-54.199,20.996
1742203331.472,-955.078,-375.488,-26.367,-1000.0
1742203331.489,-1000.0,-160.156,-3.906,-1000.0
1742203331.493,-457.52,70.312,41.504,-332.52
1742203331.497,999.512,206.055,23.438,999.512
1742203331.501,638.672,-150.879,-35.645,378.418
1742203331.505,-835.938,-407.715,-34.18,-950.195
1742203331.509,-1000.0,-100.098,-2.93,-1000.0
1742203331.513,-299.805,154.297,14.648,-174.316
1742203331.516,999.512,89.355,-21.484,999.512
1742203331.52,808.105,-221.68,-40.527,667.48
1742203331.524,-637.207,-353.516,-5.859,-759.766
1742203331.528,-1000.0,-151.855,15.137,-1000.0
1742203331.532,-289.062,136.23,18.555,-116.699
1742203331.533,999.512,165.527,-3.906,999.512
1742203331.537,844.727,-198.73,-5.859,783.691
1742203331.541,-559.57,-431.641,-16.602,-602.539
1742203331.545,-1000.0,-231.934,10.742,-1000.0
1742203331.549,-639.16,103.027,46.875,-527.832
1742203331.553,850.586,288.574,5.859,895.996
1742203331.557,906.25,-43.457,-49.805,887.207
1742203331.56,-594.238,-464.355,-89.844,-586.426
1742203331.564,-1000.0,-353.516,-98.633,-1000.0
1742203331.568,-770.02,34.18,-69.824,-673.34
1742203331.572,684.57,271.484,-52.734,779.297
1742203331.576,999.512,5.859,-59.082,963.379
1742203331.533,999.512,165.527,-3.906,999.512
1742203331.537,844.727,-198.73,-5.859,783.691
1742203331.541,-559.57,-431.641,-16.602,-602.539
1742203331.545,-1000.0,-231.934,10.742,-1000.0
1742203331.549,-639.16,103.027,46.875,-527.832
1742203331.553,850.586,288.574,5.859,895.996
1742203331.557,906.25,-43.457,-49.805,887.207
1742203331.56,-594.238,-464.355,-89.844,-586.426
1742203331.564,-1000.0,-353.516,-98.633,-1000.0
1742203331.568,-770.02,34.18,-69.824,-673.34
1742203331.572,684.57,271.484,-52.734,779.297
1742203331.576,999.512,5.859,-59.082,963.379
1742203331.58,-458.496,-404.297,-52.246,-523.438
1742203331.584,-1000.0,-251.953,35.156,-1000.0
1742203331.588,-813.965,114.746,104.98,-769.043
1742203331.592,517.09,258.789,108.887,609.375
1742203331.596,999.512,35.156,82.52,999.512
1742203331.6,99.121,-192.871,44.434,-135.742
1742203331.604,-1000.0,-245.605,50.781,-1000.0
1742203331.607,-863.281,-49.805,72.754,-828.613
1742203331.611,519.043,218.262,48.34,548.34
1742203331.615,999.512,38.574,5.371,999.512
1742203331.619,397.461,-278.809,-25.879,171.875
1742203331.623,-992.676,-343.262,-20.996,-1000.0
1742203331.58,-458.496,-404.297,-52.246,-523.438
1742203331.584,-1000.0,-251.953,35.156,-1000.0
1742203331.588,-813.965,114.746,104.98,-769.043
1742203331.592,517.09,258.789,108.887,609.375
1742203331.596,999.512,35.156,82.52,999.512
1742203331.6,99.121,-192.871,44.434,-135.742
1742203331.604,-1000.0,-245.605,50.781,-1000.0
1742203331.607,-863.281,-49.805,72.754,-828.613
1742203331.611,519.043,218.262,48.34,548.34
1742203331.615,999.512,38.574,5.371,999.512
1742203331.619,397.461,-278.809,-25.879,171.875
1742203331.623,-992.676,-343.262,-20.996,-1000.0
1742203331.623,-901.855,-37.109,8.301,-852.051
1742203331.627,541.504,272.461,8.301,552.246
1742203331.631,999.512,57.617,-34.668,999.512
1742203331.635,707.52,-237.305,-76.172,587.402
1742203331.639,-791.504,-348.145,-40.039,-867.676
1742203331.643,-963.867,-29.785,17.09,-932.129
1742203331.647,571.289,306.152,20.508,571.289
1742203331.65,999.512,7.812,-29.785,999.512
1742203331.654,800.781,-360.352,-68.848,725.586
1742203331.658,-667.969,-461.914,-42.969,-747.559
1742203331.662,-1000.0,-93.262,11.23,-984.375
1742203331.666,521.484,221.191,33.691,550.781
1742203331.623,-901.855,-37.109,8.301,-852.051
1742203331.627,541.504,272.461,8.301,552.246
1742203331.631,999.512,57.617,-34.668,999.512
1742203331.635,707.52,-237.305,-76.172,587.402
1742203331.639,-791.504,-348.145,-40.039,-867.676
1742203331.643,-963.867,-29.785,17.09,-932.129
1742203331.647,571.289,306.152,20.508,571.289
1742203331.65,999.512,7.812,-29.785,999.512
1742203331.654,800.781,-360.352,-68.848,725.586
1742203331.658,-667.969,-461.914,-42.969,-747.559
1742203331.662,-1000.0,-93.262,11.23,-984.375
1742203331.666,521.484,221.191,33.691,550.781
1742203331.67,999.512,-41.016,14.16,999.512
1742203331.674,804.199,-224.609,-6.836,809.082
1742203331.678,-558.594,-416.016,3.906,-593.262
1742203331.682,-1000.0,-256.836,47.363,-1000.0
1742203331.686,120.605,174.316,73.242,288.574
1742203331.69,999.512,254.395,72.754,999.512
1742203331.694,826.66,-84.961,41.992,823.242
1742203331.697,-501.465,-523.926,-0.488,-525.879
1742203331.701,-1000.0,-326.172,26.367,-1000.0
1742203331.705,-317.871,161.621,68.848,-66.406
1742203331.709,991.699,231.445,57.617,999.512
1742203331.713,884.766,-92.285,15.625,848.145
1742203331.714,-507.812,-415.527,0.488,-516.113
1742203331.718,-1000.0,-222.168,41.504,-1000.0
1742203331.722,-597.168,86.914,69.824,-411.133
1742203331.726,765.137,142.578,56.152,871.094
1742203331.73,993.164,-61.035,35.156,889.16
1742203331.734,-114.746,-260.742,27.344,-241.211
1742203331.738,-1000.0,-252.93,56.641,-1000.0
1742203331.741,-877.441,-89.355,80.566,-776.855
1742203331.745,581.055,73.242,67.383,696.777
1742203331.749,999.512,-24.414,39.551,999.512
1742203331.753,-275.879,-419.434,-8.301,-369.629
1742203331.757,-1000.0,-389.648,-2.441,-1000.0
1742203331.714,-507.812,-415.527,0.488,-516.113
1742203331.718,-1000.0,-222.168,41.504,-1000.0
1742203331.722,-597.168,86.914,69.824,-411.133
1742203331.726,765.137,142.578,56.152,871.094
1742203331.73,993.164,-61.035,35.156,889.16
1742203331.734,-114.746,-260.742,27.344,-241.211
1742203331.738,-1000.0,-252.93,56.641,-1000.0
1742203331.741,-877.441,-89.355,80.566,-776.855
1742203331.745,581.055,73.242,67.383,696.777
1742203331.749,999.512,-24.414,39.551,999.512
1742203331.753,-275.879,-419.434,-8.301,-369.629
1742203331.757,-1000.0,-389.648,-2.441,-1000.0
1742203331.76,-818.359,-44.434,36.133,-800.293
1742203331.764,494.629,218.262,22.461,544.434
1742203331.768,999.512,36.133,-26.367,999.512
1742203331.772,369.629,-270.508,-42.48,136.719
1742203331.776,-1000.0,-413.574,-29.297,-1000.0
1742203331.78,-916.016,-37.109,-13.672,-867.188
1742203331.784,552.734,282.715,3.906,586.426
1742203331.787,999.512,-71.777,-5.371,999.512
1742203331.791,178.711,-466.309,-29.297,5.859
1742203331.795,-1000.0,-417.48,-12.695,-1000.0
1742203331.799,-953.613,-114.746,34.668,-896.973
1742203331.803,381.348,184.57,59.082,436.035
1742203331.76,-818.359,-44.434,36.133,-800.293
1742203331.764,494.629,218.262,22.461,544.434
1742203331.768,999.512,36.133,-26.367,999.512
1742203331.772,369.629,-270.508,-42.48,136.719
1742203331.776,-1000.0,-413.574,-29.297,-1000.0
1742203331.78,-916.016,-37.109,-13.672,-867.188
1742203331.784,552.734,282.715,3.906,586.426
1742203331.787,999.512,-71.777,-5.371,999.512
1742203331.791,178.711,-466.309,-29.297,5.859
1742203331.795,-1000.0,-417.48,-12.695,-1000.0
1742203331.799,-953.613,-114.746,34.668,-896.973
1742203331.803,381.348,184.57,59.082,436.035
1742203331.818,999.512,54.199,33.691,999.512
1742203331.822,677.246,-222.656,3.418,543.945
1742203331.826,-754.395,-354.98,-2.93,-856.445
1742203331.83,-1000.0,-155.273,26.855,-1000.0
1742203331.834,308.594,288.086,54.688,386.719
1742203331.838,999.512,229.004,20.508,999.512
1742203331.842,795.41,-142.09,-10.254,786.133
1742203331.845,-544.434,-422.852,-15.137,-590.82
1742203331.849,-1000.0,-369.629,-26.367,-1000.0
1742203331.853,-113.77,115.234,-14.16,96.68
1742203331.857,999.512,226.562,17.578,999.512
1742203331.861,818.848,-127.441,6.348,780.762
1742203331.864,-546.387,-366.699,-9.277,-569.336
1742203331.868,-1000.0,-168.457,10.742,-1000.0
1742203331.872,-636.719,139.16,26.367,-457.031
1742203331.876,842.285,249.023,11.719,923.828
1742203331.88,931.152,-42.48,-18.555,886.23
1742203331.884,-554.688,-276.855,-21.484,-565.43
1742203331.888,-1000.0,-181.152,15.625,-1000.0
1742203331.891,-776.855,10.254,44.434,-664.551
1742203331.895,704.59,263.672,35.156,797.363
1742203331.899,978.027,-52.246,6.836,935.059
1742203331.903,-550.781,-470.215,-4.883,-568.848
1742203331.907,-1000.0,-244.629,28.32,-1000.0
1742203331.864,-546.387,-366.699,-9.277,-569.336
1742203331.868,-1000.0,-168.457,10.742,-1000.0
1742203331.872,-636.719,139.16,26.367,-457.031
1742203331.876,842.285,249.023,11.719,923.828
1742203331.88,931.152,-42.48,-18.555,886.23
1742203331.884,-554.688,-276.855,-21.484,-565.43
1742203331.888,-1000.0,-181.152,15.625,-1000.0
1742203331.891,-776.855,10.254,44.434,-664.551
1742203331.895,704.59,263.672,35.156,797.363
1742203331.899,978.027,-52.246,6.836,935.059
1742203331.903,-550.781,-470.215,-4.883,-568.848
1742203331.907,-1000.0,-244.629,28.32,-1000.0
1742203331.908,-854.004,74.219,61.523,-805.176
1742203331.912,554.199,282.715,58.105,637.695
1742203331.916,999.512,62.988,24.902,999.512
1742203331.92,-365.723,-390.137,-27.344,-458.008
1742203331.924,-1000.0,-242.676,-37.598,-1000.0
1742203331.928,-852.051,133.301,-3.418,-822.266
1742203331.932,548.34,322.754,15.137,606.934
1742203331.935,999.512,-27.832,-20.508,999.512
1742203331.939,-285.645,-521.484,-70.801,-387.695
1742203331.943,-1000.0,-364.258,-44.922,-1000.0
1742203331.947,-831.055,27.344,-3.418,-827.148
1742203331.951,510.742,236.328,-1.465,544.434
1742203331.908,-854.004,74.219,61.523,-805.176
1742203331.912,554.199,282.715,58.105,637.695
1742203331.916,999.512,62.988,24.902,999.512
1742203331.92,-365.723,-390.137,-27.344,-458.008
1742203331.924,-1000.0,-242.676,-37.598,-1000.0
1742203331.928,-852.051,133.301,-3.418,-822.266
1742203331.932,548.34,322.754,15.137,606.934
1742203331.935,999.512,-27.832,-20.508,999.512
1742203331.939,-285.645,-521.484,-70.801,-387.695
1742203331.943,-1000.0,-364.258,-44.922,-1000.0
1742203331.947,-831.055,27.344,-3.418,-827.148
1742203331.951,510.742,236.328,-1.465,544.434
1742203331.955,999.512,-3.906,-31.25,999.512
1742203331.959,87.891,-392.09,-71.777,-101.074
1742203331.963,-1000.0,-376.953,-72.266,-1000.0
1742203331.967,-1000.0,-75.195,-34.668,-942.383
1742203331.971,234.863,240.723,-27.344,314.453
1742203331.975,999.512,253.906,-52.246,999.512
1742203331.979,650.391,-183.594,-109.863,469.727
1742203331.982,-773.926,-464.844,-141.602,-890.137
1742203331.986,-1000.0,-200.195,-122.07,-1000.0
1742203331.99,225.586,217.285,-69.824,311.035
1742203331.994,999.512,139.16,-68.848,999.512
1742203331.998,710.449,-270.02,-124.512,603.516
1742203331.955,999.512,-3.906,-31.25,999.512
1742203331.959,87.891,-392.09,-71.777,-101.074
1742203331.963,-1000.0,-376.953,-72.266,-1000.0
1742203331.967,-1000.0,-75.195,-34.668,-942.383
1742203331.971,234.863,240.723,-27.344,314.453
1742203331.975,999.512,253.906,-52.246,999.512
1742203331.979,650.391,-183.594,-109.863,469.727
1742203331.982,-773.926,-464.844,-141.602,-890.137
1742203331.986,-1000.0,-200.195,-122.07,-1000.0
1742203331.99,225.586,217.285,-69.824,311.035
1742203331.994,999.512,139.16,-68.848,999.512
1742203331.998,710.449,-270.02,-124.512,603.516
1742203331.999,-641.113,-430.664,-120.605,-745.117
1742203332.003,-1000.0,-110.84,-77.637,-1000.0
1742203332.007,-250.977,119.141,-60.547,-79.102
1742203332.011,999.512,82.52,-76.66,999.512
1742203332.015,840.82,-149.414,-100.098,809.57
1742203332.019,-557.129,-335.938,-80.078,-583.496
1742203332.023,-1000.0,-189.941,-36.621,-1000.0
1742203332.026,-570.801,35.156,-37.598,-353.027
1742203332.03,892.578,85.449,-79.59,974.609
1742203332.034,893.066,-143.555,-120.117,845.703
1742203332.038,-583.496,-398.438,-130.371,-593.75
1742203332.042,-1000.0,-227.539,-74.707,-1000.0
1742203332.045,-679.199,53.223,-30.273,-544.922
1742203332.049,791.016,245.117,-32.715,872.559
1742203332.053,972.168,-11.719,-56.152,919.922
1742203332.057,-506.836,-366.211,-74.219,-541.992
1742203332.061,-1000.0,-272.461,-55.664,-1000.0
1742203332.065,-778.809,119.629,-11.719,-695.312
1742203332.069,703.613,323.242,-36.621,775.879
1742203332.072,979.98,-125.488,-105.957,944.336
1742203332.076,-548.34,-527.832,-120.117,-567.383
1742203332.08,-1000.0,-262.207,-81.055,-1000.0
1742203332.084,-841.797,110.84,-41.504,-816.406
1742203332.088,530.762,273.438,-43.457,594.727
1742203332.045,-679.199,53.223,-30.273,-544.922
1742203332.049,791.016,245.117,-32.715,872.559
1742203332.053,972.168,-11.719,-56.152,919.922
1742203332.057,-506.836,-366.211,-74.219,-541.992
1742203332.061,-1000.0,-272.461,-55.664,-1000.0
1742203332.065,-778.809,119.629,-11.719,-695.312
1742203332.069,703.613,323.242,-36.621,775.879
1742203332.072,979.98,-125.488,-105.957,944.336
1742203332.076,-548.34,-527.832,-120.117,-567.383
1742203332.08,-1000.0,-262.207,-81.055,-1000.0
1742203332.084,-841.797,110.84,-41.504,-816.406
1742203332.088,530.762,273.438,-43.457,594.727
1742203332.088,999.512,7.324,-93.262,999.512
1742203332.092,-205.078,-355.957,-125.0,-339.355
1742203332.096,-1000.0,-327.637,-96.68,-1000.0
1742203332.1,-819.336,-7.812,-67.871,-815.918
1742203332.104,492.676,313.965,-73.242,511.23
1742203332.108,999.512,132.324,-97.168,999.512
1742203332.112,484.375,-221.68,-122.07,260.254
1742203332.115,-877.93,-339.355,-124.512,-974.609
1742203332.119,-1000.0,-231.445,-117.676,-1000.0
1742203332.123,203.125,156.738,-86.914,292.48
1742203332.127,999.512,124.023,-89.844,999.512
1742203332.131,528.32,-282.227,-108.887,277.832
1742203332.088,999.512,7.324,-93.262,999.512
1742203332.092,-205.078,-355.957,-125.0,-339.355
1742203332.096,-1000.0,-327.637,-96.68,-1000.0
1742203332.1,-819.336,-7.812,-67.871,-815.918
1742203332.104,492.676,313.965,-73.242,511.23
1742203332.108,999.512,132.324,-97.168,999.512
1742203332.112,484.375,-221.68,-122.07,260.254
1742203332.115,-877.93,-339.355,-124.512,-974.609
1742203332.119,-1000.0,-231.445,-117.676,-1000.0
1742203332.123,203.125,156.738,-86.914,292.48
1742203332.127,999.512,124.023,-89.844,999.512
1742203332.131,528.32,-282.227,-108.887,277.832
1742203332.135,-894.531,-407.715,-100.586,-1000.0
1742203332.139,-1000.0,-113.77,-63.965,-973.633
1742203332.143,332.031,248.535,-32.715,384.277
1742203332.147,999.512,111.328,-45.898,999.512
1742203332.151,824.219,-186.523,-58.105,802.246
1742203332.155,-596.191,-322.754,-52.246,-647.949
1742203332.159,-1000.0,-178.711,-60.059,-1000.0
1742203332.162,349.121,116.211,-62.5,447.266
1742203332.166,999.512,62.012,-71.289,999.512
1742203332.17,876.953,-142.578,-84.961,854.492
1742203332.174,-398.438,-423.828,-88.379,-473.633
1742203332.178,-1000.0,-291.504,-59.57,-1000.0
1742203332.135,-894.531,-407.715,-100.586,-1000.0
1742203332.139,-1000.0,-113.77,-63.965,-973.633
1742203332.143,332.031,248.535,-32.715,384.277
1742203332.147,999.512,111.328,-45.898,999.512
1742203332.151,824.219,-186.523,-58.105,802.246
1742203332.155,-596.191,-322.754,-52.246,-647.949
1742203332.159,-1000.0,-178.711,-60.059,-1000.0
1742203332.162,349.121,116.211,-62.5,447.266
1742203332.166,999.512,62.012,-71.289,999.512
1742203332.17,876.953,-142.578,-84.961,854.492
1742203332.174,-398.438,-423.828,-88.379,-473.633
1742203332.178,-1000.0,-291.504,-59.57,-1000.0
1742203332.178,-142.09,147.949,-29.785,60.059
1742203332.182,999.512,160.156,-46.875,999.512
1742203332.186,832.52,-166.992,-83.984,816.895
1742203332.19,-556.641,-515.625,-106.445,-565.918
1742203332.194,-1000.0,-307.617,-77.148,-1000.0
1742203332.198,-375.0,181.152,-47.852,-174.805
1742203332.202,976.562,193.848,-81.543,999.512
1742203332.205,873.535,-281.738,-101.074,843.75
1742203332.209,-553.223,-611.328,-95.703,-540.527
1742203332.213,-1000.0,-325.684,-68.359,-1000.0
1742203332.217,-794.434,12.207,-26.367,-713.379
1742203332.221,637.207,241.699,-20.02,733.398
1742203332.178,-142.09,147.949,-29.785,60.059
1742203332.182,999.512,160.156,-46.875,999.512
1742203332.186,832.52,-166.992,-83.984,816.895
1742203332.19,-556.641,-515.625,-106.445,-565.918
1742203332.194,-1000.0,-307.617,-77.148,-1000.0
1742203332.198,-375.0,181.152,-47.852,-174.805
1742203332.202,976.562,193.848,-81.543,999.512
1742203332.205,873.535,-281.738,-101.074,843.75
1742203332.209,-553.223,-611.328,-95.703,-540.527
1742203332.213,-1000.0,-325.684,-68.359,-1000.0
1742203332.217,-794.434,12.207,-26.367,-713.379
1742203332.221,637.207,241.699,-20.02,733.398
1742203332.241,999.512,-57.129,-42.969,997.07
1742203332.245,-393.555,-504.395,-48.34,-479.004
1742203332.249,-1000.0,-363.281,-31.25,-1000.0
1742203332.253,-802.734,-56.152,-5.371,-754.395
1742203332.257,483.887,172.852,-10.254,548.34
1742203332.261,999.512,135.742,-43.457,999.512
1742203332.265,648.926,-176.27,-48.828,484.863
1742203332.268,-846.191,-442.871,-40.527,-936.035
1742203332.272,-954.59,-141.602,-30.762,-900.879
1742203332.276,557.129,184.082,-28.809,602.051
1742203332.28,999.512,7.812,-62.012,999.512
1742203332.284,480.469,-304.688,-82.031,267.09
1742203332.241,999.512,-57.129,-42.969,997.07
1742203332.245,-393.555,-504.395,-48.34,-479.004
1742203332.249,-1000.0,-363.281,-31.25,-1000.0
1742203332.253,-802.734,-56.152,-5.371,-754.395
1742203332.257,483.887,172.852,-10.254,548.34
1742203332.261,999.512,135.742,-43.457,999.512
1742203332.265,648.926,-176.27,-48.828,484.863
1742203332.268,-846.191,-442.871,-40.527,-936.035
1742203332.272,-954.59,-141.602,-30.762,-900.879
1742203332.276,557.129,184.082,-28.809,602.051
1742203332.28,999.512,7.812,-62.012,999.512
1742203332.284,480.469,-304.688,-82.031,267.09
1742203332.283,-958.008,-419.434,-69.336,-1000.0
1742203332.287,-916.992,11.719,-46.387,-872.559
1742203332.291,557.129,271.484,-42.48,552.734
1742203332.295,999.512,-29.785,-79.59,999.512
1742203332.299,827.148,-205.566,-79.102,721.191
1742203332.303,-650.879,-348.633,-47.852,-750.977
1742203332.307,-993.652,-156.738,-12.695,-967.773
1742203332.31,566.406,254.395,28.809,566.895
1742203332.314,999.512,24.414,5.859,999.512
1742203332.318,692.383,-276.367,-15.137,607.91
1742203332.322,-634.766,-347.168,-5.859,-730.957
1742203332.326,-1000.0,-147.949,17.09,-1000.0
1742203332.283,-958.008,-419.434,-69.336,-1000.0
1742203332.287,-916.992,11.719,-46.387,-872.559
1742203332.291,557.129,271.484,-42.48,552.734
1742203332.295,999.512,-29.785,-79.59,999.512
1742203332.299,827.148,-205.566,-79.102,721.191
1742203332.303,-650.879,-348.633,-47.852,-750.977
1742203332.307,-993.652,-156.738,-12.695,-967.773
1742203332.31,566.406,254.395,28.809,566.895
1742203332.314,999.512,24.414,5.859,999.512
1742203332.318,692.383,-276.367,-15.137,607.91
1742203332.322,-634.766,-347.168,-5.859,-730.957
1742203332.326,-1000.0,-147.949,17.09,-1000.0
1742203332.33,-277.344,131.836,25.391,-67.871
1742203332.334,999.512,193.848,-20.02,999.512
1742203332.338,779.297,-147.949,-59.57,660.156
1742203332.342,-646.973,-348.633,-63.965,-732.422
1742203332.346,-1000.0,-130.859,-64.453,-1000.0
1742203332.35,-490.234,194.824,-62.012,-302.734
1742203332.354,942.383,255.859,-93.75,999.512
1742203332.357,852.539,-204.59,-147.949,734.375
1742203332.361,-622.559,-438.477,-156.738,-691.895
1742203332.365,-1000.0,-195.312,-125.488,-1000.0
1742203332.369,-861.816,62.012,-97.168,-796.875
1742203332.373,618.652,249.512,-112.305,707.031
1742203332.33,-277.344,131.836,25.391,-67.871
1742203332.334,999.512,193.848,-20.02,999.512
1742203332.338,779.297,-147.949,-59.57,660.156
1742203332.342,-646.973,-348.633,-63.965,-732.422
1742203332.346,-1000.0,-130.859,-64.453,-1000.0
1742203332.35,-490.234,194.824,-62.012,-302.734
1742203332.354,942.383,255.859,-93.75,999.512
1742203332.357,852.539,-204.59,-147.949,734.375
1742203332.361,-622.559,-438.477,-156.738,-691.895
1742203332.365,-1000.0,-195.312,-125.488,-1000.0
1742203332.369,-861.816,62.012,-97.168,-796.875
1742203332.373,618.652,249.512,-112.305,707.031
1742203332.373,962.402,-77.637,-140.625,895.02
1742203332.377,-620.605,-390.625,-116.699,-672.852
1742203332.381,-1000.0,-179.688,-86.426,-1000.0
1742203332.385,-768.555,84.961,-90.82,-740.234
1742203332.389,619.141,347.168,-103.027,669.922
1742203332.393,992.676,44.434,-140.625,955.078
1742203332.397,-528.809,-404.297,-168.457,-575.684
1742203332.4,-1000.0,-266.113,-136.23,-1000.0
1742203332.404,-848.633,-88.379,-117.676,-853.516
1742203332.408,543.945,244.141,-112.305,577.637
1742203332.412,999.512,89.844,-124.023,999.512
1742203332.416,-300.781,-374.512,-138.184,-443.359
1742203332.373,962.402,-77.637,-140.625,895.02
1742203332.377,-620.605,-390.625,-116.699,-672.852
1742203332.381,-1000.0,-179.688,-86.426,-1000.0
1742203332.385,-768.555,84.961,-90.82,-740.234
1742203332.389,619.141,347.168,-103.027,669.922
1742203332.393,992.676,44.434,-140.625,955.078
1742203332.397,-528.809,-404.297,-168.457,-575.684
1742203332.4,-1000.0,-266.113,-136.23,-1000.0
1742203332.404,-848.633,-88.379,-117.676,-853.516
1742203332.408,543.945,244.141,-112.305,577.637
1742203332.412,999.512,89.844,-124.023,999.512
1742203332.416,-300.781,-374.512,-138.184,-443.359
1742203332.435,-1000.0,-270.996,-91.797,-1000.0
1742203332.439,-853.027,72.754,-40.039,-866.211
1742203332.443,505.859,336.426,-47.363,520.996
1742203332.447,999.512,101.074,-84.961,999.512
1742203332.451,-73.242,-351.074,-105.957,-269.043
1742203332.455,-1000.0,-245.605,-99.609,-1000.0
1742203332.459,-927.734,38.086,-74.707,-895.02
1742203332.462,349.121,177.246,-69.824,400.391
1742203332.466,999.512,71.777,-57.617,999.512
1742203332.47,448.242,-230.957,-49.316,198.73
1742203332.474,-870.605,-374.512,-37.109,-974.121
1742203332.478,-1000.0,-142.578,-10.742,-1000.0
1742203332.435,-1000.0,-270.996,-91.797,-1000.0
1742203332.439,-853.027,72.754,-40.039,-866.211
1742203332.443,505.859,336.426,-47.363,520.996
1742203332.447,999.512,101.074,-84.961,999.512
1742203332.451,-73.242,-351.074,-105.957,-269.043
1742203332.455,-1000.0,-245.605,-99.609,-1000.0
1742203332.459,-927.734,38.086,-74.707,-895.02
1742203332.462,349.121,177.246,-69.824,400.391
1742203332.466,999.512,71.777,-57.617,999.512
1742203332.47,448.242,-230.957,-49.316,198.73
1742203332.474,-870.605,-374.512,-37.109,-974.121
1742203332.478,-1000.0,-142.578,-10.742,-1000.0
1742203332.463,-13.184,165.527,-7.812,100.586
1742203332.467,999.512,187.988,-30.273,999.512
1742203332.471,597.656,-163.574,-72.754,369.629
1742203332.475,-832.031,-369.141,-65.918,-933.594
1742203332.479,-1000.0,-89.355,-9.766,-1000.0
1742203332.483,54.688,336.426,26.367,110.84
1742203332.487,999.512,233.887,18.066,999.512
1742203332.49,636.23,-265.137,-23.438,488.77
1742203332.494,-713.379,-473.145,-57.617,-805.176
1742203332.498,-1000.0,-194.824,-34.18,-1000.0
1742203332.502,-659.18,122.07,6.348,-555.176
1742203332.506,844.238,276.367,-5.371,917.48
1742203332.463,-13.184,165.527,-7.812,100.586
1742203332.467,999.512,187.988,-30.273,999.512
1742203332.471,597.656,-163.574,-72.754,369.629
1742203332.475,-832.031,-369.141,-65.918,-933.594
1742203332.479,-1000.0,-89.355,-9.766,-1000.0
1742203332.483,54.688,336.426,26.367,110.84
1742203332.487,999.512,233.887,18.066,999.512
1742203332.49,636.23,-265.137,-23.438,488.77
1742203332.494,-713.379,-473.145,-57.617,-805.176
1742203332.498,-1000.0,-194.824,-34.18,-1000.0
1742203332.502,-659.18,122.07,6.348,-555.176
1742203332.506,844.238,276.367,-5.371,917.48
1742203332.51,891.602,-160.645,-59.082,778.32
1742203332.514,-612.305,-462.891,-68.848,-706.543
1742203332.518,-1000.0,-198.242,-15.137,-1000.0
1742203332.522,-687.988,31.738,27.344,-577.148
1742203332.526,776.855,169.434,21.484,856.934
1742203332.53,988.281,84.961,-22.949,924.805
1742203332.534,-484.863,-337.891,-50.781,-544.922
1742203332.537,-1000.0,-357.91,-23.438,-1000.0
1742203332.541,-779.297,-8.301,16.113,-710.938
1742203332.545,650.879,211.914,11.719,731.445
1742203332.549,999.512,-43.945,-16.602,999.512
1742203332.553,-356.934,-454.102,-28.809,-450.195
1742203332.51,891.602,-160.645,-59.082,778.32
1742203332.514,-612.305,-462.891,-68.848,-706.543
1742203332.518,-1000.0,-198.242,-15.137,-1000.0
1742203332.522,-687.988,31.738,27.344,-577.148
1742203332.526,776.855,169.434,21.484,856.934
1742203332.53,988.281,84.961,-22.949,924.805
1742203332.534,-484.863,-337.891,-50.781,-544.922
1742203332.537,-1000.0,-357.91,-23.438,-1000.0
1742203332.541,-779.297,-8.301,16.113,-710.938
1742203332.545,650.879,211.914,11.719,731.445
1742203332.549,999.512,-43.945,-16.602,999.512
1742203332.553,-356.934,-454.102,-28.809,-450.195
1742203332.554,-1000.0,-346.191,-27.344,-1000.0
1742203332.558,-810.059,34.18,9.277,-750.488
1742203332.562,607.91,176.758,-1.953,687.5
1742203332.566,999.512,-116.211,-58.105,999.512
1742203332.57,-304.688,-461.426,-69.824,-403.32
1742203332.574,-1000.0,-296.387,-44.434,-1000.0
1742203332.578,-796.387,36.621,-33.203,-732.422
1742203332.581,516.602,117.676,-12.207,608.887
1742203332.585,999.512,-93.262,-9.766,999.512
1742203332.589,392.578,-341.797,-30.273,165.039
1742203332.593,-984.375,-370.605,-31.25,-1000.0
1742203332.597,-934.57,-68.359,4.395,-900.879
1742203332.554,-1000.0,-346.191,-27.344,-1000.0
1742203332.558,-810.059,34.18,9.277,-750.488
1742203332.562,607.91,176.758,-1.953,687.5
1742203332.566,999.512,-116.211,-58.105,999.512
1742203332.57,-304.688,-461.426,-69.824,-403.32
1742203332.574,-1000.0,-296.387,-44.434,-1000.0
1742203332.578,-796.387,36.621,-33.203,-732.422
1742203332.581,516.602,117.676,-12.207,608.887
1742203332.585,999.512,-93.262,-9.766,999.512
1742203332.589,392.578,-341.797,-30.273,165.039
1742203332.593,-984.375,-370.605,-31.25,-1000.0
1742203332.597,-934.57,-68.359,4.395,-900.879
1742203332.614,500.488,236.328,6.836,523.926
1742203332.618,999.512,133.789,-25.391,999.512
1742203332.622,411.621,-243.164,-62.012,169.434
1742203332.626,-950.684,-350.586,-77.148,-1000.0
1742203332.63,-1000.0,-8.301,-60.547,-948.73
1742203332.634,393.555,383.301,-50.293,453.125
1742203332.638,999.512,132.324,-79.102,999.512
1742203332.641,273.926,-388.184,-100.098,62.012
1742203332.645,-892.578,-370.117,-79.59,-966.309
1742203332.649,-1000.0,-120.605,-44.434,-1000.0
1742203332.653,-604.004,103.516,-52.246,-393.555
1742203332.657,971.191,200.195,-104.98,999.512
1742203332.614,500.488,236.328,6.836,523.926
1742203332.618,999.512,133.789,-25.391,999.512
1742203332.622,411.621,-243.164,-62.012,169.434
1742203332.626,-950.684,-350.586,-77.148,-1000.0
1742203332.63,-1000.0,-8.301,-60.547,-948.73
1742203332.634,393.555,383.301,-50.293,453.125
1742203332.638,999.512,132.324,-79.102,999.512
1742203332.641,273.926,-388.184,-100.098,62.012
1742203332.645,-892.578,-370.117,-79.59,-966.309
1742203332.649,-1000.0,-120.605,-44.434,-1000.0
1742203332.653,-604.004,103.516,-52.246,-393.555
1742203332.657,971.191,200.195,-104.98,999.512
1742203332.658,551.758,-225.098,-133.301,239.746
1742203332.662,-917.48,-358.887,-108.398,-997.07
1742203332.666,-1000.0,-117.188,-68.359,-1000.0
1742203332.67,-941.895,-51.27,-45.898,-962.402
1742203332.674,509.766,242.676,-50.781,543.945
1742203332.678,773.926,-1.465,-100.098,664.551
1742203332.682,-693.848,-396.973,-129.883,-807.617
1742203332.685,-1000.0,-169.922,-102.539,-1000.0
1742203332.689,-912.109,-70.801,-92.773,-926.758
1742203332.693,579.102,168.457,-118.652,599.609
1742203332.697,953.125,-61.523,-123.047,823.242
1742203332.701,-649.902,-446.289,-125.488,-780.273
1742203332.658,551.758,-225.098,-133.301,239.746
1742203332.662,-917.48,-358.887,-108.398,-997.07
1742203332.666,-1000.0,-117.188,-68.359,-1000.0
1742203332.67,-941.895,-51.27,-45.898,-962.402
1742203332.674,509.766,242.676,-50.781,543.945
1742203332.678,773.926,-1.465,-100.098,664.551
1742203332.682,-693.848,-396.973,-129.883,-807.617
1742203332.685,-1000.0,-169.922,-102.539,-1000.0
1742203332.689,-912.109,-70.801,-92.773,-926.758
1742203332.693,579.102,168.457,-118.652,599.609
1742203332.697,953.125,-61.523,-123.047,823.242
1742203332.701,-649.902,-446.289,-125.488,-780.273
1742203332.705,-1000.0,-209.473,-112.793,-1000.0
1742203332.709,-975.098,0.0,-93.262,-978.516
1742203332.713,395.02,259.766,-114.746,412.598
1742203332.717,999.512,59.57,-150.391,984.863
1742203332.721,-523.438,-426.27,-160.156,-585.449
1742203332.725,-1000.0,-203.613,-134.766,-1000.0
1742203332.729,-743.164,68.359,-90.332,-711.426
1742203332.732,656.738,76.66,-93.262,713.379
1742203332.736,999.512,-103.027,-135.742,999.512
1742203332.74,-226.074,-351.562,-151.855,-392.578
1742203332.744,-1000.0,-365.723,-122.07,-1000.0
1742203332.748,-824.219,-57.129,-81.543,-812.012
1742203332.705,-1000.0,-209.473,-112.793,-1000.0
1742203332.709,-975.098,0.0,-93.262,-978.516
1742203332.713,395.02,259.766,-114.746,412.598
1742203332.717,999.512,59.57,-150.391,984.863
1742203332.721,-523.438,-426.27,-160.156,-585.449
1742203332.725,-1000.0,-203.613,-134.766,-1000.0
1742203332.729,-743.164,68.359,-90.332,-711.426
1742203332.732,656.738,76.66,-93.262,713.379
1742203332.736,999.512,-103.027,-135.742,999.512
1742203332.74,-226.074,-351.562,-151.855,-392.578
1742203332.744,-1000.0,-365.723,-122.07,-1000.0
1742203332.748,-824.219,-57.129,-81.543,-812.012
1742203332.748,499.023,196.289,-89.355,537.598
1742203332.752,999.512,5.859,-125.488,999.512
1742203332.756,341.797,-338.379,-135.742,76.66
1742203332.76,-1000.0,-421.875,-124.023,-1000.0
1742203332.764,-888.184,-38.086,-83.008,-802.734
1742203332.768,541.992,260.742,-54.199,583.984
1742203332.772,999.512,52.734,-76.172,999.512
1742203332.775,704.102,-295.41,-99.609,580.566
1742203332.779,-794.922,-515.625,-106.445,-872.559
1742203332.783,-963.867,-112.793,-61.035,-936.035
1742203332.787,574.707,295.41,-24.414,564.941
1742203332.791,999.512,123.047,-53.711,999.512
1742203332.748,499.023,196.289,-89.355,537.598
1742203332.752,999.512,5.859,-125.488,999.512
1742203332.756,341.797,-338.379,-135.742,76.66
1742203332.76,-1000.0,-421.875,-124.023,-1000.0
1742203332.764,-888.184,-38.086,-83.008,-802.734
1742203332.768,541.992,260.742,-54.199,583.984
1742203332.772,999.512,52.734,-76.172,999.512
1742203332.775,704.102,-295.41,-99.609,580.566
1742203332.779,-794.922,-515.625,-106.445,-872.559
1742203332.783,-963.867,-112.793,-61.035,-936.035
1742203332.787,574.707,295.41,-24.414,564.941
1742203332.791,999.512,123.047,-53.711,999.512
1742203332.795,834.473,-211.426,-89.355,769.531
1742203332.799,-624.512,-459.473,-75.684,-705.078
1742203332.803,-1000.0,-174.316,-20.02,-999.512
1742203332.807,537.598,256.348,26.855,559.57
1742203332.811,999.512,97.656,17.578,999.512
1742203332.815,932.617,-40.527,-4.883,900.879
1742203332.819,-385.254,-369.629,-16.113,-484.863
1742203332.822,-1000.0,-357.422,-22.949,-1000.0
1742203332.826,373.047,200.195,-24.414,488.281
1742203332.83,999.512,127.93,-47.852,999.512
1742203332.834,999.512,-125.488,-70.312,988.77
1742203332.838,31.738,-331.055,-53.223,-117.188
1742203332.795,834.473,-211.426,-89.355,769.531
1742203332.799,-624.512,-459.473,-75.684,-705.078
1742203332.803,-1000.0,-174.316,-20.02,-999.512
1742203332.807,537.598,256.348,26.855,559.57
1742203332.811,999.512,97.656,17.578,999.512
1742203332.815,932.617,-40.527,-4.883,900.879
1742203332.819,-385.254,-369.629,-16.113,-484.863
1742203332.822,-1000.0,-357.422,-22.949,-1000.0
1742203332.826,373.047,200.195,-24.414,488.281
1742203332.83,999.512,127.93,-47.852,999.512
1742203332.834,999.512,-125.488,-70.312,988.77
1742203332.838,31.738,-331.055,-53.223,-117.188
1742203332.839,-1000.0,-329.102,-7.324,-1000.0
1742203332.843,96.68,201.172,16.602,301.758
1742203332.847,999.512,218.262,-11.23,999.512
1742203332.851,965.82,-184.57,-44.922,938.965
1742203332.855,-271.973,-420.898,-44.434,-338.867
1742203332.859,-1000.0,-232.422,-9.766,-1000.0
1742203332.863,48.34,218.75,16.113,264.648
1742203332.866,985.84,81.055,-20.02,999.512
1742203332.87,999.512,-215.82,-29.785,999.512
1742203332.874,456.543,-297.852,-6.348,318.848
1742203332.878,-1000.0,-383.789,19.043,-1000.0
1742203332.882,-749.023,-86.914,42.48,-538.086
1742203332.839,-1000.0,-329.102,-7.324,-1000.0
1742203332.843,96.68,201.172,16.602,301.758
1742203332.847,999.512,218.262,-11.23,999.512
1742203332.851,965.82,-184.57,-44.922,938.965
1742203332.855,-271.973,-420.898,-44.434,-338.867
1742203332.859,-1000.0,-232.422,-9.766,-1000.0
1742203332.863,48.34,218.75,16.113,264.648
1742203332.866,985.84,81.055,-20.02,999.512
1742203332.87,999.512,-215.82,-29.785,999.512
1742203332.874,456.543,-297.852,-6.348,318.848
1742203332.878,-1000.0,-383.789,19.043,-1000.0
1742203332.882,-749.023,-86.914,42.48,-538.086
1742203332.885,733.398,98.145,10.742,850.586
1742203332.889,999.512,-44.922,-20.508,999.512
1742203332.893,312.988,-304.688,-27.344,189.453
1742203332.897,-1000.0,-383.789,2.441,-1000.0
1742203332.901,-704.59,30.273,54.688,-512.695
1742203332.905,731.934,249.023,70.801,827.637
1742203332.909,999.512,-80.566,20.996,999.512
1742203332.912,671.875,-393.066,-16.602,605.469
1742203332.916,-839.844,-458.008,8.789,-900.879
1742203332.92,-932.129,-117.188,48.828,-803.223
1742203332.924,590.82,222.656,53.711,702.148
1742203332.928,999.512,-26.367,16.113,999.512
1742203332.885,733.398,98.145,10.742,850.586
1742203332.889,999.512,-44.922,-20.508,999.512
1742203332.893,312.988,-304.688,-27.344,189.453
1742203332.897,-1000.0,-383.789,2.441,-1000.0
1742203332.901,-704.59,30.273,54.688,-512.695
1742203332.905,731.934,249.023,70.801,827.637
1742203332.909,999.512,-80.566,20.996,999.512
1742203332.912,671.875,-393.066,-16.602,605.469
1742203332.916,-839.844,-458.008,8.789,-900.879
1742203332.92,-932.129,-117.188,48.828,-803.223
1742203332.924,590.82,222.656,53.711,702.148
1742203332.928,999.512,-26.367,16.113,999.512
1742203332.943,747.07,-304.688,1.465,671.875
1742203332.947,-750.488,-398.438,22.949,-807.617
1742203332.951,-973.145,-79.59,48.828,-941.406
1742203332.955,577.148,253.418,45.41,587.891
1742203332.959,999.512,30.762,1.953,999.512
1742203332.963,835.938,-127.93,-37.109,815.918
1742203332.967,-624.023,-395.508,-46.387,-662.109
1742203332.97,-1000.0,-207.031,-13.672,-995.605
1742203332.974,524.414,155.762,7.324,566.895
1742203332.978,999.512,7.812,-54.688,999.512
1742203332.982,812.012,-208.984,-115.723,802.734
1742203332.986,-572.754,-452.637,-115.234,-618.652
1742203332.943,747.07,-304.688,1.465,671.875
1742203332.947,-750.488,-398.438,22.949,-807.617
1742203332.951,-973.145,-79.59,48.828,-941.406
1742203332.955,577.148,253.418,45.41,587.891
1742203332.959,999.512,30.762,1.953,999.512
1742203332.963,835.938,-127.93,-37.109,815.918
1742203332.967,-624.023,-395.508,-46.387,-662.109
1742203332.97,-1000.0,-207.031,-13.672,-995.605
1742203332.974,524.414,155.762,7.324,566.895
1742203332.978,999.512,7.812,-54.688,999.512
1742203332.982,812.012,-208.984,-115.723,802.734
1742203332.986,-572.754,-452.637,-115.234,-618.652
1742203332.989,-1000.0,-272.461,-74.219,-1000.0
1742203332.993,236.816,206.055,-45.41,360.84
1742203332.997,999.512,127.441,-62.012,999.512
1742203333.001,784.668,-225.586,-82.031,760.742
1742203333.005,-529.785,-418.945,-127.93,-581.055
1742203333.009,-1000.0,-159.668,-94.238,-1000.0
1742203333.013,-394.043,150.391,-41.016,-172.363
1742203333.016,974.121,94.238,-77.637,999.512
1742203333.02,861.328,-196.777,-104.004,820.312
1742203333.024,-570.801,-327.637,-127.441,-575.195
1742203333.028,-1000.0,-207.031,-125.0,-1000.0
1742203333.032,-702.637,38.086,-72.754,-564.941
1742203332.989,-1000.0,-272.461,-74.219,-1000.0
1742203332.993,236.816,206.055,-45.41,360.84
1742203332.997,999.512,127.441,-62.012,999.512
1742203333.001,784.668,-225.586,-82.031,760.742
1742203333.005,-529.785,-418.945,-127.93,-581.055
1742203333.009,-1000.0,-159.668,-94.238,-1000.0
1742203333.013,-394.043,150.391,-41.016,-172.363
1742203333.016,974.121,94.238,-77.637,999.512
1742203333.02,861.328,-196.777,-104.004,820.312
1742203333.024,-570.801,-327.637,-127.441,-575.195
1742203333.028,-1000.0,-207.031,-125.0,-1000.0
1742203333.032,-702.637,38.086,-72.754,-564.941
1742203333.033,777.832,224.609,-46.875,865.234
1742203333.037,962.402,-20.508,-83.496,916.016
1742203333.041,-539.551,-382.324,-109.375,-558.594
1742203333.045,-1000.0,-242.676,-64.453,-1000.0
1742203333.049,-817.871,125.488,-23.438,-750.977
1742203333.053,631.348,309.082,-27.832,713.379
1742203333.057,999.512,-22.461,-62.988,975.098
1742203333.06,-471.68,-489.746,-100.586,-539.551
1742203333.064,-1000.0,-369.629,-87.891,-1000.0
1742203333.068,-820.801,32.227,-74.707,-815.918
1742203333.072,499.512,243.164,-82.031,541.504
1742203333.076,999.512,87.402,-96.68,999.512
1742203333.033,777.832,224.609,-46.875,865.234
1742203333.037,962.402,-20.508,-83.496,916.016
1742203333.041,-539.551,-382.324,-109.375,-558.594
1742203333.045,-1000.0,-242.676,-64.453,-1000.0
1742203333.049,-817.871,125.488,-23.438,-750.977
1742203333.053,631.348,309.082,-27.832,713.379
1742203333.057,999.512,-22.461,-62.988,975.098
1742203333.06,-471.68,-489.746,-100.586,-539.551
1742203333.064,-1000.0,-369.629,-87.891,-1000.0
1742203333.068,-820.801,32.227,-74.707,-815.918
1742203333.072,499.512,243.164,-82.031,541.504
1742203333.076,999.512,87.402,-96.68,999.512
1742203333.08,155.273,-270.996,-124.512,-52.734
1742203333.084,-1000.0,-400.879,-103.516,-1000.0
1742203333.088,-863.77,-20.996,-62.5,-828.613
1742203333.092,529.297,264.648,-58.594,525.879
1742203333.096,999.512,35.645,-64.453,999.512
1742203333.1,792.48,-65.43,-53.711,657.227
1742203333.104,-696.289,-259.277,-63.965,-811.035
1742203333.107,-983.398,-147.461,-39.062,-950.684
1742203333.111,578.613,235.84,-9.277,571.777
1742203333.115,999.512,133.301,-10.742,999.512
1742203333.119,837.402,-150.879,-43.945,766.113
1742203333.123,-639.648,-358.887,-42.969,-716.309
1742203333.08,155.273,-270.996,-124.512,-52.734
1742203333.084,-1000.0,-400.879,-103.516,-1000.0
1742203333.088,-863.77,-20.996,-62.5,-828.613
1742203333.092,529.297,264.648,-58.594,525.879
1742203333.096,999.512,35.645,-64.453,999.512
1742203333.1,792.48,-65.43,-53.711,657.227
1742203333.104,-696.289,-259.277,-63.965,-811.035
1742203333.107,-983.398,-147.461,-39.062,-950.684
1742203333.111,578.613,235.84,-9.277,571.777
1742203333.115,999.512,133.301,-10.742,999.512
1742203333.119,837.402,-150.879,-43.945,766.113
1742203333.123,-639.648,-358.887,-42.969,-716.309
1742203333.08,155.273,-270.996,-124.512,-52.734
1742203333.084,-1000.0,-400.879,-103.516,-1000.0
1742203333.088,-863.77,-20.996,-62.5,-828.613
1742203333.092,529.297,264.648,-58.594,525.879
1742203333.096,999.512,35.645,-64.453,999.512
1742203333.1,792.48,-65.43,-53.711,657.227
1742203333.104,-696.289,-259.277,-63.965,-811.035
1742203333.107,-983.398,-147.461,-39.062,-950.684
1742203333.111,578.613,235.84,-9.277,571.777
1742203333.115,999.512,133.301,-10.742,999.512
1742203333.119,837.402,-150.879,-43.945,766.113
1742203333.123,-639.648,-358.887,-42.969,-716.309
1742203333.124,-994.629,-103.516,2.441,-974.609
1742203333.128,584.961,273.438,34.18,586.426
1742203333.132,999.512,138.184,30.273,999.512
1742203333.136,872.559,-204.59,-15.137,871.094
1742203333.14,-569.824,-456.055,1.465,-580.078
1742203333.144,-1000.0,-91.797,44.434,-1000.0
1742203333.148,539.551,355.957,29.785,571.289
1742203333.151,999.512,111.328,-12.695,999.512
1742203333.155,854.492,-248.047,-42.969,862.305
1742203333.159,-528.809,-438.477,-30.762,-549.316
1742203333.163,-1000.0,-224.609,5.371,-1000.0
1742203333.167,363.281,273.926,7.324,468.75
1742203333.17,999.512,170.898,-31.25,999.512
1742203333.174,999.512,-98.145,-44.434,981.445
1742203333.178,161.621,-263.672,-32.227,26.855
1742203333.182,-1000.0,-314.941,-6.836,-1000.0
1742203333.186,-350.098,116.699,52.734,-67.871
1742203333.19,992.676,314.453,53.223,999.512
1742203333.194,977.539,-33.691,10.254,925.781
1742203333.197,-312.5,-489.746,-23.438,-341.797
1742203333.201,-1000.0,-402.344,-15.137,-1000.0
1742203333.205,-635.742,64.941,10.254,-428.223
1742203333.209,816.895,211.426,-0.488,920.41
1742203333.213,999.512,-80.566,-54.688,953.125
1742203333.213,-417.969,-469.727,-89.844,-437.012
1742203333.217,-1000.0,-312.012,-74.219,-1000.0
1742203333.221,-826.172,54.199,-46.387,-768.066
1742203333.225,506.836,200.195,-44.434,605.957
1742203333.229,999.512,-16.602,-79.102,999.512
1742203333.233,82.52,-262.207,-79.102,-96.191
1742203333.237,-1000.0,-309.57,-39.062,-1000.0
1742203333.24,-884.766,-66.406,-10.254,-872.07
1742203333.244,549.805,185.059,-9.766,562.988
1742203333.248,999.512,-24.414,-25.391,999.512
1742203333.252,-46.387,-416.504,-38.086,-198.73
1742203333.256,-1000.0,-419.922,-20.508,-1000.0
1742203333.213,-417.969,-469.727,-89.844,-437.012
1742203333.217,-1000.0,-312.012,-74.219,-1000.0
1742203333.221,-826.172,54.199,-46.387,-768.066
1742203333.225,506.836,200.195,-44.434,605.957
1742203333.229,999.512,-16.602,-79.102,999.512
1742203333.233,82.52,-262.207,-79.102,-96.191
1742203333.237,-1000.0,-309.57,-39.062,-1000.0
1742203333.24,-884.766,-66.406,-10.254,-872.07
1742203333.244,549.805,185.059,-9.766,562.988
1742203333.248,999.512,-24.414,-25.391,999.512
1742203333.252,-46.387,-416.504,-38.086,-198.73
1742203333.256,-1000.0,-419.922,-20.508,-1000.0
1742203333.26,-861.816,-103.027,24.414,-842.773
1742203333.264,463.867,246.094,46.875,480.469
1742203333.268,999.512,87.402,6.836,999.512
1742203333.272,640.625,-289.551,-33.691,465.332
1742203333.276,-852.539,-406.25,-22.461,-936.035
1742203333.28,-953.613,16.113,13.184,-925.293
1742203333.284,553.223,347.168,7.812,540.039
1742203333.287,999.512,13.184,-41.992,999.512
1742203333.291,693.848,-316.895,-70.801,590.82
1742203333.295,-708.496,-348.145,-40.039,-802.246
1742203333.299,-1000.0,-132.324,0.0,-1000.0
1742203333.303,213.867,163.574,9.277,299.805
1742203333.26,-861.816,-103.027,24.414,-842.773
1742203333.264,463.867,246.094,46.875,480.469
1742203333.268,999.512,87.402,6.836,999.512
1742203333.272,640.625,-289.551,-33.691,465.332
1742203333.276,-852.539,-406.25,-22.461,-936.035
1742203333.28,-953.613,16.113,13.184,-925.293
1742203333.284,553.223,347.168,7.812,540.039
1742203333.287,999.512,13.184,-41.992,999.512
1742203333.291,693.848,-316.895,-70.801,590.82
1742203333.295,-708.496,-348.145,-40.039,-802.246
1742203333.299,-1000.0,-132.324,0.0,-1000.0
1742203333.303,213.867,163.574,9.277,299.805
1742203333.304,999.512,116.211,-2.93,999.512
1742203333.308,794.434,-155.273,-28.32,750.0
1742203333.312,-541.504,-378.906,-36.621,-612.793
1742203333.316,-1000.0,-192.383,-7.812,-1000.0
1742203333.32,-224.609,230.469,14.16,-16.113
1742203333.324,999.512,255.859,-22.949,999.512
1742203333.328,837.402,-171.875,-77.148,776.367
1742203333.331,-570.801,-520.996,-69.336,-605.957
1742203333.335,-1000.0,-332.52,-21.973,-1000.0
1742203333.339,-874.023,15.137,1.465,-820.801
1742203333.343,601.562,245.117,-21.484,680.176
1742203333.347,959.961,-78.125,-66.895,896.973
1742203333.304,999.512,116.211,-2.93,999.512
1742203333.308,794.434,-155.273,-28.32,750.0
1742203333.312,-541.504,-378.906,-36.621,-612.793
1742203333.316,-1000.0,-192.383,-7.812,-1000.0
1742203333.32,-224.609,230.469,14.16,-16.113
1742203333.324,999.512,255.859,-22.949,999.512
1742203333.328,837.402,-171.875,-77.148,776.367
1742203333.331,-570.801,-520.996,-69.336,-605.957
1742203333.335,-1000.0,-332.52,-21.973,-1000.0
1742203333.339,-874.023,15.137,1.465,-820.801
1742203333.343,601.562,245.117,-21.484,680.176
1742203333.347,959.961,-78.125,-66.895,896.973
1742203333.363,-615.723,-479.492,-87.891,-671.875
1742203333.367,-1000.0,-257.812,-80.566,-1000.0
1742203333.371,-882.324,-32.715,-75.684,-888.672
1742203333.375,589.355,209.473,-73.242,586.914
1742203333.379,977.539,-21.973,-99.121,965.332
1742203333.383,-687.5,-379.883,-139.16,-691.895
1742203333.387,-1000.0,-202.637,-117.188,-1000.0
1742203333.39,-1000.0,-139.16,-74.219,-1000.0
1742203333.394,-600.098,22.949,-70.801,-411.621
1742203333.398,834.961,141.602,-100.586,801.27
1742203333.402,-316.406,-339.844,-128.906,-462.402
1742203333.406,-1000.0,-307.129,-105.469,-1000.0
1742203333.363,-615.723,-479.492,-87.891,-671.875
1742203333.367,-1000.0,-257.812,-80.566,-1000.0
1742203333.371,-882.324,-32.715,-75.684,-888.672
1742203333.375,589.355,209.473,-73.242,586.914
1742203333.379,977.539,-21.973,-99.121,965.332
1742203333.383,-687.5,-379.883,-139.16,-691.895
1742203333.387,-1000.0,-202.637,-117.188,-1000.0
1742203333.39,-1000.0,-139.16,-74.219,-1000.0
1742203333.394,-600.098,22.949,-70.801,-411.621
1742203333.398,834.961,141.602,-100.586,801.27
1742203333.402,-316.406,-339.844,-128.906,-462.402
1742203333.406,-1000.0,-307.129,-105.469,-1000.0
1742203333.409,-968.262,-19.531,-59.57,-968.75
1742203333.413,224.609,244.629,-45.898,267.578
1742203333.417,999.512,193.848,-57.617,999.512
1742203333.421,-45.898,-317.871,-72.754,-287.109
1742203333.425,-1000.0,-356.934,-64.453,-1000.0
1742203333.429,-911.621,43.457,-32.227,-893.066
1742203333.433,421.387,308.594,-13.672,450.195
1742203333.436,999.512,25.879,-51.758,999.512
1742203333.44,207.031,-418.945,-104.98,-58.105
1742203333.444,-1000.0,-357.422,-98.145,-1000.0
1742203333.448,-1000.0,-56.641,-57.617,-940.918
1742203333.452,292.48,253.906,-54.688,345.703
1742203333.455,999.512,149.902,-78.125,999.512
1742203333.459,562.988,-225.586,-97.168,349.609
1742203333.463,-766.113,-325.684,-68.359,-879.883
1742203333.467,-1000.0,-155.762,-21.484,-1000.0
1742203333.471,-314.453,117.188,6.836,-192.383
1742203333.475,999.512,276.367,7.812,999.512
1742203333.479,838.867,-50.293,-36.621,728.027
1742203333.482,-571.777,-421.387,-46.875,-670.898
1742203333.486,-1000.0,-275.879,-20.996,-1000.0
1742203333.49,-666.016,78.125,14.648,-540.527
1742203333.494,843.262,207.52,-6.836,925.293
1742203333.498,869.141,-130.371,-81.055,728.027
1742203333.455,999.512,149.902,-78.125,999.512
1742203333.459,562.988,-225.586,-97.168,349.609
1742203333.463,-766.113,-325.684,-68.359,-879.883
1742203333.467,-1000.0,-155.762,-21.484,-1000.0
1742203333.471,-314.453,117.188,6.836,-192.383
1742203333.475,999.512,276.367,7.812,999.512
1742203333.479,838.867,-50.293,-36.621,728.027
1742203333.482,-571.777,-421.387,-46.875,-670.898
1742203333.486,-1000.0,-275.879,-20.996,-1000.0
1742203333.49,-666.016,78.125,14.648,-540.527
1742203333.494,843.262,207.52,-6.836,925.293
1742203333.498,869.141,-130.371,-81.055,728.027
1742203333.498,-655.762,-403.809,-96.68,-753.906
1742203333.502,-1000.0,-141.602,-48.828,-1000.0
1742203333.506,-845.703,78.613,-20.508,-785.156
1742203333.51,639.648,206.055,-16.113,706.055
1742203333.514,952.148,-42.48,-17.578,934.082
1742203333.518,-607.422,-353.516,-29.297,-607.91
1742203333.522,-1000.0,-163.086,-20.02,-1000.0
1742203333.525,-806.641,71.777,3.418,-750.488
1742203333.529,687.012,134.766,-3.418,737.793
1742203333.533,945.312,-138.184,-16.602,922.852
1742203333.537,-612.305,-424.316,-8.301,-620.605
1742203333.541,-1000.0,-256.836,3.418,-1000.0
1742203333.498,-655.762,-403.809,-96.68,-753.906
1742203333.502,-1000.0,-141.602,-48.828,-1000.0
1742203333.506,-845.703,78.613,-20.508,-785.156
1742203333.51,639.648,206.055,-16.113,706.055
1742203333.514,952.148,-42.48,-17.578,934.082
1742203333.518,-607.422,-353.516,-29.297,-607.91
1742203333.522,-1000.0,-163.086,-20.02,-1000.0
1742203333.525,-806.641,71.777,3.418,-750.488
1742203333.529,687.012,134.766,-3.418,737.793
1742203333.533,945.312,-138.184,-16.602,922.852
1742203333.537,-612.305,-424.316,-8.301,-620.605
1742203333.541,-1000.0,-256.836,3.418,-1000.0
1742203333.545,-851.562,-2.441,15.625,-856.934
1742203333.549,547.852,308.105,10.254,579.59
1742203333.553,999.512,82.031,-30.273,999.512
1742203333.557,-332.52,-424.316,-42.969,-458.008
1742203333.561,-1000.0,-317.871,-25.391,-1000.0
1742203333.565,-792.969,103.516,16.602,-739.746
1742203333.569,554.688,243.652,30.273,635.742
1742203333.572,999.512,-63.477,-21.973,999.512
1742203333.576,108.398,-386.23,-64.941,-87.891
1742203333.58,-1000.0,-335.449,-39.062,-1000.0
1742203333.584,-858.398,4.395,16.602,-842.285
1742203333.588,514.648,197.266,42.48,523.438
1742203333.589,999.512,6.836,15.137,999.512
1742203333.593,526.367,-245.117,-22.461,297.852
1742203333.597,-898.926,-342.285,-14.648,-998.047
1742203333.601,-1000.0,-130.371,29.297,-934.57
1742203333.605,426.758,247.07,58.594,465.82
1742203333.609,999.512,203.613,24.414,999.512
1742203333.613,809.57,-144.043,-13.184,722.168
1742203333.616,-611.328,-469.238,-14.648,-722.168
1742203333.62,-1000.0,-284.18,21.484,-1000.0
1742203333.624,361.328,260.254,62.5,442.871
1742203333.628,999.512,161.133,34.18,999.512
1742203333.632,609.863,-199.219,-2.441,557.129
1742203333.589,999.512,6.836,15.137,999.512
1742203333.593,526.367,-245.117,-22.461,297.852
1742203333.597,-898.926,-342.285,-14.648,-998.047
1742203333.601,-1000.0,-130.371,29.297,-934.57
1742203333.605,426.758,247.07,58.594,465.82
1742203333.609,999.512,203.613,24.414,999.512
1742203333.613,809.57,-144.043,-13.184,722.168
1742203333.616,-611.328,-469.238,-14.648,-722.168
1742203333.62,-1000.0,-284.18,21.484,-1000.0
1742203333.624,361.328,260.254,62.5,442.871
1742203333.628,999.512,161.133,34.18,999.512
1742203333.632,609.863,-199.219,-2.441,557.129
1742203333.637,-636.719,-318.359,8.301,-723.633
1742203333.641,-1000.0,-145.02,22.949,-1000.0
1742203333.645,73.242,200.195,41.992,210.449
1742203333.649,999.512,211.914,36.133,999.512
1742203333.653,846.68,-86.914,8.301,834.961
1742203333.657,-501.953,-276.855,-5.371,-541.504
1742203333.661,-1000.0,-147.949,4.395,-1000.0
1742203333.664,-143.555,102.539,23.926,70.312
1742203333.668,999.512,118.164,21.973,999.512
1742203333.672,972.656,-78.613,1.465,918.945
1742203333.676,-279.297,-365.234,-38.574,-357.422
1742203333.68,-1000.0,-304.688,-33.203,-1000.0
1742203333.637,-636.719,-318.359,8.301,-723.633
1742203333.641,-1000.0,-145.02,22.949,-1000.0
1742203333.645,73.242,200.195,41.992,210.449
1742203333.649,999.512,211.914,36.133,999.512
1742203333.653,846.68,-86.914,8.301,834.961
1742203333.657,-501.953,-276.855,-5.371,-541.504
1742203333.661,-1000.0,-147.949,4.395,-1000.0
1742203333.664,-143.555,102.539,23.926,70.312
1742203333.668,999.512,118.164,21.973,999.512
1742203333.672,972.656,-78.613,1.465,918.945
1742203333.676,-279.297,-365.234,-38.574,-357.422
1742203333.68,-1000.0,-304.688,-33.203,-1000.0
1742203333.678,-459.473,110.352,36.133,-233.887
1742203333.682,817.871,232.91,51.758,912.598
1742203333.686,999.512,43.945,20.02,999.512
1742203333.69,313.965,-253.906,-5.859,124.023
1742203333.694,-1000.0,-344.238,6.836,-1000.0
1742203333.698,-447.754,187.5,56.152,-171.387
1742203333.702,887.695,251.465,48.828,969.238
1742203333.705,999.512,-169.922,-6.836,999.512
1742203333.709,489.746,-382.812,-18.555,354.004
1742203333.713,-1000.0,-345.703,5.859,-1000.0
1742203333.717,-688.965,45.41,20.508,-431.641
1742203333.721,865.234,261.23,29.297,959.473
1742203333.74,999.512,-17.09,5.859,980.957
1742203333.744,904.297,-157.715,-22.949,923.34
1742203333.748,983.398,-109.375,-10.254,979.004
1742203333.752,983.398,-83.984,25.391,983.398
1742203333.756,903.809,-63.477,3.418,905.762
1742203333.76,999.512,3.418,-47.852,999.512
1742203333.764,866.211,-104.492,-56.152,875.488
1742203333.767,-712.402,-424.805,-47.852,-713.867
1742203333.771,-983.887,-221.68,-17.09,-937.012
1742203333.775,580.078,214.844,15.137,641.113
1742203333.779,999.512,39.551,-10.254,999.512
1742203333.783,847.656,-255.859,-37.598,878.418
1742203333.74,999.512,-17.09,5.859,980.957
1742203333.744,904.297,-157.715,-22.949,923.34
1742203333.748,983.398,-109.375,-10.254,979.004
1742203333.752,983.398,-83.984,25.391,983.398
1742203333.756,903.809,-63.477,3.418,905.762
1742203333.76,999.512,3.418,-47.852,999.512
1742203333.764,866.211,-104.492,-56.152,875.488
1742203333.767,-712.402,-424.805,-47.852,-713.867
1742203333.771,-983.887,-221.68,-17.09,-937.012
1742203333.775,580.078,214.844,15.137,641.113
1742203333.779,999.512,39.551,-10.254,999.512
1742203333.783,847.656,-255.859,-37.598,878.418
1742203333.783,-604.98,-562.012,-40.039,-575.195
1742203333.787,-1000.0,-272.461,-8.789,-1000.0
1742203333.791,527.832,211.426,15.137,580.078
1742203333.795,999.512,9.766,-24.414,999.512
1742203333.799,847.168,-218.262,-57.129,864.746
1742203333.803,-543.457,-424.316,-52.246,-555.664
1742203333.807,-1000.0,-275.391,-31.25,-1000.0
1742203333.81,336.914,177.246,-11.23,466.309
1742203333.814,999.512,17.09,-33.691,999.512
1742203333.818,872.07,-234.375,-69.336,876.465
1742203333.822,-414.551,-444.336,-61.523,-454.59
1742203333.826,-1000.0,-324.707,-20.02,-1000.0
1742203333.83,-96.191,123.535,0.0,175.781
1742203333.834,999.512,192.383,-17.09,999.512
1742203333.838,921.875,-86.914,-48.828,881.348
1742203333.842,-404.297,-438.477,-66.406,-442.383
1742203333.846,-1000.0,-291.016,-37.598,-1000.0
1742203333.85,-272.461,228.516,6.836,2.93
1742203333.854,926.758,201.172,-0.977,991.211
1742203333.857,999.512,-155.273,-35.645,999.512
1742203333.861,-70.801,-398.438,-43.457,-167.969
1742203333.865,-1000.0,-296.387,-2.93,-1000.0
1742203333.869,-286.133,215.82,52.734,-29.297
1742203333.873,917.969,187.5,23.438,997.07
1742203333.83,-96.191,123.535,0.0,175.781
1742203333.834,999.512,192.383,-17.09,999.512
1742203333.838,921.875,-86.914,-48.828,881.348
1742203333.842,-404.297,-438.477,-66.406,-442.383
1742203333.846,-1000.0,-291.016,-37.598,-1000.0
1742203333.85,-272.461,228.516,6.836,2.93
1742203333.854,926.758,201.172,-0.977,991.211
1742203333.857,999.512,-155.273,-35.645,999.512
1742203333.861,-70.801,-398.438,-43.457,-167.969
1742203333.865,-1000.0,-296.387,-2.93,-1000.0
1742203333.869,-286.133,215.82,52.734,-29.297
1742203333.873,917.969,187.5,23.438,997.07
1742203333.873,999.512,-110.84,-33.203,999.512
1742203333.877,256.836,-281.738,-30.762,137.695
1742203333.881,-1000.0,-339.844,-14.16,-1000.0
1742203333.885,-803.223,-34.668,12.695,-666.992
1742203333.889,641.602,178.711,6.836,749.512
1742203333.893,999.512,64.941,-49.316,999.512
1742203333.897,255.859,-276.855,-77.148,111.816
1742203333.9,-1000.0,-438.965,-63.477,-1000.0
1742203333.904,-904.785,-158.203,-40.039,-888.672
1742203333.908,537.598,210.449,-17.578,556.641
1742203333.912,999.512,67.383,-55.664,999.512
1742203333.916,121.094,-365.234,-90.332,-46.875
1742203333.873,999.512,-110.84,-33.203,999.512
1742203333.877,256.836,-281.738,-30.762,137.695
1742203333.881,-1000.0,-339.844,-14.16,-1000.0
1742203333.885,-803.223,-34.668,12.695,-666.992
1742203333.889,641.602,178.711,6.836,749.512
1742203333.893,999.512,64.941,-49.316,999.512
1742203333.897,255.859,-276.855,-77.148,111.816
1742203333.9,-1000.0,-438.965,-63.477,-1000.0
1742203333.904,-904.785,-158.203,-40.039,-888.672
1742203333.908,537.598,210.449,-17.578,556.641
1742203333.912,999.512,67.383,-55.664,999.512
1742203333.916,121.094,-365.234,-90.332,-46.875
1742203333.921,-1000.0,-375.977,-73.73,-1000.0
1742203333.925,-1000.0,-67.871,-37.109,-1000.0
1742203333.929,99.121,160.645,-27.832,232.91
1742203333.933,999.512,97.168,-62.012,999.512
1742203333.937,279.297,-316.406,-89.844,29.785
1742203333.941,-916.016,-318.848,-75.195,-995.605
1742203333.945,-1000.0,-64.941,-37.109,-1000.0
1742203333.948,-524.902,11.719,-59.57,-331.055
1742203333.952,999.023,66.895,-91.309,999.512
1742203333.956,648.438,-201.172,-101.562,411.133
1742203333.96,-832.031,-366.699,-104.004,-907.227
1742203333.964,-1000.0,-174.316,-66.895,-1000.0
1742203333.963,-883.789,-8.789,-41.504,-839.355
1742203333.967,618.652,222.656,-65.918,718.262
1742203333.971,927.734,-23.926,-85.449,775.879
1742203333.975,-654.785,-328.125,-65.43,-793.457
1742203333.979,-1000.0,-178.223,-32.227,-1000.0
1742203333.983,-420.41,156.25,-6.348,-319.336
1742203333.987,960.938,248.535,-38.086,994.629
1742203333.99,883.301,-196.289,-114.746,861.328
1742203333.994,-586.426,-577.637,-115.723,-612.305
1742203333.998,-1000.0,-289.062,-40.527,-1000.0
1742203334.002,-205.078,157.715,12.207,-70.312
1742203334.006,935.547,180.176,0.488,996.094
1742203334.01,999.512,-112.793,-34.18,984.863
1742203334.014,27.344,-341.797,-34.18,-161.133
1742203334.018,-1000.0,-312.012,-2.441,-1000.0
1742203334.022,-608.887,38.574,44.434,-419.922
1742203334.026,770.02,164.551,33.203,859.375
1742203334.03,999.512,59.082,-0.977,999.512
1742203334.034,301.758,-212.402,-21.484,107.422
1742203334.037,-1000.0,-423.828,-5.859,-1000.0
1742203334.041,-860.352,-147.949,57.129,-745.117
1742203334.045,558.594,164.062,66.406,651.855
1742203334.049,999.512,-15.625,11.719,999.512
1742203334.053,604.004,-267.09,-17.578,450.195
1742203334.01,999.512,-112.793,-34.18,984.863
1742203334.014,27.344,-341.797,-34.18,-161.133
1742203334.018,-1000.0,-312.012,-2.441,-1000.0
1742203334.022,-608.887,38.574,44.434,-419.922
1742203334.026,770.02,164.551,33.203,859.375
1742203334.03,999.512,59.082,-0.977,999.512
1742203334.034,301.758,-212.402,-21.484,107.422
1742203334.037,-1000.0,-423.828,-5.859,-1000.0
1742203334.041,-860.352,-147.949,57.129,-745.117
1742203334.045,558.594,164.062,66.406,651.855
1742203334.049,999.512,-15.625,11.719,999.512
1742203334.053,604.004,-267.09,-17.578,450.195
1742203334.053,-888.184,-366.211,-5.859,-970.703
1742203334.057,-932.617,-81.543,19.043,-824.707
1742203334.061,564.453,231.445,35.156,654.297
1742203334.065,999.512,7.812,3.418,999.512
1742203334.069,656.738,-216.797,-22.461,496.582
1742203334.073,-839.355,-211.426,-6.836,-919.922
1742203334.077,-955.566,37.109,-3.418,-921.875
1742203334.08,556.641,192.871,-17.09,573.73
1742203334.084,999.512,-26.367,-29.785,999.512
1742203334.088,476.074,-252.93,-53.711,317.383
1742203334.092,-880.859,-321.777,-33.691,-957.52
1742203334.096,-1000.0,-62.5,36.621,-1000.0
1742203334.053,-888.184,-366.211,-5.859,-970.703
1742203334.057,-932.617,-81.543,19.043,-824.707
1742203334.061,564.453,231.445,35.156,654.297
1742203334.065,999.512,7.812,3.418,999.512
1742203334.069,656.738,-216.797,-22.461,496.582
1742203334.073,-839.355,-211.426,-6.836,-919.922
1742203334.077,-955.566,37.109,-3.418,-921.875
1742203334.08,556.641,192.871,-17.09,573.73
1742203334.084,999.512,-26.367,-29.785,999.512
1742203334.088,476.074,-252.93,-53.711,317.383
1742203334.092,-880.859,-321.777,-33.691,-957.52
1742203334.096,-1000.0,-62.5,36.621,-1000.0
1742203334.115,196.289,265.137,36.133,308.594
1742203334.119,999.512,182.129,-24.902,999.512
1742203334.123,564.941,-183.105,-70.801,409.18
1742203334.127,-756.836,-326.172,-69.824,-841.797
1742203334.131,-1000.0,-122.559,-31.738,-1000.0
1742203334.135,-521.973,241.211,-2.441,-312.988
1742203334.139,991.699,278.32,-19.043,999.512
1742203334.142,592.285,-225.586,-42.48,304.199
1742203334.146,-873.047,-352.539,-30.273,-954.102
1742203334.15,-1000.0,-95.703,-8.789,-1000.0
1742203334.154,-903.809,103.027,15.137,-878.906
1742203334.158,644.531,312.012,8.301,705.566
1742203334.115,196.289,265.137,36.133,308.594
1742203334.119,999.512,182.129,-24.902,999.512
1742203334.123,564.941,-183.105,-70.801,409.18
1742203334.127,-756.836,-326.172,-69.824,-841.797
1742203334.131,-1000.0,-122.559,-31.738,-1000.0
1742203334.135,-521.973,241.211,-2.441,-312.988
1742203334.139,991.699,278.32,-19.043,999.512
1742203334.142,592.285,-225.586,-42.48,304.199
1742203334.146,-873.047,-352.539,-30.273,-954.102
1742203334.15,-1000.0,-95.703,-8.789,-1000.0
1742203334.154,-903.809,103.027,15.137,-878.906
1742203334.158,644.531,312.012,8.301,705.566
1742203334.158,805.664,-111.328,-19.531,554.688
1742203334.162,-865.234,-345.215,-22.461,-992.676
1742203334.166,-1000.0,-42.969,-18.555,-1000.0
1742203334.17,-933.594,41.992,-26.855,-951.66
1742203334.174,-1000.0,15.625,-50.293,-1000.0
1742203334.178,-1000.0,2.441,-64.453,-1000.0
1742203334.182,-940.43,-33.203,-51.758,-940.43
1742203334.185,-1000.0,-96.68,-23.926,-1000.0
1742203334.189,-922.363,-11.23,-1.953,-924.316
1742203334.193,631.348,259.766,-21.973,646.484
1742203334.197,997.07,63.477,-19.043,958.496
1742203334.201,-554.688,-395.508,-6.836,-617.676
1742203334.158,805.664,-111.328,-19.531,554.688
1742203334.162,-865.234,-345.215,-22.461,-992.676
1742203334.166,-1000.0,-42.969,-18.555,-1000.0
1742203334.17,-933.594,41.992,-26.855,-951.66
1742203334.174,-1000.0,15.625,-50.293,-1000.0
1742203334.178,-1000.0,2.441,-64.453,-1000.0
1742203334.182,-940.43,-33.203,-51.758,-940.43
1742203334.185,-1000.0,-96.68,-23.926,-1000.0
1742203334.189,-922.363,-11.23,-1.953,-924.316
1742203334.193,631.348,259.766,-21.973,646.484
1742203334.197,997.07,63.477,-19.043,958.496
1742203334.201,-554.688,-395.508,-6.836,-617.676
1742203334.205,-1000.0,-243.164,9.766,-1000.0
1742203334.209,-901.855,114.258,43.457,-921.875
1742203334.213,528.32,303.711,38.086,516.113
1742203334.217,999.512,56.152,17.09,987.305
1742203334.221,-541.992,-416.016,9.766,-614.746
1742203334.225,-1000.0,-171.387,47.363,-1000.0
1742203334.229,-984.375,103.516,116.211,-978.027
1742203334.232,271.973,191.406,105.469,321.777
1742203334.236,999.512,31.738,48.828,999.512
1742203334.24,-305.176,-393.066,36.133,-460.938
1742203334.244,-1000.0,-300.781,51.758,-1000.0
1742203334.248,-1000.0,-78.125,75.195,-1000.0
1742203334.205,-1000.0,-243.164,9.766,-1000.0
1742203334.209,-901.855,114.258,43.457,-921.875
1742203334.213,528.32,303.711,38.086,516.113
1742203334.217,999.512,56.152,17.09,987.305
1742203334.221,-541.992,-416.016,9.766,-614.746
1742203334.225,-1000.0,-171.387,47.363,-1000.0
1742203334.229,-984.375,103.516,116.211,-978.027
1742203334.232,271.973,191.406,105.469,321.777
1742203334.236,999.512,31.738,48.828,999.512
1742203334.24,-305.176,-393.066,36.133,-460.938
1742203334.244,-1000.0,-300.781,51.758,-1000.0
1742203334.248,-1000.0,-78.125,75.195,-1000.0
1742203334.248,-425.293,74.707,89.355,-313.965
1742203334.252,999.512,165.527,59.082,999.512
1742203334.256,314.453,-272.461,24.902,-26.855
1742203334.26,-1000.0,-319.336,28.32,-1000.0
1742203334.264,-1000.0,-47.363,49.316,-1000.0
1742203334.268,85.449,207.031,70.801,132.324
1742203334.272,999.512,201.66,53.223,999.512
1742203334.275,291.016,-353.516,-5.859,15.137
1742203334.279,-910.645,-452.637,-19.531,-992.188
1742203334.283,-1000.0,-106.445,24.414,-1000.0
1742203334.287,-754.395,86.426,50.781,-679.199
1742203334.291,843.262,223.633,27.344,894.043
1742203334.248,-425.293,74.707,89.355,-313.965
1742203334.252,999.512,165.527,59.082,999.512
1742203334.256,314.453,-272.461,24.902,-26.855
1742203334.26,-1000.0,-319.336,28.32,-1000.0
1742203334.264,-1000.0,-47.363,49.316,-1000.0
1742203334.268,85.449,207.031,70.801,132.324
1742203334.272,999.512,201.66,53.223,999.512
1742203334.275,291.016,-353.516,-5.859,15.137
1742203334.279,-910.645,-452.637,-19.531,-992.188
1742203334.283,-1000.0,-106.445,24.414,-1000.0
1742203334.287,-754.395,86.426,50.781,-679.199
1742203334.291,843.262,223.633,27.344,894.043
1742203334.295,723.633,-159.18,-17.578,466.797
1742203334.299,-810.059,-373.535,-27.344,-931.152
1742203334.303,-1000.0,-107.422,5.371,-1000.0
1742203334.307,-690.918,76.66,31.738,-604.004
1742203334.311,814.941,204.59,23.926,894.043
1742203334.315,926.27,-51.758,-14.648,802.734
1742203334.319,-671.387,-359.375,-43.945,-769.043
1742203334.322,-1000.0,-259.277,-34.18,-1000.0
1742203334.326,-925.781,-152.832,-18.555,-922.852
1742203334.33,-1000.0,-78.125,-21.484,-961.426
1742203334.334,-1000.0,-145.508,-56.152,-987.793
1742203334.338,-1000.0,-188.477,-82.52,-1000.0
1742203334.338,-1000.0,-122.559,-54.199,-996.582
1742203334.342,-1000.0,-58.105,-24.414,-1000.0
1742203334.346,-1000.0,-38.574,-39.551,-1000.0
1742203334.35,-1000.0,-123.047,-63.477,-1000.0
1742203334.354,-959.473,-146.973,-62.012,-998.535
1742203334.358,-997.559,-30.273,-31.25,-995.605
1742203334.362,-1000.0,12.695,-10.254,-1000.0
1742203334.365,403.32,52.734,-30.762,-836.426
1742203334.369,999.512,-69.336,-52.246,-853.516
1742203334.373,-650.391,-345.703,-58.594,-1000.0
1742203334.377,-1000.0,-232.91,-42.969,-991.699
1742203334.381,-925.781,4.883,-13.184,-1000.0
1742203334.338,-1000.0,-122.559,-54.199,-996.582
1742203334.342,-1000.0,-58.105,-24.414,-1000.0
1742203334.346,-1000.0,-38.574,-39.551,-1000.0
1742203334.35,-1000.0,-123.047,-63.477,-1000.0
1742203334.354,-959.473,-146.973,-62.012,-998.535
1742203334.358,-997.559,-30.273,-31.25,-995.605
1742203334.362,-1000.0,12.695,-10.254,-1000.0
1742203334.365,403.32,52.734,-30.762,-836.426
1742203334.369,999.512,-69.336,-52.246,-853.516
1742203334.373,-650.391,-345.703,-58.594,-1000.0
1742203334.377,-1000.0,-232.91,-42.969,-991.699
1742203334.381,-925.781,4.883,-13.184,-1000.0
1742203334.385,-1000.0,16.113,-1.953,-1000.0
1742203334.389,-1000.0,-52.734,-23.926,-1000.0
1742203334.393,-943.848,-73.242,-44.922,-961.914
1742203334.397,-1000.0,-80.078,-15.625,-991.699
1742203334.401,-956.543,25.879,27.344,-1000.0
1742203334.405,588.379,450.684,27.832,382.812
1742203334.409,999.512,162.109,-1.465,981.445
1742203334.412,-620.117,-477.051,-4.883,-682.129
1742203334.416,-1000.0,-268.066,17.09,-1000.0
1742203334.42,-925.781,-9.766,58.594,-926.27
1742203334.424,-1000.0,34.18,99.121,-1000.0
1742203334.428,-1000.0,-25.391,86.426,-1000.0
1742203334.385,-1000.0,16.113,-1.953,-1000.0
1742203334.389,-1000.0,-52.734,-23.926,-1000.0
1742203334.393,-943.848,-73.242,-44.922,-961.914
1742203334.397,-1000.0,-80.078,-15.625,-991.699
1742203334.401,-956.543,25.879,27.344,-1000.0
1742203334.405,588.379,450.684,27.832,382.812
1742203334.409,999.512,162.109,-1.465,981.445
1742203334.412,-620.117,-477.051,-4.883,-682.129
1742203334.416,-1000.0,-268.066,17.09,-1000.0
1742203334.42,-925.781,-9.766,58.594,-926.27
1742203334.424,-1000.0,34.18,99.121,-1000.0
1742203334.428,-1000.0,-25.391,86.426,-1000.0
1742203334.428,-1000.0,-195.312,25.879,-1000.0
1742203334.432,-956.543,-89.355,25.879,-1000.0
1742203334.436,-1000.0,33.691,21.973,-1000.0
1742203334.44,-1000.0,38.574,-32.715,-1000.0
1742203334.444,441.406,133.301,-24.414,-994.141
1742203334.448,998.535,69.336,-4.395,-997.559
1742203334.452,-654.297,-235.352,5.371,-1000.0
1742203334.455,-1000.0,-238.281,4.883,-1000.0
1742203334.459,-925.781,-82.52,26.367,-1000.0
1742203334.463,-1000.0,-84.473,7.324,-1000.0
1742203334.467,-945.312,-120.605,-22.949,-955.078
1742203334.471,-1000.0,-158.691,-2.93,-1000.0
1742203334.428,-1000.0,-195.312,25.879,-1000.0
1742203334.432,-956.543,-89.355,25.879,-1000.0
1742203334.436,-1000.0,33.691,21.973,-1000.0
1742203334.44,-1000.0,38.574,-32.715,-1000.0
1742203334.444,441.406,133.301,-24.414,-994.141
1742203334.448,998.535,69.336,-4.395,-997.559
1742203334.452,-654.297,-235.352,5.371,-1000.0
1742203334.455,-1000.0,-238.281,4.883,-1000.0
1742203334.459,-925.781,-82.52,26.367,-1000.0
1742203334.463,-1000.0,-84.473,7.324,-1000.0
1742203334.467,-945.312,-120.605,-22.949,-955.078
1742203334.471,-1000.0,-158.691,-2.93,-1000.0
1742203334.476,-910.156,-60.547,36.133,-970.703
1742203334.48,527.832,352.539,61.035,380.371
1742203334.484,999.512,151.367,32.227,999.512
1742203334.488,999.512,-143.555,-10.254,966.797
1742203334.492,205.566,-333.496,-4.395,-196.777
1742203334.496,-1000.0,-229.98,1.953,-1000.0
1742203334.5,191.895,242.188,2.441,293.457
1742203334.503,999.512,119.629,-5.859,999.512
1742203334.507,940.43,-131.836,-40.039,974.121
1742203334.511,927.734,-233.398,-56.641,822.754
1742203334.515,-717.285,-438.965,-31.738,-786.133
1742203334.519,-638.672,-59.57,15.625,-351.562
1742203334.533,901.367,162.598,0.488,984.375
1742203334.537,999.512,-55.664,-27.832,999.512
1742203334.541,877.441,-193.848,-10.742,837.891
1742203334.545,-693.848,-387.207,10.742,-750.0
1742203334.549,-751.465,27.832,21.973,-484.375
1742203334.553,834.961,292.48,-31.738,941.895
1742203334.557,999.512,4.395,-120.117,999.512
1742203334.56,865.234,-269.531,-151.855,855.469
1742203334.564,-674.316,-519.531,-151.855,-726.562
1742203334.568,-857.422,-42.48,-118.652,-670.41
1742203334.572,815.43,333.984,-62.988,924.805
1742203334.576,999.512,11.23,-48.828,999.512
1742203334.533,901.367,162.598,0.488,984.375
1742203334.537,999.512,-55.664,-27.832,999.512
1742203334.541,877.441,-193.848,-10.742,837.891
1742203334.545,-693.848,-387.207,10.742,-750.0
1742203334.549,-751.465,27.832,21.973,-484.375
1742203334.553,834.961,292.48,-31.738,941.895
1742203334.557,999.512,4.395,-120.117,999.512
1742203334.56,865.234,-269.531,-151.855,855.469
1742203334.564,-674.316,-519.531,-151.855,-726.562
1742203334.568,-857.422,-42.48,-118.652,-670.41
1742203334.572,815.43,333.984,-62.988,924.805
1742203334.576,999.512,11.23,-48.828,999.512
1742203334.58,898.438,-153.32,-98.145,912.598
1742203334.584,983.887,-88.379,-100.586,981.934
1742203334.588,965.82,-2.441,-86.914,967.285
1742203334.592,966.309,31.738,-62.012,966.797
1742203334.596,966.309,-17.09,-34.668,966.797
1742203334.6,966.309,-31.738,-55.664,966.797
1742203334.604,965.82,-15.625,-53.711,966.797
1742203334.607,966.309,-30.762,-4.883,966.797
1742203334.611,966.309,-23.926,20.508,966.797
1742203334.615,966.309,13.672,12.695,966.797
1742203334.619,966.309,-25.391,-13.672,966.797
1742203334.623,966.309,-61.035,-27.344,966.797
1742203334.58,898.438,-153.32,-98.145,912.598
1742203334.584,983.887,-88.379,-100.586,981.934
1742203334.588,965.82,-2.441,-86.914,967.285
1742203334.592,966.309,31.738,-62.012,966.797
1742203334.596,966.309,-17.09,-34.668,966.797
1742203334.6,966.309,-31.738,-55.664,966.797
1742203334.604,965.82,-15.625,-53.711,966.797
1742203334.607,966.309,-30.762,-4.883,966.797
1742203334.611,966.309,-23.926,20.508,966.797
1742203334.615,966.309,13.672,12.695,966.797
1742203334.619,966.309,-25.391,-13.672,966.797
1742203334.623,966.309,-61.035,-27.344,966.797
1742203334.623,966.309,-20.508,-15.137,966.797
1742203334.627,966.309,86.426,-11.23,966.797
1742203334.631,966.309,54.199,-33.203,966.797
1742203334.635,966.309,-81.543,-47.852,967.285
1742203334.639,966.309,-40.039,-26.367,966.797
1742203334.643,966.309,119.629,18.555,967.285
1742203334.647,966.309,145.508,29.785,967.285
1742203334.65,966.309,4.883,-21.973,966.797
1742203334.654,966.309,-51.758,-41.016,966.797
1742203334.658,966.309,20.02,-34.668,967.285
1742203334.662,966.309,25.391,-35.156,966.797
1742203334.666,966.309,134.766,-22.949,966.797
1742203334.623,966.309,-20.508,-15.137,966.797
1742203334.627,966.309,86.426,-11.23,966.797
1742203334.631,966.309,54.199,-33.203,966.797
1742203334.635,966.309,-81.543,-47.852,967.285
1742203334.639,966.309,-40.039,-26.367,966.797
1742203334.643,966.309,119.629,18.555,967.285
1742203334.647,966.309,145.508,29.785,967.285
1742203334.65,966.309,4.883,-21.973,966.797
1742203334.654,966.309,-51.758,-41.016,966.797
1742203334.658,966.309,20.02,-34.668,967.285
1742203334.662,966.309,25.391,-35.156,966.797
1742203334.666,966.309,134.766,-22.949,966.797
1742203334.67,966.309,140.137,-38.086,967.285
1742203334.674,966.309,31.25,-61.035,966.797
1742203334.678,966.309,33.203,-73.73,966.797
1742203334.682,966.309,64.941,-65.43,966.797
1742203334.686,966.309,109.375,-45.898,966.797
1742203334.69,966.309,219.238,-35.156,966.797
1742203334.694,966.309,92.773,-47.363,967.285
1742203334.697,966.309,-96.68,-97.656,966.797
1742203334.701,966.309,-45.41,-96.68,966.797
1742203334.705,966.309,47.852,-25.391,966.797
1742203334.709,966.309,73.242,-13.184,967.285
1742203334.713,966.309,25.391,-45.898,966.797
1742203334.713,966.309,-172.363,-76.66,966.797
1742203334.717,966.797,-164.062,-65.43,967.285
1742203334.721,978.027,-11.719,-30.273,973.145
1742203334.725,897.461,-39.551,-33.203,952.148
1742203334.729,999.512,-98.145,-74.219,927.734
1742203334.733,546.875,-120.605,-89.844,999.512
1742203334.737,-964.844,-313.477,-88.867,0.977
1742203334.74,-917.969,-243.164,-89.355,-664.551
1742203334.744,557.617,74.707,-51.758,704.102
1742203334.748,999.512,17.09,-54.199,999.512
1742203334.752,836.426,-155.273,-92.773,893.066
1742203334.756,-632.324,-427.734,-95.703,-552.246
1742203334.713,966.309,-172.363,-76.66,966.797
1742203334.717,966.797,-164.062,-65.43,967.285
1742203334.721,978.027,-11.719,-30.273,973.145
1742203334.725,897.461,-39.551,-33.203,952.148
1742203334.729,999.512,-98.145,-74.219,927.734
1742203334.733,546.875,-120.605,-89.844,999.512
1742203334.737,-964.844,-313.477,-88.867,0.977
1742203334.74,-917.969,-243.164,-89.355,-664.551
1742203334.744,557.617,74.707,-51.758,704.102
1742203334.748,999.512,17.09,-54.199,999.512
1742203334.752,836.426,-155.273,-92.773,893.066
1742203334.756,-632.324,-427.734,-95.703,-552.246
1742203334.761,-1000.0,-232.422,-54.199,-996.094
1742203334.765,553.711,313.965,-30.762,587.891
1742203334.769,999.512,144.043,-65.918,999.512
1742203334.773,812.988,-246.094,-92.285,815.918
1742203334.777,-573.242,-452.148,-102.051,-617.676
1742203334.781,-1000.0,-73.242,-82.031,-1000.0
1742203334.785,245.605,358.398,-62.012,412.109
1742203334.788,999.512,125.0,-80.566,999.512
1742203334.792,757.324,-206.055,-102.051,719.238
1742203334.796,-550.781,-352.539,-91.309,-583.984
1742203334.8,-1000.0,-182.617,-69.824,-1000.0
1742203334.804,-783.691,25.879,-62.5,-588.379
1742203334.761,-1000.0,-232.422,-54.199,-996.094
1742203334.765,553.711,313.965,-30.762,587.891
1742203334.769,999.512,144.043,-65.918,999.512
1742203334.773,812.988,-246.094,-92.285,815.918
1742203334.777,-573.242,-452.148,-102.051,-617.676
1742203334.781,-1000.0,-73.242,-82.031,-1000.0
1742203334.785,245.605,358.398,-62.012,412.109
1742203334.788,999.512,125.0,-80.566,999.512
1742203334.792,757.324,-206.055,-102.051,719.238
1742203334.796,-550.781,-352.539,-91.309,-583.984
1742203334.8,-1000.0,-182.617,-69.824,-1000.0
1742203334.804,-783.691,25.879,-62.5,-588.379
1742203334.803,714.355,160.645,-103.516,859.375
1742203334.807,938.477,-71.289,-164.551,863.77
1742203334.811,-604.492,-426.758,-150.391,-633.789
1742203334.815,-1000.0,-238.281,-95.703,-1000.0
1742203334.819,-803.223,96.191,-76.66,-685.547
1742203334.823,691.895,261.23,-88.867,789.062
1742203334.827,951.172,-43.945,-134.766,909.668
1742203334.83,-633.789,-468.262,-163.086,-638.672
1742203334.834,-1000.0,-352.051,-121.094,-1000.0
1742203334.838,-1000.0,-35.645,-69.336,-976.074
1742203334.842,333.008,280.273,-67.383,408.691
1742203334.846,993.164,62.988,-93.262,981.445
1742203335.331,-499.023,146.484,4.883,-237.305
1742203335.335,823.73,245.117,6.836,931.152
1742203335.339,999.512,71.777,-17.578,999.512
1742203335.343,70.312,-311.035,-45.898,-27.344
1742203335.347,-1000.0,-366.699,-30.273,-1000.0
1742203335.351,-634.277,152.832,13.184,-394.531
1742203335.355,789.062,228.516,8.301,898.926
1742203335.358,999.512,-120.117,-26.855,999.512
1742203335.362,68.359,-381.836,-49.805,-4.883
1742203335.366,-1000.0,-333.496,-40.039,-1000.0
1742203335.37,-851.562,19.043,-9.766,-783.691
1742203335.374,511.23,232.91,-11.23,595.215
1742203334.864,-658.203,-453.125,-92.773,-658.691
1742203334.868,-1000.0,-229.004,-50.781,-1000.0
1742203334.872,-1000.0,-20.508,-18.066,-1000.0
1742203334.876,-120.605,147.461,-30.762,-15.625
1742203334.88,999.512,114.746,-72.266,964.844
1742203334.884,-377.441,-316.406,-85.449,-523.438
1742203334.888,-1000.0,-222.656,-61.035,-1000.0
1742203334.891,-1000.0,-89.844,-33.203,-1000.0
1742203334.895,-60.059,43.457,-31.738,53.223
1742203334.899,999.512,124.512,-63.965,999.512
1742203334.903,180.664,-299.316,-90.82,-100.586
1742203334.907,-1000.0,-386.719,-78.125,-1000.0
1742203334.864,-658.203,-453.125,-92.773,-658.691
1742203334.868,-1000.0,-229.004,-50.781,-1000.0
1742203334.872,-1000.0,-20.508,-18.066,-1000.0
1742203334.876,-120.605,147.461,-30.762,-15.625
1742203334.88,999.512,114.746,-72.266,964.844
1742203334.884,-377.441,-316.406,-85.449,-523.438
1742203334.888,-1000.0,-222.656,-61.035,-1000.0
1742203334.891,-1000.0,-89.844,-33.203,-1000.0
1742203334.895,-60.059,43.457,-31.738,53.223
1742203334.899,999.512,124.512,-63.965,999.512
1742203334.903,180.664,-299.316,-90.82,-100.586
1742203334.907,-1000.0,-386.719,-78.125,-1000.0
1742203334.908,-1000.0,-128.418,-51.27,-1000.0
1742203334.912,62.988,198.73,-40.039,136.23
1742203334.916,999.512,147.949,-67.871,999.512
1742203334.92,367.188,-269.043,-104.004,71.777
1742203334.924,-950.684,-291.016,-92.773,-1000.0
1742203334.928,-1000.0,-57.617,-53.711,-1000.0
1742203334.932,127.93,229.492,-30.762,178.223
1742203334.935,999.512,109.863,-56.152,999.512
1742203334.939,558.105,-304.688,-96.68,316.895
1742203334.943,-803.223,-318.359,-105.957,-919.434
1742203334.947,-1000.0,-130.371,-74.707,-1000.0
1742203334.951,-196.777,138.672,-30.273,-92.773
1742203334.955,999.512,184.082,-22.461,999.512
1742203334.959,834.473,-110.352,-40.039,774.414
1742203334.963,-555.176,-336.426,-33.203,-625.0
1742203334.967,-1000.0,-200.684,-11.719,-1000.0
1742203334.971,-470.703,103.027,-1.465,-289.551
1742203334.975,941.895,297.852,-19.531,999.512
1742203334.979,881.348,-58.594,-56.152,863.281
1742203334.982,-577.637,-506.348,-74.707,-583.984
1742203334.986,-1000.0,-311.035,-60.547,-1000.0
1742203334.99,-454.102,104.492,-40.039,-234.863
1742203334.994,911.621,190.918,-65.918,994.141
1742203334.998,966.309,-53.711,-111.816,906.25
1742203334.955,999.512,184.082,-22.461,999.512
1742203334.959,834.473,-110.352,-40.039,774.414
1742203334.963,-555.176,-336.426,-33.203,-625.0
1742203334.967,-1000.0,-200.684,-11.719,-1000.0
1742203334.971,-470.703,103.027,-1.465,-289.551
1742203334.975,941.895,297.852,-19.531,999.512
1742203334.979,881.348,-58.594,-56.152,863.281
1742203334.982,-577.637,-506.348,-74.707,-583.984
1742203334.986,-1000.0,-311.035,-60.547,-1000.0
1742203334.99,-454.102,104.492,-40.039,-234.863
1742203334.994,911.621,190.918,-65.918,994.141
1742203334.998,966.309,-53.711,-111.816,906.25
1742203334.998,-420.898,-468.75,-109.375,-453.125
1742203335.002,-1000.0,-354.492,-43.945,-1000.0
1742203335.006,-739.258,62.012,6.348,-628.906
1742203335.01,687.5,172.363,-4.395,789.551
1742203335.014,999.512,-75.195,-37.109,999.512
1742203335.018,-337.402,-369.629,-52.734,-429.688
1742203335.022,-1000.0,-303.223,-29.785,-1000.0
1742203335.025,-945.801,-161.133,-1.465,-911.621
1742203335.029,388.184,63.965,-20.996,475.098
1742203335.033,999.512,8.301,-39.062,999.512
1742203335.037,-288.574,-427.734,-29.785,-403.32
1742203335.041,-1000.0,-390.137,-23.926,-1000.0
1742203334.998,-420.898,-468.75,-109.375,-453.125
1742203335.002,-1000.0,-354.492,-43.945,-1000.0
1742203335.006,-739.258,62.012,6.348,-628.906
1742203335.01,687.5,172.363,-4.395,789.551
1742203335.014,999.512,-75.195,-37.109,999.512
1742203335.018,-337.402,-369.629,-52.734,-429.688
1742203335.022,-1000.0,-303.223,-29.785,-1000.0
1742203335.025,-945.801,-161.133,-1.465,-911.621
1742203335.029,388.184,63.965,-20.996,475.098
1742203335.033,999.512,8.301,-39.062,999.512
1742203335.037,-288.574,-427.734,-29.785,-403.32
1742203335.041,-1000.0,-390.137,-23.926,-1000.0
1742203335.046,-979.004,-158.691,-6.836,-945.312
1742203335.05,309.57,229.98,14.16,405.273
1742203335.054,999.512,122.559,-6.836,999.512
1742203335.058,-245.117,-488.281,-38.574,-395.02
1742203335.062,-1000.0,-435.547,-10.742,-1000.0
1742203335.066,-1000.0,-38.086,49.805,-1000.0
1742203335.07,-44.434,187.988,49.316,66.895
1742203335.073,999.512,48.34,-0.977,999.512
1742203335.077,93.75,-395.02,-19.043,-151.855
1742203335.081,-1000.0,-399.902,-15.625,-1000.0
1742203335.085,-1000.0,-134.277,3.906,-1000.0
1742203335.089,-62.5,129.883,12.695,29.297
1742203335.046,-979.004,-158.691,-6.836,-945.312
1742203335.05,309.57,229.98,14.16,405.273
1742203335.054,999.512,122.559,-6.836,999.512
1742203335.058,-245.117,-488.281,-38.574,-395.02
1742203335.062,-1000.0,-435.547,-10.742,-1000.0
1742203335.066,-1000.0,-38.086,49.805,-1000.0
1742203335.07,-44.434,187.988,49.316,66.895
1742203335.073,999.512,48.34,-0.977,999.512
1742203335.077,93.75,-395.02,-19.043,-151.855
1742203335.081,-1000.0,-399.902,-15.625,-1000.0
1742203335.085,-1000.0,-134.277,3.906,-1000.0
1742203335.089,-62.5,129.883,12.695,29.297
1742203335.088,999.512,134.766,-20.508,999.512
1742203335.092,663.574,-186.523,-69.336,495.117
1742203335.096,-733.887,-362.793,-78.125,-841.797
1742203335.1,-1000.0,-169.922,-39.551,-1000.0
1742203335.104,-269.531,193.359,-35.645,-140.625
1742203335.108,999.512,226.562,-72.266,999.512
1742203335.112,771.973,-169.922,-88.379,632.324
1742203335.115,-643.555,-418.945,-73.73,-749.023
1742203335.119,-1000.0,-297.363,-33.203,-1000.0
1742203335.123,-658.203,4.883,-30.273,-528.32
1742203335.127,834.961,196.777,-60.059,897.461
1742203335.131,910.645,-110.352,-78.125,886.719
1742203335.088,999.512,134.766,-20.508,999.512
1742203335.092,663.574,-186.523,-69.336,495.117
1742203335.096,-733.887,-362.793,-78.125,-841.797
1742203335.1,-1000.0,-169.922,-39.551,-1000.0
1742203335.104,-269.531,193.359,-35.645,-140.625
1742203335.108,999.512,226.562,-72.266,999.512
1742203335.112,771.973,-169.922,-88.379,632.324
1742203335.115,-643.555,-418.945,-73.73,-749.023
1742203335.119,-1000.0,-297.363,-33.203,-1000.0
1742203335.123,-658.203,4.883,-30.273,-528.32
1742203335.127,834.961,196.777,-60.059,897.461
1742203335.131,910.645,-110.352,-78.125,886.719
1742203335.135,-587.891,-451.172,-99.121,-595.215
1742203335.139,-1000.0,-228.027,-89.355,-1000.0
1742203335.143,-638.184,79.102,-71.289,-480.469
1742203335.147,831.055,182.129,-94.238,908.691
1742203335.151,955.078,-90.82,-114.258,901.367
1742203335.155,-524.902,-335.938,-98.633,-552.246
1742203335.159,-1000.0,-193.359,-76.66,-1000.0
1742203335.162,-822.754,-40.527,-59.57,-735.352
1742203335.166,591.797,91.309,-69.824,701.66
1742203335.17,999.512,-12.695,-83.496,999.512
1742203335.174,-347.656,-393.555,-96.68,-447.266
1742203335.178,-1000.0,-330.566,-74.707,-1000.0
1742203335.135,-587.891,-451.172,-99.121,-595.215
1742203335.139,-1000.0,-228.027,-89.355,-1000.0
1742203335.143,-638.184,79.102,-71.289,-480.469
1742203335.147,831.055,182.129,-94.238,908.691
1742203335.151,955.078,-90.82,-114.258,901.367
1742203335.155,-524.902,-335.938,-98.633,-552.246
1742203335.159,-1000.0,-193.359,-76.66,-1000.0
1742203335.162,-822.754,-40.527,-59.57,-735.352
1742203335.166,591.797,91.309,-69.824,701.66
1742203335.17,999.512,-12.695,-83.496,999.512
1742203335.174,-347.656,-393.555,-96.68,-447.266
1742203335.178,-1000.0,-330.566,-74.707,-1000.0
1742203335.178,-743.652,17.09,-32.715,-677.734
1742203335.182,565.43,211.914,-21.973,645.996
1742203335.186,999.512,32.715,-58.105,999.512
1742203335.19,520.508,-237.793,-85.938,297.852
1742203335.194,-945.312,-273.438,-52.734,-1000.0
1742203335.198,-906.25,107.422,-1.465,-791.016
1742203335.202,596.191,300.781,-18.066,687.012
1742203335.205,999.512,-63.477,-57.617,999.512
1742203335.209,290.527,-364.258,-85.449,111.816
1742203335.213,-1000.0,-270.996,-83.984,-1000.0
1742203335.217,-884.277,4.883,-58.594,-849.609
1742203335.221,540.039,268.066,-56.152,538.574
1742203335.178,-743.652,17.09,-32.715,-677.734
1742203335.182,565.43,211.914,-21.973,645.996
1742203335.186,999.512,32.715,-58.105,999.512
1742203335.19,520.508,-237.793,-85.938,297.852
1742203335.194,-945.312,-273.438,-52.734,-1000.0
1742203335.198,-906.25,107.422,-1.465,-791.016
1742203335.202,596.191,300.781,-18.066,687.012
1742203335.205,999.512,-63.477,-57.617,999.512
1742203335.209,290.527,-364.258,-85.449,111.816
1742203335.213,-1000.0,-270.996,-83.984,-1000.0
1742203335.217,-884.277,4.883,-58.594,-849.609
1742203335.221,540.039,268.066,-56.152,538.574
1742203335.239,999.512,99.121,-86.426,999.512
1742203335.243,800.293,-152.832,-90.82,698.73
1742203335.247,-676.758,-301.27,-78.125,-772.949
1742203335.251,-1000.0,-55.664,-79.102,-969.238
1742203335.255,548.34,351.074,-77.637,562.988
1742203335.259,999.512,249.512,-94.238,999.512
1742203335.263,830.566,-101.562,-121.094,823.73
1742203335.266,-612.305,-459.961,-125.977,-642.09
1742203335.27,-1000.0,-209.961,-76.66,-1000.0
1742203335.274,520.508,323.73,-49.316,579.59
1742203335.278,999.512,123.535,-73.242,999.512
1742203335.282,999.512,-75.195,-93.262,999.512
1742203335.239,999.512,99.121,-86.426,999.512
1742203335.243,800.293,-152.832,-90.82,698.73
1742203335.247,-676.758,-301.27,-78.125,-772.949
1742203335.251,-1000.0,-55.664,-79.102,-969.238
1742203335.255,548.34,351.074,-77.637,562.988
1742203335.259,999.512,249.512,-94.238,999.512
1742203335.263,830.566,-101.562,-121.094,823.73
1742203335.266,-612.305,-459.961,-125.977,-642.09
1742203335.27,-1000.0,-209.961,-76.66,-1000.0
1742203335.274,520.508,323.73,-49.316,579.59
1742203335.278,999.512,123.535,-73.242,999.512
1742203335.282,999.512,-75.195,-93.262,999.512
1742203335.283,256.836,-237.793,-91.309,90.82
1742203335.287,-1000.0,-305.664,-62.012,-1000.0
1742203335.291,270.508,218.262,-34.18,428.711
1742203335.295,999.512,143.066,-45.41,999.512
1742203335.299,999.512,-56.152,-55.664,999.512
1742203335.303,517.09,-125.488,-44.434,326.66
1742203335.307,-1000.0,-252.93,-14.16,-1000.0
1742203335.31,-317.383,78.125,14.648,17.09
1742203335.314,999.512,110.352,-3.418,999.512
1742203335.318,956.543,-104.98,-45.41,912.109
1742203335.322,-310.547,-350.098,-45.41,-339.355
1742203335.326,-1000.0,-251.465,-10.742,-1000.0
1742203335.374,999.512,39.062,-60.059,999.512
1742203335.378,541.504,-194.336,-68.359,365.234
1742203335.382,-922.852,-294.922,-45.898,-986.816
1742203335.386,-929.199,-60.059,-34.668,-901.855
1742203335.39,548.34,283.203,-11.23,545.41
1742203335.394,999.512,184.082,-18.066,999.512
1742203335.398,643.066,-176.27,-48.828,503.418
1742203335.401,-774.414,-364.746,-34.668,-876.465
1742203335.405,-1000.0,-255.859,0.977,-1000.0
1742203335.409,267.09,101.562,20.02,378.906
1742203335.413,999.512,91.797,20.02,999.512
1742203335.417,664.062,-253.906,-15.137,558.105
1742203335.374,999.512,39.062,-60.059,999.512
1742203335.378,541.504,-194.336,-68.359,365.234
1742203335.382,-922.852,-294.922,-45.898,-986.816
1742203335.386,-929.199,-60.059,-34.668,-901.855
1742203335.39,548.34,283.203,-11.23,545.41
1742203335.394,999.512,184.082,-18.066,999.512
1742203335.398,643.066,-176.27,-48.828,503.418
1742203335.401,-774.414,-364.746,-34.668,-876.465
1742203335.405,-1000.0,-255.859,0.977,-1000.0
1742203335.409,267.09,101.562,20.02,378.906
1742203335.413,999.512,91.797,20.02,999.512
1742203335.417,664.062,-253.906,-15.137,558.105
1742203335.42,-733.398,-412.109,-45.41,-819.336
1742203335.424,-1000.0,-148.438,-14.648,-1000.0
1742203335.428,77.148,250.977,17.578,208.984
1742203335.432,999.512,188.477,-14.16,999.512
1742203335.436,783.203,-169.922,-43.945,687.988
1742203335.44,-571.289,-271.973,-44.434,-680.176
1742203335.444,-1000.0,-100.098,-3.906,-1000.0
1742203335.447,-324.707,81.055,4.395,-115.234
1742203335.451,999.512,78.125,-25.391,999.512
1742203335.455,849.609,-122.07,-32.715,804.688
1742203335.459,-567.871,-318.848,-20.996,-577.148
1742203335.463,-1000.0,-221.68,7.812,-1000.0
1742203335.463,-751.465,19.043,27.832,-629.883
1742203335.467,747.559,255.859,30.762,832.52
1742203335.471,932.617,-20.508,8.789,893.066
1742203335.475,-608.398,-365.234,-1.953,-614.258
1742203335.479,-1000.0,-162.598,14.16,-1000.0
1742203335.483,-861.816,95.215,10.742,-793.945
1742203335.487,608.398,284.18,-13.184,686.035
1742203335.49,977.539,-103.027,-46.387,952.637
1742203335.494,-583.496,-541.504,-48.828,-592.773
1742203335.498,-1000.0,-212.891,-7.812,-1000.0
1742203335.502,-846.191,9.277,12.695,-823.73
1742203335.506,537.109,167.969,21.973,599.121
1742203335.463,-751.465,19.043,27.832,-629.883
1742203335.467,747.559,255.859,30.762,832.52
1742203335.471,932.617,-20.508,8.789,893.066
1742203335.475,-608.398,-365.234,-1.953,-614.258
1742203335.479,-1000.0,-162.598,14.16,-1000.0
1742203335.483,-861.816,95.215,10.742,-793.945
1742203335.487,608.398,284.18,-13.184,686.035
1742203335.49,977.539,-103.027,-46.387,952.637
1742203335.494,-583.496,-541.504,-48.828,-592.773
1742203335.498,-1000.0,-212.891,-7.812,-1000.0
1742203335.502,-846.191,9.277,12.695,-823.73
1742203335.506,537.109,167.969,21.973,599.121
1742203335.51,999.512,0.488,9.766,999.512
1742203335.514,-268.066,-385.254,-1.953,-394.531
1742203335.518,-1000.0,-303.711,6.836,-1000.0
1742203335.522,-834.961,8.789,22.461,-837.402
1742203335.526,515.625,261.719,20.508,548.828
1742203335.53,999.512,175.293,-8.301,999.512
1742203335.534,47.852,-272.461,-54.199,-184.57
1742203335.537,-1000.0,-415.039,-49.316,-1000.0
1742203335.541,-1000.0,-119.629,14.16,-951.66
1742203335.545,307.617,277.832,40.039,387.207
1742203335.549,999.512,142.578,1.953,999.512
1742203335.553,39.551,-333.984,-36.133,-179.199
1742203335.51,999.512,0.488,9.766,999.512
1742203335.514,-268.066,-385.254,-1.953,-394.531
1742203335.518,-1000.0,-303.711,6.836,-1000.0
1742203335.522,-834.961,8.789,22.461,-837.402
1742203335.526,515.625,261.719,20.508,548.828
1742203335.53,999.512,175.293,-8.301,999.512
1742203335.534,47.852,-272.461,-54.199,-184.57
1742203335.537,-1000.0,-415.039,-49.316,-1000.0
1742203335.541,-1000.0,-119.629,14.16,-951.66
1742203335.545,307.617,277.832,40.039,387.207
1742203335.549,999.512,142.578,1.953,999.512
1742203335.553,39.551,-333.984,-36.133,-179.199
1742203335.554,-1000.0,-276.855,-20.508,-1000.0
1742203335.558,-1000.0,-109.863,-4.395,-1000.0
1742203335.562,-161.621,101.562,0.977,-1.465
1742203335.566,999.512,119.141,-7.324,999.512
1742203335.57,283.203,-292.969,-23.438,2.93
1742203335.574,-940.43,-282.715,-16.113,-1000.0
1742203335.578,-1000.0,-87.891,-15.137,-1000.0
1742203335.581,-698.73,-22.949,-7.324,-545.41
1742203335.585,901.855,79.102,-17.578,974.121
1742203335.589,685.059,-187.012,-46.387,441.406
1742203335.593,-841.797,-372.07,-51.758,-926.27
1742203335.597,-1000.0,-160.156,-22.949,-1000.0
1742203335.554,-1000.0,-276.855,-20.508,-1000.0
1742203335.558,-1000.0,-109.863,-4.395,-1000.0
1742203335.562,-161.621,101.562,0.977,-1.465
1742203335.566,999.512,119.141,-7.324,999.512
1742203335.57,283.203,-292.969,-23.438,2.93
1742203335.574,-940.43,-282.715,-16.113,-1000.0
1742203335.578,-1000.0,-87.891,-15.137,-1000.0
1742203335.581,-698.73,-22.949,-7.324,-545.41
1742203335.585,901.855,79.102,-17.578,974.121
1742203335.589,685.059,-187.012,-46.387,441.406
1742203335.593,-841.797,-372.07,-51.758,-926.27
1742203335.597,-1000.0,-160.156,-22.949,-1000.0
1742203335.629,-883.301,10.742,-10.254,-846.68
1742203335.633,629.395,185.547,-28.809,719.238
1742203335.637,894.043,-42.969,-45.898,732.91
1742203335.641,-692.871,-393.066,-59.57,-813.965
1742203335.645,-1000.0,-224.121,-30.762,-1000.0
1742203335.649,-854.004,125.977,5.371,-822.266
1742203335.653,633.301,220.215,-14.648,705.566
1742203335.656,945.801,-182.129,-41.992,827.637
1742203335.66,-625.977,-446.289,-32.227,-733.398
1742203335.664,-1000.0,-215.332,3.418,-1000.0
1742203335.668,-874.512,11.23,23.438,-853.516
1742203335.672,601.562,214.844,2.441,635.254
1742203335.629,-883.301,10.742,-10.254,-846.68
1742203335.633,629.395,185.547,-28.809,719.238
1742203335.637,894.043,-42.969,-45.898,732.91
1742203335.641,-692.871,-393.066,-59.57,-813.965
1742203335.645,-1000.0,-224.121,-30.762,-1000.0
1742203335.649,-854.004,125.977,5.371,-822.266
1742203335.653,633.301,220.215,-14.648,705.566
1742203335.656,945.801,-182.129,-41.992,827.637
1742203335.66,-625.977,-446.289,-32.227,-733.398
1742203335.664,-1000.0,-215.332,3.418,-1000.0
1742203335.668,-874.512,11.23,23.438,-853.516
1742203335.672,601.562,214.844,2.441,635.254
1742203335.658,960.449,-60.547,-46.387,950.195
1742203335.662,-617.676,-405.762,-65.43,-623.047
1742203335.666,-1000.0,-217.285,-57.617,-1000.0
1742203335.67,-890.625,-3.418,-21.484,-895.02
1742203335.674,552.246,291.504,1.953,562.988
1742203335.678,999.512,112.305,-29.297,985.352
1742203335.682,-574.219,-406.25,-36.133,-622.559
1742203335.685,-1000.0,-265.625,-6.836,-1000.0
1742203335.689,-1000.0,-138.184,10.742,-1000.0
1742203335.693,145.02,94.238,-1.953,219.727
1742203335.697,999.512,84.473,-24.414,999.512
1742203335.701,-283.203,-419.922,-33.203,-435.059
1742203335.658,960.449,-60.547,-46.387,950.195
1742203335.662,-617.676,-405.762,-65.43,-623.047
1742203335.666,-1000.0,-217.285,-57.617,-1000.0
1742203335.67,-890.625,-3.418,-21.484,-895.02
1742203335.674,552.246,291.504,1.953,562.988
1742203335.678,999.512,112.305,-29.297,985.352
1742203335.682,-574.219,-406.25,-36.133,-622.559
1742203335.685,-1000.0,-265.625,-6.836,-1000.0
1742203335.689,-1000.0,-138.184,10.742,-1000.0
1742203335.693,145.02,94.238,-1.953,219.727
1742203335.697,999.512,84.473,-24.414,999.512
1742203335.701,-283.203,-419.922,-33.203,-435.059
1742203335.705,-1000.0,-357.422,-15.137,-1000.0
1742203335.709,-963.867,-40.527,20.996,-944.824
1742203335.713,309.57,255.859,36.133,375.977
1742203335.717,999.512,113.281,-4.395,999.512
1742203335.721,-165.527,-384.277,-31.738,-352.051
1742203335.725,-1000.0,-226.074,-17.578,-1000.0
1742203335.729,-1000.0,-34.18,-6.348,-1000.0
1742203335.732,-586.426,49.805,9.766,-429.688
1742203335.736,975.098,116.699,-10.742,957.031
1742203335.74,73.242,-340.82,-41.504,-223.633
1742203335.744,-1000.0,-337.891,-33.691,-1000.0
1742203335.748,-983.398,-84.473,-7.812,-961.426
1742203335.705,-1000.0,-357.422,-15.137,-1000.0
1742203335.709,-963.867,-40.527,20.996,-944.824
1742203335.713,309.57,255.859,36.133,375.977
1742203335.717,999.512,113.281,-4.395,999.512
1742203335.721,-165.527,-384.277,-31.738,-352.051
1742203335.725,-1000.0,-226.074,-17.578,-1000.0
1742203335.729,-1000.0,-34.18,-6.348,-1000.0
1742203335.732,-586.426,49.805,9.766,-429.688
1742203335.736,975.098,116.699,-10.742,957.031
1742203335.74,73.242,-340.82,-41.504,-223.633
1742203335.744,-1000.0,-337.891,-33.691,-1000.0
1742203335.748,-983.398,-84.473,-7.812,-961.426
1742203335.748,-975.586,-51.758,3.906,-997.07
1742203335.752,620.605,225.586,-19.043,588.867
1742203335.756,739.746,-71.289,-69.824,456.543
1742203335.76,-848.633,-412.109,-80.078,-975.586
1742203335.764,-1000.0,-144.043,-26.367,-1000.0
1742203335.768,-827.637,133.301,33.691,-826.66
1742203335.772,748.047,302.246,27.832,754.395
1742203335.775,709.473,-118.164,-21.484,422.852
1742203335.779,-869.141,-453.613,-53.223,-996.094
1742203335.783,-1000.0,-93.262,-17.578,-1000.0
1742203335.787,-944.336,130.859,23.438,-986.328
1742203335.791,510.254,285.645,-0.977,515.625
1742203335.748,-975.586,-51.758,3.906,-997.07
1742203335.752,620.605,225.586,-19.043,588.867
1742203335.756,739.746,-71.289,-69.824,456.543
1742203335.76,-848.633,-412.109,-80.078,-975.586
1742203335.764,-1000.0,-144.043,-26.367,-1000.0
1742203335.768,-827.637,133.301,33.691,-826.66
1742203335.772,748.047,302.246,27.832,754.395
1742203335.775,709.473,-118.164,-21.484,422.852
1742203335.779,-869.141,-453.613,-53.223,-996.094
1742203335.783,-1000.0,-93.262,-17.578,-1000.0
1742203335.787,-944.336,130.859,23.438,-986.328
1742203335.791,510.254,285.645,-0.977,515.625
1742203335.795,960.449,-5.371,-40.039,825.684
1742203335.799,-632.324,-360.84,-45.898,-772.461
1742203335.803,-1000.0,-153.809,-16.602,-1000.0
1742203335.807,-905.273,24.414,25.879,-931.152
1742203335.811,553.223,272.949,33.691,527.832
1742203335.815,972.168,110.84,0.488,950.684
1742203335.819,-635.742,-276.367,-19.043,-664.062
1742203335.822,-1000.0,-246.094,-14.648,-1000.0
1742203335.826,-1000.0,-87.402,7.812,-1000.0
1742203335.83,331.055,283.203,18.555,343.262
1742203335.834,999.512,95.215,-7.812,985.352
1742203335.838,-601.562,-393.555,-14.16,-645.508
1742203335.839,-1000.0,-138.184,5.859,-1000.0
1742203335.843,-1000.0,-29.785,15.625,-1000.0
1742203335.847,-29.785,129.395,31.738,5.371
1742203335.851,999.512,121.094,12.207,991.211
1742203335.855,-312.012,-316.895,-33.203,-462.891
1742203335.859,-1000.0,-232.422,-25.879,-1000.0
1742203335.863,-940.918,30.762,7.812,-939.941
1742203335.866,392.09,189.453,-11.719,421.875
1742203335.87,999.512,-49.805,-56.152,999.512
1742203335.874,-331.543,-450.195,-63.965,-485.352
1742203335.878,-1000.0,-276.855,-31.738,-1000.0
1742203335.882,-1000.0,-63.477,1.465,-1000.0
1742203335.839,-1000.0,-138.184,5.859,-1000.0
1742203335.843,-1000.0,-29.785,15.625,-1000.0
1742203335.847,-29.785,129.395,31.738,5.371
1742203335.851,999.512,121.094,12.207,991.211
1742203335.855,-312.012,-316.895,-33.203,-462.891
1742203335.859,-1000.0,-232.422,-25.879,-1000.0
1742203335.863,-940.918,30.762,7.812,-939.941
1742203335.866,392.09,189.453,-11.719,421.875
1742203335.87,999.512,-49.805,-56.152,999.512
1742203335.874,-331.543,-450.195,-63.965,-485.352
1742203335.878,-1000.0,-276.855,-31.738,-1000.0
1742203335.882,-1000.0,-63.477,1.465,-1000.0
1742203335.885,-229.004,93.262,10.742,-140.137
1742203335.889,999.512,146.973,-28.32,999.512
1742203335.893,402.832,-202.148,-75.195,69.824
1742203335.897,-963.867,-359.863,-56.641,-1000.0
1742203335.901,-1000.0,-178.223,-9.277,-1000.0
1742203335.905,96.191,281.25,23.438,128.906
1742203335.909,999.512,214.844,-10.742,999.512
1742203335.912,528.32,-335.449,-59.57,282.227
1742203335.916,-792.969,-414.062,-65.43,-903.809
1742203335.92,-1000.0,-126.465,-55.176,-1000.0
1742203335.924,-662.109,76.66,-55.176,-558.594
1742203335.928,881.836,165.039,-76.172,950.195
1742203335.885,-229.004,93.262,10.742,-140.137
1742203335.889,999.512,146.973,-28.32,999.512
1742203335.893,402.832,-202.148,-75.195,69.824
1742203335.897,-963.867,-359.863,-56.641,-1000.0
1742203335.901,-1000.0,-178.223,-9.277,-1000.0
1742203335.905,96.191,281.25,23.438,128.906
1742203335.909,999.512,214.844,-10.742,999.512
1742203335.912,528.32,-335.449,-59.57,282.227
1742203335.916,-792.969,-414.062,-65.43,-903.809
1742203335.92,-1000.0,-126.465,-55.176,-1000.0
1742203335.924,-662.109,76.66,-55.176,-558.594
1742203335.928,881.836,165.039,-76.172,950.195
1742203335.928,789.551,-153.809,-90.332,596.191
1742203335.932,-737.305,-336.914,-71.289,-847.656
1742203335.936,-1000.0,-127.93,-21.484,-1000.0
1742203335.94,-827.148,42.48,-6.836,-786.133
1742203335.944,666.016,266.113,-47.363,720.703
1742203335.948,948.242,79.59,-72.754,911.133
1742203335.952,-611.816,-303.223,-69.336,-635.254
1742203335.955,-1000.0,-194.824,-39.062,-1000.0
1742203335.959,-865.234,-54.199,-13.184,-810.547
1742203335.963,613.77,183.594,-24.902,675.781
1742203335.967,957.52,-24.902,-60.059,940.43
1742203335.971,-612.793,-448.73,-64.941,-612.793
1742203335.928,789.551,-153.809,-90.332,596.191
1742203335.932,-737.305,-336.914,-71.289,-847.656
1742203335.936,-1000.0,-127.93,-21.484,-1000.0
1742203335.94,-827.148,42.48,-6.836,-786.133
1742203335.944,666.016,266.113,-47.363,720.703
1742203335.948,948.242,79.59,-72.754,911.133
1742203335.952,-611.816,-303.223,-69.336,-635.254
1742203335.955,-1000.0,-194.824,-39.062,-1000.0
1742203335.959,-865.234,-54.199,-13.184,-810.547
1742203335.963,613.77,183.594,-24.902,675.781
1742203335.967,957.52,-24.902,-60.059,940.43
1742203335.971,-612.793,-448.73,-64.941,-612.793
1742203335.99,-1000.0,-261.719,-25.391,-1000.0
1742203335.994,-843.262,73.73,7.324,-790.039
1742203335.998,598.633,265.137,16.113,677.246
1742203336.002,999.512,-10.742,-19.043,979.98
1742203336.006,-471.68,-429.199,-50.293,-546.875
1742203336.01,-1000.0,-197.754,-36.621,-1000.0
1742203336.014,-847.656,71.777,-27.344,-827.148
1742203336.017,541.504,229.004,-29.297,597.168
1742203336.021,999.512,-10.254,-48.34,999.512
1742203336.025,-271.973,-419.434,-75.195,-394.043
1742203336.029,-1000.0,-280.273,-45.41,-1000.0
1742203336.033,-813.965,42.969,22.949,-800.781
1742203335.99,-1000.0,-261.719,-25.391,-1000.0
1742203335.994,-843.262,73.73,7.324,-790.039
1742203335.998,598.633,265.137,16.113,677.246
1742203336.002,999.512,-10.742,-19.043,979.98
1742203336.006,-471.68,-429.199,-50.293,-546.875
1742203336.01,-1000.0,-197.754,-36.621,-1000.0
1742203336.014,-847.656,71.777,-27.344,-827.148
1742203336.017,541.504,229.004,-29.297,597.168
1742203336.021,999.512,-10.254,-48.34,999.512
1742203336.025,-271.973,-419.434,-75.195,-394.043
1742203336.029,-1000.0,-280.273,-45.41,-1000.0
1742203336.033,-813.965,42.969,22.949,-800.781
1742203336.033,489.746,237.793,41.016,530.273
1742203336.037,999.512,110.352,-10.254,999.512
1742203336.041,472.656,-211.914,-56.641,218.75
1742203336.045,-961.914,-346.68,-42.48,-1000.0
1742203336.049,-915.039,-4.395,-12.695,-875.0
1742203336.053,542.48,338.379,-7.324,543.457
1742203336.057,999.512,137.207,-28.809,999.512
1742203336.06,588.867,-227.539,-76.172,428.223
1742203336.064,-858.887,-409.668,-85.938,-942.871
1742203336.068,-1000.0,-97.656,-64.453,-961.426
1742203336.072,414.551,371.582,-49.316,465.332
1742203336.076,999.512,162.109,-79.102,999.512
1742203336.033,489.746,237.793,41.016,530.273
1742203336.037,999.512,110.352,-10.254,999.512
1742203336.041,472.656,-211.914,-56.641,218.75
1742203336.045,-961.914,-346.68,-42.48,-1000.0
1742203336.049,-915.039,-4.395,-12.695,-875.0
1742203336.053,542.48,338.379,-7.324,543.457
1742203336.057,999.512,137.207,-28.809,999.512
1742203336.06,588.867,-227.539,-76.172,428.223
1742203336.064,-858.887,-409.668,-85.938,-942.871
1742203336.068,-1000.0,-97.656,-64.453,-961.426
1742203336.072,414.551,371.582,-49.316,465.332
1742203336.076,999.512,162.109,-79.102,999.512
1742203336.08,674.316,-244.141,-117.188,568.359
1742203336.084,-678.711,-320.801,-105.957,-780.273
1742203336.088,-1000.0,-105.469,-67.871,-1000.0
1742203336.092,-118.164,198.242,-67.871,58.105
1742203336.096,999.512,235.84,-92.285,999.512
1742203336.1,822.266,-56.641,-101.074,774.902
1742203336.104,-547.852,-353.516,-101.074,-597.168
1742203336.107,-1000.0,-258.789,-77.148,-1000.0
1742203336.111,-511.719,83.008,-58.105,-293.945
1742203336.115,925.293,258.789,-54.688,999.512
1742203336.119,881.836,-65.43,-53.711,840.332
1742203336.123,-578.613,-357.91,-57.129,-585.938
1742203336.08,674.316,-244.141,-117.188,568.359
1742203336.084,-678.711,-320.801,-105.957,-780.273
1742203336.088,-1000.0,-105.469,-67.871,-1000.0
1742203336.092,-118.164,198.242,-67.871,58.105
1742203336.096,999.512,235.84,-92.285,999.512
1742203336.1,822.266,-56.641,-101.074,774.902
1742203336.104,-547.852,-353.516,-101.074,-597.168
1742203336.107,-1000.0,-258.789,-77.148,-1000.0
1742203336.111,-511.719,83.008,-58.105,-293.945
1742203336.115,925.293,258.789,-54.688,999.512
1742203336.119,881.836,-65.43,-53.711,840.332
1742203336.123,-578.613,-357.91,-57.129,-585.938
1742203336.123,-1000.0,-116.211,-14.16,-1000.0
1742203336.127,-671.875,111.816,8.789,-518.555
1742203336.131,808.594,172.363,-27.832,888.672
1742203336.135,946.289,-77.148,-46.387,907.715
1742203336.139,-540.527,-344.727,-63.477,-561.523
1742203336.143,-1000.0,-132.324,-59.57,-1000.0
1742203336.147,-640.625,202.148,-16.602,-514.648
1742203336.15,779.785,213.867,-19.531,860.84
1742203336.154,999.512,-113.77,-65.43,984.375
1742203336.158,-321.777,-369.141,-54.199,-414.062
1742203336.162,-1000.0,-239.746,-2.93,-1000.0
1742203336.166,-621.094,106.445,26.855,-492.188
1742203336.17,691.406,208.008,15.137,777.344
1742203336.174,999.512,22.949,-32.715,999.512
1742203336.178,547.852,-157.715,-51.27,342.773
1742203336.182,-923.34,-259.277,-37.109,-1000.0
1742203336.186,-927.246,-47.852,-22.461,-847.168
1742203336.19,549.805,362.305,1.953,598.145
1742203336.194,999.512,178.223,-22.949,999.512
1742203336.197,663.086,-257.324,-83.984,534.18
1742203336.201,-833.984,-394.043,-70.801,-916.992
1742203336.205,-954.59,4.883,-25.879,-875.0
1742203336.209,572.266,286.621,-16.602,623.535
1742203336.213,999.512,49.805,-46.875,999.512
1742203336.17,691.406,208.008,15.137,777.344
1742203336.174,999.512,22.949,-32.715,999.512
1742203336.178,547.852,-157.715,-51.27,342.773
1742203336.182,-923.34,-259.277,-37.109,-1000.0
1742203336.186,-927.246,-47.852,-22.461,-847.168
1742203336.19,549.805,362.305,1.953,598.145
1742203336.194,999.512,178.223,-22.949,999.512
1742203336.197,663.086,-257.324,-83.984,534.18
1742203336.201,-833.984,-394.043,-70.801,-916.992
1742203336.205,-954.59,4.883,-25.879,-875.0
1742203336.209,572.266,286.621,-16.602,623.535
1742203336.213,999.512,49.805,-46.875,999.512
1742203336.213,839.355,-166.016,-82.031,814.941
1742203336.217,-633.301,-402.344,-76.66,-667.969
1742203336.221,-1000.0,-122.559,-58.105,-985.84
1742203336.225,569.336,282.227,-49.316,578.125
1742203336.229,999.512,89.844,-65.918,999.512
1742203336.233,814.453,-104.492,-89.844,780.273
1742203336.237,-575.684,-318.848,-78.613,-652.832
1742203336.24,-1000.0,-197.754,-47.852,-1000.0
1742203336.244,263.672,140.625,-31.738,399.414
1742203336.248,999.512,119.629,-59.57,999.512
1742203336.252,819.824,-138.672,-93.75,815.43
1742203336.256,-581.543,-382.812,-75.684,-608.887
1742203336.213,839.355,-166.016,-82.031,814.941
1742203336.217,-633.301,-402.344,-76.66,-667.969
1742203336.221,-1000.0,-122.559,-58.105,-985.84
1742203336.225,569.336,282.227,-49.316,578.125
1742203336.229,999.512,89.844,-65.918,999.512
1742203336.233,814.453,-104.492,-89.844,780.273
1742203336.237,-575.684,-318.848,-78.613,-652.832
1742203336.24,-1000.0,-197.754,-47.852,-1000.0
1742203336.244,263.672,140.625,-31.738,399.414
1742203336.248,999.512,119.629,-59.57,999.512
1742203336.252,819.824,-138.672,-93.75,815.43
1742203336.256,-581.543,-382.812,-75.684,-608.887
1742203336.26,-1000.0,-151.367,-34.668,-1000.0
1742203336.264,245.605,302.246,4.883,356.934
1742203336.268,999.512,242.676,10.742,999.512
1742203336.272,935.059,-53.223,-15.625,909.668
1742203336.276,-354.004,-381.836,-31.738,-432.129
1742203336.28,-1000.0,-121.582,-10.742,-1000.0
1742203336.284,146.973,342.773,-5.371,302.246
1742203336.287,999.512,154.297,-24.902,999.512
1742203336.291,927.246,-51.27,-52.246,898.438
1742203336.295,-269.043,-380.859,-86.914,-329.102
1742203336.299,-1000.0,-318.359,-62.012,-1000.0
1742203336.303,-530.273,48.34,-10.254,-278.809
1742203336.26,-1000.0,-151.367,-34.668,-1000.0
1742203336.264,245.605,302.246,4.883,356.934
1742203336.268,999.512,242.676,10.742,999.512
1742203336.272,935.059,-53.223,-15.625,909.668
