timestamps,TP9,AF7,AF8,TP10
1742203189.27,999.512,999.512,-55.176,999.512
1742203189.274,309.082,337.402,-242.188,35.645
1742203189.278,-1000.0,-1000.0,-158.203,-1000.0
1742203189.282,-888.672,-862.793,64.941,-861.816
1742203189.286,529.297,569.336,136.719,522.949
1742203189.29,999.512,999.512,-41.992,999.512
1742203189.294,480.957,502.441,-223.145,259.766
1742203189.297,-812.012,-803.223,-213.379,-918.945
1742203189.301,-1000.0,-1000.0,-18.555,-1000.0
1742203189.305,-337.891,-270.508,79.59,-176.27
1742203189.309,999.512,999.512,-17.09,999.512
1742203189.313,813.477,814.453,-166.992,677.246
1742203189.315,908.691,920.41,49.805,979.98
1742203189.319,910.156,923.34,-132.812,847.168
1742203189.323,-603.516,-630.859,-185.059,-645.508
1742203189.327,-1000.0,-1000.0,-41.992,-1000.0
1742203189.33,-137.207,154.785,139.648,-78.613
1742203189.334,999.512,999.512,53.223,999.512
1742203189.338,821.289,788.086,-156.738,812.988
1742203189.342,-548.828,-528.809,-197.754,-555.176
1742203189.346,-1000.0,-1000.0,-11.719,-1000.0
1742203189.315,908.691,920.41,49.805,979.98
1742203189.319,910.156,923.34,-132.812,847.168
1742203189.323,-603.516,-630.859,-185.059,-645.508
1742203189.327,-1000.0,-1000.0,-41.992,-1000.0
1742203189.33,-137.207,154.785,139.648,-78.613
1742203189.334,999.512,999.512,53.223,999.512
1742203189.338,821.289,788.086,-156.738,812.988
1742203189.342,-548.828,-528.809,-197.754,-555.176
1742203189.346,-1000.0,-1000.0,-11.719,-1000.0
1742203189.375,-641.602,-587.402,193.848,-557.129
1742203189.379,789.062,815.918,159.18,859.375
1742203189.383,999.512,999.512,-30.273,960.449
1742203189.387,-362.305,-369.141,-87.402,-479.492
1742203189.391,-1000.0,-1000.0,51.27,-1000.0
1742203189.395,-552.246,-68.848,214.355,-503.418
1742203189.399,875.488,999.512,145.996,903.809
1742203189.402,985.352,911.133,-72.266,935.547
1742203189.406,-436.523,-391.113,-165.039,-503.906
1742203189.41,-1000.0,-1000.0,-89.844,-1000.0
1742203189.414,-849.609,-810.059,96.191,-842.285
1742203189.418,545.41,595.215,160.156,586.426
1742203189.405,999.512,999.512,-95.215,999.512
1742203189.409,-308.105,-303.223,-231.445,-423.34
1742203189.413,-1000.0,-1000.0,-103.516,-1000.0
1742203189.417,-947.266,-929.199,73.242,-917.48
1742203189.421,340.82,386.23,179.199,425.293
1742203189.425,999.512,999.512,35.645,999.512
1742203189.429,-83.984,-115.723,-166.992,-254.395
1742203189.432,-1000.0,-1000.0,-84.961,-1000.0
1742203189.436,-944.824,-903.809,98.145,-912.598
1742203189.44,300.781,372.559,164.551,344.238
1742203189.444,999.512,999.512,-26.855,999.512
1742203189.448,540.527,581.543,-184.57,322.754
1742203189.405,999.512,999.512,-95.215,999.512
1742203189.409,-308.105,-303.223,-231.445,-423.34
1742203189.413,-1000.0,-1000.0,-103.516,-1000.0
1742203189.417,-947.266,-929.199,73.242,-917.48
1742203189.421,340.82,386.23,179.199,425.293
1742203189.425,999.512,999.512,35.645,999.512
1742203189.429,-83.984,-115.723,-166.992,-254.395
1742203189.432,-1000.0,-1000.0,-84.961,-1000.0
1742203189.436,-944.824,-903.809,98.145,-912.598
1742203189.44,300.781,372.559,164.551,344.238
1742203189.444,999.512,999.512,-26.855,999.512
1742203189.448,540.527,581.543,-184.57,322.754
1742203189.45,-758.301,-719.727,-142.578,-868.652
1742203189.454,-1000.0,-1000.0,0.488,-1000.0
1742203189.458,-658.203,-638.672,91.797,-522.461
1742203189.462,887.207,890.137,12.695,977.051
1742203189.466,773.438,791.504,-168.457,570.801
1742203189.47,-743.164,-720.703,-158.203,-862.305
1742203189.474,-1000.0,-1000.0,-13.672,-1000.0
1742203189.477,-634.277,-672.363,75.684,-491.211
1742203189.481,849.609,817.871,38.086,925.293
1742203189.485,812.5,817.871,-136.719,780.762
1742203189.489,-606.934,-605.469,-185.547,-707.031
1742203189.493,-1000.0,-1000.0,-12.207,-1000.0
1742203189.45,-758.301,-719.727,-142.578,-868.652
1742203189.454,-1000.0,-1000.0,0.488,-1000.0
1742203189.458,-658.203,-638.672,91.797,-522.461
1742203189.462,887.207,890.137,12.695,977.051
1742203189.466,773.438,791.504,-168.457,570.801
1742203189.47,-743.164,-720.703,-158.203,-862.305
1742203189.474,-1000.0,-1000.0,-13.672,-1000.0
1742203189.477,-634.277,-672.363,75.684,-491.211
1742203189.481,849.609,817.871,38.086,925.293
1742203189.485,812.5,817.871,-136.719,780.762
1742203189.489,-606.934,-605.469,-185.547,-707.031
1742203189.493,-1000.0,-1000.0,-12.207,-1000.0
1742203189.497,-342.773,-428.223,199.707,-238.77
1742203189.501,717.773,632.812,-65.43,-454.59
1742203189.505,-630.859,-632.324,-478.027,-1000.0
1742203189.509,-1000.0,-1000.0,-324.707,-960.938
1742203189.513,-997.559,-927.734,-36.133,-1000.0
1742203189.517,-109.375,216.797,119.141,-1000.0
1742203189.521,999.512,999.512,-23.438,-1000.0
1742203189.524,819.824,780.273,-218.262,-1000.0
1742203189.528,-522.949,-523.926,-208.008,-1000.0
1742203189.532,-1000.0,-1000.0,-12.695,-1000.0
1742203189.536,-494.141,-377.93,151.367,-1000.0
1742203189.54,811.035,847.656,108.887,-1000.0
1742203189.54,996.582,999.512,-87.402,-1000.0
1742203189.544,999.512,944.824,-185.059,-1000.0
1742203189.548,-333.008,-526.855,-104.98,-1000.0
1742203189.552,-1000.0,-951.66,69.336,-1000.0
1742203189.556,581.543,637.695,98.145,-1000.0
1742203189.56,999.512,999.512,-82.031,-1000.0
1742203189.564,733.887,686.523,-209.473,-1000.0
1742203189.567,-554.688,-608.887,-157.715,-1000.0
1742203189.571,-1000.0,-1000.0,-0.977,-1000.0
1742203189.575,-567.871,-621.094,46.387,-1000.0
1742203189.579,852.051,841.309,-78.125,-1000.0
1742203189.583,971.68,938.477,-205.078,-1000.0
1742203189.585,-461.914,-541.016,-159.18,-1000.0
1742203189.589,-1000.0,-1000.0,19.531,-1000.0
1742203189.593,-722.656,-752.93,102.051,-1000.0
1742203189.597,661.133,627.441,-27.344,-1000.0
1742203189.601,999.512,999.512,-162.598,-1000.0
1742203189.605,894.043,857.422,-98.633,-1000.0
1742203189.609,929.688,990.234,52.246,-1000.0
1742203189.612,999.512,985.352,103.516,-1000.0
1742203189.616,178.711,-365.234,-34.18,-1000.0
1742203189.62,-975.098,-1000.0,-135.254,-956.055
1742203189.624,-1000.0,-981.934,-82.031,-1000.0
1742203189.628,-879.395,-912.109,101.562,-1000.0
1742203189.585,-461.914,-541.016,-159.18,-1000.0
1742203189.589,-1000.0,-1000.0,19.531,-1000.0
1742203189.593,-722.656,-752.93,102.051,-1000.0
1742203189.597,661.133,627.441,-27.344,-1000.0
1742203189.601,999.512,999.512,-162.598,-1000.0
1742203189.605,894.043,857.422,-98.633,-1000.0
1742203189.609,929.688,990.234,52.246,-1000.0
1742203189.612,999.512,985.352,103.516,-1000.0
1742203189.616,178.711,-365.234,-34.18,-1000.0
1742203189.62,-975.098,-1000.0,-135.254,-956.055
1742203189.624,-1000.0,-981.934,-82.031,-1000.0
1742203189.628,-879.395,-912.109,101.562,-1000.0
1742203189.585,-461.914,-541.016,-159.18,-1000.0
1742203189.589,-1000.0,-1000.0,19.531,-1000.0
1742203189.593,-722.656,-752.93,102.051,-1000.0
1742203189.597,661.133,627.441,-27.344,-1000.0
1742203189.601,999.512,999.512,-162.598,-1000.0
1742203189.605,894.043,857.422,-98.633,-1000.0
1742203189.609,929.688,990.234,52.246,-1000.0
1742203189.612,999.512,985.352,103.516,-1000.0
1742203189.616,178.711,-365.234,-34.18,-1000.0
1742203189.62,-975.098,-1000.0,-135.254,-956.055
1742203189.624,-1000.0,-981.934,-82.031,-1000.0
1742203189.628,-879.395,-912.109,101.562,-1000.0
1742203189.63,523.926,552.734,221.191,414.062
1742203189.634,999.512,999.512,20.508,999.512
1742203189.638,-165.527,-233.398,-205.566,-463.867
1742203189.642,-1000.0,-1000.0,-146.973,-1000.0
1742203189.646,-1000.0,-1000.0,12.695,-930.664
1742203189.65,-811.035,-507.324,109.863,-1000.0
1742203189.654,760.254,959.961,49.805,-1000.0
1742203189.657,964.355,906.25,-81.543,-978.516
1742203189.661,-633.301,-601.074,-85.938,-976.074
1742203189.665,-1000.0,-1000.0,24.902,-1000.0
1742203189.669,94.238,69.824,166.016,99.609
1742203189.673,999.512,983.398,114.258,999.512
1742203189.63,523.926,552.734,221.191,414.062
1742203189.634,999.512,999.512,20.508,999.512
1742203189.638,-165.527,-233.398,-205.566,-463.867
1742203189.642,-1000.0,-1000.0,-146.973,-1000.0
1742203189.646,-1000.0,-1000.0,12.695,-930.664
1742203189.65,-811.035,-507.324,109.863,-1000.0
1742203189.654,760.254,959.961,49.805,-1000.0
1742203189.657,964.355,906.25,-81.543,-978.516
1742203189.661,-633.301,-601.074,-85.938,-976.074
1742203189.665,-1000.0,-1000.0,24.902,-1000.0
1742203189.669,94.238,69.824,166.016,99.609
1742203189.673,999.512,983.398,114.258,999.512
1742203189.678,923.828,982.422,-97.656,916.016
1742203189.682,955.078,872.07,-197.754,961.426
1742203189.686,972.656,-753.418,-67.383,969.238
1742203189.69,948.73,-654.297,133.789,967.285
1742203189.694,938.477,905.762,126.465,966.797
1742203189.698,999.512,999.512,-44.434,966.797
1742203189.702,-129.395,-17.09,-180.176,966.797
1742203189.705,-1000.0,-1000.0,-92.285,966.797
1742203189.709,-1000.0,-1000.0,74.219,966.797
1742203189.713,-671.875,-274.902,41.016,966.797
1742203189.717,827.637,965.82,-88.867,966.797
1742203189.721,999.512,996.094,-100.098,966.797
1742203189.678,923.828,982.422,-97.656,916.016
1742203189.682,955.078,872.07,-197.754,961.426
1742203189.686,972.656,-753.418,-67.383,969.238
1742203189.69,948.73,-654.297,133.789,967.285
1742203189.694,938.477,905.762,126.465,966.797
1742203189.698,999.512,999.512,-44.434,966.797
1742203189.702,-129.395,-17.09,-180.176,966.797
1742203189.705,-1000.0,-1000.0,-92.285,966.797
1742203189.709,-1000.0,-1000.0,74.219,966.797
1742203189.713,-671.875,-274.902,41.016,966.797
1742203189.717,827.637,965.82,-88.867,966.797
1742203189.721,999.512,996.094,-100.098,966.797
1742203189.735,-408.203,-270.508,-38.086,966.797
1742203189.739,-1000.0,-1000.0,60.059,966.797
1742203189.743,-953.125,-832.52,110.352,966.797
1742203189.747,302.734,545.898,-30.273,967.285
1742203189.751,999.512,999.512,-145.508,966.797
1742203189.755,896.484,867.188,-34.668,966.797
1742203189.759,916.992,964.355,102.539,966.797
1742203189.762,999.512,999.512,146.484,966.797
1742203189.766,206.055,-133.301,20.508,966.797
1742203189.77,-956.055,-1000.0,-98.633,967.285
1742203189.774,-1000.0,-960.938,-8.789,966.797
1742203189.778,-583.008,333.496,131.348,966.797
1742203189.735,-408.203,-270.508,-38.086,966.797
1742203189.739,-1000.0,-1000.0,60.059,966.797
1742203189.743,-953.125,-832.52,110.352,966.797
1742203189.747,302.734,545.898,-30.273,967.285
1742203189.751,999.512,999.512,-145.508,966.797
1742203189.755,896.484,867.188,-34.668,966.797
1742203189.759,916.992,964.355,102.539,966.797
1742203189.762,999.512,999.512,146.484,966.797
1742203189.766,206.055,-133.301,20.508,966.797
1742203189.77,-956.055,-1000.0,-98.633,967.285
1742203189.774,-1000.0,-960.938,-8.789,966.797
1742203189.778,-583.008,333.496,131.348,966.797
1742203189.781,737.305,999.512,108.398,967.285
1742203189.785,999.512,998.047,6.836,966.797
1742203189.789,419.922,366.699,-96.68,966.797
1742203189.793,-953.125,-1000.0,-75.684,966.797
1742203189.797,-996.094,-923.34,95.703,966.797
1742203189.801,389.16,507.812,247.07,966.797
1742203189.805,999.512,999.512,124.023,966.797
1742203189.808,467.773,211.426,-89.355,966.797
1742203189.812,-810.547,-929.199,-57.129,967.285
1742203189.816,-1000.0,-1000.0,153.809,966.797
1742203189.82,-430.664,-234.863,281.738,966.797
1742203189.824,916.992,999.512,188.477,966.797
1742203189.781,737.305,999.512,108.398,967.285
1742203189.785,999.512,998.047,6.836,966.797
1742203189.789,419.922,366.699,-96.68,966.797
1742203189.793,-953.125,-1000.0,-75.684,966.797
1742203189.797,-996.094,-923.34,95.703,966.797
1742203189.801,389.16,507.812,247.07,966.797
1742203189.805,999.512,999.512,124.023,966.797
1742203189.808,467.773,211.426,-89.355,966.797
1742203189.812,-810.547,-929.199,-57.129,967.285
1742203189.816,-1000.0,-1000.0,153.809,966.797
1742203189.82,-430.664,-234.863,281.738,966.797
1742203189.824,916.992,999.512,188.477,966.797
1742203189.825,981.934,939.453,40.039,966.797
1742203189.829,-367.676,-372.07,10.254,966.797
1742203189.833,-1000.0,-1000.0,157.715,966.797
1742203189.837,-732.91,-583.008,297.363,967.285
1742203189.841,684.082,767.09,212.402,967.285
1742203189.845,999.512,999.512,12.695,966.797
1742203189.849,-312.012,-126.465,-76.66,966.797
1742203189.852,-1000.0,-1000.0,78.125,967.285
1742203189.856,-893.555,-888.184,237.305,966.797
1742203189.86,-1000.0,-1000.0,156.738,966.797
1742203189.864,-969.727,-736.328,23.438,967.285
1742203189.868,417.969,740.234,-27.832,966.797
1742203189.87,999.512,999.512,42.48,966.797
1742203189.874,833.496,833.496,201.66,967.285
1742203189.878,999.512,999.512,187.988,966.797
1742203189.882,806.152,691.895,-5.371,967.285
1742203189.886,-581.543,-683.105,-123.535,966.797
1742203189.89,-1000.0,-1000.0,3.418,966.797
1742203189.894,-830.566,-716.309,158.203,966.797
1742203189.897,578.613,731.445,205.078,966.797
1742203189.901,999.512,999.512,6.836,966.797
1742203189.905,-342.773,-410.645,-159.18,966.797
1742203189.909,-1000.0,-1000.0,-62.012,966.797
1742203189.913,-804.688,-802.734,165.039,976.562
1742203189.87,999.512,999.512,42.48,966.797
1742203189.874,833.496,833.496,201.66,967.285
1742203189.878,999.512,999.512,187.988,966.797
1742203189.882,806.152,691.895,-5.371,967.285
1742203189.886,-581.543,-683.105,-123.535,966.797
1742203189.89,-1000.0,-1000.0,3.418,966.797
1742203189.894,-830.566,-716.309,158.203,966.797
1742203189.897,578.613,731.445,205.078,966.797
1742203189.901,999.512,999.512,6.836,966.797
1742203189.905,-342.773,-410.645,-159.18,966.797
1742203189.909,-1000.0,-1000.0,-62.012,966.797
1742203189.913,-804.688,-802.734,165.039,976.562
1742203189.945,491.211,487.793,254.395,925.293
1742203189.949,999.512,999.512,89.844,999.512
1742203189.953,748.047,712.891,-72.754,979.98
1742203189.957,-799.805,-833.984,-37.109,-300.293
1742203189.961,-820.312,-763.672,206.543,162.598
1742203189.965,734.375,785.645,317.383,999.512
1742203189.969,999.512,999.512,52.734,996.094
1742203189.972,569.336,352.051,-203.125,825.684
1742203189.976,-979.004,-1000.0,-131.836,-728.516
1742203189.98,-435.059,-310.059,138.184,18.555
1742203189.984,932.617,953.125,264.16,999.512
1742203189.988,999.512,999.512,102.539,940.43
1742203189.945,491.211,487.793,254.395,925.293
1742203189.949,999.512,999.512,89.844,999.512
1742203189.953,748.047,712.891,-72.754,979.98
1742203189.957,-799.805,-833.984,-37.109,-300.293
1742203189.961,-820.312,-763.672,206.543,162.598
1742203189.965,734.375,785.645,317.383,999.512
1742203189.969,999.512,999.512,52.734,996.094
1742203189.972,569.336,352.051,-203.125,825.684
1742203189.976,-979.004,-1000.0,-131.836,-728.516
1742203189.98,-435.059,-310.059,138.184,18.555
1742203189.984,932.617,953.125,264.16,999.512
1742203189.988,999.512,999.512,102.539,940.43
1742203189.975,751.465,468.262,-111.816,916.504
1742203189.979,-789.062,-976.562,-107.91,-699.219
1742203189.983,-967.773,-913.086,120.117,-788.574
1742203189.987,664.062,612.793,274.902,870.605
1742203189.991,979.98,999.512,122.559,945.312
1742203189.995,999.512,999.512,-10.742,999.512
1742203189.999,429.688,5.859,-66.895,771.484
1742203190.002,-846.68,-1000.0,102.539,-529.297
1742203190.006,462.891,455.566,404.785,457.52
1742203190.01,999.512,999.512,299.805,999.512
1742203190.014,736.328,653.32,39.062,890.625
1742203190.018,-427.734,-596.68,-16.113,-160.645
1742203189.975,751.465,468.262,-111.816,916.504
1742203189.979,-789.062,-976.562,-107.91,-699.219
1742203189.983,-967.773,-913.086,120.117,-788.574
1742203189.987,664.062,612.793,274.902,870.605
1742203189.991,979.98,999.512,122.559,945.312
1742203189.995,999.512,999.512,-10.742,999.512
1742203189.999,429.688,5.859,-66.895,771.484
1742203190.002,-846.68,-1000.0,102.539,-529.297
1742203190.006,462.891,455.566,404.785,457.52
1742203190.01,999.512,999.512,299.805,999.512
1742203190.014,736.328,653.32,39.062,890.625
1742203190.018,-427.734,-596.68,-16.113,-160.645
1742203190.02,-1000.0,-1000.0,125.0,-1000.0
1742203190.024,351.562,290.039,292.969,535.156
1742203190.028,999.512,999.512,197.266,999.512
1742203190.032,999.512,947.266,-36.133,999.512
1742203190.036,54.688,-308.594,-141.113,296.387
1742203190.04,-1000.0,-1000.0,71.777,-986.816
1742203190.044,179.199,146.484,389.16,383.301
1742203190.047,999.512,999.512,310.059,999.512
1742203190.051,999.512,888.184,102.051,999.512
1742203190.055,326.172,-517.578,315.918,640.137
1742203190.059,-1000.0,-1000.0,706.543,-761.23
1742203190.063,273.926,368.652,946.777,381.836
1742203190.02,-1000.0,-1000.0,125.0,-1000.0
1742203190.024,351.562,290.039,292.969,535.156
1742203190.028,999.512,999.512,197.266,999.512
1742203190.032,999.512,947.266,-36.133,999.512
1742203190.036,54.688,-308.594,-141.113,296.387
1742203190.04,-1000.0,-1000.0,71.777,-986.816
1742203190.044,179.199,146.484,389.16,383.301
1742203190.047,999.512,999.512,310.059,999.512
1742203190.051,999.512,888.184,102.051,999.512
1742203190.055,326.172,-517.578,315.918,640.137
1742203190.059,-1000.0,-1000.0,706.543,-761.23
1742203190.063,273.926,368.652,946.777,381.836
1742203190.066,999.512,999.512,959.473,999.512
1742203190.07,982.422,999.512,765.137,966.309
1742203190.074,671.387,439.941,523.926,696.777
1742203190.078,-909.18,-1000.0,495.605,-903.809
1742203190.082,-955.566,-943.359,613.77,-901.855
1742203190.086,568.848,598.145,680.664,624.512
1742203190.09,999.512,999.512,510.254,999.512
1742203190.093,202.148,-257.812,257.812,336.914
1742203190.097,-1000.0,-1000.0,355.469,-1000.0
1742203190.101,-871.094,-811.035,599.609,-790.039
1742203190.105,553.711,512.207,788.086,681.152
1742203190.109,999.512,999.512,564.453,999.512
1742203190.066,999.512,999.512,959.473,999.512
1742203190.07,982.422,999.512,765.137,966.309
1742203190.074,671.387,439.941,523.926,696.777
1742203190.078,-909.18,-1000.0,495.605,-903.809
1742203190.082,-955.566,-943.359,613.77,-901.855
1742203190.086,568.848,598.145,680.664,624.512
1742203190.09,999.512,999.512,510.254,999.512
1742203190.093,202.148,-257.812,257.812,336.914
1742203190.097,-1000.0,-1000.0,355.469,-1000.0
1742203190.101,-871.094,-811.035,599.609,-790.039
1742203190.105,553.711,512.207,788.086,681.152
1742203190.109,999.512,999.512,564.453,999.512
1742203190.11,924.316,851.562,233.887,946.289
1742203190.114,-494.141,-617.188,258.301,-458.008
1742203190.118,-1000.0,-1000.0,605.957,-1000.0
1742203190.122,638.184,642.578,834.961,653.32
1742203190.126,999.512,999.512,456.543,999.512
1742203190.13,999.512,999.512,0.488,999.512
1742203190.134,270.02,342.773,-165.527,332.031
1742203190.137,-1000.0,-1000.0,20.508,-930.176
1742203190.141,239.258,131.836,227.539,440.43
1742203190.145,999.512,999.512,0.0,999.512
1742203190.149,966.797,990.723,-233.887,969.727
1742203190.153,832.031,717.773,-288.086,855.469
1742203190.11,924.316,851.562,233.887,946.289
1742203190.114,-494.141,-617.188,258.301,-458.008
1742203190.118,-1000.0,-1000.0,605.957,-1000.0
1742203190.122,638.184,642.578,834.961,653.32
1742203190.126,999.512,999.512,456.543,999.512
1742203190.13,999.512,999.512,0.488,999.512
1742203190.134,270.02,342.773,-165.527,332.031
1742203190.137,-1000.0,-1000.0,20.508,-930.176
1742203190.141,239.258,131.836,227.539,440.43
1742203190.145,999.512,999.512,0.0,999.512
1742203190.149,966.797,990.723,-233.887,969.727
1742203190.153,832.031,717.773,-288.086,855.469
1742203190.621,999.512,999.512,54.688,999.512
1742203190.625,369.141,338.379,-224.609,138.672
1742203190.629,-849.609,-859.863,-93.75,-937.012
1742203190.633,-1000.0,-1000.0,220.703,-1000.0
1742203190.637,-686.523,-705.078,398.926,-569.824
1742203190.641,833.984,820.312,270.996,920.898
1742203190.645,912.109,916.504,8.789,815.43
1742203190.648,-602.051,-601.562,-43.945,-672.363
1742203190.652,-1000.0,-1000.0,145.508,-1000.0
1742203190.656,-856.445,-843.262,371.582,-814.453
1742203190.66,625.488,641.602,303.223,699.219
1742203190.664,955.078,952.637,4.883,865.234
1742203190.155,-825.684,-917.969,-187.012,-702.637
1742203190.159,-430.664,-549.805,56.641,27.832
1742203190.163,979.004,950.195,29.297,999.512
1742203190.167,999.512,999.512,-223.145,999.512
1742203190.171,165.039,-129.883,-286.133,298.828
1742203190.175,-1000.0,-1000.0,-36.133,-975.586
1742203190.179,128.418,173.828,344.238,277.832
1742203190.182,999.512,999.512,271.484,999.512
1742203190.186,798.828,687.988,-195.801,804.199
1742203190.19,-556.152,-685.547,-384.766,-576.172
1742203190.194,-1000.0,-1000.0,-114.258,-1000.0
1742203190.198,-27.344,-26.367,285.645,222.168
1742203190.2,999.512,999.512,233.398,999.512
1742203190.204,975.586,921.875,-157.715,946.289
1742203190.208,-213.379,-336.426,-355.469,-182.129
1742203190.212,-1000.0,-1000.0,-182.129,-1000.0
1742203190.216,-729.492,-690.43,159.18,-648.438
1742203190.22,619.629,647.949,159.18,715.82
1742203190.224,999.512,999.512,-225.586,999.512
1742203190.227,241.699,251.953,-424.316,92.773
1742203190.231,-1000.0,-1000.0,-282.715,-1000.0
1742203190.235,-864.258,-842.285,45.41,-788.574
1742203190.239,540.039,582.031,187.988,601.562
1742203190.243,999.512,999.512,-83.984,999.512
1742203190.2,999.512,999.512,233.398,999.512
1742203190.204,975.586,921.875,-157.715,946.289
1742203190.208,-213.379,-336.426,-355.469,-182.129
1742203190.212,-1000.0,-1000.0,-182.129,-1000.0
1742203190.216,-729.492,-690.43,159.18,-648.438
1742203190.22,619.629,647.949,159.18,715.82
1742203190.224,999.512,999.512,-225.586,999.512
1742203190.227,241.699,251.953,-424.316,92.773
1742203190.231,-1000.0,-1000.0,-282.715,-1000.0
1742203190.235,-864.258,-842.285,45.41,-788.574
1742203190.239,540.039,582.031,187.988,601.562
1742203190.243,999.512,999.512,-83.984,999.512
1742203190.245,589.844,439.453,-351.562,499.023
1742203190.249,-896.484,-970.215,-286.621,-939.941
1742203190.253,-940.918,-913.086,15.137,-909.18
1742203190.257,576.66,564.453,188.965,584.961
1742203190.261,999.512,999.512,-118.164,999.512
1742203190.265,897.461,887.695,-329.59,885.742
1742203190.269,-480.957,-479.98,-283.203,-539.062
1742203190.272,-1000.0,-1000.0,-82.031,-1000.0
1742203190.276,402.344,345.703,125.977,515.625
1742203190.28,999.512,999.512,-89.355,999.512
1742203190.284,825.684,826.172,-403.809,828.613
1742203190.288,-601.562,-598.145,-398.438,-628.906
1742203190.245,589.844,439.453,-351.562,499.023
1742203190.249,-896.484,-970.215,-286.621,-939.941
1742203190.253,-940.918,-913.086,15.137,-909.18
1742203190.257,576.66,564.453,188.965,584.961
1742203190.261,999.512,999.512,-118.164,999.512
1742203190.265,897.461,887.695,-329.59,885.742
1742203190.269,-480.957,-479.98,-283.203,-539.062
1742203190.272,-1000.0,-1000.0,-82.031,-1000.0
1742203190.276,402.344,345.703,125.977,515.625
1742203190.28,999.512,999.512,-89.355,999.512
1742203190.284,825.684,826.172,-403.809,828.613
1742203190.288,-601.562,-598.145,-398.438,-628.906
1742203190.32,-1000.0,-1000.0,-139.648,-1000.0
1742203190.324,398.926,363.281,104.004,514.16
1742203190.328,999.512,999.512,3.906,999.512
1742203190.332,935.547,901.855,-270.996,924.316
1742203190.336,-378.418,-434.082,-340.82,-440.43
1742203190.34,-1000.0,-1000.0,-54.688,-1000.0
1742203190.344,325.684,275.391,146.484,474.121
1742203190.347,999.512,999.512,-41.504,999.512
1742203190.351,999.512,980.469,-269.043,992.188
1742203190.355,-116.211,-220.703,-347.656,-170.898
1742203190.359,-1000.0,-1000.0,-100.098,-1000.0
1742203190.363,148.926,210.938,229.492,329.59
1742203190.32,-1000.0,-1000.0,-139.648,-1000.0
1742203190.324,398.926,363.281,104.004,514.16
1742203190.328,999.512,999.512,3.906,999.512
1742203190.332,935.547,901.855,-270.996,924.316
1742203190.336,-378.418,-434.082,-340.82,-440.43
1742203190.34,-1000.0,-1000.0,-54.688,-1000.0
1742203190.344,325.684,275.391,146.484,474.121
1742203190.347,999.512,999.512,-41.504,999.512
1742203190.351,999.512,980.469,-269.043,992.188
1742203190.355,-116.211,-220.703,-347.656,-170.898
1742203190.359,-1000.0,-1000.0,-100.098,-1000.0
1742203190.363,148.926,210.938,229.492,329.59
1742203190.336,999.512,999.512,62.012,999.512
1742203190.34,999.512,999.512,-222.168,988.281
1742203190.344,396.973,547.852,-243.164,255.859
1742203190.348,-1000.0,-1000.0,-85.449,-1000.0
1742203190.352,-746.582,-818.359,173.828,-499.023
1742203190.356,857.91,855.957,157.715,964.355
1742203190.36,974.121,920.898,-210.938,941.406
1742203190.363,-470.215,-572.754,-357.91,-454.59
1742203190.367,-1000.0,-1000.0,-90.332,-1000.0
1742203190.371,-622.07,-647.461,216.309,-449.219
1742203190.375,711.914,697.266,269.043,822.754
1742203190.379,999.512,999.512,-25.879,999.512
1742203190.336,999.512,999.512,62.012,999.512
1742203190.34,999.512,999.512,-222.168,988.281
1742203190.344,396.973,547.852,-243.164,255.859
1742203190.348,-1000.0,-1000.0,-85.449,-1000.0
1742203190.352,-746.582,-818.359,173.828,-499.023
1742203190.356,857.91,855.957,157.715,964.355
1742203190.36,974.121,920.898,-210.938,941.406
1742203190.363,-470.215,-572.754,-357.91,-454.59
1742203190.367,-1000.0,-1000.0,-90.332,-1000.0
1742203190.371,-622.07,-647.461,216.309,-449.219
1742203190.375,711.914,697.266,269.043,822.754
1742203190.379,999.512,999.512,-25.879,999.512
1742203190.336,999.512,999.512,62.012,999.512
1742203190.34,999.512,999.512,-222.168,988.281
1742203190.344,396.973,547.852,-243.164,255.859
1742203190.348,-1000.0,-1000.0,-85.449,-1000.0
1742203190.352,-746.582,-818.359,173.828,-499.023
1742203190.356,857.91,855.957,157.715,964.355
1742203190.36,974.121,920.898,-210.938,941.406
1742203190.363,-470.215,-572.754,-357.91,-454.59
1742203190.367,-1000.0,-1000.0,-90.332,-1000.0
1742203190.371,-622.07,-647.461,216.309,-449.219
1742203190.375,711.914,697.266,269.043,822.754
1742203190.379,999.512,999.512,-25.879,999.512
1742203190.382,202.148,118.652,-269.531,111.816
1742203190.386,-1000.0,-1000.0,-218.262,-1000.0
1742203190.39,-869.141,-856.934,10.254,-831.055
1742203190.394,521.973,519.043,51.758,558.105
1742203190.398,999.512,999.512,-200.195,999.512
1742203190.402,629.395,687.5,-399.414,485.84
1742203190.406,-854.004,-793.945,-347.168,-931.152
1742203190.409,-968.262,-1000.0,-4.395,-927.734
1742203190.413,522.949,500.0,173.828,546.387
1742203190.417,999.512,999.512,-69.824,999.512
1742203190.421,660.645,707.031,-276.367,508.301
1742203190.425,-776.367,-727.539,-217.773,-888.184
1742203190.382,202.148,118.652,-269.531,111.816
1742203190.386,-1000.0,-1000.0,-218.262,-1000.0
1742203190.39,-869.141,-856.934,10.254,-831.055
1742203190.394,521.973,519.043,51.758,558.105
1742203190.398,999.512,999.512,-200.195,999.512
1742203190.402,629.395,687.5,-399.414,485.84
1742203190.406,-854.004,-793.945,-347.168,-931.152
1742203190.409,-968.262,-1000.0,-4.395,-927.734
1742203190.413,522.949,500.0,173.828,546.387
1742203190.417,999.512,999.512,-69.824,999.512
1742203190.421,660.645,707.031,-276.367,508.301
1742203190.425,-776.367,-727.539,-217.773,-888.184
1742203190.44,-1000.0,-1000.0,19.531,-998.047
1742203190.444,334.961,323.73,179.199,433.105
1742203190.448,999.512,999.512,-73.242,999.512
1742203190.452,664.062,648.926,-348.633,539.062
1742203190.456,-827.148,-856.934,-261.23,-899.902
1742203190.46,-995.605,-952.637,31.25,-956.543
1742203190.464,506.836,559.57,145.02,517.09
1742203190.467,999.512,999.512,-25.879,999.512
1742203190.471,785.645,720.215,-246.582,743.164
1742203190.475,-583.008,-657.227,-260.254,-663.574
1742203190.479,-1000.0,-1000.0,-45.41,-1000.0
1742203190.483,120.117,114.746,125.0,264.648
1742203190.44,-1000.0,-1000.0,19.531,-998.047
1742203190.444,334.961,323.73,179.199,433.105
1742203190.448,999.512,999.512,-73.242,999.512
1742203190.452,664.062,648.926,-348.633,539.062
1742203190.456,-827.148,-856.934,-261.23,-899.902
1742203190.46,-995.605,-952.637,31.25,-956.543
1742203190.464,506.836,559.57,145.02,517.09
1742203190.467,999.512,999.512,-25.879,999.512
1742203190.471,785.645,720.215,-246.582,743.164
1742203190.475,-583.008,-657.227,-260.254,-663.574
1742203190.479,-1000.0,-1000.0,-45.41,-1000.0
1742203190.483,120.117,114.746,125.0,264.648
1742203190.485,999.512,999.512,-27.344,999.512
1742203190.489,808.594,809.57,-297.363,807.617
1742203190.493,-551.758,-550.293,-331.543,-565.43
1742203190.497,-1000.0,-1000.0,-66.895,-1000.0
1742203190.501,-162.109,-186.523,185.059,21.973
1742203190.505,999.512,999.512,106.934,999.512
1742203190.509,862.793,863.281,-173.34,828.125
1742203190.512,-492.676,-502.93,-378.906,-511.719
1742203190.516,-1000.0,-1000.0,-182.129,-1000.0
1742203190.52,-646.973,-604.98,81.055,-517.578
1742203190.524,846.191,873.047,1.953,908.203
1742203190.528,908.691,900.879,-291.016,888.184
1742203190.485,999.512,999.512,-27.344,999.512
1742203190.489,808.594,809.57,-297.363,807.617
1742203190.493,-551.758,-550.293,-331.543,-565.43
1742203190.497,-1000.0,-1000.0,-66.895,-1000.0
1742203190.501,-162.109,-186.523,185.059,21.973
1742203190.505,999.512,999.512,106.934,999.512
1742203190.509,862.793,863.281,-173.34,828.125
1742203190.512,-492.676,-502.93,-378.906,-511.719
1742203190.516,-1000.0,-1000.0,-182.129,-1000.0
1742203190.52,-646.973,-604.98,81.055,-517.578
1742203190.524,846.191,873.047,1.953,908.203
1742203190.528,908.691,900.879,-291.016,888.184
1742203190.485,999.512,999.512,-27.344,999.512
1742203190.489,808.594,809.57,-297.363,807.617
1742203190.493,-551.758,-550.293,-331.543,-565.43
1742203190.497,-1000.0,-1000.0,-66.895,-1000.0
1742203190.501,-162.109,-186.523,185.059,21.973
1742203190.505,999.512,999.512,106.934,999.512
1742203190.509,862.793,863.281,-173.34,828.125
1742203190.512,-492.676,-502.93,-378.906,-511.719
1742203190.516,-1000.0,-1000.0,-182.129,-1000.0
1742203190.52,-646.973,-604.98,81.055,-517.578
1742203190.524,846.191,873.047,1.953,908.203
1742203190.528,908.691,900.879,-291.016,888.184
1742203190.545,-600.098,-595.703,-446.777,-582.031
1742203190.549,-1000.0,-1000.0,-242.676,-1000.0
1742203190.553,-819.824,-803.711,83.984,-756.836
1742203190.557,583.496,589.844,81.543,687.012
1742203190.561,999.512,999.512,-189.453,999.512
1742203190.565,-312.988,-263.672,-295.41,-450.684
1742203190.569,-1000.0,-1000.0,-149.902,-1000.0
1742203190.572,-859.863,-868.164,136.23,-849.121
1742203190.576,561.035,576.172,278.32,584.473
1742203190.58,999.512,999.512,13.184,999.512
1742203190.584,-349.121,-412.598,-223.145,-422.363
1742203190.588,-1000.0,-1000.0,-88.379,-1000.0
1742203190.545,-600.098,-595.703,-446.777,-582.031
1742203190.549,-1000.0,-1000.0,-242.676,-1000.0
1742203190.553,-819.824,-803.711,83.984,-756.836
1742203190.557,583.496,589.844,81.543,687.012
1742203190.561,999.512,999.512,-189.453,999.512
1742203190.565,-312.988,-263.672,-295.41,-450.684
1742203190.569,-1000.0,-1000.0,-149.902,-1000.0
1742203190.572,-859.863,-868.164,136.23,-849.121
1742203190.576,561.035,576.172,278.32,584.473
1742203190.58,999.512,999.512,13.184,999.512
1742203190.584,-349.121,-412.598,-223.145,-422.363
1742203190.588,-1000.0,-1000.0,-88.379,-1000.0
1742203190.575,-827.637,-823.242,205.566,-837.402
1742203190.579,507.812,503.418,333.008,529.297
1742203190.583,999.512,999.512,19.531,999.512
1742203190.587,108.887,150.391,-259.766,-102.051
1742203190.591,-1000.0,-1000.0,-125.488,-1000.0
1742203190.595,-880.859,-864.258,178.223,-866.699
1742203190.599,540.527,586.426,266.602,545.41
1742203190.602,999.512,999.512,-41.016,999.512
1742203190.606,78.125,-1.953,-250.488,-99.609
1742203190.61,-1000.0,-1000.0,-142.578,-1000.0
1742203190.614,-903.809,-848.633,137.207,-904.297
1742203190.618,444.824,512.207,335.938,430.664
1742203191.085,-927.246,-873.535,-318.848,-1000.0
1742203191.089,-1000.0,-1000.0,58.105,-1000.0
1742203191.093,-465.332,-548.34,330.566,-329.59
1742203191.097,999.512,996.094,135.742,999.512
1742203191.101,375.977,487.793,-312.988,103.027
1742203191.105,-973.145,-933.594,-272.461,-1000.0
1742203191.109,-1000.0,-1000.0,132.812,-1000.0
1742203191.112,-270.02,-327.148,364.258,-175.781
1742203191.116,999.512,999.512,235.84,999.512
1742203191.12,670.41,695.801,-149.414,472.656
1742203191.124,-752.441,-757.324,-231.445,-865.234
1742203191.128,-1000.0,-1000.0,118.652,-1000.0
1742203190.68,-607.91,-604.004,-78.613,-696.289
1742203190.684,-1000.0,-1000.0,116.699,-1000.0
1742203190.688,-796.875,-733.398,353.027,-803.223
1742203190.692,654.785,705.566,498.047,679.688
1742203190.696,999.512,999.512,354.004,964.844
1742203190.7,-457.52,-407.227,238.281,-571.289
1742203190.704,-1000.0,-1000.0,445.801,-1000.0
1742203190.707,-815.43,-840.332,687.988,-767.09
1742203190.711,627.441,612.305,646.973,692.871
1742203190.715,999.512,999.512,259.766,999.023
1742203190.719,-430.664,-471.68,70.312,-503.906
1742203190.723,-1000.0,-1000.0,306.641,-1000.0
1742203190.68,-607.91,-604.004,-78.613,-696.289
1742203190.684,-1000.0,-1000.0,116.699,-1000.0
1742203190.688,-796.875,-733.398,353.027,-803.223
1742203190.692,654.785,705.566,498.047,679.688
1742203190.696,999.512,999.512,354.004,964.844
1742203190.7,-457.52,-407.227,238.281,-571.289
1742203190.704,-1000.0,-1000.0,445.801,-1000.0
1742203190.707,-815.43,-840.332,687.988,-767.09
1742203190.711,627.441,612.305,646.973,692.871
1742203190.715,999.512,999.512,259.766,999.023
1742203190.719,-430.664,-471.68,70.312,-503.906
1742203190.723,-1000.0,-1000.0,306.641,-1000.0
1742203190.726,-830.566,-826.66,523.926,-805.664
1742203190.73,513.184,508.301,554.688,581.055
1742203190.734,999.512,999.512,219.727,999.512
1742203190.738,10.742,67.871,-23.438,-198.242
1742203190.742,-1000.0,-1000.0,140.625,-1000.0
1742203190.746,-810.059,-700.195,471.68,-777.344
1742203190.75,602.051,726.562,505.859,623.535
1742203190.753,999.512,999.512,173.828,999.512
1742203190.757,110.352,69.824,-90.82,-41.016
1742203190.761,-1000.0,-1000.0,63.965,-1000.0
1742203190.765,-856.445,-868.652,450.195,-842.773
1742203190.769,515.625,484.375,619.141,509.766
1742203190.726,-830.566,-826.66,523.926,-805.664
1742203190.73,513.184,508.301,554.688,581.055
1742203190.734,999.512,999.512,219.727,999.512
1742203190.738,10.742,67.871,-23.438,-198.242
1742203190.742,-1000.0,-1000.0,140.625,-1000.0
1742203190.746,-810.059,-700.195,471.68,-777.344
1742203190.75,602.051,726.562,505.859,623.535
1742203190.753,999.512,999.512,173.828,999.512
1742203190.757,110.352,69.824,-90.82,-41.016
1742203190.761,-1000.0,-1000.0,63.965,-1000.0
1742203190.765,-856.445,-868.652,450.195,-842.773
1742203190.769,515.625,484.375,619.141,509.766
1742203190.77,999.512,999.512,340.82,999.512
1742203190.774,633.789,620.117,16.602,493.164
1742203190.778,-843.75,-854.004,49.805,-924.805
1742203190.782,-987.305,-981.934,312.012,-939.453
1742203190.786,510.742,514.16,608.887,530.762
1742203190.79,999.512,999.512,481.934,999.512
1742203190.794,819.336,815.918,53.711,799.805
1742203190.797,-587.402,-579.102,-78.613,-641.113
1742203190.801,-1000.0,-1000.0,228.027,-1000.0
1742203190.805,326.172,276.367,604.004,427.734
1742203190.809,999.512,999.512,475.586,999.512
1742203190.813,792.969,771.484,62.988,784.18
1742203190.77,999.512,999.512,340.82,999.512
1742203190.774,633.789,620.117,16.602,493.164
1742203190.778,-843.75,-854.004,49.805,-924.805
1742203190.782,-987.305,-981.934,312.012,-939.453
1742203190.786,510.742,514.16,608.887,530.762
1742203190.79,999.512,999.512,481.934,999.512
1742203190.794,819.336,815.918,53.711,799.805
1742203190.797,-587.402,-579.102,-78.613,-641.113
1742203190.801,-1000.0,-1000.0,228.027,-1000.0
1742203190.805,326.172,276.367,604.004,427.734
1742203190.809,999.512,999.512,475.586,999.512
1742203190.813,792.969,771.484,62.988,784.18
1742203190.815,-541.992,-555.664,-65.918,-587.891
1742203190.819,-1000.0,-1000.0,221.68,-1000.0
1742203190.823,-135.254,-272.461,558.105,85.449
1742203190.827,999.512,995.117,535.645,999.512
1742203190.831,853.027,908.691,167.969,820.312
1742203190.835,-500.0,-453.125,-2.93,-519.043
1742203190.839,-1000.0,-1000.0,223.145,-1000.0
1742203190.842,-641.113,-692.383,476.074,-427.734
1742203190.846,850.098,807.617,487.793,945.312
1742203190.85,909.668,933.105,171.875,878.906
1742203190.854,-586.914,-603.516,-170.898,-576.66
1742203190.858,-1000.0,-1000.0,-173.828,-1000.0
1742203190.815,-541.992,-555.664,-65.918,-587.891
1742203190.819,-1000.0,-1000.0,221.68,-1000.0
1742203190.823,-135.254,-272.461,558.105,85.449
1742203190.827,999.512,995.117,535.645,999.512
1742203190.831,853.027,908.691,167.969,820.312
1742203190.835,-500.0,-453.125,-2.93,-519.043
1742203190.839,-1000.0,-1000.0,223.145,-1000.0
1742203190.842,-641.113,-692.383,476.074,-427.734
1742203190.846,850.098,807.617,487.793,945.312
1742203190.85,909.668,933.105,171.875,878.906
1742203190.854,-586.914,-603.516,-170.898,-576.66
1742203190.858,-1000.0,-1000.0,-173.828,-1000.0
1742203190.86,-515.625,-271.484,81.055,-412.598
1742203190.864,844.727,934.082,145.508,906.738
1742203190.868,999.512,999.512,-217.773,999.512
1742203190.872,-226.562,-151.855,-376.465,-322.754
1742203190.876,-1000.0,-1000.0,-153.32,-1000.0
1742203190.88,-644.043,-597.168,138.184,-535.156
1742203190.884,804.688,866.211,129.395,863.77
1742203190.887,999.512,980.957,-298.828,999.512
1742203190.891,-354.004,-451.66,-570.312,-374.512
1742203190.895,-1000.0,-1000.0,-421.875,-1000.0
1742203190.899,-794.922,-799.316,-34.668,-733.887
1742203190.903,515.625,536.133,235.84,598.633
1742203190.86,-515.625,-271.484,81.055,-412.598
1742203190.864,844.727,934.082,145.508,906.738
1742203190.868,999.512,999.512,-217.773,999.512
1742203190.872,-226.562,-151.855,-376.465,-322.754
1742203190.876,-1000.0,-1000.0,-153.32,-1000.0
1742203190.88,-644.043,-597.168,138.184,-535.156
1742203190.884,804.688,866.211,129.395,863.77
1742203190.887,999.512,980.957,-298.828,999.512
1742203190.891,-354.004,-451.66,-570.312,-374.512
1742203190.895,-1000.0,-1000.0,-421.875,-1000.0
1742203190.899,-794.922,-799.316,-34.668,-733.887
1742203190.903,515.625,536.133,235.84,598.633
1742203190.905,999.512,999.512,-63.477,999.512
1742203190.909,348.633,123.535,-251.953,249.023
1742203190.913,-1000.0,-1000.0,102.539,-1000.0
1742203190.917,-906.738,-872.559,653.809,-874.023
1742203190.921,544.434,527.344,890.625,598.145
1742203190.925,999.512,999.512,633.789,999.512
1742203190.929,251.953,263.672,252.93,2.441
1742203190.932,-963.867,-952.148,204.59,-1000.0
1742203190.936,-1000.0,-1000.0,558.105,-1000.0
1742203190.94,112.305,60.059,851.562,177.246
1742203190.944,999.512,999.512,632.812,999.512
1742203190.948,581.055,605.469,242.188,352.051
1742203190.905,999.512,999.512,-63.477,999.512
1742203190.909,348.633,123.535,-251.953,249.023
1742203190.913,-1000.0,-1000.0,102.539,-1000.0
1742203190.917,-906.738,-872.559,653.809,-874.023
1742203190.921,544.434,527.344,890.625,598.145
1742203190.925,999.512,999.512,633.789,999.512
1742203190.929,251.953,263.672,252.93,2.441
1742203190.932,-963.867,-952.148,204.59,-1000.0
1742203190.936,-1000.0,-1000.0,558.105,-1000.0
1742203190.94,112.305,60.059,851.562,177.246
1742203190.944,999.512,999.512,632.812,999.512
1742203190.948,581.055,605.469,242.188,352.051
1742203191.01,-847.168,-846.191,203.613,-956.055
1742203191.014,-1000.0,-1000.0,502.93,-1000.0
1742203191.018,208.496,247.559,788.574,251.953
1742203191.022,999.512,999.512,633.789,999.512
1742203191.026,697.266,705.566,203.613,594.727
1742203191.03,-745.117,-767.09,76.172,-822.754
1742203191.034,-1000.0,-1000.0,382.812,-1000.0
1742203191.037,273.438,405.762,752.93,287.598
1742203191.041,999.512,999.512,584.961,999.512
1742203191.045,738.281,731.445,112.305,663.086
1742203191.049,-572.754,-571.289,-4.395,-647.949
1742203191.053,-1000.0,-1000.0,292.48,-1000.0
1742203191.01,-847.168,-846.191,203.613,-956.055
1742203191.014,-1000.0,-1000.0,502.93,-1000.0
1742203191.018,208.496,247.559,788.574,251.953
1742203191.022,999.512,999.512,633.789,999.512
1742203191.026,697.266,705.566,203.613,594.727
1742203191.03,-745.117,-767.09,76.172,-822.754
1742203191.034,-1000.0,-1000.0,382.812,-1000.0
1742203191.037,273.438,405.762,752.93,287.598
1742203191.041,999.512,999.512,584.961,999.512
1742203191.045,738.281,731.445,112.305,663.086
1742203191.049,-572.754,-571.289,-4.395,-647.949
1742203191.053,-1000.0,-1000.0,292.48,-1000.0
1742203191.014,-799.805,-821.289,528.32,-710.449
1742203191.018,694.824,659.668,462.891,784.18
1742203191.022,966.309,999.512,49.805,909.668
1742203191.026,-621.582,-677.734,-197.754,-660.156
1742203191.03,-1000.0,-1000.0,48.34,-1000.0
1742203191.034,-128.906,341.797,415.527,-138.672
1742203191.038,999.512,999.512,350.098,999.512
1742203191.041,821.289,771.973,-89.844,804.688
1742203191.045,-562.988,-532.715,-341.309,-588.379
1742203191.049,-1000.0,-1000.0,-113.281,-1000.0
1742203191.053,-867.188,-862.793,268.066,-874.512
1742203191.057,583.496,573.73,303.223,592.773
1742203191.014,-799.805,-821.289,528.32,-710.449
1742203191.018,694.824,659.668,462.891,784.18
1742203191.022,966.309,999.512,49.805,909.668
1742203191.026,-621.582,-677.734,-197.754,-660.156
1742203191.03,-1000.0,-1000.0,48.34,-1000.0
1742203191.034,-128.906,341.797,415.527,-138.672
1742203191.038,999.512,999.512,350.098,999.512
1742203191.041,821.289,771.973,-89.844,804.688
1742203191.045,-562.988,-532.715,-341.309,-588.379
1742203191.049,-1000.0,-1000.0,-113.281,-1000.0
1742203191.053,-867.188,-862.793,268.066,-874.512
1742203191.057,583.496,573.73,303.223,592.773
1742203191.055,999.512,999.512,-60.547,979.98
1742203191.059,-527.344,-473.633,-393.066,-584.961
1742203191.063,-1000.0,-1000.0,-257.324,-1000.0
1742203191.067,-846.68,-844.238,156.738,-856.445
1742203191.071,539.551,536.133,301.27,560.059
1742203191.075,999.512,999.512,-35.645,999.512
1742203191.079,-288.086,-241.211,-401.367,-404.785
1742203191.082,-1000.0,-1000.0,-293.945,-1000.0
1742203191.086,-938.965,-938.965,63.965,-919.922
1742203191.09,292.48,284.18,232.91,371.094
1742203191.094,999.512,999.512,9.277,999.512
1742203191.098,208.496,333.496,-333.984,-87.891
1742203191.055,999.512,999.512,-60.547,979.98
1742203191.059,-527.344,-473.633,-393.066,-584.961
1742203191.063,-1000.0,-1000.0,-257.324,-1000.0
1742203191.067,-846.68,-844.238,156.738,-856.445
1742203191.071,539.551,536.133,301.27,560.059
1742203191.075,999.512,999.512,-35.645,999.512
1742203191.079,-288.086,-241.211,-401.367,-404.785
1742203191.082,-1000.0,-1000.0,-293.945,-1000.0
1742203191.086,-938.965,-938.965,63.965,-919.922
1742203191.09,292.48,284.18,232.91,371.094
1742203191.094,999.512,999.512,9.277,999.512
1742203191.098,208.496,333.496,-333.984,-87.891
1742203191.131,-471.68,-343.75,353.516,-394.043
1742203191.135,969.238,999.512,225.586,999.512
1742203191.139,809.57,816.895,-171.387,645.508
1742203191.143,-731.445,-738.77,-273.438,-835.938
1742203191.147,-1000.0,-1000.0,80.566,-1000.0
1742203191.151,36.133,268.555,499.512,-39.062
1742203191.155,999.512,999.512,386.719,999.512
1742203191.158,765.137,733.398,-105.957,675.293
1742203191.162,-577.637,-575.195,-276.367,-686.523
1742203191.166,-1000.0,-1000.0,-5.859,-1000.0
1742203191.17,-663.086,-590.332,370.117,-654.785
1742203191.174,829.102,870.605,399.414,835.449
1742203191.131,-471.68,-343.75,353.516,-394.043
1742203191.135,969.238,999.512,225.586,999.512
1742203191.139,809.57,816.895,-171.387,645.508
1742203191.143,-731.445,-738.77,-273.438,-835.938
1742203191.147,-1000.0,-1000.0,80.566,-1000.0
1742203191.151,36.133,268.555,499.512,-39.062
1742203191.155,999.512,999.512,386.719,999.512
1742203191.158,765.137,733.398,-105.957,675.293
1742203191.162,-577.637,-575.195,-276.367,-686.523
1742203191.166,-1000.0,-1000.0,-5.859,-1000.0
1742203191.17,-663.086,-590.332,370.117,-654.785
1742203191.174,829.102,870.605,399.414,835.449
1742203191.19,934.082,945.801,-37.598,917.48
1742203191.194,-611.816,-648.926,-292.48,-623.047
1742203191.198,-1000.0,-1000.0,7.324,-1000.0
1742203191.202,-143.066,252.93,467.285,-198.73
1742203191.206,999.512,999.512,413.086,999.512
1742203191.21,877.441,819.336,13.672,861.328
1742203191.214,-480.469,-473.633,-253.906,-521.973
1742203191.217,-1000.0,-1000.0,-91.309,-1000.0
1742203191.221,-829.102,-823.73,288.086,-813.477
1742203191.225,511.23,503.418,396.484,569.824
1742203191.229,999.512,999.512,68.848,999.512
1742203191.233,-10.254,79.102,-223.633,-205.566
1742203191.235,-1000.0,-1000.0,-138.672,-1000.0
1742203191.239,-868.164,-879.395,231.445,-850.098
1742203191.243,536.133,541.504,449.707,551.27
1742203191.247,999.512,999.512,104.98,999.512
1742203191.251,6.348,28.32,-265.137,-142.578
1742203191.255,-1000.0,-1000.0,-173.828,-1000.0
1742203191.259,-854.98,-861.328,177.734,-849.609
1742203191.262,520.02,526.855,435.547,526.855
1742203191.266,999.512,999.512,97.656,999.512
1742203191.27,228.516,171.387,-334.961,56.641
1742203191.274,-1000.0,-1000.0,-230.957,-1000.0
1742203191.278,-1000.0,-1000.0,161.133,-951.66
1742203191.235,-1000.0,-1000.0,-138.672,-1000.0
1742203191.239,-868.164,-879.395,231.445,-850.098
1742203191.243,536.133,541.504,449.707,551.27
1742203191.247,999.512,999.512,104.98,999.512
1742203191.251,6.348,28.32,-265.137,-142.578
1742203191.255,-1000.0,-1000.0,-173.828,-1000.0
1742203191.259,-854.98,-861.328,177.734,-849.609
1742203191.262,520.02,526.855,435.547,526.855
1742203191.266,999.512,999.512,97.656,999.512
1742203191.27,228.516,171.387,-334.961,56.641
1742203191.274,-1000.0,-1000.0,-230.957,-1000.0
1742203191.278,-1000.0,-1000.0,161.133,-951.66
1742203191.235,-1000.0,-1000.0,-138.672,-1000.0
1742203191.239,-868.164,-879.395,231.445,-850.098
1742203191.243,536.133,541.504,449.707,551.27
1742203191.247,999.512,999.512,104.98,999.512
1742203191.251,6.348,28.32,-265.137,-142.578
1742203191.255,-1000.0,-1000.0,-173.828,-1000.0
1742203191.259,-854.98,-861.328,177.734,-849.609
1742203191.262,520.02,526.855,435.547,526.855
1742203191.266,999.512,999.512,97.656,999.512
1742203191.27,228.516,171.387,-334.961,56.641
1742203191.274,-1000.0,-1000.0,-230.957,-1000.0
1742203191.278,-1000.0,-1000.0,161.133,-951.66
1742203191.28,276.367,252.441,418.457,346.68
1742203191.284,999.512,999.512,207.031,999.512
1742203191.288,658.691,658.203,-197.266,507.812
1742203191.292,-817.871,-839.844,-224.609,-907.715
1742203191.296,-1000.0,-983.398,127.93,-983.398
1742203191.3,450.195,524.414,506.348,460.449
1742203191.304,999.512,999.512,272.949,999.512
1742203191.307,800.781,794.434,-194.824,758.301
1742203191.311,-554.199,-541.992,-282.227,-633.301
1742203191.315,-1000.0,-1000.0,-22.461,-1000.0
1742203191.319,60.547,-44.434,353.516,199.219
1742203191.323,999.512,999.512,268.555,999.512
1742203191.28,276.367,252.441,418.457,346.68
1742203191.284,999.512,999.512,207.031,999.512
1742203191.288,658.691,658.203,-197.266,507.812
1742203191.292,-817.871,-839.844,-224.609,-907.715
1742203191.296,-1000.0,-983.398,127.93,-983.398
1742203191.3,450.195,524.414,506.348,460.449
1742203191.304,999.512,999.512,272.949,999.512
1742203191.307,800.781,794.434,-194.824,758.301
1742203191.311,-554.199,-541.992,-282.227,-633.301
1742203191.315,-1000.0,-1000.0,-22.461,-1000.0
1742203191.319,60.547,-44.434,353.516,199.219
1742203191.323,999.512,999.512,268.555,999.512
1742203191.325,851.074,866.211,-183.594,838.379
1742203191.329,-523.926,-525.879,-403.32,-554.688
1742203191.333,-1000.0,-1000.0,-131.836,-1000.0
1742203191.337,-7.324,-46.875,313.965,168.457
1742203191.341,999.512,999.512,241.699,999.512
1742203191.345,999.512,999.023,-136.23,999.512
1742203191.349,-130.859,-261.23,-388.184,-187.988
1742203191.352,-1000.0,-1000.0,-196.289,-1000.0
1742203191.356,68.848,0.977,234.863,253.418
1742203191.36,999.512,999.512,193.848,999.512
1742203191.364,922.852,930.176,-196.777,906.25
1742203191.368,955.078,908.691,-396.484,966.797
1742203191.325,851.074,866.211,-183.594,838.379
1742203191.329,-523.926,-525.879,-403.32,-554.688
1742203191.333,-1000.0,-1000.0,-131.836,-1000.0
1742203191.337,-7.324,-46.875,313.965,168.457
1742203191.341,999.512,999.512,241.699,999.512
1742203191.345,999.512,999.023,-136.23,999.512
1742203191.349,-130.859,-261.23,-388.184,-187.988
1742203191.352,-1000.0,-1000.0,-196.289,-1000.0
1742203191.356,68.848,0.977,234.863,253.418
1742203191.36,999.512,999.512,193.848,999.512
1742203191.364,922.852,930.176,-196.777,906.25
1742203191.368,955.078,908.691,-396.484,966.797
1742203191.37,981.934,999.512,-275.879,974.121
1742203191.374,921.387,182.617,-16.113,945.312
1742203191.378,980.469,-1000.0,34.18,931.641
1742203191.382,977.539,-962.402,-183.105,999.512
1742203191.386,-435.547,-980.957,-414.062,-148.438
1742203191.39,-1000.0,-1000.0,-219.238,-1000.0
1742203191.394,318.359,315.43,206.055,444.824
1742203191.397,999.512,999.512,207.031,999.512
1742203191.401,993.652,909.18,-172.852,999.512
1742203191.405,202.637,-232.422,-497.07,421.875
1742203191.409,-1000.0,-1000.0,-410.645,-1000.0
1742203191.413,-679.688,-686.035,28.809,-485.84
1742203191.431,766.602,768.066,257.812,888.672
1742203191.435,999.512,999.512,-66.406,999.512
1742203191.439,62.5,-372.07,-524.902,226.074
1742203191.443,-1000.0,-1000.0,-458.496,-1000.0
1742203191.447,-831.543,-792.48,-35.156,-754.395
1742203191.451,535.645,507.324,225.098,657.227
1742203191.455,999.512,999.512,-114.258,999.512
1742203191.458,700.684,515.625,-539.062,720.215
1742203191.462,-799.805,-916.992,-512.207,-781.738
1742203191.466,-962.891,-950.684,-128.418,-963.867
1742203191.47,574.219,522.461,219.727,578.613
1742203191.474,999.512,999.512,32.227,999.512
1742203191.431,766.602,768.066,257.812,888.672
1742203191.435,999.512,999.512,-66.406,999.512
1742203191.439,62.5,-372.07,-524.902,226.074
1742203191.443,-1000.0,-1000.0,-458.496,-1000.0
1742203191.447,-831.543,-792.48,-35.156,-754.395
1742203191.451,535.645,507.324,225.098,657.227
1742203191.455,999.512,999.512,-114.258,999.512
1742203191.458,700.684,515.625,-539.062,720.215
1742203191.462,-799.805,-916.992,-512.207,-781.738
1742203191.466,-962.891,-950.684,-128.418,-963.867
1742203191.47,574.219,522.461,219.727,578.613
1742203191.474,999.512,999.512,32.227,999.512
1742203191.461,831.055,825.684,-388.184,838.379
1742203191.465,-611.816,-612.305,-455.078,-628.418
1742203191.469,-1000.0,-1000.0,-111.816,-1000.0
1742203191.473,538.086,509.277,313.477,612.793
1742203191.477,999.512,999.512,125.0,999.512
1742203191.481,999.512,999.512,-254.395,999.512
1742203191.485,649.414,618.164,-357.422,464.844
1742203191.488,-976.562,-1000.0,-242.188,-983.887
1742203191.492,-177.734,-327.637,162.598,140.625
1742203191.496,999.512,969.727,167.969,999.512
1742203191.5,999.512,999.512,-192.871,999.512
1742203191.504,655.762,504.883,-297.852,596.68
1742203191.461,831.055,825.684,-388.184,838.379
1742203191.465,-611.816,-612.305,-455.078,-628.418
1742203191.469,-1000.0,-1000.0,-111.816,-1000.0
1742203191.473,538.086,509.277,313.477,612.793
1742203191.477,999.512,999.512,125.0,999.512
1742203191.481,999.512,999.512,-254.395,999.512
1742203191.485,649.414,618.164,-357.422,464.844
1742203191.488,-976.562,-1000.0,-242.188,-983.887
1742203191.492,-177.734,-327.637,162.598,140.625
1742203191.496,999.512,969.727,167.969,999.512
1742203191.5,999.512,999.512,-192.871,999.512
1742203191.504,655.762,504.883,-297.852,596.68
1742203191.521,-947.754,-1000.0,-108.398,-917.969
1742203191.525,-214.844,-290.527,272.949,80.078
1742203191.529,999.512,976.562,282.715,999.512
1742203191.533,981.445,999.512,-106.445,975.586
1742203191.537,889.16,806.152,-289.551,849.609
1742203191.541,-712.891,-788.086,-136.719,-726.074
1742203191.545,-555.664,-609.375,205.566,-205.078
1742203191.548,999.512,999.512,233.398,999.512
1742203191.552,997.559,905.762,-179.688,998.047
1742203191.556,-445.312,-645.508,-453.613,-355.469
1742203191.56,-1000.0,-1000.0,-208.496,-1000.0
1742203191.564,330.566,385.742,310.059,467.285
1742203191.521,-947.754,-1000.0,-108.398,-917.969
1742203191.525,-214.844,-290.527,272.949,80.078
1742203191.529,999.512,976.562,282.715,999.512
1742203191.533,981.445,999.512,-106.445,975.586
1742203191.537,889.16,806.152,-289.551,849.609
1742203191.541,-712.891,-788.086,-136.719,-726.074
1742203191.545,-555.664,-609.375,205.566,-205.078
1742203191.548,999.512,999.512,233.398,999.512
1742203191.552,997.559,905.762,-179.688,998.047
1742203191.556,-445.312,-645.508,-453.613,-355.469
1742203191.56,-1000.0,-1000.0,-208.496,-1000.0
1742203191.564,330.566,385.742,310.059,467.285
1742203191.58,999.512,999.512,346.68,999.512
1742203191.584,937.5,976.562,4.395,948.73
1742203191.588,934.57,734.863,-229.492,923.34
1742203191.592,-711.426,-899.902,-176.758,-708.984
1742203191.596,-736.816,-760.742,239.258,-391.602
1742203191.6,843.262,839.844,502.441,982.422
1742203191.604,999.512,999.512,125.488,999.512
1742203191.607,459.473,-90.82,-304.688,604.004
1742203191.611,-1000.0,-1000.0,-225.586,-909.18
1742203191.615,-559.57,-494.629,165.527,-209.473
1742203191.619,872.07,811.523,296.387,999.512
1742203191.623,999.512,999.512,13.184,984.375
1742203191.58,999.512,999.512,346.68,999.512
1742203191.584,937.5,976.562,4.395,948.73
1742203191.588,934.57,734.863,-229.492,923.34
1742203191.592,-711.426,-899.902,-176.758,-708.984
1742203191.596,-736.816,-760.742,239.258,-391.602
1742203191.6,843.262,839.844,502.441,982.422
1742203191.604,999.512,999.512,125.488,999.512
1742203191.607,459.473,-90.82,-304.688,604.004
1742203191.611,-1000.0,-1000.0,-225.586,-909.18
1742203191.615,-559.57,-494.629,165.527,-209.473
1742203191.619,872.07,811.523,296.387,999.512
1742203191.623,999.512,999.512,13.184,984.375
1742203191.61,863.77,630.859,-267.09,896.484
1742203191.614,-694.824,-908.203,-254.883,-703.613
1742203191.618,-834.473,-820.801,137.695,-548.34
1742203191.622,843.262,803.223,455.078,989.746
1742203191.626,995.117,981.445,206.055,977.539
1742203191.63,884.277,936.035,-112.305,922.852
1742203191.634,999.512,933.105,-154.785,979.98
1742203191.637,-387.695,-651.367,-2.93,948.242
1742203191.641,-960.449,-992.676,266.602,971.68
1742203191.645,619.629,570.312,208.496,900.391
1742203191.649,999.512,999.512,-83.008,999.512
1742203191.653,625.977,727.539,-149.902,665.527
1742203191.61,863.77,630.859,-267.09,896.484
1742203191.614,-694.824,-908.203,-254.883,-703.613
1742203191.618,-834.473,-820.801,137.695,-548.34
1742203191.622,843.262,803.223,455.078,989.746
1742203191.626,995.117,981.445,206.055,977.539
1742203191.63,884.277,936.035,-112.305,922.852
1742203191.634,999.512,933.105,-154.785,979.98
1742203191.637,-387.695,-651.367,-2.93,948.242
1742203191.641,-960.449,-992.676,266.602,971.68
1742203191.645,619.629,570.312,208.496,900.391
1742203191.649,999.512,999.512,-83.008,999.512
1742203191.653,625.977,727.539,-149.902,665.527
1742203191.61,863.77,630.859,-267.09,896.484
1742203191.614,-694.824,-908.203,-254.883,-703.613
1742203191.618,-834.473,-820.801,137.695,-548.34
1742203191.622,843.262,803.223,455.078,989.746
1742203191.626,995.117,981.445,206.055,977.539
1742203191.63,884.277,936.035,-112.305,922.852
1742203191.634,999.512,933.105,-154.785,979.98
1742203191.637,-387.695,-651.367,-2.93,948.242
1742203191.641,-960.449,-992.676,266.602,971.68
1742203191.645,619.629,570.312,208.496,900.391
1742203191.649,999.512,999.512,-83.008,999.512
1742203191.653,625.977,727.539,-149.902,665.527
1742203191.655,-914.551,-834.961,-16.602,-838.379
1742203191.659,-435.059,-616.699,284.668,0.0
1742203191.663,999.512,999.512,261.23,999.512
1742203191.667,944.336,949.707,-130.371,915.039
1742203191.671,-501.953,-563.965,-340.332,-458.008
1742203191.675,-1000.0,-1000.0,-32.227,-1000.0
1742203191.679,210.938,255.859,383.301,339.355
1742203191.682,999.512,999.512,232.91,999.512
1742203191.686,787.598,784.668,-205.078,820.312
1742203191.69,-531.738,-528.809,-405.762,-508.789
1742203191.694,-1000.0,-1000.0,-167.969,-1000.0
1742203191.698,-353.516,-380.859,243.164,-102.051
1742203191.655,-914.551,-834.961,-16.602,-838.379
1742203191.659,-435.059,-616.699,284.668,0.0
1742203191.663,999.512,999.512,261.23,999.512
1742203191.667,944.336,949.707,-130.371,915.039
1742203191.671,-501.953,-563.965,-340.332,-458.008
1742203191.675,-1000.0,-1000.0,-32.227,-1000.0
1742203191.679,210.938,255.859,383.301,339.355
1742203191.682,999.512,999.512,232.91,999.512
1742203191.686,787.598,784.668,-205.078,820.312
1742203191.69,-531.738,-528.809,-405.762,-508.789
1742203191.694,-1000.0,-1000.0,-167.969,-1000.0
1742203191.698,-353.516,-380.859,243.164,-102.051
1742203191.715,939.941,955.078,288.574,999.512
1742203191.719,981.934,924.805,-97.656,951.66
1742203191.723,-340.332,-461.914,-407.715,-328.613
1742203191.727,-1000.0,-1000.0,-215.332,-1000.0
1742203191.731,-571.289,-568.848,213.867,-383.789
1742203191.735,729.492,727.051,346.191,825.195
1742203191.739,999.512,999.512,-58.105,999.512
1742203191.742,651.367,581.055,-330.566,596.68
1742203191.746,-869.629,-907.227,-205.078,-931.152
1742203191.75,-907.715,-916.992,149.902,-785.156
1742203191.754,606.445,585.449,382.812,718.75
1742203191.758,999.512,999.512,81.055,999.512
1742203191.761,602.051,447.266,-322.754,569.336
1742203191.765,-887.207,-963.379,-277.344,-913.086
1742203191.769,-940.43,-912.598,100.098,-887.207
1742203191.773,567.871,556.641,402.344,619.141
1742203191.777,999.512,999.512,129.883,999.512
1742203191.781,833.008,829.102,-242.676,826.66
1742203191.785,-617.188,-606.445,-267.578,-647.461
1742203191.788,-1000.0,-1000.0,83.984,-1000.0
1742203191.792,479.98,425.293,437.012,543.457
1742203191.796,999.512,999.512,143.066,999.512
1742203191.8,651.855,608.887,-302.246,608.887
1742203191.804,-752.441,-782.715,-302.246,-806.641
1742203191.79,-1000.0,-1000.0,19.043,-1000.0
1742203191.794,209.473,173.34,301.27,318.848
1742203191.798,999.512,999.512,109.375,999.512
1742203191.802,811.523,814.941,-262.695,784.668
1742203191.806,-565.918,-564.941,-342.285,-624.512
1742203191.81,-1000.0,-1000.0,-25.391,-1000.0
1742203191.814,64.453,29.785,365.723,229.004
1742203191.817,999.512,999.512,304.688,999.512
1742203191.821,830.078,836.914,-153.32,820.801
1742203191.825,-576.66,-588.379,-369.141,-587.891
1742203191.829,-1000.0,-1000.0,-62.988,-1000.0
1742203191.833,74.707,126.953,342.773,195.312
1742203191.79,-1000.0,-1000.0,19.043,-1000.0
1742203191.794,209.473,173.34,301.27,318.848
1742203191.798,999.512,999.512,109.375,999.512
1742203191.802,811.523,814.941,-262.695,784.668
1742203191.806,-565.918,-564.941,-342.285,-624.512
1742203191.81,-1000.0,-1000.0,-25.391,-1000.0
1742203191.814,64.453,29.785,365.723,229.004
1742203191.817,999.512,999.512,304.688,999.512
1742203191.821,830.078,836.914,-153.32,820.801
1742203191.825,-576.66,-588.379,-369.141,-587.891
1742203191.829,-1000.0,-1000.0,-62.988,-1000.0
1742203191.833,74.707,126.953,342.773,195.312
1742203191.836,999.512,999.512,206.543,999.512
1742203191.84,837.891,816.895,-192.871,822.266
1742203191.844,-463.867,-486.328,-375.977,-483.398
1742203191.848,-1000.0,-1000.0,-163.086,-1000.0
1742203191.852,-629.395,-661.133,238.77,-448.242
1742203191.856,821.289,807.617,321.289,917.48
1742203191.86,992.676,971.191,-127.93,933.594
1742203191.863,-451.172,-504.883,-436.035,-479.98
1742203191.867,-1000.0,-1000.0,-179.199,-1000.0
1742203191.871,-766.602,-787.598,206.055,-687.988
1742203191.875,606.445,572.754,284.668,705.078
1742203191.879,999.512,999.512,5.371,999.512
1742203191.836,999.512,999.512,206.543,999.512
1742203191.84,837.891,816.895,-192.871,822.266
1742203191.844,-463.867,-486.328,-375.977,-483.398
1742203191.848,-1000.0,-1000.0,-163.086,-1000.0
1742203191.852,-629.395,-661.133,238.77,-448.242
1742203191.856,821.289,807.617,321.289,917.48
1742203191.86,992.676,971.191,-127.93,933.594
1742203191.863,-451.172,-504.883,-436.035,-479.98
1742203191.867,-1000.0,-1000.0,-179.199,-1000.0
1742203191.871,-766.602,-787.598,206.055,-687.988
1742203191.875,606.445,572.754,284.668,705.078
1742203191.879,999.512,999.512,5.371,999.512
1742203191.88,-77.148,-46.387,-269.531,-208.496
1742203191.884,-1000.0,-1000.0,-135.254,-1000.0
1742203191.888,-831.055,-834.473,255.859,-797.852
1742203191.892,500.977,506.348,397.461,537.109
1742203191.896,999.512,999.512,89.355,999.512
1742203191.9,604.004,666.992,-177.734,412.109
1742203191.904,-869.141,-797.852,-137.695,-961.914
1742203191.907,-982.422,-1000.0,163.086,-935.059
1742203191.911,493.652,437.988,426.27,530.762
1742203191.915,999.512,999.512,177.246,999.512
1742203191.919,487.793,481.934,-166.504,289.062
1742203191.923,-907.715,-898.926,-83.008,-999.512
1742203191.88,-77.148,-46.387,-269.531,-208.496
1742203191.884,-1000.0,-1000.0,-135.254,-1000.0
1742203191.888,-831.055,-834.473,255.859,-797.852
1742203191.892,500.977,506.348,397.461,537.109
1742203191.896,999.512,999.512,89.355,999.512
1742203191.9,604.004,666.992,-177.734,412.109
1742203191.904,-869.141,-797.852,-137.695,-961.914
1742203191.907,-982.422,-1000.0,163.086,-935.059
1742203191.911,493.652,437.988,426.27,530.762
1742203191.915,999.512,999.512,177.246,999.512
1742203191.919,487.793,481.934,-166.504,289.062
1742203191.923,-907.715,-898.926,-83.008,-999.512
1742203191.94,-1000.0,-1000.0,176.758,-951.66
1742203191.944,346.191,304.199,356.445,426.758
1742203191.948,999.512,999.512,137.207,999.512
1742203191.952,750.0,766.113,-197.754,646.973
1742203191.956,-718.75,-717.285,-207.52,-812.012
1742203191.96,-1000.0,-1000.0,149.414,-999.512
1742203191.964,436.035,478.027,416.016,482.91
1742203191.967,999.512,999.512,155.762,999.512
1742203191.971,724.121,631.836,-183.594,691.406
1742203191.975,-684.57,-768.066,-194.824,-738.77
1742203191.979,-1000.0,-1000.0,160.156,-1000.0
1742203191.983,229.98,219.238,478.027,325.684
1742203191.94,-1000.0,-1000.0,176.758,-951.66
1742203191.944,346.191,304.199,356.445,426.758
1742203191.948,999.512,999.512,137.207,999.512
1742203191.952,750.0,766.113,-197.754,646.973
1742203191.956,-718.75,-717.285,-207.52,-812.012
1742203191.96,-1000.0,-1000.0,149.414,-999.512
1742203191.964,436.035,478.027,416.016,482.91
1742203191.967,999.512,999.512,155.762,999.512
1742203191.971,724.121,631.836,-183.594,691.406
1742203191.975,-684.57,-768.066,-194.824,-738.77
1742203191.979,-1000.0,-1000.0,160.156,-1000.0
1742203191.983,229.98,219.238,478.027,325.684
1742203191.986,999.512,999.512,308.105,999.512
1742203191.99,785.645,786.621,-79.102,788.574
1742203191.994,-530.273,-530.762,-268.555,-546.875
1742203191.998,-1000.0,-1000.0,-4.395,-1000.0
1742203192.002,-379.395,-384.277,408.691,-187.988
1742203192.006,981.445,977.539,371.582,999.512
1742203192.01,858.398,860.84,-99.609,827.637
1742203192.013,-569.336,-568.848,-392.578,-564.941
1742203192.017,-1000.0,-1000.0,-94.727,-1000.0
1742203192.021,-704.102,-688.965,347.656,-601.074
1742203192.025,794.434,807.617,389.648,857.91
1742203192.029,921.875,918.945,-76.172,901.855
1742203191.986,999.512,999.512,308.105,999.512
1742203191.99,785.645,786.621,-79.102,788.574
1742203191.994,-530.273,-530.762,-268.555,-546.875
1742203191.998,-1000.0,-1000.0,-4.395,-1000.0
1742203192.002,-379.395,-384.277,408.691,-187.988
1742203192.006,981.445,977.539,371.582,999.512
1742203192.01,858.398,860.84,-99.609,827.637
1742203192.013,-569.336,-568.848,-392.578,-564.941
1742203192.017,-1000.0,-1000.0,-94.727,-1000.0
1742203192.021,-704.102,-688.965,347.656,-601.074
1742203192.025,794.434,807.617,389.648,857.91
1742203192.029,921.875,918.945,-76.172,901.855
1742203192.03,-606.445,-604.492,-430.176,-594.238
1742203192.034,-1000.0,-1000.0,-187.5,-1000.0
1742203192.038,-845.215,-835.449,210.938,-799.805
1742203192.042,548.34,543.457,362.305,633.789
1742203192.046,999.512,999.512,3.906,999.512
1742203192.05,-306.641,-235.84,-352.051,-423.34
1742203192.054,-1000.0,-1000.0,-206.543,-1000.0
1742203192.057,-862.793,-896.973,115.234,-862.305
1742203192.061,566.895,556.152,323.242,577.637
1742203192.065,999.512,999.512,19.531,999.512
1742203192.069,-380.859,-472.168,-383.301,-447.266
1742203192.073,-1000.0,-1000.0,-233.887,-1000.0
1742203192.03,-606.445,-604.492,-430.176,-594.238
1742203192.034,-1000.0,-1000.0,-187.5,-1000.0
1742203192.038,-845.215,-835.449,210.938,-799.805
1742203192.042,548.34,543.457,362.305,633.789
1742203192.046,999.512,999.512,3.906,999.512
1742203192.05,-306.641,-235.84,-352.051,-423.34
1742203192.054,-1000.0,-1000.0,-206.543,-1000.0
1742203192.057,-862.793,-896.973,115.234,-862.305
1742203192.061,566.895,556.152,323.242,577.637
1742203192.065,999.512,999.512,19.531,999.512
1742203192.069,-380.859,-472.168,-383.301,-447.266
1742203192.073,-1000.0,-1000.0,-233.887,-1000.0
1742203192.075,-826.66,-823.73,180.176,-834.961
1742203192.079,506.836,503.906,430.176,527.344
1742203192.083,999.512,999.512,112.305,999.512
1742203192.087,104.492,112.305,-314.453,-83.008
1742203192.091,-1000.0,-1000.0,-259.766,-1000.0
1742203192.095,-877.441,-784.668,126.953,-858.398
1742203192.099,536.621,655.762,372.07,543.945
1742203192.102,999.512,999.512,109.863,999.512
1742203192.106,129.883,67.871,-358.887,-7.324
1742203192.11,-1000.0,-1000.0,-365.723,-1000.0
1742203192.114,-859.375,-850.586,113.281,-859.375
1742203192.118,516.602,512.695,477.539,493.652
1742203192.075,-826.66,-823.73,180.176,-834.961
1742203192.079,506.836,503.906,430.176,527.344
1742203192.083,999.512,999.512,112.305,999.512
1742203192.087,104.492,112.305,-314.453,-83.008
1742203192.091,-1000.0,-1000.0,-259.766,-1000.0
1742203192.095,-877.441,-784.668,126.953,-858.398
1742203192.099,536.621,655.762,372.07,543.945
1742203192.102,999.512,999.512,109.863,999.512
1742203192.106,129.883,67.871,-358.887,-7.324
1742203192.11,-1000.0,-1000.0,-365.723,-1000.0
1742203192.114,-859.375,-850.586,113.281,-859.375
1742203192.118,516.602,512.695,477.539,493.652
1742203192.121,999.512,999.512,190.43,999.512
1742203192.125,571.777,588.867,-238.281,445.312
1742203192.129,-780.762,-784.18,-311.035,-859.375
1742203192.133,-1000.0,-1000.0,48.34,-1000.0
1742203192.137,-58.594,67.383,398.438,26.855
1742203192.141,999.512,999.512,243.164,999.512
1742203192.145,754.883,776.855,-224.121,671.875
1742203192.148,-643.066,-623.535,-421.387,-718.75
1742203192.152,-1000.0,-1000.0,-64.941,-1000.0
1742203192.156,-277.832,-51.758,312.988,-200.684
1742203192.16,999.512,999.512,188.477,999.512
1742203192.164,842.285,811.035,-185.547,811.523
1742203192.121,999.512,999.512,190.43,999.512
1742203192.125,571.777,588.867,-238.281,445.312
1742203192.129,-780.762,-784.18,-311.035,-859.375
1742203192.133,-1000.0,-1000.0,48.34,-1000.0
1742203192.137,-58.594,67.383,398.438,26.855
1742203192.141,999.512,999.512,243.164,999.512
1742203192.145,754.883,776.855,-224.121,671.875
1742203192.148,-643.066,-623.535,-421.387,-718.75
1742203192.152,-1000.0,-1000.0,-64.941,-1000.0
1742203192.156,-277.832,-51.758,312.988,-200.684
1742203192.16,999.512,999.512,188.477,999.512
1742203192.164,842.285,811.035,-185.547,811.523
1742203192.165,-561.035,-543.945,-363.281,-585.449
1742203192.169,-1000.0,-1000.0,-132.324,-1000.0
1742203192.173,-686.035,-668.945,254.395,-582.031
1742203192.177,777.344,769.531,268.066,856.934
1742203192.181,992.676,999.512,-119.141,923.828
1742203192.185,-484.863,-400.879,-324.219,-552.734
1742203192.189,-1000.0,-1000.0,-110.352,-1000.0
1742203192.192,-857.91,-866.699,179.688,-799.805
1742203192.196,576.66,582.52,234.375,658.203
1742203192.2,999.512,999.512,-133.301,999.512
1742203192.204,-450.195,-484.863,-419.434,-504.883
1742203192.208,-1000.0,-1000.0,-155.762,-1000.0
1742203192.165,-561.035,-543.945,-363.281,-585.449
1742203192.169,-1000.0,-1000.0,-132.324,-1000.0
1742203192.173,-686.035,-668.945,254.395,-582.031
1742203192.177,777.344,769.531,268.066,856.934
1742203192.181,992.676,999.512,-119.141,923.828
1742203192.185,-484.863,-400.879,-324.219,-552.734
1742203192.189,-1000.0,-1000.0,-110.352,-1000.0
1742203192.192,-857.91,-866.699,179.688,-799.805
1742203192.196,576.66,582.52,234.375,658.203
1742203192.2,999.512,999.512,-133.301,999.512
1742203192.204,-450.195,-484.863,-419.434,-504.883
1742203192.208,-1000.0,-1000.0,-155.762,-1000.0
1742203192.211,-846.68,-841.797,185.547,-805.176
1742203192.215,539.551,531.738,247.559,614.258
1742203192.219,999.512,999.512,-109.863,999.512
1742203192.223,-250.977,-175.781,-469.238,-353.027
1742203192.227,-1000.0,-1000.0,-350.098,-1000.0
1742203192.231,-812.988,-676.758,103.516,-796.875
1742203192.235,604.004,754.883,228.516,631.836
1742203192.238,999.512,999.512,-169.434,999.512
1742203192.242,-257.812,-283.203,-453.125,-334.473
1742203192.246,-1000.0,-1000.0,-253.906,-1000.0
1742203192.25,-873.047,-875.977,172.852,-865.723
1742203192.254,407.715,394.043,407.715,448.73
1742203192.211,-846.68,-841.797,185.547,-805.176
1742203192.215,539.551,531.738,247.559,614.258
1742203192.219,999.512,999.512,-109.863,999.512
1742203192.223,-250.977,-175.781,-469.238,-353.027
1742203192.227,-1000.0,-1000.0,-350.098,-1000.0
1742203192.231,-812.988,-676.758,103.516,-796.875
1742203192.235,604.004,754.883,228.516,631.836
1742203192.238,999.512,999.512,-169.434,999.512
1742203192.242,-257.812,-283.203,-453.125,-334.473
1742203192.246,-1000.0,-1000.0,-253.906,-1000.0
1742203192.25,-873.047,-875.977,172.852,-865.723
1742203192.254,407.715,394.043,407.715,448.73
1742203192.256,999.512,999.512,117.676,999.512
1742203192.26,367.676,394.531,-257.812,123.535
1742203192.264,-942.383,-933.594,-254.395,-1000.0
1742203192.268,-1000.0,-1000.0,19.043,-985.84
1742203192.272,245.605,264.16,319.824,299.316
1742203192.276,999.512,999.512,148.926,999.512
1742203192.28,595.703,620.605,-335.938,453.613
1742203192.283,-777.344,-760.254,-495.117,-869.141
1742203192.287,-1000.0,-1000.0,-174.805,-1000.0
1742203192.291,-45.898,-4.395,161.133,53.223
1742203192.295,999.512,999.512,81.543,999.512
1742203192.299,787.598,789.062,-312.988,702.637
1742203192.256,999.512,999.512,117.676,999.512
1742203192.26,367.676,394.531,-257.812,123.535
1742203192.264,-942.383,-933.594,-254.395,-1000.0
1742203192.268,-1000.0,-1000.0,19.043,-985.84
1742203192.272,245.605,264.16,319.824,299.316
1742203192.276,999.512,999.512,148.926,999.512
1742203192.28,595.703,620.605,-335.938,453.613
1742203192.283,-777.344,-760.254,-495.117,-869.141
1742203192.287,-1000.0,-1000.0,-174.805,-1000.0
1742203192.291,-45.898,-4.395,161.133,53.223
1742203192.295,999.512,999.512,81.543,999.512
1742203192.299,787.598,789.062,-312.988,702.637
1742203192.315,-575.684,-562.012,-512.207,-672.363
1742203192.319,-1000.0,-1000.0,-167.969,-1000.0
1742203192.323,-484.375,-520.996,233.887,-303.223
1742203192.327,937.012,921.387,159.18,999.512
1742203192.331,876.465,883.301,-217.285,842.285
1742203192.335,-577.637,-581.055,-400.391,-578.125
1742203192.339,-1000.0,-1000.0,-209.473,-1000.0
1742203192.342,-705.566,-720.215,154.785,-582.031
1742203192.346,793.457,780.273,195.801,866.211
1742203192.35,920.898,925.293,-176.27,896.973
1742203192.354,-597.656,-597.656,-435.547,-588.867
1742203192.358,-1000.0,-1000.0,-143.066,-1000.0
1742203192.361,-761.23,-745.605,253.906,-695.801
1742203192.365,717.773,724.609,246.582,782.227
1742203192.369,979.98,999.512,-149.414,940.43
1742203192.373,-524.902,-504.883,-405.273,-563.965
1742203192.377,-1000.0,-1000.0,-164.062,-1000.0
1742203192.381,-619.141,-379.395,300.781,-592.285
1742203192.385,851.074,971.191,376.465,868.652
1742203192.388,943.359,882.812,-67.871,920.41
1742203192.392,-534.668,-538.086,-455.566,-560.059
1742203192.396,-1000.0,-1000.0,-286.621,-1000.0
1742203192.4,-798.34,-719.238,197.266,-783.691
1742203192.404,578.125,675.781,380.859,620.605
1742203192.361,-761.23,-745.605,253.906,-695.801
1742203192.365,717.773,724.609,246.582,782.227
1742203192.369,979.98,999.512,-149.414,940.43
1742203192.373,-524.902,-504.883,-405.273,-563.965
1742203192.377,-1000.0,-1000.0,-164.062,-1000.0
1742203192.381,-619.141,-379.395,300.781,-592.285
1742203192.385,851.074,971.191,376.465,868.652
1742203192.388,943.359,882.812,-67.871,920.41
1742203192.392,-534.668,-538.086,-455.566,-560.059
1742203192.396,-1000.0,-1000.0,-286.621,-1000.0
1742203192.4,-798.34,-719.238,197.266,-783.691
1742203192.404,578.125,675.781,380.859,620.605
1742203192.405,999.512,999.512,-23.438,999.512
1742203192.409,-161.621,-206.543,-363.281,-280.273
1742203192.413,-1000.0,-1000.0,-229.004,-1000.0
1742203192.417,-824.219,-822.754,167.48,-824.219
1742203192.421,496.094,497.07,403.809,505.859
1742203192.425,999.512,999.512,148.926,999.512
1742203192.429,489.746,428.711,-256.836,282.227
1742203192.432,-954.102,-978.027,-249.512,-1000.0
1742203192.436,-917.48,-907.227,166.016,-886.23
1742203192.44,550.293,543.457,518.066,533.203
1742203192.444,999.512,999.512,204.102,999.512
1742203192.448,730.469,675.293,-230.957,651.855
1742203192.405,999.512,999.512,-23.438,999.512
1742203192.409,-161.621,-206.543,-363.281,-280.273
1742203192.413,-1000.0,-1000.0,-229.004,-1000.0
1742203192.417,-824.219,-822.754,167.48,-824.219
1742203192.421,496.094,497.07,403.809,505.859
1742203192.425,999.512,999.512,148.926,999.512
1742203192.429,489.746,428.711,-256.836,282.227
1742203192.432,-954.102,-978.027,-249.512,-1000.0
1742203192.436,-917.48,-907.227,166.016,-886.23
1742203192.44,550.293,543.457,518.066,533.203
1742203192.444,999.512,999.512,204.102,999.512
1742203192.448,730.469,675.293,-230.957,651.855
1742203192.45,-749.023,-787.598,-244.629,-822.266
1742203192.454,-1000.0,-1000.0,92.285,-972.656
1742203192.458,508.789,452.637,453.125,540.039
1742203192.462,999.512,999.512,302.246,999.512
1742203192.466,809.57,801.27,-97.168,808.594
1742203192.47,-568.359,-554.199,-166.992,-603.516
1742203192.474,-1000.0,-1000.0,158.691,-1000.0
1742203192.477,201.66,59.082,478.516,329.59
1742203192.481,999.512,999.512,392.09,999.512
1742203192.485,804.199,819.824,-30.273,800.781
1742203192.489,-552.734,-559.57,-229.492,-581.543
1742203192.493,-1000.0,-1000.0,160.645,-1000.0
1742203192.45,-749.023,-787.598,-244.629,-822.266
1742203192.454,-1000.0,-1000.0,92.285,-972.656
1742203192.458,508.789,452.637,453.125,540.039
1742203192.462,999.512,999.512,302.246,999.512
1742203192.466,809.57,801.27,-97.168,808.594
1742203192.47,-568.359,-554.199,-166.992,-603.516
1742203192.474,-1000.0,-1000.0,158.691,-1000.0
1742203192.477,201.66,59.082,478.516,329.59
1742203192.481,999.512,999.512,392.09,999.512
1742203192.485,804.199,819.824,-30.273,800.781
1742203192.489,-552.734,-559.57,-229.492,-581.543
1742203192.493,-1000.0,-1000.0,160.645,-1000.0
1742203192.495,-88.867,-122.07,514.16,109.863
1742203192.499,999.512,999.512,396.973,999.512
1742203192.503,845.215,867.676,-22.949,824.707
1742203192.507,-579.59,-610.84,-305.176,-573.73
1742203192.511,-1000.0,-1000.0,-16.113,-1000.0
1742203192.515,-12.695,234.375,487.793,25.879
1742203192.519,999.512,999.512,436.035,999.512
1742203192.522,805.176,751.953,-120.117,791.992
1742203192.526,-554.688,-570.312,-407.715,-560.059
1742203192.53,-1000.0,-1000.0,-122.559,-1000.0
1742203192.534,-862.305,-856.445,257.812,-814.941
1742203192.538,571.289,572.266,338.867,650.879
1742203192.541,999.512,999.512,-55.176,997.07
1742203192.545,-494.629,-467.285,-441.406,-564.453
1742203192.549,-1000.0,-1000.0,-286.621,-1000.0
1742203192.553,-1000.0,-1000.0,-26.855,-997.07
1742203192.557,209.473,194.336,73.73,316.895
1742203192.561,999.512,999.512,-166.504,999.512
1742203192.565,-455.566,-415.039,-642.578,-575.684
1742203192.568,-1000.0,-1000.0,-515.625,-1000.0
1742203192.572,-1000.0,-1000.0,-55.176,-1000.0
1742203192.576,-454.59,-263.672,146.973,-423.828
1742203192.58,991.699,999.512,-42.969,914.062
1742203192.584,-231.934,-146.973,-511.23,-400.391
1742203192.541,999.512,999.512,-55.176,997.07
1742203192.545,-494.629,-467.285,-441.406,-564.453
1742203192.549,-1000.0,-1000.0,-286.621,-1000.0
1742203192.553,-1000.0,-1000.0,-26.855,-997.07
1742203192.557,209.473,194.336,73.73,316.895
1742203192.561,999.512,999.512,-166.504,999.512
1742203192.565,-455.566,-415.039,-642.578,-575.684
1742203192.568,-1000.0,-1000.0,-515.625,-1000.0
1742203192.572,-1000.0,-1000.0,-55.176,-1000.0
1742203192.576,-454.59,-263.672,146.973,-423.828
1742203192.58,991.699,999.512,-42.969,914.062
1742203192.584,-231.934,-146.973,-511.23,-400.391
1742203192.585,-1000.0,-1000.0,-526.855,-1000.0
1742203192.589,-968.262,-987.793,-104.98,-989.258
1742203192.593,-952.148,-922.852,122.07,-896.484
1742203192.597,699.707,715.332,-61.035,684.082
1742203192.601,610.352,723.145,-404.297,169.434
1742203192.605,-930.664,-853.516,-412.109,-1000.0
1742203192.609,-1000.0,-1000.0,-114.258,-1000.0
1742203192.612,-377.441,-458.008,127.441,-365.723
1742203192.616,999.512,999.512,-56.152,999.512
1742203192.62,618.164,646.484,-471.191,319.336
1742203192.624,-837.891,-839.844,-566.895,-970.703
1742203192.628,-1000.0,-1000.0,-257.812,-1000.0
1742203192.585,-1000.0,-1000.0,-526.855,-1000.0
1742203192.589,-968.262,-987.793,-104.98,-989.258
1742203192.593,-952.148,-922.852,122.07,-896.484
1742203192.597,699.707,715.332,-61.035,684.082
1742203192.601,610.352,723.145,-404.297,169.434
1742203192.605,-930.664,-853.516,-412.109,-1000.0
1742203192.609,-1000.0,-1000.0,-114.258,-1000.0
1742203192.612,-377.441,-458.008,127.441,-365.723
1742203192.616,999.512,999.512,-56.152,999.512
1742203192.62,618.164,646.484,-471.191,319.336
1742203192.624,-837.891,-839.844,-566.895,-970.703
1742203192.628,-1000.0,-1000.0,-257.812,-1000.0
1742203192.633,-297.363,-262.207,82.031,-271.484
1742203192.637,999.512,999.512,-34.18,999.512
1742203192.641,824.219,841.797,-465.82,683.594
1742203192.645,-700.684,-693.359,-582.52,-809.082
1742203192.649,-1000.0,-1000.0,-268.066,-1000.0
1742203192.653,216.309,301.27,165.039,159.18
1742203192.657,999.512,999.512,36.621,999.512
1742203192.66,765.137,748.047,-512.695,695.312
1742203192.664,-538.086,-552.734,-726.562,-630.859
1742203192.668,-1000.0,-1000.0,-435.059,-1000.0
1742203192.672,-653.32,-591.309,-27.344,-645.508
1742203192.676,839.844,878.418,-43.945,844.238
1742203192.633,-297.363,-262.207,82.031,-271.484
1742203192.637,999.512,999.512,-34.18,999.512
1742203192.641,824.219,841.797,-465.82,683.594
1742203192.645,-700.684,-693.359,-582.52,-809.082
1742203192.649,-1000.0,-1000.0,-268.066,-1000.0
1742203192.653,216.309,301.27,165.039,159.18
1742203192.657,999.512,999.512,36.621,999.512
1742203192.66,765.137,748.047,-512.695,695.312
1742203192.664,-538.086,-552.734,-726.562,-630.859
1742203192.668,-1000.0,-1000.0,-435.059,-1000.0
1742203192.672,-653.32,-591.309,-27.344,-645.508
1742203192.676,839.844,878.418,-43.945,844.238
1742203192.69,910.156,897.949,-489.258,888.184
1742203192.694,-600.098,-591.309,-696.777,-623.535
1742203192.698,-1000.0,-1000.0,-382.812,-1000.0
1742203192.702,-836.426,-782.227,56.641,-828.613
1742203192.706,626.465,667.48,120.605,653.809
1742203192.71,999.512,999.512,-239.258,958.984
1742203192.714,-535.645,-459.961,-554.688,-599.121
1742203192.717,-1000.0,-1000.0,-406.738,-1000.0
1742203192.721,-856.445,-857.422,20.508,-864.258
1742203192.725,560.547,563.477,164.062,587.402
1742203192.729,999.512,999.512,-237.793,999.512
1742203192.733,-396.484,-395.508,-548.34,-524.414
1742203192.69,910.156,897.949,-489.258,888.184
1742203192.694,-600.098,-591.309,-696.777,-623.535
1742203192.698,-1000.0,-1000.0,-382.812,-1000.0
1742203192.702,-836.426,-782.227,56.641,-828.613
1742203192.706,626.465,667.48,120.605,653.809
1742203192.71,999.512,999.512,-239.258,958.984
1742203192.714,-535.645,-459.961,-554.688,-599.121
1742203192.717,-1000.0,-1000.0,-406.738,-1000.0
1742203192.721,-856.445,-857.422,20.508,-864.258
1742203192.725,560.547,563.477,164.062,587.402
1742203192.729,999.512,999.512,-237.793,999.512
1742203192.733,-396.484,-395.508,-548.34,-524.414
1742203192.735,-1000.0,-1000.0,-330.078,-1000.0
1742203192.739,-846.68,-841.797,67.383,-855.957
1742203192.743,538.574,531.25,219.238,560.059
1742203192.747,999.512,999.512,-115.723,999.512
1742203192.751,-227.051,-144.531,-504.395,-380.859
1742203192.755,-1000.0,-1000.0,-386.719,-1000.0
1742203192.759,-851.562,-677.246,4.395,-849.121
1742203192.762,559.082,755.859,151.367,577.148
1742203192.766,999.512,999.512,-126.953,999.512
1742203192.77,-250.0,-263.184,-480.957,-369.629
1742203192.774,-1000.0,-1000.0,-408.691,-1000.0
1742203192.778,-823.73,-808.594,53.711,-840.332
1742203192.735,-1000.0,-1000.0,-330.078,-1000.0
1742203192.739,-846.68,-841.797,67.383,-855.957
1742203192.743,538.574,531.25,219.238,560.059
1742203192.747,999.512,999.512,-115.723,999.512
1742203192.751,-227.051,-144.531,-504.395,-380.859
1742203192.755,-1000.0,-1000.0,-386.719,-1000.0
1742203192.759,-851.562,-677.246,4.395,-849.121
1742203192.762,559.082,755.859,151.367,577.148
1742203192.766,999.512,999.512,-126.953,999.512
1742203192.77,-250.0,-263.184,-480.957,-369.629
1742203192.774,-1000.0,-1000.0,-408.691,-1000.0
1742203192.778,-823.73,-808.594,53.711,-840.332
1742203192.81,500.488,522.949,311.523,503.418
1742203192.814,999.512,999.512,28.809,999.512
1742203192.818,276.367,239.746,-364.258,35.156
1742203192.822,-1000.0,-1000.0,-401.855,-1000.0
1742203192.826,-979.98,-920.898,-62.988,-943.848
1742203192.83,367.188,456.543,297.852,351.074
1742203192.834,999.512,999.512,108.398,999.512
1742203192.837,638.672,604.98,-382.324,572.754
1742203192.841,-699.707,-720.703,-519.043,-773.438
1742203192.845,-1000.0,-1000.0,-218.75,-1000.0
1742203192.849,-256.836,-301.27,137.207,-79.102
1742203192.853,999.512,999.512,80.078,999.512
1742203192.81,500.488,522.949,311.523,503.418
1742203192.814,999.512,999.512,28.809,999.512
1742203192.818,276.367,239.746,-364.258,35.156
1742203192.822,-1000.0,-1000.0,-401.855,-1000.0
1742203192.826,-979.98,-920.898,-62.988,-943.848
1742203192.83,367.188,456.543,297.852,351.074
1742203192.834,999.512,999.512,108.398,999.512
1742203192.837,638.672,604.98,-382.324,572.754
1742203192.841,-699.707,-720.703,-519.043,-773.438
1742203192.845,-1000.0,-1000.0,-218.75,-1000.0
1742203192.849,-256.836,-301.27,137.207,-79.102
1742203192.853,999.512,999.512,80.078,999.512
1742203192.826,846.68,856.445,-329.59,796.875
1742203192.83,-562.5,-568.359,-523.926,-604.004
1742203192.834,-1000.0,-1000.0,-272.949,-1000.0
1742203192.838,-420.41,-368.164,79.59,-261.23
1742203192.842,950.195,953.613,17.09,999.512
1742203192.846,903.32,935.059,-339.355,860.352
1742203192.85,-520.508,-451.172,-578.125,-538.086
1742203192.853,-1000.0,-1000.0,-431.152,-1000.0
1742203192.857,-778.809,-794.434,-80.078,-673.34
1742203192.861,676.27,636.23,-24.902,786.621
1742203192.865,999.512,999.512,-317.383,955.566
1742203192.869,-458.984,-373.047,-554.688,-538.086
1742203192.826,846.68,856.445,-329.59,796.875
1742203192.83,-562.5,-568.359,-523.926,-604.004
1742203192.834,-1000.0,-1000.0,-272.949,-1000.0
1742203192.838,-420.41,-368.164,79.59,-261.23
1742203192.842,950.195,953.613,17.09,999.512
1742203192.846,903.32,935.059,-339.355,860.352
1742203192.85,-520.508,-451.172,-578.125,-538.086
1742203192.853,-1000.0,-1000.0,-431.152,-1000.0
1742203192.857,-778.809,-794.434,-80.078,-673.34
1742203192.861,676.27,636.23,-24.902,786.621
1742203192.865,999.512,999.512,-317.383,955.566
1742203192.869,-458.984,-373.047,-554.688,-538.086
1742203192.871,-1000.0,-1000.0,-416.992,-1000.0
1742203192.875,-842.285,-840.332,-16.113,-801.758
1742203192.879,532.227,535.645,142.09,614.258
1742203192.883,999.512,999.512,-97.656,999.512
1742203192.887,-181.152,-146.484,-320.312,-338.379
1742203192.891,-1000.0,-1000.0,-114.258,-1000.0
1742203192.895,-689.941,-556.152,297.363,-635.742
1742203192.898,729.492,853.027,363.77,762.695
1742203192.902,999.512,999.512,-12.695,999.512
1742203192.906,-141.113,-289.062,-292.969,-187.012
1742203192.91,-1000.0,-1000.0,-178.223,-1000.0
1742203192.914,-835.449,-832.031,174.316,-814.453
1742203192.916,507.812,514.16,402.344,541.016
1742203192.92,999.512,999.512,104.492,999.512
1742203192.924,284.18,95.703,-298.34,196.289
1742203192.928,-1000.0,-1000.0,-219.727,-1000.0
1742203192.932,-882.812,-855.957,248.535,-863.77
1742203192.936,530.762,518.066,595.215,538.086
1742203192.94,999.512,999.512,234.375,999.512
1742203192.943,632.812,645.02,-265.625,540.527
1742203192.947,-733.887,-716.797,-260.254,-812.988
1742203192.951,-1000.0,-1000.0,111.328,-1000.0
1742203192.955,-10.254,-55.176,479.98,122.559
1742203192.959,999.512,999.512,347.168,999.512
1742203192.916,507.812,514.16,402.344,541.016
1742203192.92,999.512,999.512,104.492,999.512
1742203192.924,284.18,95.703,-298.34,196.289
1742203192.928,-1000.0,-1000.0,-219.727,-1000.0
1742203192.932,-882.812,-855.957,248.535,-863.77
1742203192.936,530.762,518.066,595.215,538.086
1742203192.94,999.512,999.512,234.375,999.512
1742203192.943,632.812,645.02,-265.625,540.527
1742203192.947,-733.887,-716.797,-260.254,-812.988
1742203192.951,-1000.0,-1000.0,111.328,-1000.0
1742203192.955,-10.254,-55.176,479.98,122.559
1742203192.959,999.512,999.512,347.168,999.512
1742203192.96,591.309,602.539,-186.523,450.684
1742203192.964,-788.086,-795.898,-332.52,-855.957
1742203192.968,-1000.0,-1000.0,76.172,-1000.0
1742203192.972,-338.379,-260.254,436.035,-236.816
1742203192.976,999.512,999.512,297.363,999.512
1742203192.98,795.41,827.148,-109.375,650.879
1742203192.984,-634.277,-575.684,-347.656,-749.023
1742203192.987,-1000.0,-1000.0,-9.277,-1000.0
1742203192.991,-723.145,-718.75,322.754,-662.109
1742203192.995,777.832,782.227,205.566,832.031
1742203192.999,927.246,925.293,-134.277,875.488
1742203193.003,-592.285,-597.656,-406.738,-646.973
1742203192.96,591.309,602.539,-186.523,450.684
1742203192.964,-788.086,-795.898,-332.52,-855.957
1742203192.968,-1000.0,-1000.0,76.172,-1000.0
1742203192.972,-338.379,-260.254,436.035,-236.816
1742203192.976,999.512,999.512,297.363,999.512
1742203192.98,795.41,827.148,-109.375,650.879
1742203192.984,-634.277,-575.684,-347.656,-749.023
1742203192.987,-1000.0,-1000.0,-9.277,-1000.0
1742203192.991,-723.145,-718.75,322.754,-662.109
1742203192.995,777.832,782.227,205.566,832.031
1742203192.999,927.246,925.293,-134.277,875.488
1742203193.003,-592.285,-597.656,-406.738,-646.973
1742203193.005,-1000.0,-1000.0,-231.934,-1000.0
1742203193.009,-555.176,-530.273,210.449,-443.848
1742203193.013,889.16,899.414,317.383,936.523
1742203193.017,931.152,924.805,-113.77,895.02
1742203193.021,-518.066,-520.508,-538.574,-544.434
1742203193.025,-1000.0,-1000.0,-380.371,-1000.0
1742203193.029,-645.996,-625.977,-41.504,-539.062
1742203193.032,723.633,747.559,-37.598,802.246
1742203193.036,999.512,999.512,-350.586,999.512
1742203193.04,-42.969,-82.52,-611.328,-118.652
1742203193.044,-1000.0,-1000.0,-430.176,-1000.0
1742203193.048,-648.926,-675.781,54.688,-465.332
1742203193.005,-1000.0,-1000.0,-231.934,-1000.0
1742203193.009,-555.176,-530.273,210.449,-443.848
1742203193.013,889.16,899.414,317.383,936.523
1742203193.017,931.152,924.805,-113.77,895.02
1742203193.021,-518.066,-520.508,-538.574,-544.434
1742203193.025,-1000.0,-1000.0,-380.371,-1000.0
1742203193.029,-645.996,-625.977,-41.504,-539.062
1742203193.032,723.633,747.559,-37.598,802.246
1742203193.036,999.512,999.512,-350.586,999.512
1742203193.04,-42.969,-82.52,-611.328,-118.652
1742203193.044,-1000.0,-1000.0,-430.176,-1000.0
1742203193.048,-648.926,-675.781,54.688,-465.332
1742203193.065,787.109,807.617,226.562,868.164
1742203193.069,999.512,999.512,-137.695,999.512
1742203193.073,-122.559,-366.699,-483.398,-82.031
1742203193.077,-1000.0,-1000.0,-362.793,-1000.0
1742203193.081,-753.906,-769.043,47.363,-619.141
1742203193.085,631.348,645.996,274.902,740.723
1742203193.089,999.512,999.512,-19.043,999.512
1742203193.092,136.23,-234.375,-420.41,220.215
1742203193.096,-1000.0,-1000.0,-351.562,-1000.0
1742203193.1,-851.074,-810.059,71.777,-764.16
1742203193.104,540.527,505.371,286.133,655.273
1742203193.108,999.512,999.512,-9.766,999.512
1742203193.065,787.109,807.617,226.562,868.164
1742203193.069,999.512,999.512,-137.695,999.512
1742203193.073,-122.559,-366.699,-483.398,-82.031
1742203193.077,-1000.0,-1000.0,-362.793,-1000.0
1742203193.081,-753.906,-769.043,47.363,-619.141
1742203193.085,631.348,645.996,274.902,740.723
1742203193.089,999.512,999.512,-19.043,999.512
1742203193.092,136.23,-234.375,-420.41,220.215
1742203193.096,-1000.0,-1000.0,-351.562,-1000.0
1742203193.1,-851.074,-810.059,71.777,-764.16
1742203193.104,540.527,505.371,286.133,655.273
1742203193.108,999.512,999.512,-9.766,999.512
1742203193.11,808.594,705.078,-373.047,801.758
1742203193.114,-676.758,-785.645,-373.535,-700.684
1742203193.118,-987.305,-964.355,72.754,-946.777
1742203193.122,579.59,574.707,362.305,623.535
1742203193.126,999.512,999.512,57.617,999.512
1742203193.13,821.777,820.312,-229.004,833.496
1742203193.134,-591.309,-585.938,-333.496,-620.605
1742203193.137,-1000.0,-1000.0,-87.402,-1000.0
1742203193.141,361.328,341.797,268.555,501.953
1742203193.145,999.512,999.512,73.242,999.512
1742203193.149,844.727,889.16,-266.602,854.492
1742203193.153,-487.305,-389.648,-346.191,-513.672
1742203193.11,808.594,705.078,-373.047,801.758
1742203193.114,-676.758,-785.645,-373.535,-700.684
1742203193.118,-987.305,-964.355,72.754,-946.777
1742203193.122,579.59,574.707,362.305,623.535
1742203193.126,999.512,999.512,57.617,999.512
1742203193.13,821.777,820.312,-229.004,833.496
1742203193.134,-591.309,-585.938,-333.496,-620.605
1742203193.137,-1000.0,-1000.0,-87.402,-1000.0
1742203193.141,361.328,341.797,268.555,501.953
1742203193.145,999.512,999.512,73.242,999.512
1742203193.149,844.727,889.16,-266.602,854.492
1742203193.153,-487.305,-389.648,-346.191,-513.672
1742203193.155,-1000.0,-1000.0,-116.699,-1000.0
1742203193.159,34.18,-77.637,233.398,255.859
1742203193.163,999.512,999.512,161.133,999.512
1742203193.167,862.305,886.719,-196.289,845.215
1742203193.171,-524.902,-538.574,-402.832,-540.527
1742203193.175,-1000.0,-1000.0,-110.84,-1000.0
1742203193.179,20.508,107.422,326.172,168.457
1742203193.182,999.512,999.512,206.543,999.512
1742203193.186,799.805,773.438,-243.164,792.48
1742203193.19,-537.109,-552.734,-456.055,-533.691
1742203193.194,-1000.0,-1000.0,-203.125,-1000.0
1742203193.198,-641.113,-653.32,160.156,-470.703
1742203193.155,-1000.0,-1000.0,-116.699,-1000.0
1742203193.159,34.18,-77.637,233.398,255.859
1742203193.163,999.512,999.512,161.133,999.512
1742203193.167,862.305,886.719,-196.289,845.215
1742203193.171,-524.902,-538.574,-402.832,-540.527
1742203193.175,-1000.0,-1000.0,-110.84,-1000.0
1742203193.179,20.508,107.422,326.172,168.457
1742203193.182,999.512,999.512,206.543,999.512
1742203193.186,799.805,773.438,-243.164,792.48
1742203193.19,-537.109,-552.734,-456.055,-533.691
1742203193.194,-1000.0,-1000.0,-203.125,-1000.0
1742203193.198,-641.113,-653.32,160.156,-470.703
1742203193.2,814.941,823.73,190.918,906.738
1742203193.204,985.352,947.266,-154.297,935.059
1742203193.208,-467.773,-538.086,-456.543,-485.352
1742203193.212,-1000.0,-1000.0,-229.492,-1000.0
1742203193.216,-762.695,-753.418,206.543,-679.199
1742203193.22,667.969,689.941,372.07,753.418
1742203193.224,999.512,999.512,5.859,999.512
1742203193.227,-353.516,-408.203,-411.621,-399.902
1742203193.231,-1000.0,-1000.0,-302.734,-1000.0
1742203193.235,-829.102,-834.473,91.797,-806.152
1742203193.239,510.742,520.02,292.48,559.082
1742203193.243,999.512,999.512,-15.625,999.512
1742203193.2,814.941,823.73,190.918,906.738
1742203193.204,985.352,947.266,-154.297,935.059
1742203193.208,-467.773,-538.086,-456.543,-485.352
1742203193.212,-1000.0,-1000.0,-229.492,-1000.0
1742203193.216,-762.695,-753.418,206.543,-679.199
1742203193.22,667.969,689.941,372.07,753.418
1742203193.224,999.512,999.512,5.859,999.512
1742203193.227,-353.516,-408.203,-411.621,-399.902
1742203193.231,-1000.0,-1000.0,-302.734,-1000.0
1742203193.235,-829.102,-834.473,91.797,-806.152
1742203193.239,510.742,520.02,292.48,559.082
1742203193.243,999.512,999.512,-15.625,999.512
1742203193.245,71.777,-40.527,-411.621,-52.246
1742203193.249,-1000.0,-1000.0,-322.266,-1000.0
1742203193.253,-851.562,-837.402,68.359,-823.73
1742203193.257,524.902,520.02,340.82,529.297
1742203193.261,999.512,999.512,90.82,999.512
1742203193.265,814.941,836.914,-245.605,701.66
1742203193.269,-664.551,-625.488,-285.645,-774.902
1742203193.272,-995.117,-1000.0,58.105,-963.867
1742203193.276,555.664,520.02,396.973,561.035
1742203193.28,999.512,999.512,194.824,999.512
1742203193.284,671.875,592.773,-243.652,626.465
1742203193.288,-781.738,-834.473,-339.844,-833.496
1742203193.245,71.777,-40.527,-411.621,-52.246
1742203193.249,-1000.0,-1000.0,-322.266,-1000.0
1742203193.253,-851.562,-837.402,68.359,-823.73
1742203193.257,524.902,520.02,340.82,529.297
1742203193.261,999.512,999.512,90.82,999.512
1742203193.265,814.941,836.914,-245.605,701.66
1742203193.269,-664.551,-625.488,-285.645,-774.902
1742203193.272,-995.117,-1000.0,58.105,-963.867
1742203193.276,555.664,520.02,396.973,561.035
1742203193.28,999.512,999.512,194.824,999.512
1742203193.284,671.875,592.773,-243.652,626.465
1742203193.288,-781.738,-834.473,-339.844,-833.496
1742203193.293,-1000.0,-1000.0,10.254,-1000.0
1742203193.297,408.691,371.094,367.676,479.004
1742203193.301,999.512,999.512,197.754,999.512
1742203193.305,803.223,801.758,-312.012,770.02
1742203193.309,-557.617,-565.43,-507.324,-630.371
1742203193.313,-1000.0,-1000.0,-163.574,-1000.0
1742203193.317,79.59,89.355,101.074,238.281
1742203193.32,999.512,999.512,-96.191,999.512
1742203193.324,830.566,835.938,-432.617,808.105
1742203193.328,-577.637,-590.82,-611.328,-597.656
1742203193.332,-1000.0,-1000.0,-278.809,-1000.0
1742203193.336,120.605,205.078,78.125,192.383
1742203193.293,-1000.0,-1000.0,10.254,-1000.0
1742203193.297,408.691,371.094,367.676,479.004
1742203193.301,999.512,999.512,197.754,999.512
1742203193.305,803.223,801.758,-312.012,770.02
1742203193.309,-557.617,-565.43,-507.324,-630.371
1742203193.313,-1000.0,-1000.0,-163.574,-1000.0
1742203193.317,79.59,89.355,101.074,238.281
1742203193.32,999.512,999.512,-96.191,999.512
1742203193.324,830.566,835.938,-432.617,808.105
1742203193.328,-577.637,-590.82,-611.328,-597.656
1742203193.332,-1000.0,-1000.0,-278.809,-1000.0
1742203193.336,120.605,205.078,78.125,192.383
1742203193.336,999.512,999.512,-91.797,999.512
1742203193.34,788.086,783.691,-411.133,793.945
1742203193.344,-530.273,-525.879,-630.859,-538.574
1742203193.348,-1000.0,-1000.0,-380.371,-1000.0
1742203193.352,-501.953,-494.141,62.988,-312.012
1742203193.356,891.602,904.785,111.328,972.168
1742203193.36,975.586,951.172,-263.184,918.945
1742203193.363,-419.434,-460.938,-606.445,-460.938
1742203193.367,-1000.0,-1000.0,-394.043,-1000.0
1742203193.371,-643.066,-657.227,36.133,-509.766
1742203193.375,710.938,703.613,71.777,812.5
1742203193.379,999.512,999.512,-201.172,999.512
1742203193.336,999.512,999.512,-91.797,999.512
1742203193.34,788.086,783.691,-411.133,793.945
1742203193.344,-530.273,-525.879,-630.859,-538.574
1742203193.348,-1000.0,-1000.0,-380.371,-1000.0
1742203193.352,-501.953,-494.141,62.988,-312.012
1742203193.356,891.602,904.785,111.328,972.168
1742203193.36,975.586,951.172,-263.184,918.945
1742203193.363,-419.434,-460.938,-606.445,-460.938
1742203193.367,-1000.0,-1000.0,-394.043,-1000.0
1742203193.371,-643.066,-657.227,36.133,-509.766
1742203193.375,710.938,703.613,71.777,812.5
1742203193.379,999.512,999.512,-201.172,999.512
1742203193.336,999.512,999.512,-91.797,999.512
1742203193.34,788.086,783.691,-411.133,793.945
1742203193.344,-530.273,-525.879,-630.859,-538.574
1742203193.348,-1000.0,-1000.0,-380.371,-1000.0
1742203193.352,-501.953,-494.141,62.988,-312.012
1742203193.356,891.602,904.785,111.328,972.168
1742203193.36,975.586,951.172,-263.184,918.945
1742203193.363,-419.434,-460.938,-606.445,-460.938
1742203193.367,-1000.0,-1000.0,-394.043,-1000.0
1742203193.371,-643.066,-657.227,36.133,-509.766
1742203193.375,710.938,703.613,71.777,812.5
1742203193.379,999.512,999.512,-201.172,999.512
1742203193.381,89.844,39.062,-454.59,-69.336
1742203193.385,-1000.0,-1000.0,-367.188,-1000.0
1742203193.389,-749.023,-742.676,44.922,-630.859
1742203193.393,643.555,642.09,170.898,715.332
1742203193.397,999.512,999.512,-111.328,999.512
1742203193.401,749.512,776.855,-323.242,619.629
1742203193.405,-750.977,-715.82,-372.559,-858.398
1742203193.408,-976.562,-1000.0,-31.738,-919.434
1742203193.412,562.988,598.633,325.684,598.145
1742203193.416,999.512,999.512,113.281,999.512
1742203193.42,478.027,20.996,-195.801,420.41
1742203193.424,-959.473,-1000.0,-113.281,-983.398
1742203193.381,89.844,39.062,-454.59,-69.336
1742203193.385,-1000.0,-1000.0,-367.188,-1000.0
1742203193.389,-749.023,-742.676,44.922,-630.859
1742203193.393,643.555,642.09,170.898,715.332
1742203193.397,999.512,999.512,-111.328,999.512
1742203193.401,749.512,776.855,-323.242,619.629
1742203193.405,-750.977,-715.82,-372.559,-858.398
1742203193.408,-976.562,-1000.0,-31.738,-919.434
1742203193.412,562.988,598.633,325.684,598.145
1742203193.416,999.512,999.512,113.281,999.512
1742203193.42,478.027,20.996,-195.801,420.41
1742203193.424,-959.473,-1000.0,-113.281,-983.398
1742203193.44,-916.992,-848.145,222.656,-879.883
1742203193.444,558.594,522.949,446.289,584.473
1742203193.448,999.512,999.512,197.754,999.512
1742203193.452,840.332,814.453,-157.227,804.688
1742203193.456,-635.742,-666.992,-232.91,-681.641
1742203193.46,-993.164,-1000.0,174.316,-979.492
1742203193.464,565.918,578.125,513.184,573.73
1742203193.467,999.512,999.512,231.445,999.512
1742203193.471,613.281,280.273,-202.148,626.465
1742203193.475,-832.52,-990.234,-288.086,-837.891
1742203193.479,-1000.0,-986.328,58.105,-999.023
1742203193.483,402.832,374.023,424.316,483.398
1742203193.44,-916.992,-848.145,222.656,-879.883
1742203193.444,558.594,522.949,446.289,584.473
1742203193.448,999.512,999.512,197.754,999.512
1742203193.452,840.332,814.453,-157.227,804.688
1742203193.456,-635.742,-666.992,-232.91,-681.641
1742203193.46,-993.164,-1000.0,174.316,-979.492
1742203193.464,565.918,578.125,513.184,573.73
1742203193.467,999.512,999.512,231.445,999.512
1742203193.471,613.281,280.273,-202.148,626.465
1742203193.475,-832.52,-990.234,-288.086,-837.891
1742203193.479,-1000.0,-986.328,58.105,-999.023
1742203193.483,402.832,374.023,424.316,483.398
1742203193.951,-783.691,-781.25,-314.941,-874.023
1742203193.955,-1000.0,-1000.0,-17.578,-982.91
1742203193.959,409.668,367.188,281.25,476.074
1742203193.963,999.512,999.512,112.305,999.512
1742203193.967,745.117,730.957,-303.711,688.965
1742203193.971,-685.059,-695.801,-363.77,-756.348
1742203193.975,-1000.0,-1000.0,-41.504,-1000.0
1742203193.978,315.918,285.645,294.922,399.414
1742203193.982,999.512,999.512,188.965,999.512
1742203193.986,796.875,790.527,-237.793,775.879
1742203193.99,-546.875,-555.176,-345.215,-603.027
1742203193.994,-1000.0,-1000.0,-7.812,-1000.0
1742203193.486,999.512,999.512,261.23,999.512
1742203193.49,803.711,806.641,-175.781,801.758
1742203193.494,-559.082,-562.5,-346.191,-592.773
1742203193.498,-1000.0,-1000.0,24.414,-1000.0
1742203193.502,90.82,118.164,413.574,239.258
1742203193.506,999.512,999.512,332.52,999.512
1742203193.51,793.945,791.016,-68.848,793.457
1742203193.513,-531.738,-529.785,-340.82,-537.598
1742203193.517,-1000.0,-1000.0,-87.891,-1000.0
1742203193.521,-542.969,-585.449,264.16,-312.5
1742203193.525,903.809,880.859,295.41,989.746
1742203193.529,908.203,907.715,-43.457,868.652
1742203193.486,999.512,999.512,261.23,999.512
1742203193.49,803.711,806.641,-175.781,801.758
1742203193.494,-559.082,-562.5,-346.191,-592.773
1742203193.498,-1000.0,-1000.0,24.414,-1000.0
1742203193.502,90.82,118.164,413.574,239.258
1742203193.506,999.512,999.512,332.52,999.512
1742203193.51,793.945,791.016,-68.848,793.457
1742203193.513,-531.738,-529.785,-340.82,-537.598
1742203193.517,-1000.0,-1000.0,-87.891,-1000.0
1742203193.521,-542.969,-585.449,264.16,-312.5
1742203193.525,903.809,880.859,295.41,989.746
1742203193.529,908.203,907.715,-43.457,868.652
1742203193.545,-550.293,-569.824,-384.277,-541.016
1742203193.549,-1000.0,-1000.0,-173.828,-1000.0
1742203193.553,-691.406,-703.613,251.465,-599.609
1742203193.557,708.008,675.293,319.336,800.293
1742203193.561,901.367,978.516,-53.223,828.125
1742203193.565,-338.867,-194.336,-304.199,-447.266
1742203193.569,-1000.0,-1000.0,-158.203,-1000.0
1742203193.572,-875.977,-892.09,225.586,-832.031
1742203193.576,563.965,584.961,390.625,625.488
1742203193.58,999.512,999.512,59.082,999.512
1742203193.584,-320.801,-394.043,-278.809,-385.254
1742203193.588,-1000.0,-1000.0,-129.883,-1000.0
1742203193.575,-828.125,-822.266,266.113,-826.172
1742203193.579,508.301,501.953,438.477,540.039
1742203193.583,999.512,999.512,87.891,999.512
1742203193.587,123.047,188.477,-292.48,-63.477
1742203193.591,-1000.0,-1000.0,-261.719,-1000.0
1742203193.595,-871.582,-774.902,104.492,-851.562
1742203193.599,526.367,654.297,270.508,540.039
1742203193.602,999.512,999.512,-57.129,999.512
1742203193.606,295.41,294.922,-443.359,108.398
1742203193.61,-1000.0,-1000.0,-471.191,-1000.0
1742203193.614,-885.254,-876.953,-82.52,-862.305
1742203193.618,529.297,540.039,208.008,518.555
1742203193.622,999.512,999.512,-24.902,999.512
1742203193.626,599.609,557.129,-383.301,518.555
1742203193.63,-821.777,-845.703,-434.082,-881.836
1742203193.634,-1000.0,-1000.0,-15.625,-1000.0
1742203193.638,311.035,293.457,345.703,381.836
1742203193.642,999.512,999.512,198.242,999.512
1742203193.646,803.223,798.34,-205.078,792.48
1742203193.649,-556.641,-547.852,-426.27,-596.191
1742203193.653,-1000.0,-1000.0,-99.609,-1000.0
1742203193.657,29.785,-76.66,321.777,172.852
1742203193.661,999.512,999.512,190.918,999.512
1742203193.665,801.758,816.406,-215.82,795.41
1742203193.665,-536.621,-543.945,-420.41,-545.898
1742203193.669,-1000.0,-1000.0,-212.891,-1000.0
1742203193.673,-531.25,-555.664,128.418,-325.195
1742203193.677,905.273,887.695,195.312,986.816
1742203193.681,915.527,930.664,-155.273,865.723
1742203193.685,-543.945,-533.691,-406.738,-550.293
1742203193.689,-1000.0,-1000.0,-261.23,-1000.0
1742203193.692,-826.66,-853.027,-20.996,-723.145
1742203193.696,640.137,613.77,2.93,749.512
1742203193.7,999.512,993.652,-308.105,956.543
1742203193.704,-535.645,-556.641,-558.105,-559.57
1742203193.708,-1000.0,-1000.0,-387.695,-1000.0
1742203193.726,-848.145,-847.656,-175.781,-824.707
1742203193.73,542.48,540.527,-189.453,602.051
1742203193.734,999.512,999.512,-518.555,999.512
1742203193.738,-279.785,-278.809,-847.168,-391.602
1742203193.742,-1000.0,-1000.0,-687.988,-1000.0
1742203193.746,-674.316,-414.551,-208.008,-648.926
1742203193.75,772.949,954.102,-27.832,790.527
1742203193.753,999.512,918.457,-298.828,999.512
1742203193.757,-352.051,-500.977,-509.766,-389.648
1742203193.761,-1000.0,-1000.0,-290.039,-1000.0
1742203193.765,-817.383,-812.988,112.793,-826.172
1742203193.769,494.629,489.258,285.156,516.113
1742203193.726,-848.145,-847.656,-175.781,-824.707
1742203193.73,542.48,540.527,-189.453,602.051
1742203193.734,999.512,999.512,-518.555,999.512
1742203193.738,-279.785,-278.809,-847.168,-391.602
1742203193.742,-1000.0,-1000.0,-687.988,-1000.0
1742203193.746,-674.316,-414.551,-208.008,-648.926
1742203193.75,772.949,954.102,-27.832,790.527
1742203193.753,999.512,918.457,-298.828,999.512
1742203193.757,-352.051,-500.977,-509.766,-389.648
1742203193.761,-1000.0,-1000.0,-290.039,-1000.0
1742203193.765,-817.383,-812.988,112.793,-826.172
1742203193.769,494.629,489.258,285.156,516.113
1742203193.77,999.512,999.512,-4.883,999.512
1742203193.774,268.555,270.02,-439.941,55.176
1742203193.778,-988.77,-994.629,-527.344,-1000.0
1742203193.782,-1000.0,-1000.0,-235.84,-958.008
1742203193.786,285.156,321.289,86.914,353.027
1742203193.79,999.512,999.512,14.648,999.512
1742203193.794,533.691,474.121,-332.031,329.59
1742203193.797,-875.977,-895.508,-244.629,-968.262
1742203193.801,-1000.0,-1000.0,259.277,-1000.0
1742203193.805,279.297,239.258,531.25,315.43
1742203193.809,999.512,999.512,356.445,999.512
1742203193.813,693.359,673.34,-47.363,604.492
1742203193.77,999.512,999.512,-4.883,999.512
1742203193.774,268.555,270.02,-439.941,55.176
1742203193.778,-988.77,-994.629,-527.344,-1000.0
1742203193.782,-1000.0,-1000.0,-235.84,-958.008
1742203193.786,285.156,321.289,86.914,353.027
1742203193.79,999.512,999.512,14.648,999.512
1742203193.794,533.691,474.121,-332.031,329.59
1742203193.797,-875.977,-895.508,-244.629,-968.262
1742203193.801,-1000.0,-1000.0,259.277,-1000.0
1742203193.805,279.297,239.258,531.25,315.43
1742203193.809,999.512,999.512,356.445,999.512
1742203193.813,693.359,673.34,-47.363,604.492
1742203193.86,-646.973,-666.016,-205.566,-744.629
1742203193.864,-1000.0,-1000.0,119.141,-1000.0
1742203193.868,-293.945,-340.332,445.312,-123.535
1742203193.872,999.512,992.676,381.348,999.512
1742203193.876,867.188,882.812,-23.926,806.641
1742203193.88,-583.008,-597.656,-232.422,-630.859
1742203193.884,-1000.0,-1000.0,85.938,-1000.0
1742203193.887,-152.832,-26.367,395.996,-52.734
1742203193.891,999.512,999.512,237.305,999.512
1742203193.895,824.219,808.594,-128.906,810.059
1742203193.899,-548.828,-540.039,-260.742,-560.547
1742203193.903,-1000.0,-1000.0,-16.113,-1000.0
1742203193.86,-646.973,-666.016,-205.566,-744.629
1742203193.864,-1000.0,-1000.0,119.141,-1000.0
1742203193.868,-293.945,-340.332,445.312,-123.535
1742203193.872,999.512,992.676,381.348,999.512
1742203193.876,867.188,882.812,-23.926,806.641
1742203193.88,-583.008,-597.656,-232.422,-630.859
1742203193.884,-1000.0,-1000.0,85.938,-1000.0
1742203193.887,-152.832,-26.367,395.996,-52.734
1742203193.891,999.512,999.512,237.305,999.512
1742203193.895,824.219,808.594,-128.906,810.059
1742203193.899,-548.828,-540.039,-260.742,-560.547
1742203193.903,-1000.0,-1000.0,-16.113,-1000.0
1742203193.878,-614.258,-616.211,357.91,-449.219
1742203193.882,855.957,852.051,398.438,933.105
1742203193.886,942.871,957.031,-11.719,904.297
1742203193.89,-549.316,-592.285,-276.855,-562.012
1742203193.894,-1000.0,-1000.0,-46.875,-1000.0
1742203193.898,-341.797,20.508,385.742,-292.48
1742203193.902,983.887,999.512,418.945,999.512
1742203193.905,886.719,807.617,-63.477,871.582
1742203193.909,-518.066,-530.762,-402.832,-526.367
1742203193.913,-1000.0,-1000.0,-232.422,-1000.0
1742203193.917,-724.609,-634.766,147.949,-697.266
1742203193.921,625.977,702.637,250.977,684.082
1742203193.878,-614.258,-616.211,357.91,-449.219
1742203193.882,855.957,852.051,398.438,933.105
1742203193.886,942.871,957.031,-11.719,904.297
1742203193.89,-549.316,-592.285,-276.855,-562.012
1742203193.894,-1000.0,-1000.0,-46.875,-1000.0
1742203193.898,-341.797,20.508,385.742,-292.48
1742203193.902,983.887,999.512,418.945,999.512
1742203193.905,886.719,807.617,-63.477,871.582
1742203193.909,-518.066,-530.762,-402.832,-526.367
1742203193.913,-1000.0,-1000.0,-232.422,-1000.0
1742203193.917,-724.609,-634.766,147.949,-697.266
1742203193.921,625.977,702.637,250.977,684.082
1742203193.878,-614.258,-616.211,357.91,-449.219
1742203193.882,855.957,852.051,398.438,933.105
1742203193.886,942.871,957.031,-11.719,904.297
1742203193.89,-549.316,-592.285,-276.855,-562.012
1742203193.894,-1000.0,-1000.0,-46.875,-1000.0
1742203193.898,-341.797,20.508,385.742,-292.48
1742203193.902,983.887,999.512,418.945,999.512
1742203193.905,886.719,807.617,-63.477,871.582
1742203193.909,-518.066,-530.762,-402.832,-526.367
1742203193.913,-1000.0,-1000.0,-232.422,-1000.0
1742203193.917,-724.609,-634.766,147.949,-697.266
1742203193.921,625.977,702.637,250.977,684.082
1742203193.905,999.512,999.512,-181.641,999.512
1742203193.909,72.266,150.879,-486.816,-109.375
1742203193.913,-1000.0,-1000.0,-410.156,-1000.0
1742203193.917,-876.465,-861.816,-31.738,-827.148
1742203193.921,539.062,605.957,201.172,579.102
1742203193.925,999.512,999.512,-117.676,999.512
1742203193.929,63.965,-109.375,-520.02,-32.715
1742203193.932,-1000.0,-1000.0,-434.082,-1000.0
1742203193.936,-849.609,-827.637,11.719,-840.332
1742203193.94,514.648,502.441,301.27,509.766
1742203193.944,999.512,999.512,20.996,999.512
1742203193.948,671.387,662.109,-314.453,560.059
1742203193.905,999.512,999.512,-181.641,999.512
1742203193.909,72.266,150.879,-486.816,-109.375
1742203193.913,-1000.0,-1000.0,-410.156,-1000.0
1742203193.917,-876.465,-861.816,-31.738,-827.148
1742203193.921,539.062,605.957,201.172,579.102
1742203193.925,999.512,999.512,-117.676,999.512
1742203193.929,63.965,-109.375,-520.02,-32.715
1742203193.932,-1000.0,-1000.0,-434.082,-1000.0
1742203193.936,-849.609,-827.637,11.719,-840.332
1742203193.94,514.648,502.441,301.27,509.766
1742203193.944,999.512,999.512,20.996,999.512
1742203193.948,671.387,662.109,-314.453,560.059
1742203193.905,999.512,999.512,-181.641,999.512
1742203193.909,72.266,150.879,-486.816,-109.375
1742203193.913,-1000.0,-1000.0,-410.156,-1000.0
1742203193.917,-876.465,-861.816,-31.738,-827.148
1742203193.921,539.062,605.957,201.172,579.102
1742203193.925,999.512,999.512,-117.676,999.512
1742203193.929,63.965,-109.375,-520.02,-32.715
1742203193.932,-1000.0,-1000.0,-434.082,-1000.0
1742203193.936,-849.609,-827.637,11.719,-840.332
1742203193.94,514.648,502.441,301.27,509.766
1742203193.944,999.512,999.512,20.996,999.512
1742203193.948,671.387,662.109,-314.453,560.059
1742203193.995,-83.008,-111.816,290.039,107.91
1742203193.999,999.512,999.512,224.609,999.512
1742203194.003,852.051,872.559,-165.527,831.543
1742203194.007,-591.309,-622.559,-360.84,-590.332
1742203194.011,-1000.0,-1000.0,-68.359,-1000.0
1742203194.015,106.934,316.895,314.453,164.062
1742203194.019,999.512,999.512,222.168,999.512
1742203194.022,788.574,769.531,-185.059,788.086
1742203194.026,-533.203,-524.414,-409.668,-530.762
1742203194.03,-1000.0,-1000.0,-171.387,-1000.0
1742203194.034,-686.035,-699.219,224.121,-564.941
1742203194.038,745.117,736.328,331.543,841.309
1742203194.04,999.512,999.512,-35.156,984.375
1742203194.044,-363.281,-373.535,-347.656,-434.57
1742203194.048,-1000.0,-1000.0,-168.945,-1000.0
1742203194.052,-822.754,-816.406,195.801,-765.137
1742203194.056,525.879,519.531,320.312,624.023
1742203194.06,999.512,999.512,38.086,999.512
1742203194.064,25.391,113.281,-313.477,-166.992
1742203194.067,-1000.0,-1000.0,-263.672,-1000.0
1742203194.071,-858.887,-870.117,145.02,-834.473
1742203194.075,520.508,526.367,333.008,545.898
1742203194.079,999.512,999.512,43.457,999.512
1742203194.083,268.066,280.273,-257.324,59.082
1742203194.04,999.512,999.512,-35.156,984.375
1742203194.044,-363.281,-373.535,-347.656,-434.57
1742203194.048,-1000.0,-1000.0,-168.945,-1000.0
1742203194.052,-822.754,-816.406,195.801,-765.137
1742203194.056,525.879,519.531,320.312,624.023
1742203194.06,999.512,999.512,38.086,999.512
1742203194.064,25.391,113.281,-313.477,-166.992
1742203194.067,-1000.0,-1000.0,-263.672,-1000.0
1742203194.071,-858.887,-870.117,145.02,-834.473
1742203194.075,520.508,526.367,333.008,545.898
1742203194.079,999.512,999.512,43.457,999.512
1742203194.083,268.066,280.273,-257.324,59.082
1742203194.085,-1000.0,-1000.0,-236.816,-1000.0
1742203194.089,-935.059,-979.004,115.234,-882.812
1742203194.093,441.895,369.629,355.957,488.77
1742203194.097,999.512,999.512,117.676,999.512
1742203194.101,556.152,553.711,-230.469,361.816
1742203194.105,-846.191,-838.379,-168.945,-950.684
1742203194.109,-1000.0,-1000.0,135.742,-1000.0
1742203194.112,246.582,209.473,329.59,338.379
1742203194.116,999.512,999.512,133.789,999.512
1742203194.12,688.965,725.586,-218.262,553.223
1742203194.124,-702.148,-662.109,-266.113,-818.359
1742203194.128,-1000.0,-1000.0,30.273,-1000.0
1742203194.085,-1000.0,-1000.0,-236.816,-1000.0
1742203194.089,-935.059,-979.004,115.234,-882.812
1742203194.093,441.895,369.629,355.957,488.77
1742203194.097,999.512,999.512,117.676,999.512
1742203194.101,556.152,553.711,-230.469,361.816
1742203194.105,-846.191,-838.379,-168.945,-950.684
1742203194.109,-1000.0,-1000.0,135.742,-1000.0
1742203194.112,246.582,209.473,329.59,338.379
1742203194.116,999.512,999.512,133.789,999.512
1742203194.12,688.965,725.586,-218.262,553.223
1742203194.124,-702.148,-662.109,-266.113,-818.359
1742203194.128,-1000.0,-1000.0,30.273,-1000.0
1742203194.13,30.762,-11.719,319.336,152.832
1742203194.134,999.512,999.512,167.48,999.512
1742203194.138,767.09,780.762,-243.652,668.945
1742203194.142,-691.895,-719.727,-336.426,-762.695
1742203194.146,-1000.0,-1000.0,-23.926,-1000.0
1742203194.15,220.703,346.191,394.531,215.82
1742203194.154,999.512,999.512,272.461,999.512
1742203194.157,765.137,719.727,-235.352,713.379
1742203194.161,-562.012,-619.141,-364.746,-636.719
1742203194.165,-1000.0,-1000.0,-43.945,-1000.0
1742203194.169,-345.703,-226.562,373.535,-243.652
1742203194.173,993.652,999.512,310.059,999.512
1742203194.13,30.762,-11.719,319.336,152.832
1742203194.134,999.512,999.512,167.48,999.512
1742203194.138,767.09,780.762,-243.652,668.945
1742203194.142,-691.895,-719.727,-336.426,-762.695
1742203194.146,-1000.0,-1000.0,-23.926,-1000.0
1742203194.15,220.703,346.191,394.531,215.82
1742203194.154,999.512,999.512,272.461,999.512
1742203194.157,765.137,719.727,-235.352,713.379
1742203194.161,-562.012,-619.141,-364.746,-636.719
1742203194.165,-1000.0,-1000.0,-43.945,-1000.0
1742203194.169,-345.703,-226.562,373.535,-243.652
1742203194.173,993.652,999.512,310.059,999.512
1742203194.178,853.516,835.938,-182.129,828.613
1742203194.182,-573.73,-565.918,-363.77,-575.684
1742203194.186,-1000.0,-1000.0,-159.18,-1000.0
1742203194.19,-807.129,-823.73,175.293,-741.211
1742203194.194,659.18,643.555,274.902,736.328
1742203194.198,999.512,997.07,-72.266,957.52
1742203194.202,-522.461,-539.551,-407.227,-565.918
1742203194.205,-1000.0,-1000.0,-229.98,-1000.0
1742203194.209,-853.027,-850.098,170.41,-835.449
1742203194.213,553.223,547.363,281.738,604.004
1742203194.217,999.512,999.512,-92.773,999.512
1742203194.221,-354.492,-317.383,-409.668,-457.52
1742203194.178,853.516,835.938,-182.129,828.613
1742203194.182,-573.73,-565.918,-363.77,-575.684
1742203194.186,-1000.0,-1000.0,-159.18,-1000.0
1742203194.19,-807.129,-823.73,175.293,-741.211
1742203194.194,659.18,643.555,274.902,736.328
1742203194.198,999.512,997.07,-72.266,957.52
1742203194.202,-522.461,-539.551,-407.227,-565.918
1742203194.205,-1000.0,-1000.0,-229.98,-1000.0
1742203194.209,-853.027,-850.098,170.41,-835.449
1742203194.213,553.223,547.363,281.738,604.004
1742203194.217,999.512,999.512,-92.773,999.512
1742203194.221,-354.492,-317.383,-409.668,-457.52
1742203194.235,-1000.0,-1000.0,-241.699,-1000.0
1742203194.239,-830.078,-829.102,113.77,-833.984
1742203194.243,511.719,509.766,265.137,542.48
1742203194.247,999.512,999.512,-40.039,999.512
1742203194.251,59.082,104.492,-388.672,-162.598
1742203194.255,-1000.0,-1000.0,-298.34,-1000.0
1742203194.259,-900.391,-922.363,41.992,-868.652
1742203194.262,463.379,447.266,233.398,495.605
1742203194.266,999.512,999.512,-40.039,999.512
1742203194.27,273.438,237.305,-413.574,66.406
1742203194.274,-988.281,-996.094,-323.242,-1000.0
1742203194.278,-1000.0,-1000.0,43.457,-947.266
1742203194.235,-1000.0,-1000.0,-241.699,-1000.0
1742203194.239,-830.078,-829.102,113.77,-833.984
1742203194.243,511.719,509.766,265.137,542.48
1742203194.247,999.512,999.512,-40.039,999.512
1742203194.251,59.082,104.492,-388.672,-162.598
1742203194.255,-1000.0,-1000.0,-298.34,-1000.0
1742203194.259,-900.391,-922.363,41.992,-868.652
1742203194.262,463.379,447.266,233.398,495.605
1742203194.266,999.512,999.512,-40.039,999.512
1742203194.27,273.438,237.305,-413.574,66.406
1742203194.274,-988.281,-996.094,-323.242,-1000.0
1742203194.278,-1000.0,-1000.0,43.457,-947.266
1742203194.281,286.621,264.16,233.887,361.328
1742203194.285,999.512,999.512,50.781,999.512
1742203194.289,642.578,652.344,-302.734,479.98
1742203194.293,-827.637,-844.727,-328.613,-919.922
1742203194.297,-1000.0,-979.98,40.527,-988.281
1742203194.301,421.387,512.207,388.184,435.547
1742203194.305,999.512,999.512,183.594,999.512
1742203194.308,615.723,579.59,-268.555,525.879
1742203194.312,-721.68,-743.164,-379.883,-798.828
1742203194.316,-1000.0,-1000.0,-41.016,-1000.0
1742203194.32,-236.816,-291.992,343.75,-91.309
1742203194.324,999.512,999.512,271.484,999.512
1742203194.325,857.422,874.023,-154.785,807.617
1742203194.329,-577.637,-593.262,-309.57,-617.676
1742203194.333,-1000.0,-1000.0,20.996,-1000.0
1742203194.337,-158.691,-29.785,407.227,-70.801
1742203194.341,999.512,999.512,318.359,999.512
1742203194.345,824.707,808.105,-79.102,813.477
1742203194.349,-550.781,-540.527,-287.109,-549.805
1742203194.352,-1000.0,-1000.0,-104.004,-1000.0
1742203194.356,-668.945,-631.348,324.707,-593.262
1742203194.36,817.383,834.473,365.723,865.234
1742203194.364,933.105,960.938,-153.32,904.297
1742203194.368,-574.707,-516.602,-394.531,-589.844
1742203194.386,-1000.0,-1000.0,-203.125,-1000.0
1742203194.39,-861.328,-858.887,117.188,-837.891
1742203194.394,569.336,565.918,270.02,621.094
1742203194.398,999.512,999.512,-122.559,999.512
1742203194.402,-452.148,-421.387,-462.891,-529.297
1742203194.406,-1000.0,-1000.0,-208.008,-1000.0
1742203194.41,-845.215,-841.309,132.812,-843.75
1742203194.413,537.109,530.762,305.664,569.824
1742203194.417,999.512,999.512,-44.922,999.512
1742203194.421,-238.77,-157.715,-451.172,-361.328
1742203194.425,-1000.0,-1000.0,-280.762,-1000.0
1742203194.429,-854.492,-875.488,140.137,-852.051
1742203194.386,-1000.0,-1000.0,-203.125,-1000.0
1742203194.39,-861.328,-858.887,117.188,-837.891
1742203194.394,569.336,565.918,270.02,621.094
1742203194.398,999.512,999.512,-122.559,999.512
1742203194.402,-452.148,-421.387,-462.891,-529.297
1742203194.406,-1000.0,-1000.0,-208.008,-1000.0
1742203194.41,-845.215,-841.309,132.812,-843.75
1742203194.413,537.109,530.762,305.664,569.824
1742203194.417,999.512,999.512,-44.922,999.512
1742203194.421,-238.77,-157.715,-451.172,-361.328
1742203194.425,-1000.0,-1000.0,-280.762,-1000.0
1742203194.429,-854.492,-875.488,140.137,-852.051
1742203194.416,544.434,573.242,357.91,551.758
1742203194.42,999.512,999.512,39.062,999.512
1742203194.424,-209.473,-354.492,-371.094,-278.32
1742203194.428,-1000.0,-1000.0,-263.672,-1000.0
1742203194.432,-826.66,-820.801,88.379,-832.031
1742203194.436,500.977,499.023,360.84,510.742
1742203194.44,999.512,999.512,80.078,999.512
1742203194.443,300.781,229.98,-399.902,142.09
1742203194.447,-970.703,-996.582,-352.051,-1000.0
1742203194.451,-1000.0,-1000.0,4.883,-985.84
1742203194.455,256.836,263.672,340.82,307.617
1742203194.459,999.512,999.512,146.973,999.512
1742203194.416,544.434,573.242,357.91,551.758
1742203194.42,999.512,999.512,39.062,999.512
1742203194.424,-209.473,-354.492,-371.094,-278.32
1742203194.428,-1000.0,-1000.0,-263.672,-1000.0
1742203194.432,-826.66,-820.801,88.379,-832.031
1742203194.436,500.977,499.023,360.84,510.742
1742203194.44,999.512,999.512,80.078,999.512
1742203194.443,300.781,229.98,-399.902,142.09
1742203194.447,-970.703,-996.582,-352.051,-1000.0
1742203194.451,-1000.0,-1000.0,4.883,-985.84
1742203194.455,256.836,263.672,340.82,307.617
1742203194.459,999.512,999.512,146.973,999.512
1742203194.461,564.453,527.344,-312.012,443.848
1742203194.465,-771.973,-789.062,-291.992,-852.539
1742203194.469,-1000.0,-1000.0,34.18,-1000.0
1742203194.473,-279.785,-334.473,310.547,-107.91
1742203194.477,999.512,998.535,201.66,999.512
1742203194.481,743.652,751.953,-243.652,675.781
1742203194.485,-592.285,-596.68,-446.289,-648.926
1742203194.488,-1000.0,-1000.0,-228.027,-1000.0
1742203194.492,-633.789,-652.344,143.555,-455.078
1742203194.496,863.281,849.609,155.273,945.312
1742203194.5,907.227,914.062,-220.215,863.77
1742203194.504,-586.426,-590.332,-401.367,-605.469
1742203194.461,564.453,527.344,-312.012,443.848
1742203194.465,-771.973,-789.062,-291.992,-852.539
1742203194.469,-1000.0,-1000.0,34.18,-1000.0
1742203194.473,-279.785,-334.473,310.547,-107.91
1742203194.477,999.512,998.535,201.66,999.512
1742203194.481,743.652,751.953,-243.652,675.781
1742203194.485,-592.285,-596.68,-446.289,-648.926
1742203194.488,-1000.0,-1000.0,-228.027,-1000.0
1742203194.492,-633.789,-652.344,143.555,-455.078
1742203194.496,863.281,849.609,155.273,945.312
1742203194.5,907.227,914.062,-220.215,863.77
1742203194.504,-586.426,-590.332,-401.367,-605.469
1742203194.507,-1000.0,-1000.0,-110.84,-1000.0
1742203194.511,-520.02,-469.238,260.254,-396.484
1742203194.515,894.531,907.227,258.789,957.52
1742203194.519,953.613,965.82,-60.547,889.16
1742203194.523,-477.539,-439.941,-286.133,-536.621
1742203194.527,-1000.0,-1000.0,-86.914,-1000.0
1742203194.531,-830.566,-852.051,225.098,-754.395
1742203194.534,603.516,584.961,311.035,704.102
1742203194.538,999.512,999.512,-1.465,999.512
1742203194.542,-420.898,-444.336,-299.316,-495.605
1742203194.546,-1000.0,-1000.0,-97.168,-1000.0
1742203194.55,-855.957,-859.863,289.551,-819.824
1742203194.507,-1000.0,-1000.0,-110.84,-1000.0
1742203194.511,-520.02,-469.238,260.254,-396.484
1742203194.515,894.531,907.227,258.789,957.52
1742203194.519,953.613,965.82,-60.547,889.16
1742203194.523,-477.539,-439.941,-286.133,-536.621
1742203194.527,-1000.0,-1000.0,-86.914,-1000.0
1742203194.531,-830.566,-852.051,225.098,-754.395
1742203194.534,603.516,584.961,311.035,704.102
1742203194.538,999.512,999.512,-1.465,999.512
1742203194.542,-420.898,-444.336,-299.316,-495.605
1742203194.546,-1000.0,-1000.0,-97.168,-1000.0
1742203194.55,-855.957,-859.863,289.551,-819.824
1742203194.58,557.617,567.383,392.578,617.188
1742203194.584,999.512,999.512,47.852,999.512
1742203194.588,-357.91,-410.645,-308.105,-427.734
1742203194.592,-1000.0,-1000.0,-146.973,-1000.0
