timestamps,TP9,AF7,AF8,TP10
1742204532.041,983.887,-332.031,-48.34,979.98
1742204532.045,966.309,984.375,-33.691,966.797
1742204532.049,966.309,355.957,-40.527,966.797
1742204532.053,966.309,-937.012,-40.039,966.797
1742204532.041,983.887,-332.031,-48.34,979.98
1742204532.045,966.309,984.375,-33.691,966.797
1742204532.049,966.309,355.957,-40.527,966.797
1742204532.053,966.309,-937.012,-40.039,966.797
1742204532.067,966.309,-225.098,-35.156,966.797
1742204532.071,966.309,288.086,-36.621,966.797
1742204532.075,966.309,23.438,-29.297,966.797
1742204532.079,966.309,933.105,-28.32,966.797
1742204532.083,966.309,-156.738,-42.48,967.285
1742204532.087,966.309,-554.199,-46.875,967.285
1742204532.091,966.309,743.652,-44.434,966.797
1742204532.094,966.309,-662.109,-36.621,966.797
1742204532.098,966.309,-369.141,-25.391,967.285
1742204532.102,966.309,548.34,-18.066,966.797
1742204532.106,966.309,-756.348,-21.973,966.797
1742204532.11,966.309,108.398,-22.461,966.797
1742204532.067,966.309,-225.098,-35.156,966.797
1742204532.071,966.309,288.086,-36.621,966.797
1742204532.075,966.309,23.438,-29.297,966.797
1742204532.079,966.309,933.105,-28.32,966.797
1742204532.083,966.309,-156.738,-42.48,967.285
1742204532.087,966.309,-554.199,-46.875,967.285
1742204532.091,966.309,743.652,-44.434,966.797
1742204532.094,966.309,-662.109,-36.621,966.797
1742204532.098,966.309,-369.141,-25.391,967.285
1742204532.102,966.309,548.34,-18.066,966.797
1742204532.106,966.309,-756.348,-21.973,966.797
1742204532.11,966.309,108.398,-22.461,966.797
1742204532.113,966.309,999.512,-12.695,966.797
1742204532.117,966.309,204.102,-16.602,966.797
1742204532.121,966.309,-767.578,-21.484,966.797
1742204532.125,966.309,-163.086,-27.344,966.797
1742204532.129,967.773,396.484,-23.926,966.797
1742204532.133,966.797,465.332,-11.719,983.398
1742204532.137,909.668,-40.527,-27.344,905.273
1742204532.14,999.512,-146.973,-32.715,999.512
1742204532.144,284.668,-534.18,-28.809,853.516
1742204532.148,-996.582,-1000.0,-35.156,-675.293
1742204532.152,-1000.0,-731.934,-25.391,-1000.0
1742204532.156,203.125,706.055,-11.23,420.898
1742204532.113,966.309,999.512,-12.695,966.797
1742204532.117,966.309,204.102,-16.602,966.797
1742204532.121,966.309,-767.578,-21.484,966.797
1742204532.125,966.309,-163.086,-27.344,966.797
1742204532.129,967.773,396.484,-23.926,966.797
1742204532.133,966.797,465.332,-11.719,983.398
1742204532.137,909.668,-40.527,-27.344,905.273
1742204532.14,999.512,-146.973,-32.715,999.512
1742204532.144,284.668,-534.18,-28.809,853.516
1742204532.148,-996.582,-1000.0,-35.156,-675.293
1742204532.152,-1000.0,-731.934,-25.391,-1000.0
1742204532.156,203.125,706.055,-11.23,420.898
1742204532.158,999.512,959.473,-13.184,999.512
1742204532.162,816.895,-464.844,-27.832,845.215
1742204532.166,-556.152,-1000.0,-36.133,-486.816
1742204532.17,-1000.0,-354.004,-23.926,-1000.0
1742204532.174,-925.781,152.832,-18.555,-933.594
1742204532.178,-1000.0,606.445,-16.113,-974.609
1742204532.182,-1000.0,-432.617,-24.902,-964.844
1742204532.185,-1000.0,-1000.0,-30.762,-1000.0
1742204532.189,-1000.0,362.305,-14.16,-998.047
1742204532.193,-1000.0,756.348,-1.465,-1000.0
1742204532.197,-1000.0,-783.203,-9.766,-1000.0
1742204532.201,-1000.0,-328.613,-9.277,-1000.0
1742204532.158,999.512,959.473,-13.184,999.512
1742204532.162,816.895,-464.844,-27.832,845.215
1742204532.166,-556.152,-1000.0,-36.133,-486.816
1742204532.17,-1000.0,-354.004,-23.926,-1000.0
1742204532.174,-925.781,152.832,-18.555,-933.594
1742204532.178,-1000.0,606.445,-16.113,-974.609
1742204532.182,-1000.0,-432.617,-24.902,-964.844
1742204532.185,-1000.0,-1000.0,-30.762,-1000.0
1742204532.189,-1000.0,362.305,-14.16,-998.047
1742204532.193,-1000.0,756.348,-1.465,-1000.0
1742204532.197,-1000.0,-783.203,-9.766,-1000.0
1742204532.201,-1000.0,-328.613,-9.277,-1000.0
1742204532.217,-942.383,378.418,-4.395,-942.383
1742204532.221,-1000.0,-32.227,2.441,-1000.0
1742204532.225,-931.641,306.641,6.348,-942.871
1742204532.229,582.031,992.676,2.93,605.957
1742204532.233,999.512,284.18,-1.953,999.512
1742204532.237,-482.91,-995.605,-1.465,-606.934
1742204532.241,-1000.0,-657.227,-1.953,-1000.0
1742204532.244,-928.223,-177.734,-3.418,-925.781
1742204532.248,-1000.0,-175.293,-8.789,-1000.0
1742204532.252,-1000.0,-354.98,-23.926,-1000.0
1742204532.256,-1000.0,-692.383,-24.902,-1000.0
1742204532.26,-1000.0,629.395,-11.23,-1000.0
1742204532.217,-942.383,378.418,-4.395,-942.383
1742204532.221,-1000.0,-32.227,2.441,-1000.0
1742204532.225,-931.641,306.641,6.348,-942.871
1742204532.229,582.031,992.676,2.93,605.957
1742204532.233,999.512,284.18,-1.953,999.512
1742204532.237,-482.91,-995.605,-1.465,-606.934
1742204532.241,-1000.0,-657.227,-1.953,-1000.0
1742204532.244,-928.223,-177.734,-3.418,-925.781
1742204532.248,-1000.0,-175.293,-8.789,-1000.0
1742204532.252,-1000.0,-354.98,-23.926,-1000.0
1742204532.256,-1000.0,-692.383,-24.902,-1000.0
1742204532.26,-1000.0,629.395,-11.23,-1000.0
1742204532.247,-1000.0,70.801,-12.695,-1000.0
1742204532.251,-1000.0,-775.879,-13.184,-1000.0
1742204532.255,-1000.0,575.684,-9.766,-1000.0
1742204532.259,-1000.0,118.164,-23.438,-1000.0
1742204532.263,-1000.0,-1000.0,-26.855,-1000.0
1742204532.267,-1000.0,580.566,-10.254,-1000.0
1742204532.271,-1000.0,924.316,-18.066,-1000.0
1742204532.274,-1000.0,-868.652,-39.062,-1000.0
1742204532.278,-1000.0,-838.379,-41.992,-1000.0
1742204532.282,-1000.0,211.914,-37.598,-1000.0
1742204532.286,-1000.0,-32.227,-26.855,-1000.0
1742204532.29,-1000.0,382.812,-24.414,-1000.0
1742204532.247,-1000.0,70.801,-12.695,-1000.0
1742204532.251,-1000.0,-775.879,-13.184,-1000.0
1742204532.255,-1000.0,575.684,-9.766,-1000.0
1742204532.259,-1000.0,118.164,-23.438,-1000.0
1742204532.263,-1000.0,-1000.0,-26.855,-1000.0
1742204532.267,-1000.0,580.566,-10.254,-1000.0
1742204532.271,-1000.0,924.316,-18.066,-1000.0
1742204532.274,-1000.0,-868.652,-39.062,-1000.0
1742204532.278,-1000.0,-838.379,-41.992,-1000.0
1742204532.282,-1000.0,211.914,-37.598,-1000.0
1742204532.286,-1000.0,-32.227,-26.855,-1000.0
1742204532.29,-1000.0,382.812,-24.414,-1000.0
1742204532.247,-1000.0,70.801,-12.695,-1000.0
1742204532.251,-1000.0,-775.879,-13.184,-1000.0
1742204532.255,-1000.0,575.684,-9.766,-1000.0
1742204532.259,-1000.0,118.164,-23.438,-1000.0
1742204532.263,-1000.0,-1000.0,-26.855,-1000.0
1742204532.267,-1000.0,580.566,-10.254,-1000.0
1742204532.271,-1000.0,924.316,-18.066,-1000.0
1742204532.274,-1000.0,-868.652,-39.062,-1000.0
1742204532.278,-1000.0,-838.379,-41.992,-1000.0
1742204532.282,-1000.0,211.914,-37.598,-1000.0
1742204532.286,-1000.0,-32.227,-26.855,-1000.0
1742204532.29,-1000.0,382.812,-24.414,-1000.0
1742204532.294,-1000.0,87.402,-32.715,-1000.0
1742204532.298,-1000.0,-698.242,-38.086,-1000.0
1742204532.302,-937.012,251.953,-39.062,-943.848
1742204532.306,-1000.0,140.137,-29.785,-1000.0
1742204532.31,-890.625,308.105,-21.973,-973.633
1742204532.314,729.004,931.641,-19.531,648.438
1742204532.318,841.309,-241.211,-28.32,600.586
1742204532.321,-812.012,-1000.0,-41.504,-981.445
1742204532.325,-1000.0,-584.473,-41.992,-1000.0
1742204532.329,-930.664,724.609,-29.297,-949.219
1742204532.333,-1000.0,12.207,-31.25,-1000.0
1742204532.337,-1000.0,-1000.0,-42.48,-1000.0
1742204532.294,-1000.0,87.402,-32.715,-1000.0
1742204532.298,-1000.0,-698.242,-38.086,-1000.0
1742204532.302,-937.012,251.953,-39.062,-943.848
1742204532.306,-1000.0,140.137,-29.785,-1000.0
1742204532.31,-890.625,308.105,-21.973,-973.633
1742204532.314,729.004,931.641,-19.531,648.438
1742204532.318,841.309,-241.211,-28.32,600.586
1742204532.321,-812.012,-1000.0,-41.504,-981.445
1742204532.325,-1000.0,-584.473,-41.992,-1000.0
1742204532.329,-930.664,724.609,-29.297,-949.219
1742204532.333,-1000.0,12.207,-31.25,-1000.0
1742204532.337,-1000.0,-1000.0,-42.48,-1000.0
1742204532.337,-942.383,213.867,-38.574,-942.383
1742204532.341,-1000.0,533.691,-34.18,-1000.0
1742204532.345,-934.57,-428.223,-36.133,-946.777
1742204532.349,596.191,760.254,-41.016,613.281
1742204532.353,999.512,762.207,-46.387,992.676
1742204532.357,-541.504,-852.051,-41.992,-647.461
1742204532.361,-1000.0,-1000.0,-37.109,-1000.0
1742204532.364,-926.27,-373.047,-43.457,-925.781
1742204532.368,-1000.0,97.168,-44.922,-1000.0
1742204532.372,-1000.0,-424.316,-49.316,-1000.0
1742204532.376,-1000.0,-847.656,-54.688,-1000.0
1742204532.38,-1000.0,579.59,-42.48,-1000.0
1742204532.337,-942.383,213.867,-38.574,-942.383
1742204532.341,-1000.0,533.691,-34.18,-1000.0
1742204532.345,-934.57,-428.223,-36.133,-946.777
1742204532.349,596.191,760.254,-41.016,613.281
1742204532.353,999.512,762.207,-46.387,992.676
1742204532.357,-541.504,-852.051,-41.992,-647.461
1742204532.361,-1000.0,-1000.0,-37.109,-1000.0
1742204532.364,-926.27,-373.047,-43.457,-925.781
1742204532.368,-1000.0,97.168,-44.922,-1000.0
1742204532.372,-1000.0,-424.316,-49.316,-1000.0
1742204532.376,-1000.0,-847.656,-54.688,-1000.0
1742204532.38,-1000.0,579.59,-42.48,-1000.0
1742204532.385,-1000.0,763.184,-42.969,-1000.0
1742204532.389,-1000.0,-625.977,-52.734,-1000.0
1742204532.393,-1000.0,-816.895,-49.316,-1000.0
1742204532.397,-1000.0,191.406,-49.805,-1000.0
1742204532.401,-1000.0,-35.156,-47.852,-1000.0
1742204532.405,-1000.0,306.641,-37.598,-1000.0
1742204532.409,-1000.0,233.887,-46.387,-1000.0
1742204532.412,-1000.0,-765.137,-54.199,-1000.0
1742204532.416,-1000.0,-937.5,-51.758,-1000.0
1742204532.42,-1000.0,-850.098,-41.504,-1000.0
1742204532.424,-1000.0,-155.762,-29.785,-1000.0
1742204532.428,-1000.0,784.668,-28.809,-1000.0
1742204532.385,-1000.0,763.184,-42.969,-1000.0
1742204532.389,-1000.0,-625.977,-52.734,-1000.0
1742204532.393,-1000.0,-816.895,-49.316,-1000.0
1742204532.397,-1000.0,191.406,-49.805,-1000.0
1742204532.401,-1000.0,-35.156,-47.852,-1000.0
1742204532.405,-1000.0,306.641,-37.598,-1000.0
1742204532.409,-1000.0,233.887,-46.387,-1000.0
1742204532.412,-1000.0,-765.137,-54.199,-1000.0
1742204532.416,-1000.0,-937.5,-51.758,-1000.0
1742204532.42,-1000.0,-850.098,-41.504,-1000.0
1742204532.424,-1000.0,-155.762,-29.785,-1000.0
1742204532.428,-1000.0,784.668,-28.809,-1000.0
1742204532.442,-1000.0,-166.016,-34.668,-1000.0
1742204532.446,-1000.0,-1000.0,-40.039,-1000.0
1742204532.45,-1000.0,147.461,-40.039,-1000.0
1742204532.454,-1000.0,667.48,-31.25,-1000.0
1742204532.458,-1000.0,-414.551,-25.879,-1000.0
1742204532.462,-1000.0,561.035,-28.809,-1000.0
1742204532.466,-1000.0,-172.363,-41.504,-1000.0
1742204532.469,-1000.0,-1000.0,-46.875,-1000.0
1742204532.473,-1000.0,621.094,-26.367,-1000.0
1742204532.477,-1000.0,856.445,-15.625,-1000.0
1742204532.481,-1000.0,-817.383,-26.855,-1000.0
1742204532.485,-938.477,-46.875,-26.855,-941.895
1742204532.442,-1000.0,-166.016,-34.668,-1000.0
1742204532.446,-1000.0,-1000.0,-40.039,-1000.0
1742204532.45,-1000.0,147.461,-40.039,-1000.0
1742204532.454,-1000.0,667.48,-31.25,-1000.0
1742204532.458,-1000.0,-414.551,-25.879,-1000.0
1742204532.462,-1000.0,561.035,-28.809,-1000.0
1742204532.466,-1000.0,-172.363,-41.504,-1000.0
1742204532.469,-1000.0,-1000.0,-46.875,-1000.0
1742204532.473,-1000.0,621.094,-26.367,-1000.0
1742204532.477,-1000.0,856.445,-15.625,-1000.0
1742204532.481,-1000.0,-817.383,-26.855,-1000.0
1742204532.485,-938.477,-46.875,-26.855,-941.895
1742204532.474,-1000.0,856.934,-25.879,-1000.0
1742204532.478,-846.191,-1.953,-34.18,-885.254
1742204532.482,618.652,702.637,-25.391,572.266
1742204532.486,999.512,999.512,-26.367,999.512
1742204532.49,893.555,-350.098,-29.297,892.09
1742204532.494,982.91,295.898,-23.438,982.91
1742204532.498,966.309,984.863,-27.344,966.797
1742204532.501,966.309,-752.93,-38.574,966.797
1742204532.505,966.309,-344.727,-40.527,966.797
1742204532.509,966.309,508.789,-41.016,966.797
1742204532.513,966.309,-726.074,-45.41,966.797
1742204532.517,966.309,301.758,-29.297,966.797
1742204532.474,-1000.0,856.934,-25.879,-1000.0
1742204532.478,-846.191,-1.953,-34.18,-885.254
1742204532.482,618.652,702.637,-25.391,572.266
1742204532.486,999.512,999.512,-26.367,999.512
1742204532.49,893.555,-350.098,-29.297,892.09
1742204532.494,982.91,295.898,-23.438,982.91
1742204532.498,966.309,984.863,-27.344,966.797
1742204532.501,966.309,-752.93,-38.574,966.797
1742204532.505,966.309,-344.727,-40.527,966.797
1742204532.509,966.309,508.789,-41.016,966.797
1742204532.513,966.309,-726.074,-45.41,966.797
1742204532.517,966.309,301.758,-29.297,966.797
1742204532.532,966.309,876.465,-22.461,966.797
1742204532.536,966.309,-804.199,-37.109,966.797
1742204532.54,966.309,43.457,-41.504,966.797
1742204532.544,966.309,586.426,-31.25,966.797
1742204532.548,966.309,-774.414,-20.02,966.797
1742204532.552,966.309,559.082,-13.184,966.797
1742204532.556,966.309,450.195,-26.855,966.797
1742204532.559,966.309,-1000.0,-36.133,966.797
1742204532.563,966.309,-376.953,-40.039,967.285
1742204532.567,967.285,377.441,-37.109,966.797
1742204532.571,971.191,-331.543,-24.414,983.398
1742204532.575,904.297,78.125,-21.484,906.25
1742204532.532,966.309,876.465,-22.461,966.797
1742204532.536,966.309,-804.199,-37.109,966.797
1742204532.54,966.309,43.457,-41.504,966.797
1742204532.544,966.309,586.426,-31.25,966.797
1742204532.548,966.309,-774.414,-20.02,966.797
1742204532.552,966.309,559.082,-13.184,966.797
1742204532.556,966.309,450.195,-26.855,966.797
1742204532.559,966.309,-1000.0,-36.133,966.797
1742204532.563,966.309,-376.953,-40.039,967.285
1742204532.567,967.285,377.441,-37.109,966.797
1742204532.571,971.191,-331.543,-24.414,983.398
1742204532.575,904.297,78.125,-21.484,906.25
1742204532.577,999.512,-183.594,-26.855,999.512
1742204532.581,346.68,-994.629,-37.109,820.312
1742204532.585,-973.633,-1000.0,-42.48,-641.602
1742204532.589,-1000.0,-822.266,-53.711,-1000.0
1742204532.593,-959.473,245.117,-64.941,-927.246
1742204532.597,-1000.0,192.383,-67.383,-1000.0
1742204532.601,-1000.0,-829.102,-70.312,-1000.0
1742204532.604,-1000.0,-1000.0,-77.148,-1000.0
1742204532.608,-1000.0,-571.777,-67.383,-1000.0
1742204532.612,-1000.0,47.852,-60.059,-1000.0
1742204532.616,-1000.0,-733.887,-60.547,-1000.0
1742204532.62,-1000.0,-946.777,-57.617,-1000.0
1742204532.622,-1000.0,254.883,-52.246,-1000.0
1742204532.626,-1000.0,556.641,-38.086,-1000.0
1742204532.63,-1000.0,356.445,-28.809,-1000.0
1742204532.634,-1000.0,600.586,-34.18,-1000.0
1742204532.638,-1000.0,-271.484,-41.504,-1000.0
1742204532.642,-1000.0,306.641,-45.898,-1000.0
1742204532.646,-1000.0,64.941,-35.156,-1000.0
1742204532.649,-1000.0,-978.516,-28.809,-1000.0
1742204532.653,-1000.0,333.984,-29.785,-1000.0
1742204532.657,-947.754,255.371,-33.203,-970.703
1742204532.661,-1000.0,-623.047,-29.785,-990.723
1742204532.665,-930.664,569.336,-22.461,-1000.0
1742204532.622,-1000.0,254.883,-52.246,-1000.0
1742204532.626,-1000.0,556.641,-38.086,-1000.0
1742204532.63,-1000.0,356.445,-28.809,-1000.0
1742204532.634,-1000.0,600.586,-34.18,-1000.0
1742204532.638,-1000.0,-271.484,-41.504,-1000.0
1742204532.642,-1000.0,306.641,-45.898,-1000.0
1742204532.646,-1000.0,64.941,-35.156,-1000.0
1742204532.649,-1000.0,-978.516,-28.809,-1000.0
1742204532.653,-1000.0,333.984,-29.785,-1000.0
1742204532.657,-947.754,255.371,-33.203,-970.703
1742204532.661,-1000.0,-623.047,-29.785,-990.723
1742204532.665,-930.664,569.336,-22.461,-1000.0
1742204532.667,509.766,999.512,-20.02,222.168
1742204532.671,999.512,798.828,-26.855,999.512
1742204532.675,901.855,-557.617,-26.855,946.777
1742204532.679,992.188,-603.516,-30.762,895.02
1742204532.683,-377.441,-631.836,-28.32,-531.738
1742204532.687,-1000.0,-360.352,-19.531,-1000.0
1742204532.691,-929.688,356.934,-21.484,-927.246
1742204532.694,-1000.0,147.949,-30.273,-1000.0
1742204532.698,-933.105,-662.598,-45.898,-934.082
1742204532.702,-1000.0,-412.598,-34.18,-1000.0
1742204532.706,-438.965,479.004,-25.879,-458.984
1742204532.71,924.316,947.266,-31.738,907.715
1742204532.667,509.766,999.512,-20.02,222.168
1742204532.671,999.512,798.828,-26.855,999.512
1742204532.675,901.855,-557.617,-26.855,946.777
1742204532.679,992.188,-603.516,-30.762,895.02
1742204532.683,-377.441,-631.836,-28.32,-531.738
1742204532.687,-1000.0,-360.352,-19.531,-1000.0
1742204532.691,-929.688,356.934,-21.484,-927.246
1742204532.694,-1000.0,147.949,-30.273,-1000.0
1742204532.698,-933.105,-662.598,-45.898,-934.082
1742204532.702,-1000.0,-412.598,-34.18,-1000.0
1742204532.706,-438.965,479.004,-25.879,-458.984
1742204532.71,924.316,947.266,-31.738,907.715
1742204532.712,992.676,276.367,-28.809,998.535
1742204532.716,920.898,-843.262,-24.902,919.922
1742204532.72,981.934,-115.234,-20.02,984.863
1742204532.724,957.031,779.785,-13.672,950.684
1742204532.728,921.875,-596.68,-15.137,934.082
1742204532.732,999.512,-319.824,-1.465,999.512
1742204532.736,68.359,-124.023,1.465,-34.18
1742204532.739,-1000.0,-1000.0,-22.461,-1000.0
1742204532.743,-975.098,-388.184,-33.203,-963.379
1742204532.747,-980.469,784.668,-24.414,-987.305
1742204532.751,-1000.0,-556.641,-24.414,-1000.0
1742204532.755,-1000.0,-906.738,-21.973,-1000.0
1742204532.712,992.676,276.367,-28.809,998.535
1742204532.716,920.898,-843.262,-24.902,919.922
1742204532.72,981.934,-115.234,-20.02,984.863
1742204532.724,957.031,779.785,-13.672,950.684
1742204532.728,921.875,-596.68,-15.137,934.082
1742204532.732,999.512,-319.824,-1.465,999.512
1742204532.736,68.359,-124.023,1.465,-34.18
1742204532.739,-1000.0,-1000.0,-22.461,-1000.0
1742204532.743,-975.098,-388.184,-33.203,-963.379
1742204532.747,-980.469,784.668,-24.414,-987.305
1742204532.751,-1000.0,-556.641,-24.414,-1000.0
1742204532.755,-1000.0,-906.738,-21.973,-1000.0
1742204532.757,-937.5,476.074,2.93,-937.012
1742204532.761,-1000.0,84.473,22.949,-1000.0
1742204532.765,-817.383,-151.855,22.461,-799.316
1742204532.769,566.895,878.418,39.551,599.609
1742204532.773,999.512,587.402,16.602,999.512
1742204532.777,659.18,-583.008,-44.922,355.957
1742204532.781,-729.004,-907.715,-51.758,-885.742
1742204532.784,-1000.0,-378.418,-46.387,-1000.0
1742204532.788,-947.266,-157.715,-54.688,-969.238
1742204532.792,-959.961,-321.289,-64.941,-955.078
1742204532.796,-1000.0,-423.34,-80.078,-1000.0
1742204532.8,-891.113,386.23,-81.543,-888.184
1742204532.757,-937.5,476.074,2.93,-937.012
1742204532.761,-1000.0,84.473,22.949,-1000.0
1742204532.765,-817.383,-151.855,22.461,-799.316
1742204532.769,566.895,878.418,39.551,599.609
1742204532.773,999.512,587.402,16.602,999.512
1742204532.777,659.18,-583.008,-44.922,355.957
1742204532.781,-729.004,-907.715,-51.758,-885.742
1742204532.784,-1000.0,-378.418,-46.387,-1000.0
1742204532.788,-947.266,-157.715,-54.688,-969.238
1742204532.792,-959.961,-321.289,-64.941,-955.078
1742204532.796,-1000.0,-423.34,-80.078,-1000.0
1742204532.8,-891.113,386.23,-81.543,-888.184
1742204532.803,580.078,999.512,-85.938,584.961
1742204532.807,999.512,593.75,-87.891,999.512
1742204532.811,945.312,50.293,-88.867,953.125
1742204532.815,873.047,75.684,-97.656,847.656
1742204532.819,-597.656,-882.812,-87.891,-637.695
1742204532.823,-1000.0,260.742,-92.285,-1000.0
1742204532.827,-931.641,355.469,-91.797,-890.625
1742204532.83,-992.676,-1000.0,-76.66,-994.141
1742204532.834,-979.004,-96.191,-67.871,-976.074
1742204532.838,-1000.0,803.223,-63.965,-1000.0
1742204532.842,126.465,653.809,-64.453,39.062
1742204532.846,999.512,999.512,-61.523,999.512
1742204532.803,580.078,999.512,-85.938,584.961
1742204532.807,999.512,593.75,-87.891,999.512
1742204532.811,945.312,50.293,-88.867,953.125
1742204532.815,873.047,75.684,-97.656,847.656
1742204532.819,-597.656,-882.812,-87.891,-637.695
1742204532.823,-1000.0,260.742,-92.285,-1000.0
1742204532.827,-931.641,355.469,-91.797,-890.625
1742204532.83,-992.676,-1000.0,-76.66,-994.141
1742204532.834,-979.004,-96.191,-67.871,-976.074
1742204532.838,-1000.0,803.223,-63.965,-1000.0
1742204532.842,126.465,653.809,-64.453,39.062
1742204532.846,999.512,999.512,-61.523,999.512
1742204532.85,912.109,213.379,-46.387,926.27
1742204532.854,962.402,-590.332,-38.574,956.055
1742204532.858,971.191,647.949,-24.902,975.098
1742204532.862,954.102,166.992,-20.02,951.66
1742204532.866,926.27,136.23,-19.531,933.105
1742204532.87,999.512,928.711,-5.859,999.512
1742204532.874,74.707,-538.574,11.23,35.156
1742204532.877,-1000.0,-1000.0,46.875,-1000.0
1742204532.881,-889.16,-41.992,69.824,-874.023
1742204532.885,533.691,999.512,65.918,550.293
1742204532.889,999.512,407.715,53.711,999.512
1742204532.893,891.602,-509.766,55.176,892.09
1742204532.85,912.109,213.379,-46.387,926.27
1742204532.854,962.402,-590.332,-38.574,956.055
1742204532.858,971.191,647.949,-24.902,975.098
1742204532.862,954.102,166.992,-20.02,951.66
1742204532.866,926.27,136.23,-19.531,933.105
1742204532.87,999.512,928.711,-5.859,999.512
1742204532.874,74.707,-538.574,11.23,35.156
1742204532.877,-1000.0,-1000.0,46.875,-1000.0
1742204532.881,-889.16,-41.992,69.824,-874.023
1742204532.885,533.691,999.512,65.918,550.293
1742204532.889,999.512,407.715,53.711,999.512
1742204532.893,891.602,-509.766,55.176,892.09
1742204532.907,980.957,382.812,49.316,981.934
1742204532.911,966.309,345.215,39.062,966.797
1742204532.915,966.309,-232.422,40.039,966.797
1742204532.919,966.309,423.34,22.949,966.797
1742204532.923,966.309,-525.391,4.883,966.797
1742204532.927,966.309,370.605,9.277,966.797
1742204532.931,972.656,286.621,14.16,967.285
1742204532.934,944.336,-987.793,14.16,979.98
1742204532.938,940.918,-242.188,9.766,890.625
1742204532.942,999.512,-70.801,-17.09,999.512
1742204532.946,-73.242,-863.281,-26.367,560.547
1742204532.95,-1000.0,-1000.0,-14.16,-926.27
1742204532.907,980.957,382.812,49.316,981.934
1742204532.911,966.309,345.215,39.062,966.797
1742204532.915,966.309,-232.422,40.039,966.797
1742204532.919,966.309,423.34,22.949,966.797
1742204532.923,966.309,-525.391,4.883,966.797
1742204532.927,966.309,370.605,9.277,966.797
1742204532.931,972.656,286.621,14.16,967.285
1742204532.934,944.336,-987.793,14.16,979.98
1742204532.938,940.918,-242.188,9.766,890.625
1742204532.942,999.512,-70.801,-17.09,999.512
1742204532.946,-73.242,-863.281,-26.367,560.547
1742204532.95,-1000.0,-1000.0,-14.16,-926.27
1742204532.952,-69.824,496.582,-26.367,135.254
1742204532.956,999.512,999.512,-36.133,999.512
1742204532.96,939.453,-599.121,-43.457,893.555
1742204532.964,945.312,-421.387,-55.176,966.309
1742204532.968,971.68,770.02,-48.828,968.262
1742204532.972,966.309,935.059,-46.875,966.797
1742204532.976,966.309,178.711,-55.176,966.797
1742204532.979,966.309,-949.219,-53.223,967.285
1742204532.983,966.309,-854.004,-58.105,966.797
1742204532.987,966.309,342.773,-41.504,966.797
1742204532.991,966.309,612.305,-22.461,966.797
1742204532.995,966.309,-68.359,-23.438,966.797
1742204532.952,-69.824,496.582,-26.367,135.254
1742204532.956,999.512,999.512,-36.133,999.512
1742204532.96,939.453,-599.121,-43.457,893.555
1742204532.964,945.312,-421.387,-55.176,966.309
1742204532.968,971.68,770.02,-48.828,968.262
1742204532.972,966.309,935.059,-46.875,966.797
1742204532.976,966.309,178.711,-55.176,966.797
1742204532.979,966.309,-949.219,-53.223,967.285
1742204532.983,966.309,-854.004,-58.105,966.797
1742204532.987,966.309,342.773,-41.504,966.797
1742204532.991,966.309,612.305,-22.461,966.797
1742204532.995,966.309,-68.359,-23.438,966.797
1742204532.997,966.309,-396.484,-22.461,966.797
1742204533.001,966.309,-537.109,-28.32,966.797
1742204533.005,966.309,257.324,-19.531,966.797
1742204533.009,982.422,860.352,-22.461,982.91
1742204533.013,907.715,-679.199,-45.898,911.133
1742204533.017,999.512,-124.512,-39.551,999.512
1742204533.021,869.629,645.02,-41.992,908.691
1742204533.024,-573.242,-895.02,-47.363,-580.078
1742204533.028,-1000.0,-1000.0,-50.781,-1000.0
1742204533.032,116.211,635.742,-54.199,375.977
1742204533.036,999.512,873.535,-42.48,999.512
1742204533.04,920.898,-749.023,-53.711,899.902
1742204533.042,957.031,-149.902,-57.617,972.656
1742204533.046,968.75,999.512,-46.875,967.285
1742204533.05,966.309,-346.191,-55.664,966.797
1742204533.054,966.309,-557.129,-48.34,966.797
1742204533.058,966.309,520.996,-50.293,967.285
1742204533.062,966.309,481.445,-50.293,966.797
1742204533.066,966.309,-146.973,-50.293,966.797
1742204533.069,966.309,-428.223,-64.941,966.797
1742204533.073,966.309,-129.883,-68.359,966.797
1742204533.077,966.309,-338.379,-65.918,966.797
1742204533.081,966.309,-280.762,-64.941,966.797
1742204533.085,966.309,685.059,-54.688,966.797
1742204533.042,957.031,-149.902,-57.617,972.656
1742204533.046,968.75,999.512,-46.875,967.285
1742204533.05,966.309,-346.191,-55.664,966.797
1742204533.054,966.309,-557.129,-48.34,966.797
1742204533.058,966.309,520.996,-50.293,967.285
1742204533.062,966.309,481.445,-50.293,966.797
1742204533.066,966.309,-146.973,-50.293,966.797
1742204533.069,966.309,-428.223,-64.941,966.797
1742204533.073,966.309,-129.883,-68.359,966.797
1742204533.077,966.309,-338.379,-65.918,966.797
1742204533.081,966.309,-280.762,-64.941,966.797
1742204533.085,966.309,685.059,-54.688,966.797
1742204533.088,966.309,873.535,-55.176,966.797
1742204533.092,966.309,-758.301,-43.457,966.797
1742204533.096,966.309,-729.004,-29.785,966.797
1742204533.1,966.309,712.402,-55.176,966.797
1742204533.104,966.309,-334.473,-64.453,966.797
1742204533.108,966.309,377.441,-58.594,966.797
1742204533.112,966.309,771.484,-54.688,966.797
1742204533.115,966.309,-1000.0,-62.5,966.797
1742204533.119,966.309,-629.883,-57.617,966.797
1742204533.123,975.098,774.414,-30.762,966.797
1742204533.127,933.594,29.785,-30.762,966.797
1742204533.131,946.777,-59.57,-27.832,966.797
1742204533.088,966.309,873.535,-55.176,966.797
1742204533.092,966.309,-758.301,-43.457,966.797
1742204533.096,966.309,-729.004,-29.785,966.797
1742204533.1,966.309,712.402,-55.176,966.797
1742204533.104,966.309,-334.473,-64.453,966.797
1742204533.108,966.309,377.441,-58.594,966.797
1742204533.112,966.309,771.484,-54.688,966.797
1742204533.115,966.309,-1000.0,-62.5,966.797
1742204533.119,966.309,-629.883,-57.617,966.797
1742204533.123,975.098,774.414,-30.762,966.797
1742204533.127,933.594,29.785,-30.762,966.797
1742204533.131,946.777,-59.57,-27.832,966.797
1742204533.135,999.512,156.25,-23.438,966.797
1742204533.139,-338.867,-1000.0,-29.785,966.797
1742204533.143,-1000.0,-497.559,-11.719,966.797
1742204533.147,643.555,924.316,-21.973,977.051
1742204533.151,999.512,193.359,-33.203,931.152
1742204533.155,930.664,193.359,-15.137,955.078
1742204533.159,922.852,388.184,-25.879,999.512
1742204533.162,-642.578,-982.422,-35.645,-375.488
1742204533.166,-1000.0,-886.23,-45.898,-1000.0
1742204533.17,576.66,727.051,-53.223,628.906
1742204533.174,999.512,561.523,-38.086,999.512
1742204533.178,892.09,-632.812,-33.691,892.09
1742204533.135,999.512,156.25,-23.438,966.797
1742204533.139,-338.867,-1000.0,-29.785,966.797
1742204533.143,-1000.0,-497.559,-11.719,966.797
1742204533.147,643.555,924.316,-21.973,977.051
1742204533.151,999.512,193.359,-33.203,931.152
1742204533.155,930.664,193.359,-15.137,955.078
1742204533.159,922.852,388.184,-25.879,999.512
1742204533.162,-642.578,-982.422,-35.645,-375.488
1742204533.166,-1000.0,-886.23,-45.898,-1000.0
1742204533.17,576.66,727.051,-53.223,628.906
1742204533.174,999.512,561.523,-38.086,999.512
1742204533.178,892.09,-632.812,-33.691,892.09
1742204533.177,989.746,-268.555,-20.996,997.07
1742204533.181,898.438,565.43,-17.578,895.996
1742204533.185,999.512,695.801,-24.414,999.512
1742204533.189,421.387,-262.207,-13.672,562.012
1742204533.193,-950.684,-1000.0,-18.555,-875.0
1742204533.197,-1000.0,104.98,-16.602,-1000.0
1742204533.201,-953.613,483.887,-25.879,-942.871
1742204533.204,-1000.0,-479.492,-47.852,-1000.0
1742204533.208,-1000.0,-939.941,-31.25,-1000.0
1742204533.212,-1000.0,-193.359,-25.879,-1000.0
1742204533.216,-1000.0,195.312,-31.25,-1000.0
1742204533.22,-1000.0,-43.945,-27.832,-1000.0
1742204533.177,989.746,-268.555,-20.996,997.07
1742204533.181,898.438,565.43,-17.578,895.996
1742204533.185,999.512,695.801,-24.414,999.512
1742204533.189,421.387,-262.207,-13.672,562.012
1742204533.193,-950.684,-1000.0,-18.555,-875.0
1742204533.197,-1000.0,104.98,-16.602,-1000.0
1742204533.201,-953.613,483.887,-25.879,-942.871
1742204533.204,-1000.0,-479.492,-47.852,-1000.0
1742204533.208,-1000.0,-939.941,-31.25,-1000.0
1742204533.212,-1000.0,-193.359,-25.879,-1000.0
1742204533.216,-1000.0,195.312,-31.25,-1000.0
1742204533.22,-1000.0,-43.945,-27.832,-1000.0
1742204533.224,-1000.0,585.938,-33.691,-1000.0
1742204533.228,-1000.0,-83.984,-29.297,-1000.0
1742204533.232,-1000.0,-979.98,-46.875,-1000.0
1742204533.236,-1000.0,331.543,-61.523,-1000.0
1742204533.24,-1000.0,540.039,-48.828,-1000.0
1742204533.244,-1000.0,442.383,-48.34,-1000.0
1742204533.248,-1000.0,726.074,-47.852,-1000.0
1742204533.251,-1000.0,-662.109,-44.434,-1000.0
1742204533.255,-1000.0,-1000.0,-46.875,-1000.0
1742204533.259,-1000.0,-4.395,-44.434,-1000.0
1742204533.263,-1000.0,719.238,-66.895,-1000.0
1742204533.267,-1000.0,-437.988,-54.199,-1000.0
1742204533.224,-1000.0,585.938,-33.691,-1000.0
1742204533.228,-1000.0,-83.984,-29.297,-1000.0
1742204533.232,-1000.0,-979.98,-46.875,-1000.0
1742204533.236,-1000.0,331.543,-61.523,-1000.0
1742204533.24,-1000.0,540.039,-48.828,-1000.0
1742204533.244,-1000.0,442.383,-48.34,-1000.0
1742204533.248,-1000.0,726.074,-47.852,-1000.0
1742204533.251,-1000.0,-662.109,-44.434,-1000.0
1742204533.255,-1000.0,-1000.0,-46.875,-1000.0
1742204533.259,-1000.0,-4.395,-44.434,-1000.0
1742204533.263,-1000.0,719.238,-66.895,-1000.0
1742204533.267,-1000.0,-437.988,-54.199,-1000.0
1742204533.282,-1000.0,-534.668,-32.715,-1000.0
1742204533.286,-1000.0,17.578,-40.039,-1000.0
1742204533.29,-1000.0,32.227,-26.367,-1000.0
1742204533.294,-1000.0,680.664,-35.645,-1000.0
1742204533.298,-1000.0,-592.773,-35.645,-1000.0
1742204533.302,-1000.0,-30.762,-29.297,-1000.0
1742204533.306,-1000.0,850.098,-49.316,-1000.0
1742204533.309,-1000.0,-871.582,-40.527,-1000.0
1742204533.313,-1000.0,-298.828,-44.434,-1000.0
1742204533.317,-1000.0,536.621,-51.758,-1000.0
1742204533.321,-1000.0,-806.152,-43.945,-1000.0
1742204533.325,-1000.0,-651.367,-46.387,-1000.0
1742204533.282,-1000.0,-534.668,-32.715,-1000.0
1742204533.286,-1000.0,17.578,-40.039,-1000.0
1742204533.29,-1000.0,32.227,-26.367,-1000.0
1742204533.294,-1000.0,680.664,-35.645,-1000.0
1742204533.298,-1000.0,-592.773,-35.645,-1000.0
1742204533.302,-1000.0,-30.762,-29.297,-1000.0
1742204533.306,-1000.0,850.098,-49.316,-1000.0
1742204533.309,-1000.0,-871.582,-40.527,-1000.0
1742204533.313,-1000.0,-298.828,-44.434,-1000.0
1742204533.317,-1000.0,536.621,-51.758,-1000.0
1742204533.321,-1000.0,-806.152,-43.945,-1000.0
1742204533.325,-1000.0,-651.367,-46.387,-1000.0
1742204533.327,-1000.0,668.945,-38.574,-1000.0
1742204533.331,-1000.0,135.742,-50.781,-1000.0
1742204533.335,-1000.0,-708.008,-44.922,-1000.0
1742204533.339,-1000.0,4.883,-34.18,-1000.0
1742204533.343,-1000.0,-137.695,-49.316,-1000.0
1742204533.347,-1000.0,482.91,-39.551,-1000.0
1742204533.351,-1000.0,934.57,-49.805,-1000.0
1742204533.354,-1000.0,-781.738,-63.965,-1000.0
1742204533.358,-1000.0,-771.484,-43.457,-1000.0
1742204533.362,-931.641,158.691,-55.176,-957.52
1742204533.366,-1000.0,-484.863,-47.363,-1000.0
1742204533.37,-770.02,310.059,-35.645,-1000.0
1742204533.327,-1000.0,668.945,-38.574,-1000.0
1742204533.331,-1000.0,135.742,-50.781,-1000.0
1742204533.335,-1000.0,-708.008,-44.922,-1000.0
1742204533.339,-1000.0,4.883,-34.18,-1000.0
1742204533.343,-1000.0,-137.695,-49.316,-1000.0
1742204533.347,-1000.0,482.91,-39.551,-1000.0
1742204533.351,-1000.0,934.57,-49.805,-1000.0
1742204533.354,-1000.0,-781.738,-63.965,-1000.0
1742204533.358,-1000.0,-771.484,-43.457,-1000.0
1742204533.362,-931.641,158.691,-55.176,-957.52
1742204533.366,-1000.0,-484.863,-47.363,-1000.0
1742204533.37,-770.02,310.059,-35.645,-1000.0
1742204533.372,744.629,999.512,-49.805,419.922
1742204533.376,999.512,252.93,-45.898,999.512
1742204533.38,-428.711,-879.395,-43.945,-598.633
1742204533.384,-1000.0,-500.488,-41.504,-1000.0
1742204533.388,-930.176,40.527,-42.48,-925.781
1742204533.392,-1000.0,710.449,-53.223,-1000.0
1742204533.396,-1000.0,117.676,-51.758,-1000.0
1742204533.399,-938.477,-1000.0,-53.711,-931.152
1742204533.403,-1000.0,-309.57,-52.734,-1000.0
1742204533.407,-380.371,828.125,-42.48,-724.609
1742204533.411,940.43,999.512,-50.293,746.094
1742204533.415,984.375,314.941,-39.551,999.512
1742204533.372,744.629,999.512,-49.805,419.922
1742204533.376,999.512,252.93,-45.898,999.512
1742204533.38,-428.711,-879.395,-43.945,-598.633
1742204533.384,-1000.0,-500.488,-41.504,-1000.0
1742204533.388,-930.176,40.527,-42.48,-925.781
1742204533.392,-1000.0,710.449,-53.223,-1000.0
1742204533.396,-1000.0,117.676,-51.758,-1000.0
1742204533.399,-938.477,-1000.0,-53.711,-931.152
1742204533.403,-1000.0,-309.57,-52.734,-1000.0
1742204533.407,-380.371,828.125,-42.48,-724.609
1742204533.411,940.43,999.512,-50.293,746.094
1742204533.415,984.375,314.941,-39.551,999.512
1742204533.417,925.293,-729.492,-40.527,900.879
1742204533.421,994.629,-43.945,-51.758,999.512
1742204533.425,905.762,901.855,-37.109,903.32
1742204533.429,999.512,546.387,-45.41,999.512
1742204533.433,826.66,-769.043,-54.199,750.977
1742204533.437,-637.207,-1000.0,-48.34,-705.566
1742204533.441,-1000.0,-867.188,-55.176,-1000.0
1742204533.444,-926.758,-482.422,-51.758,-931.152
1742204533.448,-1000.0,241.699,-60.059,-1000.0
1742204533.452,-1000.0,-123.535,-47.363,-1000.0
1742204533.456,-1000.0,-953.613,-38.574,-1000.0
1742204533.46,-1000.0,22.461,-47.852,-1000.0
1742204533.417,925.293,-729.492,-40.527,900.879
1742204533.421,994.629,-43.945,-51.758,999.512
1742204533.425,905.762,901.855,-37.109,903.32
1742204533.429,999.512,546.387,-45.41,999.512
1742204533.433,826.66,-769.043,-54.199,750.977
1742204533.437,-637.207,-1000.0,-48.34,-705.566
1742204533.441,-1000.0,-867.188,-55.176,-1000.0
1742204533.444,-926.758,-482.422,-51.758,-931.152
1742204533.448,-1000.0,241.699,-60.059,-1000.0
1742204533.452,-1000.0,-123.535,-47.363,-1000.0
1742204533.456,-1000.0,-953.613,-38.574,-1000.0
1742204533.46,-1000.0,22.461,-47.852,-1000.0
1742204533.462,-1000.0,759.766,-38.574,-1000.0
1742204533.466,-1000.0,-116.211,-50.781,-1000.0
1742204533.47,-1000.0,157.227,-49.805,-1000.0
1742204533.474,-1000.0,506.836,-43.457,-1000.0
1742204533.478,-942.383,-725.586,-49.805,-946.289
1742204533.482,-1000.0,41.992,-31.738,-1000.0
1742204533.486,-873.535,446.777,-35.645,-911.133
1742204533.489,496.582,667.969,-51.758,457.031
1742204533.493,999.512,144.043,-48.828,999.512
1742204533.497,730.957,-1000.0,-50.781,439.941
1742204533.501,-768.066,-904.297,-49.316,-941.406
1742204533.505,-986.328,230.469,-44.434,-934.57
1742204533.462,-1000.0,759.766,-38.574,-1000.0
1742204533.466,-1000.0,-116.211,-50.781,-1000.0
1742204533.47,-1000.0,157.227,-49.805,-1000.0
1742204533.474,-1000.0,506.836,-43.457,-1000.0
1742204533.478,-942.383,-725.586,-49.805,-946.289
1742204533.482,-1000.0,41.992,-31.738,-1000.0
1742204533.486,-873.535,446.777,-35.645,-911.133
1742204533.489,496.582,667.969,-51.758,457.031
1742204533.493,999.512,144.043,-48.828,999.512
1742204533.497,730.957,-1000.0,-50.781,439.941
1742204533.501,-768.066,-904.297,-49.316,-941.406
1742204533.505,-986.328,230.469,-44.434,-934.57
1742204533.509,633.789,999.512,-43.457,609.863
1742204533.513,999.512,539.062,-34.668,999.512
1742204533.517,891.602,-760.742,-39.551,892.09
1742204533.521,981.934,69.336,-35.645,982.422
1742204533.525,966.309,969.727,-34.18,966.797
1742204533.529,966.309,914.551,-38.574,966.797
1742204533.533,966.309,31.25,-37.598,966.797
1742204533.536,966.309,-877.441,-43.945,966.797
1742204533.54,966.309,-313.477,-39.062,966.797
1742204533.544,966.309,184.082,-31.25,966.797
1742204533.548,966.309,474.609,-45.41,966.797
1742204533.552,966.309,-557.129,-44.434,966.797
1742204533.509,633.789,999.512,-43.457,609.863
1742204533.513,999.512,539.062,-34.668,999.512
1742204533.517,891.602,-760.742,-39.551,892.09
1742204533.521,981.934,69.336,-35.645,982.422
1742204533.525,966.309,969.727,-34.18,966.797
1742204533.529,966.309,914.551,-38.574,966.797
1742204533.533,966.309,31.25,-37.598,966.797
1742204533.536,966.309,-877.441,-43.945,966.797
1742204533.54,966.309,-313.477,-39.062,966.797
1742204533.544,966.309,184.082,-31.25,966.797
1742204533.548,966.309,474.609,-45.41,966.797
1742204533.552,966.309,-557.129,-44.434,966.797
1742204533.552,966.309,-674.805,-34.18,966.797
1742204533.556,966.309,100.586,-28.32,966.797
1742204533.56,966.309,311.035,-13.184,966.797
1742204533.564,966.309,740.234,-27.832,966.797
1742204533.568,966.309,-710.938,-30.273,966.797
1742204533.572,965.82,-214.844,-20.508,966.797
1742204533.576,966.309,864.258,-38.086,966.797
1742204533.579,966.309,-725.586,-40.039,966.797
1742204533.583,966.309,-107.91,-41.504,966.797
1742204533.587,966.309,530.762,-39.551,966.797
1742204533.591,966.309,-572.266,-40.527,966.797
1742204533.595,966.309,-501.953,-58.594,966.797
1742204533.552,966.309,-674.805,-34.18,966.797
1742204533.556,966.309,100.586,-28.32,966.797
1742204533.56,966.309,311.035,-13.184,966.797
1742204533.564,966.309,740.234,-27.832,966.797
1742204533.568,966.309,-710.938,-30.273,966.797
1742204533.572,965.82,-214.844,-20.508,966.797
1742204533.576,966.309,864.258,-38.086,966.797
1742204533.579,966.309,-725.586,-40.039,966.797
1742204533.583,966.309,-107.91,-41.504,966.797
1742204533.587,966.309,530.762,-39.551,966.797
1742204533.591,966.309,-572.266,-40.527,966.797
1742204533.595,966.309,-501.953,-58.594,966.797
1742204533.599,966.309,608.398,-53.223,966.797
1742204533.603,966.309,458.496,-59.57,966.797
1742204533.607,966.309,-647.461,-59.57,966.797
1742204533.611,966.309,-203.613,-58.105,966.797
1742204533.615,966.309,272.949,-71.289,966.797
1742204533.619,966.309,747.07,-51.758,966.797
1742204533.623,976.562,770.996,-48.828,968.262
1742204533.626,928.223,-808.594,-53.711,970.703
1742204533.63,965.332,-870.605,-35.156,894.531
1742204533.634,999.512,131.348,-30.273,999.512
1742204533.638,-344.727,-694.824,-22.949,313.965
1742204533.642,-1000.0,-1000.0,-14.16,-932.129
1742204533.599,966.309,608.398,-53.223,966.797
1742204533.603,966.309,458.496,-59.57,966.797
1742204533.607,966.309,-647.461,-59.57,966.797
1742204533.611,966.309,-203.613,-58.105,966.797
1742204533.615,966.309,272.949,-71.289,966.797
1742204533.619,966.309,747.07,-51.758,966.797
1742204533.623,976.562,770.996,-48.828,968.262
1742204533.626,928.223,-808.594,-53.711,970.703
1742204533.63,965.332,-870.605,-35.156,894.531
1742204533.634,999.512,131.348,-30.273,999.512
1742204533.638,-344.727,-694.824,-22.949,313.965
1742204533.642,-1000.0,-1000.0,-14.16,-932.129
1742204533.657,296.875,723.633,-14.16,409.668
1742204533.661,999.512,771.973,-10.742,999.512
1742204533.665,900.879,-557.617,-18.555,882.324
1742204533.669,985.352,476.562,-18.555,993.652
1742204533.673,908.691,-37.109,-19.043,912.598
1742204533.677,999.512,271.973,-23.926,999.512
1742204533.681,842.773,663.086,-30.273,870.117
1742204533.684,-547.363,-908.691,-42.969,-496.094
1742204533.688,-1000.0,-1000.0,-40.039,-1000.0
1742204533.692,-855.957,138.672,-38.574,-813.965
1742204533.696,406.25,999.512,-44.434,479.492
1742204533.7,999.512,641.113,-26.367,999.512
1742204533.657,296.875,723.633,-14.16,409.668
1742204533.661,999.512,771.973,-10.742,999.512
1742204533.665,900.879,-557.617,-18.555,882.324
1742204533.669,985.352,476.562,-18.555,993.652
1742204533.673,908.691,-37.109,-19.043,912.598
1742204533.677,999.512,271.973,-23.926,999.512
1742204533.681,842.773,663.086,-30.273,870.117
1742204533.684,-547.363,-908.691,-42.969,-496.094
1742204533.688,-1000.0,-1000.0,-40.039,-1000.0
1742204533.692,-855.957,138.672,-38.574,-813.965
1742204533.696,406.25,999.512,-44.434,479.492
1742204533.7,999.512,641.113,-26.367,999.512
1742204533.702,820.312,-486.816,-19.531,851.074
1742204533.706,-474.121,-1000.0,-26.855,-470.703
1742204533.71,-1000.0,-720.215,-28.809,-1000.0
1742204533.714,-211.426,673.34,-32.227,47.852
1742204533.718,999.512,999.512,-30.273,999.512
1742204533.722,886.23,73.73,-28.32,853.516
1742204533.726,-571.777,-927.246,-27.832,-554.688
1742204533.729,-1000.0,-1000.0,-24.902,-1000.0
1742204533.733,-925.781,149.902,-40.527,-925.781
1742204533.737,-1000.0,206.055,-41.016,-1000.0
1742204533.741,-999.023,-946.289,-40.039,-993.652
1742204533.745,-943.848,-2.441,-43.457,-953.125
1742204533.702,820.312,-486.816,-19.531,851.074
1742204533.706,-474.121,-1000.0,-26.855,-470.703
1742204533.71,-1000.0,-720.215,-28.809,-1000.0
1742204533.714,-211.426,673.34,-32.227,47.852
1742204533.718,999.512,999.512,-30.273,999.512
1742204533.722,886.23,73.73,-28.32,853.516
1742204533.726,-571.777,-927.246,-27.832,-554.688
1742204533.729,-1000.0,-1000.0,-24.902,-1000.0
1742204533.733,-925.781,149.902,-40.527,-925.781
1742204533.737,-1000.0,206.055,-41.016,-1000.0
1742204533.741,-999.023,-946.289,-40.039,-993.652
1742204533.745,-943.848,-2.441,-43.457,-953.125
1742204533.747,-1000.0,904.785,-40.039,-1000.0
1742204533.751,-270.02,517.09,-66.895,-205.078
1742204533.755,999.512,990.234,-85.938,999.512
1742204533.759,981.934,588.867,-97.656,921.387
1742204533.763,-378.418,-842.773,-122.07,-472.656
1742204533.767,-1000.0,-707.52,-116.211,-1000.0
1742204533.771,-930.176,96.191,-107.91,-934.57
1742204533.774,-1000.0,585.938,-103.516,-886.719
1742204533.778,-994.141,-583.496,-112.305,-927.734
1742204533.782,-952.148,-948.73,-134.277,-965.82
1742204533.786,-1000.0,231.934,-120.605,-1000.0
1742204533.79,-167.48,860.84,-107.91,-334.961
1742204533.792,986.328,937.5,-102.539,967.285
1742204533.796,999.512,-146.973,-91.309,990.723
1742204533.8,5.371,-1000.0,-76.172,-271.484
1742204533.804,-1000.0,-706.055,-62.988,-1000.0
1742204533.808,-926.27,605.469,-49.805,-931.152
1742204533.812,359.863,999.512,-60.059,338.379
1742204533.816,999.512,727.539,-76.172,999.512
1742204533.819,457.031,-598.633,-63.965,129.883
1742204533.823,-879.883,-1000.0,-54.199,-990.234
1742204533.827,-1000.0,-424.805,-34.668,-1000.0
1742204533.831,118.652,750.977,-41.992,83.008
1742204533.835,999.512,999.512,-64.453,999.512
1742204533.792,986.328,937.5,-102.539,967.285
1742204533.796,999.512,-146.973,-91.309,990.723
1742204533.8,5.371,-1000.0,-76.172,-271.484
1742204533.804,-1000.0,-706.055,-62.988,-1000.0
1742204533.808,-926.27,605.469,-49.805,-931.152
1742204533.812,359.863,999.512,-60.059,338.379
1742204533.816,999.512,727.539,-76.172,999.512
1742204533.819,457.031,-598.633,-63.965,129.883
1742204533.823,-879.883,-1000.0,-54.199,-990.234
1742204533.827,-1000.0,-424.805,-34.668,-1000.0
1742204533.831,118.652,750.977,-41.992,83.008
1742204533.835,999.512,999.512,-64.453,999.512
1742204533.837,952.637,-54.688,-51.27,905.273
1742204533.841,-387.695,-1000.0,-70.312,-502.93
1742204533.845,-1000.0,-643.066,-86.914,-1000.0
1742204533.849,333.496,875.977,-77.637,371.582
1742204533.853,999.512,484.863,-80.566,999.512
1742204533.857,996.582,-101.562,-75.684,999.512
1742204533.861,693.359,-187.012,-64.453,507.812
1742204533.864,-787.598,-1000.0,-56.152,-882.324
1742204533.868,-1000.0,-163.574,-78.125,-1000.0
1742204533.872,-949.707,330.078,-96.191,-963.867
1742204533.876,-959.961,-707.031,-89.355,-956.055
1742204533.88,-1000.0,169.922,-86.426,-1000.0
1742204533.837,952.637,-54.688,-51.27,905.273
1742204533.841,-387.695,-1000.0,-70.312,-502.93
1742204533.845,-1000.0,-643.066,-86.914,-1000.0
1742204533.849,333.496,875.977,-77.637,371.582
1742204533.853,999.512,484.863,-80.566,999.512
1742204533.857,996.582,-101.562,-75.684,999.512
1742204533.861,693.359,-187.012,-64.453,507.812
1742204533.864,-787.598,-1000.0,-56.152,-882.324
1742204533.868,-1000.0,-163.574,-78.125,-1000.0
1742204533.872,-949.707,330.078,-96.191,-963.867
1742204533.876,-959.961,-707.031,-89.355,-956.055
1742204533.88,-1000.0,169.922,-86.426,-1000.0
1742204533.883,-891.113,710.449,-62.012,-880.859
1742204533.887,563.477,719.727,-38.574,577.148
1742204533.891,999.512,427.246,-59.082,999.512
1742204533.895,891.602,-55.664,-71.289,893.066
1742204533.899,995.605,-177.734,-65.918,996.582
1742204533.903,917.969,603.027,-58.105,918.945
1742204533.907,995.117,291.992,-44.434,996.582
1742204533.91,929.688,-936.035,-66.406,926.758
1742204533.914,-492.188,-974.609,-82.52,-492.676
1742204533.918,-1000.0,-1000.0,-68.848,-1000.0
1742204533.922,-973.145,-224.609,-67.383,-984.375
1742204533.926,-930.664,849.609,-61.035,-887.207
1742204533.883,-891.113,710.449,-62.012,-880.859
1742204533.887,563.477,719.727,-38.574,577.148
1742204533.891,999.512,427.246,-59.082,999.512
1742204533.895,891.602,-55.664,-71.289,893.066
1742204533.899,995.605,-177.734,-65.918,996.582
1742204533.903,917.969,603.027,-58.105,918.945
1742204533.907,995.117,291.992,-44.434,996.582
1742204533.91,929.688,-936.035,-66.406,926.758
1742204533.914,-492.188,-974.609,-82.52,-492.676
1742204533.918,-1000.0,-1000.0,-68.848,-1000.0
1742204533.922,-973.145,-224.609,-67.383,-984.375
1742204533.926,-930.664,849.609,-61.035,-887.207
1742204533.928,548.34,999.512,-68.848,614.746
1742204533.932,999.512,702.637,-73.242,999.512
1742204533.936,-232.422,-686.035,-68.848,-285.645
1742204533.94,-1000.0,-1000.0,-62.5,-1000.0
1742204533.944,-812.988,-257.324,-46.875,-812.988
1742204533.948,498.047,858.398,-43.457,501.953
1742204533.952,999.512,228.027,-46.387,999.512
1742204533.955,750.488,-966.797,-43.457,635.742
1742204533.959,-741.211,-1000.0,-48.34,-811.523
1742204533.963,-987.305,16.113,-47.363,-967.285
1742204533.967,542.48,999.512,-51.27,550.293
1742204533.971,999.512,598.145,-55.664,999.512
1742204533.928,548.34,999.512,-68.848,614.746
1742204533.932,999.512,702.637,-73.242,999.512
1742204533.936,-232.422,-686.035,-68.848,-285.645
1742204533.94,-1000.0,-1000.0,-62.5,-1000.0
1742204533.944,-812.988,-257.324,-46.875,-812.988
1742204533.948,498.047,858.398,-43.457,501.953
1742204533.952,999.512,228.027,-46.387,999.512
1742204533.955,750.488,-966.797,-43.457,635.742
1742204533.959,-741.211,-1000.0,-48.34,-811.523
1742204533.963,-987.305,16.113,-47.363,-967.285
1742204533.967,542.48,999.512,-51.27,550.293
1742204533.971,999.512,598.145,-55.664,999.512
1742204533.974,546.387,-683.594,-53.711,402.344
1742204533.978,-840.332,-1000.0,-55.664,-912.109
1742204533.982,-1000.0,-383.301,-40.527,-1000.0
1742204533.986,289.551,936.035,-28.32,332.52
1742204533.99,999.512,440.43,-43.457,999.512
1742204533.994,999.512,-348.633,-39.551,972.168
1742204533.998,307.617,-293.945,-33.691,79.102
1742204534.001,-998.047,-1000.0,-38.574,-1000.0
1742204534.005,-1000.0,-536.621,-42.969,-983.398
1742204534.009,-979.004,171.387,-50.781,-994.141
1742204534.013,-953.125,-733.887,-53.223,-947.754
1742204534.017,-1000.0,-78.613,-36.621,-1000.0
1742204533.974,546.387,-683.594,-53.711,402.344
1742204533.978,-840.332,-1000.0,-55.664,-912.109
1742204533.982,-1000.0,-383.301,-40.527,-1000.0
1742204533.986,289.551,936.035,-28.32,332.52
1742204533.99,999.512,440.43,-43.457,999.512
1742204533.994,999.512,-348.633,-39.551,972.168
1742204533.998,307.617,-293.945,-33.691,79.102
1742204534.001,-998.047,-1000.0,-38.574,-1000.0
1742204534.005,-1000.0,-536.621,-42.969,-983.398
1742204534.009,-979.004,171.387,-50.781,-994.141
1742204534.013,-953.125,-733.887,-53.223,-947.754
1742204534.017,-1000.0,-78.613,-36.621,-1000.0
1742204534.032,-875.977,999.512,-16.113,-855.957
1742204534.036,510.254,872.07,-20.996,532.227
1742204534.04,999.512,395.508,-33.691,999.512
1742204534.044,802.246,31.25,-24.414,789.062
1742204534.048,-467.773,-784.668,-16.602,-487.305
1742204534.052,-1000.0,-283.691,-25.391,-1000.0
1742204534.056,-874.023,999.512,-27.344,-795.898
1742204534.059,603.027,779.785,-7.324,685.059
1742204534.063,959.961,-605.957,1.953,922.852
1742204534.067,-614.746,-1000.0,-3.906,-632.812
1742204534.071,-1000.0,-610.84,-9.766,-1000.0
1742204534.075,-828.125,647.949,-28.809,-823.242
1742204534.032,-875.977,999.512,-16.113,-855.957
1742204534.036,510.254,872.07,-20.996,532.227
1742204534.04,999.512,395.508,-33.691,999.512
1742204534.044,802.246,31.25,-24.414,789.062
1742204534.048,-467.773,-784.668,-16.602,-487.305
1742204534.052,-1000.0,-283.691,-25.391,-1000.0
1742204534.056,-874.023,999.512,-27.344,-795.898
1742204534.059,603.027,779.785,-7.324,685.059
1742204534.063,959.961,-605.957,1.953,922.852
1742204534.067,-614.746,-1000.0,-3.906,-632.812
1742204534.071,-1000.0,-610.84,-9.766,-1000.0
1742204534.075,-828.125,647.949,-28.809,-823.242
1742204534.077,507.324,999.512,-10.742,554.688
1742204534.081,999.512,553.711,0.977,999.512
1742204534.085,4.883,-741.699,-7.324,-189.453
1742204534.089,-1000.0,-1000.0,-14.648,-1000.0
1742204534.093,-947.266,213.379,-24.414,-933.105
1742204534.097,512.207,999.512,-34.668,520.996
1742204534.101,999.512,352.539,-58.105,999.512
1742204534.104,-442.383,-1000.0,-88.379,-538.574
1742204534.108,-1000.0,-238.77,-66.406,-1000.0
1742204534.112,-929.688,406.738,-65.43,-927.734
1742204534.116,-1000.0,-850.098,-74.219,-1000.0
1742204534.12,-1000.0,-145.996,-59.082,-1000.0
1742204534.077,507.324,999.512,-10.742,554.688
1742204534.081,999.512,553.711,0.977,999.512
1742204534.085,4.883,-741.699,-7.324,-189.453
1742204534.089,-1000.0,-1000.0,-14.648,-1000.0
1742204534.093,-947.266,213.379,-24.414,-933.105
1742204534.097,512.207,999.512,-34.668,520.996
1742204534.101,999.512,352.539,-58.105,999.512
1742204534.104,-442.383,-1000.0,-88.379,-538.574
1742204534.108,-1000.0,-238.77,-66.406,-1000.0
1742204534.112,-929.688,406.738,-65.43,-927.734
1742204534.116,-1000.0,-850.098,-74.219,-1000.0
1742204534.12,-1000.0,-145.996,-59.082,-1000.0
1742204534.122,-932.617,474.609,-59.57,-933.105
1742204534.126,-1000.0,-319.336,-48.828,-1000.0
1742204534.13,-452.637,220.703,-73.73,-463.379
1742204534.134,918.945,949.219,-84.473,909.18
1742204534.138,995.117,4.395,-50.781,999.023
1742204534.142,919.922,-17.09,-39.551,919.434
1742204534.146,995.605,333.008,-33.203,996.582
1742204534.149,908.203,-640.625,-35.645,909.18
1742204534.153,999.512,-465.82,-43.945,999.512
1742204534.157,856.934,-84.473,-49.316,854.492
1742204534.161,-614.258,-893.066,-45.41,-617.676
1742204534.165,-1000.0,-547.363,-33.203,-1000.0
1742204534.167,-979.492,131.348,-26.855,-998.047
1742204534.171,-891.602,166.016,-27.344,-790.039
1742204534.175,509.766,847.656,-32.227,604.492
1742204534.179,999.512,665.527,-41.504,999.512
1742204534.183,871.582,-722.656,-44.922,773.438
1742204534.187,-586.914,-1000.0,-37.109,-669.434
1742204534.191,-1000.0,-56.641,-39.551,-979.492
1742204534.194,638.672,999.512,-32.227,651.367
1742204534.198,999.512,86.426,-35.156,999.512
1742204534.202,891.602,-808.105,-48.828,893.066
1742204534.206,997.07,354.004,-45.898,998.047
1742204534.21,914.062,611.328,-52.246,915.527
1742204534.167,-979.492,131.348,-26.855,-998.047
1742204534.171,-891.602,166.016,-27.344,-790.039
1742204534.175,509.766,847.656,-32.227,604.492
1742204534.179,999.512,665.527,-41.504,999.512
1742204534.183,871.582,-722.656,-44.922,773.438
1742204534.187,-586.914,-1000.0,-37.109,-669.434
1742204534.191,-1000.0,-56.641,-39.551,-979.492
1742204534.194,638.672,999.512,-32.227,651.367
1742204534.198,999.512,86.426,-35.156,999.512
1742204534.202,891.602,-808.105,-48.828,893.066
1742204534.206,997.07,354.004,-45.898,998.047
1742204534.21,914.062,611.328,-52.246,915.527
1742204534.213,999.512,-291.504,-35.645,999.512
1742204534.217,899.902,10.254,-25.879,906.738
1742204534.221,-530.762,-558.105,-43.945,-516.602
1742204534.225,-1000.0,-446.777,-34.18,-1000.0
1742204534.229,-925.781,-205.078,-40.527,-926.27
1742204534.233,-1000.0,35.645,-33.203,-1000.0
1742204534.237,-941.895,-267.09,-28.809,-938.965
1742204534.24,-1000.0,-1000.0,-61.035,-1000.0
1742204534.244,-882.812,136.719,-65.43,-844.727
1742204534.248,574.707,999.512,-68.848,618.652
1742204534.252,999.512,45.898,-61.035,999.512
1742204534.256,891.602,-416.504,-37.598,894.531
1742204534.213,999.512,-291.504,-35.645,999.512
1742204534.217,899.902,10.254,-25.879,906.738
1742204534.221,-530.762,-558.105,-43.945,-516.602
1742204534.225,-1000.0,-446.777,-34.18,-1000.0
1742204534.229,-925.781,-205.078,-40.527,-926.27
1742204534.233,-1000.0,35.645,-33.203,-1000.0
1742204534.237,-941.895,-267.09,-28.809,-938.965
1742204534.24,-1000.0,-1000.0,-61.035,-1000.0
1742204534.244,-882.812,136.719,-65.43,-844.727
1742204534.248,574.707,999.512,-68.848,618.652
1742204534.252,999.512,45.898,-61.035,999.512
1742204534.256,891.602,-416.504,-37.598,894.531
1742204534.259,982.422,132.812,-43.457,983.398
1742204534.263,983.398,79.59,-44.434,982.91
1742204534.267,894.043,-59.082,-46.875,896.973
1742204534.271,999.512,571.289,-35.156,999.512
1742204534.275,652.832,120.605,-25.879,634.277
1742204534.279,-819.824,-1000.0,-34.18,-821.777
1742204534.283,-1000.0,-854.98,-23.438,-1000.0
1742204534.286,-936.035,18.066,-18.066,-937.988
1742204534.29,-1000.0,299.316,-11.23,-1000.0
1742204534.294,-977.539,-360.352,4.883,-979.492
1742204534.298,-977.051,-777.344,10.742,-975.098
1742204534.302,-1000.0,428.711,25.391,-1000.0
1742204534.302,124.512,999.512,-9.766,83.008
1742204534.306,999.512,748.535,-34.18,999.512
1742204534.31,917.48,51.758,7.812,941.406
1742204534.314,981.445,252.93,-4.395,941.895
1742204534.318,-287.109,-698.73,-36.133,-387.695
1742204534.322,-1000.0,-574.707,-38.086,-1000.0
1742204534.326,-333.984,999.512,-26.855,-191.406
1742204534.329,999.512,767.09,1.465,999.512
1742204534.333,864.746,-670.41,-4.883,792.969
1742204534.337,-575.195,-1000.0,-18.555,-647.461
1742204534.341,-1000.0,-524.902,-22.461,-1000.0
1742204534.345,-310.547,832.031,-39.551,-163.574
1742204534.302,124.512,999.512,-9.766,83.008
1742204534.306,999.512,748.535,-34.18,999.512
1742204534.31,917.48,51.758,7.812,941.406
1742204534.314,981.445,252.93,-4.395,941.895
1742204534.318,-287.109,-698.73,-36.133,-387.695
1742204534.322,-1000.0,-574.707,-38.086,-1000.0
1742204534.326,-333.984,999.512,-26.855,-191.406
1742204534.329,999.512,767.09,1.465,999.512
1742204534.333,864.746,-670.41,-4.883,792.969
1742204534.337,-575.195,-1000.0,-18.555,-647.461
1742204534.341,-1000.0,-524.902,-22.461,-1000.0
1742204534.345,-310.547,832.031,-39.551,-163.574
1742204534.349,999.512,962.402,-31.25,999.512
1742204534.353,860.84,-399.414,-28.809,842.773
1742204534.357,-572.266,-1000.0,-33.203,-590.332
1742204534.361,-1000.0,-430.664,-18.066,-1000.0
1742204534.365,-331.055,759.766,-43.457,-168.945
1742204534.369,999.023,999.512,-48.34,999.512
1742204534.373,868.164,460.449,-44.434,852.051
1742204534.376,-636.23,-1000.0,-54.199,-619.141
1742204534.38,-1000.0,-359.375,-54.688,-1000.0
1742204534.384,-925.781,681.152,-78.613,-925.781
1742204534.388,-1000.0,-712.891,-64.453,-1000.0
1742204534.392,-971.191,-134.766,-48.828,-969.727
1742204534.349,999.512,962.402,-31.25,999.512
1742204534.353,860.84,-399.414,-28.809,842.773
1742204534.357,-572.266,-1000.0,-33.203,-590.332
1742204534.361,-1000.0,-430.664,-18.066,-1000.0
1742204534.365,-331.055,759.766,-43.457,-168.945
1742204534.369,999.023,999.512,-48.34,999.512
1742204534.373,868.164,460.449,-44.434,852.051
1742204534.376,-636.23,-1000.0,-54.199,-619.141
1742204534.38,-1000.0,-359.375,-54.688,-1000.0
1742204534.384,-925.781,681.152,-78.613,-925.781
1742204534.388,-1000.0,-712.891,-64.453,-1000.0
1742204534.392,-971.191,-134.766,-48.828,-969.727
1742204534.407,-987.793,597.168,-61.523,-993.652
1742204534.411,-1000.0,-126.953,-57.129,-1000.0
1742204534.415,209.961,619.629,-65.43,221.191
1742204534.419,999.512,967.773,-61.035,999.512
1742204534.423,901.855,-610.84,-62.012,906.738
1742204534.427,968.262,104.004,-83.496,967.773
1742204534.431,983.398,493.652,-67.871,984.863
1742204534.434,905.273,-904.785,-61.523,903.809
1742204534.438,999.512,36.133,-47.852,999.512
1742204534.442,821.289,151.367,-37.598,789.551
1742204534.446,-643.555,-1000.0,-62.988,-675.293
1742204534.45,-1000.0,199.707,-52.246,-1000.0
1742204534.407,-987.793,597.168,-61.523,-993.652
1742204534.411,-1000.0,-126.953,-57.129,-1000.0
1742204534.415,209.961,619.629,-65.43,221.191
1742204534.419,999.512,967.773,-61.035,999.512
1742204534.423,901.855,-610.84,-62.012,906.738
1742204534.427,968.262,104.004,-83.496,967.773
1742204534.431,983.398,493.652,-67.871,984.863
1742204534.434,905.273,-904.785,-61.523,903.809
1742204534.438,999.512,36.133,-47.852,999.512
1742204534.442,821.289,151.367,-37.598,789.551
1742204534.446,-643.555,-1000.0,-62.988,-675.293
1742204534.45,-1000.0,199.707,-52.246,-1000.0
1742204534.452,-926.758,552.246,-65.918,-928.711
1742204534.456,-1000.0,-995.117,-75.195,-1000.0
1742204534.46,-969.727,-811.035,-42.969,-970.215
1742204534.464,-990.723,524.414,-52.734,-991.211
1742204534.468,-1000.0,611.328,-56.641,-1000.0
1742204534.472,229.004,820.312,-60.059,210.449
1742204534.476,999.512,906.738,-61.523,999.512
1742204534.479,900.879,-693.848,-43.457,906.738
1742204534.483,969.238,-1000.0,-41.504,967.773
1742204534.487,970.215,375.0,-42.969,973.633
1742204534.491,952.637,811.523,-68.359,946.289
1742204534.495,928.711,-263.184,-73.242,943.359
1742204534.452,-926.758,552.246,-65.918,-928.711
1742204534.456,-1000.0,-995.117,-75.195,-1000.0
1742204534.46,-969.727,-811.035,-42.969,-970.215
1742204534.464,-990.723,524.414,-52.734,-991.211
1742204534.468,-1000.0,611.328,-56.641,-1000.0
1742204534.472,229.004,820.312,-60.059,210.449
1742204534.476,999.512,906.738,-61.523,999.512
1742204534.479,900.879,-693.848,-43.457,906.738
1742204534.483,969.238,-1000.0,-41.504,967.773
1742204534.487,970.215,375.0,-42.969,973.633
1742204534.491,952.637,811.523,-68.359,946.289
1742204534.495,928.711,-263.184,-73.242,943.359
1742204534.498,999.512,-540.039,-32.227,999.512
1742204534.502,-6.348,-575.195,-33.203,-95.703
1742204534.506,-1000.0,-792.969,-33.203,-1000.0
1742204534.51,-892.578,420.41,-29.785,-903.809
1742204534.514,-1000.0,-34.18,-48.828,-1000.0
1742204534.518,-570.312,368.652,-42.969,-333.496
1742204534.522,866.699,989.258,-46.387,944.336
1742204534.525,999.512,-543.457,-52.734,980.469
1742204534.529,911.133,-393.066,-34.668,931.152
1742204534.533,996.094,796.875,-36.133,981.445
1742204534.537,893.555,-613.77,-42.48,909.668
1742204534.541,999.512,-238.77,-30.273,999.512
1742204534.542,537.598,430.176,-24.902,353.516
1742204534.546,-898.438,-999.023,-29.297,-945.312
1742204534.55,-1000.0,-647.461,-43.945,-1000.0
1742204534.554,-960.938,762.207,-37.598,-912.598
1742204534.558,-958.008,604.98,-32.227,-853.027
1742204534.562,-1000.0,-512.207,-44.922,-1000.0
1742204534.566,-891.113,-100.586,-37.109,-883.789
1742204534.569,581.543,988.77,-54.199,589.355
1742204534.573,999.512,328.613,-60.059,999.512
1742204534.577,963.379,-887.695,-49.316,968.262
1742204534.581,798.828,-1000.0,-72.754,602.539
1742204534.585,-806.152,-989.258,-61.523,-908.691
1742204534.587,-973.145,215.332,-78.613,-915.039
1742204534.591,602.051,960.938,-76.66,609.863
1742204534.595,999.512,267.09,-47.852,999.512
1742204534.599,948.242,360.352,-69.336,917.969
1742204534.603,-246.582,-687.988,-58.105,-295.898
1742204534.607,-1000.0,-670.41,-70.312,-1000.0
1742204534.611,-937.5,221.68,-70.312,-939.453
1742204534.614,-999.023,-247.07,-35.645,-995.605
1742204534.618,-949.219,-885.742,-53.223,-958.496
1742204534.622,-1000.0,-269.043,-40.039,-1000.0
1742204534.626,-185.059,813.965,-40.039,-128.418
1742204534.63,999.512,999.512,-54.688,999.512
1742204534.634,952.637,108.887,-21.973,949.219
1742204534.638,940.43,-849.121,-41.504,944.336
1742204534.642,973.145,134.277,-37.109,973.633
1742204534.646,983.398,832.031,-52.734,981.445
1742204534.65,894.043,-215.82,-81.055,897.461
1742204534.654,999.512,204.102,-24.902,999.512
1742204534.658,648.926,629.395,-20.02,594.238
1742204534.661,-824.219,-1000.0,-35.645,-846.68
1742204534.665,-1000.0,-848.145,-40.527,-1000.0
1742204534.669,-936.523,687.988,-45.898,-937.012
1742204534.673,-1000.0,-468.262,-16.602,-1000.0
1742204534.677,-937.988,-965.332,-12.207,-937.012
1742204534.634,952.637,108.887,-21.973,949.219
1742204534.638,940.43,-849.121,-41.504,944.336
1742204534.642,973.145,134.277,-37.109,973.633
1742204534.646,983.398,832.031,-52.734,981.445
1742204534.65,894.043,-215.82,-81.055,897.461
1742204534.654,999.512,204.102,-24.902,999.512
1742204534.658,648.926,629.395,-20.02,594.238
1742204534.661,-824.219,-1000.0,-35.645,-846.68
1742204534.665,-1000.0,-848.145,-40.527,-1000.0
1742204534.669,-936.523,687.988,-45.898,-937.012
1742204534.673,-1000.0,-468.262,-16.602,-1000.0
1742204534.677,-937.988,-965.332,-12.207,-937.012
1742204534.677,-1000.0,524.902,-28.809,-1000.0
1742204534.681,-844.238,626.465,-24.414,-788.574
1742204534.685,623.535,953.125,-39.062,672.852
1742204534.689,999.512,439.453,-26.367,999.512
1742204534.693,893.555,-939.453,-14.16,897.461
1742204534.697,982.91,480.469,-25.391,983.398
1742204534.701,982.422,701.172,-31.25,983.398
1742204534.704,908.691,-957.52,-46.875,907.227
1742204534.708,999.512,-264.648,-27.344,999.512
1742204534.712,856.934,206.543,-9.766,830.078
1742204534.716,-597.656,-952.148,-26.367,-630.371
1742204534.72,-1000.0,-27.832,-28.32,-1000.0
1742204534.677,-1000.0,524.902,-28.809,-1000.0
1742204534.681,-844.238,626.465,-24.414,-788.574
1742204534.685,623.535,953.125,-39.062,672.852
1742204534.689,999.512,439.453,-26.367,999.512
1742204534.693,893.555,-939.453,-14.16,897.461
1742204534.697,982.91,480.469,-25.391,983.398
1742204534.701,982.422,701.172,-31.25,983.398
1742204534.704,908.691,-957.52,-46.875,907.227
1742204534.708,999.512,-264.648,-27.344,999.512
1742204534.712,856.934,206.543,-9.766,830.078
1742204534.716,-597.656,-952.148,-26.367,-630.371
1742204534.72,-1000.0,-27.832,-28.32,-1000.0
1742204534.724,-925.781,747.07,-36.133,-926.758
1742204534.728,-1000.0,-814.941,-36.621,-1000.0
1742204534.732,-944.824,-853.027,-39.062,-944.824
1742204534.736,-1000.0,699.219,-50.781,-1000.0
1742204534.74,-907.227,582.031,-38.086,-909.668
1742204534.744,538.086,773.438,-55.176,535.156
1742204534.748,999.512,875.0,-50.781,999.512
1742204534.751,891.602,-790.527,-30.762,892.578
1742204534.755,981.445,-394.043,-49.316,982.422
1742204534.759,982.422,666.504,-40.039,982.91
1742204534.763,908.203,153.32,-49.316,909.668
1742204534.767,999.512,-247.07,-52.734,999.512
1742204534.724,-925.781,747.07,-36.133,-926.758
1742204534.728,-1000.0,-814.941,-36.621,-1000.0
1742204534.732,-944.824,-853.027,-39.062,-944.824
1742204534.736,-1000.0,699.219,-50.781,-1000.0
1742204534.74,-907.227,582.031,-38.086,-909.668
1742204534.744,538.086,773.438,-55.176,535.156
1742204534.748,999.512,875.0,-50.781,999.512
1742204534.751,891.602,-790.527,-30.762,892.578
1742204534.755,981.445,-394.043,-49.316,982.422
1742204534.759,982.422,666.504,-40.039,982.91
1742204534.763,908.203,153.32,-49.316,909.668
1742204534.767,999.512,-247.07,-52.734,999.512
1742204534.769,856.934,-580.566,-24.414,860.352
1742204534.773,-597.656,-1000.0,-45.898,-592.285
1742204534.777,-1000.0,-660.645,-43.945,-1000.0
1742204534.781,-925.781,659.668,-51.758,-925.781
1742204534.785,-1000.0,-537.598,-63.477,-1000.0
1742204534.789,-1000.0,-27.832,-27.832,-1000.0
1742204534.793,-931.152,770.02,-37.598,-935.059
1742204534.796,-1000.0,-851.562,-39.062,-1000.0
1742204534.8,-481.445,64.453,-28.32,-436.035
1742204534.804,906.738,999.512,-31.738,917.48
1742204534.808,999.512,73.73,-20.508,994.629
1742204534.812,917.48,-651.367,-31.738,921.387
1742204534.827,979.98,224.609,-32.227,980.957
1742204534.831,981.445,403.32,-33.691,972.656
1742204534.835,893.066,-553.223,-55.664,906.738
1742204534.839,999.512,288.086,-25.879,999.512
1742204534.843,560.059,334.961,-18.066,379.395
1742204534.847,-885.254,-1000.0,-37.598,-945.801
1742204534.851,-1000.0,-495.605,-42.969,-1000.0
1742204534.854,-942.871,-165.039,-54.688,-956.543
1742204534.858,-1000.0,-467.773,-36.133,-1000.0
1742204534.862,-939.941,-375.977,-27.832,-938.477
1742204534.866,-1000.0,-459.961,-40.527,-1000.0
1742204534.87,-862.305,545.898,-32.227,-837.891
1742204534.827,979.98,224.609,-32.227,980.957
1742204534.831,981.445,403.32,-33.691,972.656
1742204534.835,893.066,-553.223,-55.664,906.738
1742204534.839,999.512,288.086,-25.879,999.512
1742204534.843,560.059,334.961,-18.066,379.395
1742204534.847,-885.254,-1000.0,-37.598,-945.801
1742204534.851,-1000.0,-495.605,-42.969,-1000.0
1742204534.854,-942.871,-165.039,-54.688,-956.543
1742204534.858,-1000.0,-467.773,-36.133,-1000.0
1742204534.862,-939.941,-375.977,-27.832,-938.477
1742204534.866,-1000.0,-459.961,-40.527,-1000.0
1742204534.87,-862.305,545.898,-32.227,-837.891
1742204534.872,601.074,999.512,-39.551,626.465
1742204534.876,999.512,413.086,-36.621,999.512
1742204534.88,820.801,-589.355,-27.344,838.867
1742204534.884,999.512,502.441,-31.738,999.512
1742204534.888,514.648,-237.305,-24.902,311.523
1742204534.892,-911.133,-1000.0,-43.945,-971.68
1742204534.896,-1000.0,-392.09,-46.387,-1000.0
1742204534.899,-929.199,469.727,-17.578,-943.848
1742204534.903,-983.398,-525.391,-23.438,-981.934
1742204534.907,-1000.0,-913.574,-16.602,-1000.0
1742204534.911,34.668,675.781,-18.066,28.809
1742204534.915,999.512,999.512,-17.09,999.512
1742204534.872,601.074,999.512,-39.551,626.465
1742204534.876,999.512,413.086,-36.621,999.512
1742204534.88,820.801,-589.355,-27.344,838.867
1742204534.884,999.512,502.441,-31.738,999.512
1742204534.888,514.648,-237.305,-24.902,311.523
1742204534.892,-911.133,-1000.0,-43.945,-971.68
1742204534.896,-1000.0,-392.09,-46.387,-1000.0
1742204534.899,-929.199,469.727,-17.578,-943.848
1742204534.903,-983.398,-525.391,-23.438,-981.934
1742204534.907,-1000.0,-913.574,-16.602,-1000.0
1742204534.911,34.668,675.781,-18.066,28.809
1742204534.915,999.512,999.512,-17.09,999.512
1742204534.917,921.875,60.547,-8.301,926.758
1742204534.921,956.055,-616.699,-21.973,956.055
1742204534.925,972.168,74.707,-14.648,975.098
1742204534.929,957.52,469.727,-13.184,952.637
1742204534.933,921.387,-532.715,-19.043,931.152
1742204534.937,999.512,-2.441,-5.859,999.512
1742204534.941,53.223,21.484,-9.766,-9.277
1742204534.944,-1000.0,-1000.0,-18.555,-1000.0
1742204534.948,-1000.0,-436.035,-30.762,-1000.0
1742204534.952,-668.945,894.531,-16.113,-405.762
1742204534.956,690.918,687.988,5.371,830.566
1742204534.96,999.512,-342.285,-0.488,999.512
1742204534.917,921.875,60.547,-8.301,926.758
1742204534.921,956.055,-616.699,-21.973,956.055
1742204534.925,972.168,74.707,-14.648,975.098
1742204534.929,957.52,469.727,-13.184,952.637
1742204534.933,921.387,-532.715,-19.043,931.152
1742204534.937,999.512,-2.441,-5.859,999.512
1742204534.941,53.223,21.484,-9.766,-9.277
1742204534.944,-1000.0,-1000.0,-18.555,-1000.0
1742204534.948,-1000.0,-436.035,-30.762,-1000.0
1742204534.952,-668.945,894.531,-16.113,-405.762
1742204534.956,690.918,687.988,5.371,830.566
1742204534.96,999.512,-342.285,-0.488,999.512
1742204534.962,603.516,-618.164,-10.742,449.219
1742204534.966,-837.891,-925.781,-15.137,-925.781
1742204534.97,-1000.0,-45.41,-5.371,-979.492
1742204534.974,424.316,999.512,-2.441,525.879
1742204534.978,999.512,575.684,-17.578,999.512
1742204534.982,910.645,27.344,-11.23,909.668
1742204534.986,917.48,-45.898,-6.836,920.898
1742204534.989,999.512,-556.152,-23.438,999.512
1742204534.993,856.934,-791.504,-24.414,844.727
1742204534.997,-597.656,-919.922,-29.785,-612.793
1742204535.001,-1000.0,-1000.0,-36.133,-1000.0
1742204535.005,-925.781,515.625,-40.039,-926.27
1742204534.962,603.516,-618.164,-10.742,449.219
1742204534.966,-837.891,-925.781,-15.137,-925.781
1742204534.97,-1000.0,-45.41,-5.371,-979.492
1742204534.974,424.316,999.512,-2.441,525.879
1742204534.978,999.512,575.684,-17.578,999.512
1742204534.982,910.645,27.344,-11.23,909.668
1742204534.986,917.48,-45.898,-6.836,920.898
1742204534.989,999.512,-556.152,-23.438,999.512
1742204534.993,856.934,-791.504,-24.414,844.727
1742204534.997,-597.656,-919.922,-29.785,-612.793
1742204535.001,-1000.0,-1000.0,-36.133,-1000.0
1742204535.005,-925.781,515.625,-40.039,-926.27
1742204535.009,-1000.0,603.516,-56.152,-1000.0
1742204535.013,-1000.0,-970.215,-42.48,-1000.0
1742204535.017,-942.383,-702.637,-50.293,-942.383
1742204535.021,-1000.0,476.562,-69.824,-1000.0
1742204535.025,-891.113,415.039,-53.711,-889.648
1742204535.029,580.078,828.125,-53.223,574.707
1742204535.033,999.512,812.5,-40.039,999.512
1742204535.036,949.219,-721.68,-36.621,968.75
1742204535.04,845.703,-903.809,-42.969,611.816
1742204535.044,-542.969,-881.836,-17.09,-725.586
1742204535.048,-1000.0,-512.207,-35.645,-1000.0
1742204535.052,-490.723,803.223,-46.387,-307.617
1742204535.009,-1000.0,603.516,-56.152,-1000.0
1742204535.013,-1000.0,-970.215,-42.48,-1000.0
1742204535.017,-942.383,-702.637,-50.293,-942.383
1742204535.021,-1000.0,476.562,-69.824,-1000.0
1742204535.025,-891.113,415.039,-53.711,-889.648
1742204535.029,580.078,828.125,-53.223,574.707
1742204535.033,999.512,812.5,-40.039,999.512
1742204535.036,949.219,-721.68,-36.621,968.75
1742204535.04,845.703,-903.809,-42.969,611.816
1742204535.044,-542.969,-881.836,-17.09,-725.586
1742204535.048,-1000.0,-512.207,-35.645,-1000.0
1742204535.052,-490.723,803.223,-46.387,-307.617
1742204535.053,851.074,977.539,-38.086,910.645
1742204535.057,999.512,-249.023,-51.27,987.793
1742204535.061,917.969,408.203,-35.645,934.57
1742204535.065,955.078,908.691,-51.27,947.266
1742204535.069,949.707,-789.551,-54.199,959.961
1742204535.073,999.512,-74.707,-33.691,999.512
1742204535.077,-208.008,-124.512,-57.129,-256.836
1742204535.08,-1000.0,-1000.0,-46.875,-1000.0
1742204535.084,-939.941,-75.684,-29.297,-938.965
1742204535.088,-1000.0,531.25,-37.109,-1000.0
1742204535.092,-1000.0,-590.82,-33.691,-1000.0
1742204535.096,-929.199,-285.156,-34.18,-934.57
1742204535.099,-1000.0,561.523,-36.621,-1000.0
1742204535.103,-521.973,525.391,-26.367,-479.98
1742204535.107,889.648,999.512,-29.297,893.066
1742204535.111,999.512,401.367,-33.691,999.512
1742204535.115,918.945,-556.641,-22.949,924.316
1742204535.119,963.867,705.566,-25.879,958.984
1742204535.123,933.594,537.109,-48.34,943.848
1742204535.126,999.512,-870.605,-68.848,999.512
1742204535.13,-62.012,-1000.0,-59.57,-108.887
1742204535.134,-1000.0,-1000.0,-69.824,-1000.0
1742204535.138,-957.031,-262.207,-70.312,-956.543
1742204535.142,-989.746,627.93,-46.875,-991.699
1742204535.099,-1000.0,561.523,-36.621,-1000.0
1742204535.103,-521.973,525.391,-26.367,-479.98
1742204535.107,889.648,999.512,-29.297,893.066
1742204535.111,999.512,401.367,-33.691,999.512
1742204535.115,918.945,-556.641,-22.949,924.316
1742204535.119,963.867,705.566,-25.879,958.984
1742204535.123,933.594,537.109,-48.34,943.848
1742204535.126,999.512,-870.605,-68.848,999.512
1742204535.13,-62.012,-1000.0,-59.57,-108.887
1742204535.134,-1000.0,-1000.0,-69.824,-1000.0
1742204535.138,-957.031,-262.207,-70.312,-956.543
1742204535.142,-989.746,627.93,-46.875,-991.699
1742204535.157,-1000.0,253.906,-46.875,-1000.0
1742204535.161,-1000.0,-648.438,-40.039,-1000.0
1742204535.165,-949.219,-370.117,-49.805,-950.684
1742204535.169,-1000.0,623.047,-50.293,-1000.0
1742204535.173,-937.988,-404.785,-47.363,-941.406
1742204535.177,461.914,422.852,-71.289,428.223
1742204535.181,999.512,999.512,-46.875,999.512
1742204535.184,963.867,-417.969,-30.273,895.508
1742204535.188,-26.367,-1000.0,-39.551,-238.77
1742204535.192,-1000.0,-1000.0,-39.062,-1000.0
1742204535.196,-847.168,-286.133,-57.129,-833.008
1742204535.2,519.531,999.023,-39.062,552.734
1742204535.157,-1000.0,253.906,-46.875,-1000.0
1742204535.161,-1000.0,-648.438,-40.039,-1000.0
1742204535.165,-949.219,-370.117,-49.805,-950.684
1742204535.169,-1000.0,623.047,-50.293,-1000.0
1742204535.173,-937.988,-404.785,-47.363,-941.406
1742204535.177,461.914,422.852,-71.289,428.223
1742204535.181,999.512,999.512,-46.875,999.512
1742204535.184,963.867,-417.969,-30.273,895.508
1742204535.188,-26.367,-1000.0,-39.551,-238.77
1742204535.192,-1000.0,-1000.0,-39.062,-1000.0
1742204535.196,-847.168,-286.133,-57.129,-833.008
1742204535.2,519.531,999.023,-39.062,552.734
1742204535.217,999.512,556.152,-31.25,999.512
1742204535.221,145.02,-874.023,-44.922,-89.355
1742204535.225,-1000.0,-981.445,-36.133,-1000.0
1742204535.229,-865.723,414.551,-54.199,-838.867
1742204535.233,528.809,999.512,-36.133,509.766
1742204535.237,999.512,920.898,-8.301,999.512
1742204535.241,765.625,75.684,-20.02,759.277
1742204535.244,-521.484,-1000.0,-15.625,-532.227
1742204535.248,-1000.0,-886.719,-20.996,-1000.0
1742204535.252,-784.668,515.137,-20.508,-647.949
1742204535.256,588.379,999.512,-14.648,692.383
1742204535.26,999.512,-23.926,-13.184,999.512
1742204535.247,908.203,-326.172,-4.883,917.969
1742204535.251,927.246,500.977,7.324,927.734
1742204535.255,999.512,98.633,6.348,999.512
1742204535.259,874.023,57.617,-5.859,881.348
1742204535.263,-570.801,-707.031,-1.465,-561.035
1742204535.267,-1000.0,-436.035,1.465,-1000.0
1742204535.271,-925.781,240.723,6.836,-925.781
1742204535.274,-1000.0,-767.578,-0.977,-1000.0
1742204535.278,-974.121,-188.477,-32.715,-975.098
1742204535.282,-982.422,-77.637,-28.809,-982.422
1742204535.286,-1000.0,-429.688,-23.926,-1000.0
1742204535.29,162.598,703.613,-5.371,141.602
1742204535.247,908.203,-326.172,-4.883,917.969
1742204535.251,927.246,500.977,7.324,927.734
1742204535.255,999.512,98.633,6.348,999.512
1742204535.259,874.023,57.617,-5.859,881.348
1742204535.263,-570.801,-707.031,-1.465,-561.035
1742204535.267,-1000.0,-436.035,1.465,-1000.0
1742204535.271,-925.781,240.723,6.836,-925.781
1742204535.274,-1000.0,-767.578,-0.977,-1000.0
1742204535.278,-974.121,-188.477,-32.715,-975.098
1742204535.282,-982.422,-77.637,-28.809,-982.422
1742204535.286,-1000.0,-429.688,-23.926,-1000.0
1742204535.29,162.598,703.613,-5.371,141.602
1742204535.292,999.512,999.512,0.0,999.512
1742204535.296,907.715,-455.078,-30.273,913.086
1742204535.3,964.844,-782.227,-51.758,963.379
1742204535.304,983.398,361.328,-61.035,984.863
1742204535.308,908.691,254.395,-51.758,909.18
1742204535.312,999.512,647.949,-59.57,999.512
1742204535.316,856.934,270.996,-50.781,855.469
1742204535.319,-598.145,-1000.0,-49.805,-600.586
1742204535.323,-1000.0,-870.117,-51.27,-1000.0
1742204535.327,-925.781,185.547,-62.988,-925.781
1742204535.331,-1000.0,-50.781,-113.77,-1000.0
1742204535.335,-1000.0,-147.461,-80.566,-1000.0
1742204535.292,999.512,999.512,0.0,999.512
1742204535.296,907.715,-455.078,-30.273,913.086
1742204535.3,964.844,-782.227,-51.758,963.379
1742204535.304,983.398,361.328,-61.035,984.863
1742204535.308,908.691,254.395,-51.758,909.18
1742204535.312,999.512,647.949,-59.57,999.512
1742204535.316,856.934,270.996,-50.781,855.469
1742204535.319,-598.145,-1000.0,-49.805,-600.586
1742204535.323,-1000.0,-870.117,-51.27,-1000.0
1742204535.327,-925.781,185.547,-62.988,-925.781
1742204535.331,-1000.0,-50.781,-113.77,-1000.0
1742204535.335,-1000.0,-147.461,-80.566,-1000.0
1742204535.338,-930.176,43.945,-56.641,-931.152
1742204535.342,-1000.0,-437.5,-79.59,-1000.0
1742204535.346,-733.887,158.203,-45.898,-718.75
1742204535.35,744.629,999.512,-38.086,751.465
1742204535.354,999.512,-210.449,-50.293,999.512
1742204535.358,826.172,12.207,-37.109,851.074
1742204535.362,999.512,833.008,-34.18,999.512
1742204535.365,574.219,-731.445,-32.715,289.551
1742204535.369,-874.023,-1000.0,-44.922,-960.449
1742204535.373,-1000.0,-233.398,-50.781,-1000.0
1742204535.377,-884.277,92.773,-35.645,-903.809
1742204535.381,-1000.0,-317.871,-30.762,-1000.0
1742204535.338,-930.176,43.945,-56.641,-931.152
1742204535.342,-1000.0,-437.5,-79.59,-1000.0
1742204535.346,-733.887,158.203,-45.898,-718.75
1742204535.35,744.629,999.512,-38.086,751.465
1742204535.354,999.512,-210.449,-50.293,999.512
1742204535.358,826.172,12.207,-37.109,851.074
1742204535.362,999.512,833.008,-34.18,999.512
1742204535.365,574.219,-731.445,-32.715,289.551
1742204535.369,-874.023,-1000.0,-44.922,-960.449
1742204535.373,-1000.0,-233.398,-50.781,-1000.0
1742204535.377,-884.277,92.773,-35.645,-903.809
1742204535.381,-1000.0,-317.871,-30.762,-1000.0
1742204535.384,-891.113,189.941,-17.578,-883.789
1742204535.388,563.965,913.574,-8.301,573.73
1742204535.392,999.512,485.352,-17.578,999.512
1742204535.396,891.602,-272.949,-32.715,892.578
1742204535.4,982.422,-182.617,-53.711,983.398
1742204535.404,982.422,845.703,-46.387,980.469
1742204535.408,893.555,687.988,-40.039,898.926
1742204535.411,999.512,-713.867,-42.48,999.512
1742204535.415,591.309,-1000.0,-38.574,563.965
1742204535.419,-797.363,-1000.0,-41.992,-790.039
1742204535.423,-1000.0,-648.926,-33.691,-1000.0
1742204535.427,-838.379,659.18,-15.625,-831.543
1742204535.384,-891.113,189.941,-17.578,-883.789
1742204535.388,563.965,913.574,-8.301,573.73
1742204535.392,999.512,485.352,-17.578,999.512
1742204535.396,891.602,-272.949,-32.715,892.578
1742204535.4,982.422,-182.617,-53.711,983.398
1742204535.404,982.422,845.703,-46.387,980.469
1742204535.408,893.555,687.988,-40.039,898.926
1742204535.411,999.512,-713.867,-42.48,999.512
1742204535.415,591.309,-1000.0,-38.574,563.965
1742204535.419,-797.363,-1000.0,-41.992,-790.039
1742204535.423,-1000.0,-648.926,-33.691,-1000.0
1742204535.427,-838.379,659.18,-15.625,-831.543
1742204535.427,534.668,999.512,-18.066,548.34
1742204535.431,999.512,442.383,-28.32,999.512
1742204535.435,891.602,-300.293,-34.668,892.578
1742204535.439,998.535,421.875,-32.227,999.023
1742204535.443,908.203,-464.844,-33.203,907.715
1742204535.447,999.512,415.039,-36.133,999.512
1742204535.451,851.562,619.141,-42.969,845.215
1742204535.454,-604.98,-1000.0,-54.688,-613.77
1742204535.458,-1000.0,-1000.0,-47.363,-1000.0
1742204535.462,-925.781,-15.625,-47.852,-926.27
1742204535.466,-1000.0,125.488,-51.27,-1000.0
1742204535.47,-1000.0,-183.594,-41.016,-1000.0
1742204535.427,534.668,999.512,-18.066,548.34
1742204535.431,999.512,442.383,-28.32,999.512
1742204535.435,891.602,-300.293,-34.668,892.578
1742204535.439,998.535,421.875,-32.227,999.023
1742204535.443,908.203,-464.844,-33.203,907.715
1742204535.447,999.512,415.039,-36.133,999.512
1742204535.451,851.562,619.141,-42.969,845.215
1742204535.454,-604.98,-1000.0,-54.688,-613.77
1742204535.458,-1000.0,-1000.0,-47.363,-1000.0
1742204535.462,-925.781,-15.625,-47.852,-926.27
1742204535.466,-1000.0,125.488,-51.27,-1000.0
1742204535.47,-1000.0,-183.594,-41.016,-1000.0
1742204535.474,-941.895,-0.977,-44.434,-938.965
1742204535.478,-1000.0,-107.422,-50.293,-1000.0
1742204535.482,-881.348,-45.41,-40.527,-844.238
1742204535.486,577.148,869.629,-41.992,623.047
1742204535.49,999.512,595.215,-35.156,999.512
1742204535.494,827.148,131.348,-19.531,854.98
1742204535.498,999.512,679.199,-22.949,999.512
1742204535.501,360.84,-577.637,-20.508,118.652
1742204535.505,-975.586,-1000.0,-19.043,-1000.0
1742204535.509,-1000.0,-193.359,-26.855,-1000.0
1742204535.513,-900.879,-296.387,-35.645,-916.992
1742204535.517,-1000.0,-859.375,-32.227,-1000.0
1742204535.474,-941.895,-0.977,-44.434,-938.965
1742204535.478,-1000.0,-107.422,-50.293,-1000.0
1742204535.482,-881.348,-45.41,-40.527,-844.238
1742204535.486,577.148,869.629,-41.992,623.047
1742204535.49,999.512,595.215,-35.156,999.512
1742204535.494,827.148,131.348,-19.531,854.98
1742204535.498,999.512,679.199,-22.949,999.512
1742204535.501,360.84,-577.637,-20.508,118.652
1742204535.505,-975.586,-1000.0,-19.043,-1000.0
1742204535.509,-1000.0,-193.359,-26.855,-1000.0
1742204535.513,-900.879,-296.387,-35.645,-916.992
1742204535.517,-1000.0,-859.375,-32.227,-1000.0
1742204535.532,-885.742,501.953,-41.016,-879.883
1742204535.536,541.992,999.512,-55.176,536.621
1742204535.54,999.512,956.543,-28.809,999.512
1742204535.544,962.891,72.266,-30.762,917.969
1742204535.548,-74.707,-1000.0,-58.105,-188.965
1742204535.552,-1000.0,-499.512,-41.504,-1000.0
1742204535.556,-957.031,687.012,-71.777,-883.789
1742204535.559,285.156,933.105,-75.195,430.664
1742204535.563,999.512,399.414,-49.316,999.512
1742204535.567,292.969,-842.773,-70.312,96.68
1742204535.571,-1000.0,-1000.0,-46.875,-1000.0
1742204535.575,-976.074,145.508,-55.664,-932.129
1742204535.532,-885.742,501.953,-41.016,-879.883
1742204535.536,541.992,999.512,-55.176,536.621
1742204535.54,999.512,956.543,-28.809,999.512
1742204535.544,962.891,72.266,-30.762,917.969
1742204535.548,-74.707,-1000.0,-58.105,-188.965
1742204535.552,-1000.0,-499.512,-41.504,-1000.0
1742204535.556,-957.031,687.012,-71.777,-883.789
1742204535.559,285.156,933.105,-75.195,430.664
1742204535.563,999.512,399.414,-49.316,999.512
1742204535.567,292.969,-842.773,-70.312,96.68
1742204535.571,-1000.0,-1000.0,-46.875,-1000.0
1742204535.575,-976.074,145.508,-55.664,-932.129
1742204535.565,378.418,999.512,-65.43,410.645
1742204535.569,999.512,238.77,-47.852,999.512
1742204535.573,647.949,-920.41,-62.988,484.375
1742204535.577,-771.973,-1000.0,-40.039,-869.141
1742204535.581,-1000.0,-141.602,-50.293,-1000.0
1742204535.585,249.512,967.285,-52.734,319.336
1742204535.589,999.512,787.109,-29.785,999.512
1742204535.592,581.543,-657.715,-49.316,391.602
1742204535.596,-826.172,-1000.0,-43.945,-914.062
1742204535.6,-1000.0,-240.723,-49.316,-1000.0
1742204535.604,175.781,934.082,-56.152,233.398
1742204535.608,999.512,861.816,-32.715,999.512
1742204535.565,378.418,999.512,-65.43,410.645
1742204535.569,999.512,238.77,-47.852,999.512
1742204535.573,647.949,-920.41,-62.988,484.375
1742204535.577,-771.973,-1000.0,-40.039,-869.141
1742204535.581,-1000.0,-141.602,-50.293,-1000.0
1742204535.585,249.512,967.285,-52.734,319.336
1742204535.589,999.512,787.109,-29.785,999.512
1742204535.592,581.543,-657.715,-49.316,391.602
1742204535.596,-826.172,-1000.0,-43.945,-914.062
1742204535.6,-1000.0,-240.723,-49.316,-1000.0
1742204535.604,175.781,934.082,-56.152,233.398
1742204535.608,999.512,861.816,-32.715,999.512
1742204535.622,802.734,-560.547,-53.711,722.168
1742204535.626,-589.355,-1000.0,-48.34,-682.617
1742204535.63,-1000.0,-153.809,-12.695,-1000.0
1742204535.634,141.113,999.512,-26.855,211.914
1742204535.638,999.512,561.523,-22.461,999.512
1742204535.642,999.512,-177.734,-14.16,999.512
1742204535.646,178.711,-591.309,-22.461,36.621
1742204535.649,-1000.0,-1000.0,-19.531,-1000.0
1742204535.653,-991.699,-20.508,-15.137,-974.121
1742204535.657,-986.816,353.027,-7.812,-996.582
1742204535.661,-954.102,-827.148,-11.719,-952.637
1742204535.665,-1000.0,90.332,-20.996,-1000.0
1742204535.622,802.734,-560.547,-53.711,722.168
1742204535.626,-589.355,-1000.0,-48.34,-682.617
1742204535.63,-1000.0,-153.809,-12.695,-1000.0
1742204535.634,141.113,999.512,-26.855,211.914
1742204535.638,999.512,561.523,-22.461,999.512
1742204535.642,999.512,-177.734,-14.16,999.512
1742204535.646,178.711,-591.309,-22.461,36.621
1742204535.649,-1000.0,-1000.0,-19.531,-1000.0
1742204535.653,-991.699,-20.508,-15.137,-974.121
1742204535.657,-986.816,353.027,-7.812,-996.582
1742204535.661,-954.102,-827.148,-11.719,-952.637
1742204535.665,-1000.0,90.332,-20.996,-1000.0
1742204535.667,-921.875,842.773,-23.926,-927.734
1742204535.671,515.137,764.16,-47.363,504.883
1742204535.675,999.512,549.805,-30.762,999.512
1742204535.679,891.602,-78.125,-20.996,892.578
1742204535.683,992.676,-131.348,-45.898,993.164
1742204535.687,924.316,526.855,-35.156,924.805
1742204535.691,980.957,124.512,-44.922,982.91
1742204535.694,966.797,-8.789,-33.203,961.914
1742204535.698,-410.156,-644.043,-17.578,-416.016
1742204535.702,-1000.0,-1000.0,-27.832,-1000.0
1742204535.706,-922.852,59.57,-21.484,-953.125
1742204535.71,-1000.0,688.965,-32.715,-968.262
1742204535.667,-921.875,842.773,-23.926,-927.734
1742204535.671,515.137,764.16,-47.363,504.883
1742204535.675,999.512,549.805,-30.762,999.512
1742204535.679,891.602,-78.125,-20.996,892.578
1742204535.683,992.676,-131.348,-45.898,993.164
1742204535.687,924.316,526.855,-35.156,924.805
1742204535.691,980.957,124.512,-44.922,982.91
1742204535.694,966.797,-8.789,-33.203,961.914
1742204535.698,-410.156,-644.043,-17.578,-416.016
1742204535.702,-1000.0,-1000.0,-27.832,-1000.0
1742204535.706,-922.852,59.57,-21.484,-953.125
1742204535.71,-1000.0,688.965,-32.715,-968.262
1742204535.712,185.059,826.172,-25.879,354.98
1742204535.716,999.512,731.445,-20.996,999.512
1742204535.72,719.238,-660.156,-39.551,510.742
1742204535.724,-780.762,-1000.0,-20.508,-877.93
1742204535.728,-1000.0,-391.602,-32.227,-972.656
1742204535.732,571.777,895.996,-40.527,569.336
1742204535.736,999.512,844.238,-24.902,999.512
1742204535.739,891.602,-605.469,-28.32,838.379
1742204535.743,993.652,-502.441,-22.461,852.051
1742204535.747,920.898,271.973,-39.062,896.484
1742204535.751,989.258,-59.082,-40.039,999.512
1742204535.755,943.848,-579.59,-16.113,923.828
1742204535.712,185.059,826.172,-25.879,354.98
1742204535.716,999.512,731.445,-20.996,999.512
1742204535.72,719.238,-660.156,-39.551,510.742
1742204535.724,-780.762,-1000.0,-20.508,-877.93
1742204535.728,-1000.0,-391.602,-32.227,-972.656
1742204535.732,571.777,895.996,-40.527,569.336
1742204535.736,999.512,844.238,-24.902,999.512
1742204535.739,891.602,-605.469,-28.32,838.379
1742204535.743,993.652,-502.441,-22.461,852.051
1742204535.747,920.898,271.973,-39.062,896.484
1742204535.751,989.258,-59.082,-40.039,999.512
1742204535.755,943.848,-579.59,-16.113,923.828
1742204535.759,-437.5,-809.57,-14.16,-427.246
1742204535.763,-1000.0,-1000.0,-17.09,-1000.0
1742204535.767,-1000.0,101.074,-36.621,-980.469
1742204535.771,-113.77,964.355,-61.523,124.512
1742204535.775,961.426,957.031,-44.922,999.512
1742204535.779,999.512,568.848,-46.875,999.512
1742204535.783,623.535,-640.137,-41.992,479.004
1742204535.786,-821.289,-1000.0,-33.691,-883.789
1742204535.79,-1000.0,-242.676,-50.293,-1000.0
1742204535.794,-954.102,324.219,-35.645,-965.82
1742204535.798,-950.195,173.34,-30.273,-946.289
1742204535.802,-1000.0,-675.293,-28.809,-1000.0
1742204535.759,-437.5,-809.57,-14.16,-427.246
1742204535.763,-1000.0,-1000.0,-17.09,-1000.0
1742204535.767,-1000.0,101.074,-36.621,-980.469
1742204535.771,-113.77,964.355,-61.523,124.512
1742204535.775,961.426,957.031,-44.922,999.512
1742204535.779,999.512,568.848,-46.875,999.512
1742204535.783,623.535,-640.137,-41.992,479.004
1742204535.786,-821.289,-1000.0,-33.691,-883.789
1742204535.79,-1000.0,-242.676,-50.293,-1000.0
1742204535.794,-954.102,324.219,-35.645,-965.82
1742204535.798,-950.195,173.34,-30.273,-946.289
1742204535.802,-1000.0,-675.293,-28.809,-1000.0
1742204535.802,-778.32,-233.887,-30.762,-737.305
1742204535.806,699.707,888.184,-45.898,729.98
1742204535.81,999.512,325.684,-22.949,999.512
1742204535.814,896.484,27.832,-25.879,899.902
1742204535.818,983.887,-459.961,-47.363,983.887
1742204535.822,982.422,573.242,-49.805,983.398
1742204535.826,908.691,86.914,-71.289,908.691
1742204535.829,999.512,-1000.0,-51.758,999.512
1742204535.833,854.004,-138.672,-44.434,843.262
1742204535.837,-573.242,-726.074,-68.359,-569.824
1742204535.841,-1000.0,-896.484,-55.176,-1000.0
1742204535.845,-872.559,632.812,-51.27,-809.57
1742204535.802,-778.32,-233.887,-30.762,-737.305
1742204535.806,699.707,888.184,-45.898,729.98
1742204535.81,999.512,325.684,-22.949,999.512
1742204535.814,896.484,27.832,-25.879,899.902
1742204535.818,983.887,-459.961,-47.363,983.887
1742204535.822,982.422,573.242,-49.805,983.398
1742204535.826,908.691,86.914,-71.289,908.691
1742204535.829,999.512,-1000.0,-51.758,999.512
1742204535.833,854.004,-138.672,-44.434,843.262
1742204535.837,-573.242,-726.074,-68.359,-569.824
1742204535.841,-1000.0,-896.484,-55.176,-1000.0
1742204535.845,-872.559,632.812,-51.27,-809.57
1742204535.85,182.129,999.512,-39.062,358.887
1742204535.854,999.512,431.152,-34.668,999.512
1742204535.858,420.41,-846.68,-46.875,225.586
1742204535.862,-1000.0,-1000.0,-33.691,-1000.0
1742204535.866,-904.297,125.0,-41.992,-885.254
1742204535.87,537.598,999.512,-47.363,537.109
1742204535.874,999.512,842.285,-34.18,999.512
1742204535.877,541.016,-550.293,-47.363,396.973
1742204535.881,-814.453,-1000.0,-28.32,-901.855
1742204535.885,-1000.0,-223.633,-20.996,-1000.0
1742204535.889,53.223,815.43,-23.926,229.004
1742204535.893,999.512,900.879,-9.277,999.512
1742204535.85,182.129,999.512,-39.062,358.887
1742204535.854,999.512,431.152,-34.668,999.512
1742204535.858,420.41,-846.68,-46.875,225.586
1742204535.862,-1000.0,-1000.0,-33.691,-1000.0
1742204535.866,-904.297,125.0,-41.992,-885.254
1742204535.87,537.598,999.512,-47.363,537.109
1742204535.874,999.512,842.285,-34.18,999.512
1742204535.877,541.016,-550.293,-47.363,396.973
1742204535.881,-814.453,-1000.0,-28.32,-901.855
1742204535.885,-1000.0,-223.633,-20.996,-1000.0
1742204535.889,53.223,815.43,-23.926,229.004
1742204535.893,999.512,900.879,-9.277,999.512
1742204535.907,842.773,-393.555,-22.461,817.383
1742204535.911,-599.121,-1000.0,-31.738,-635.254
1742204535.915,-1000.0,-165.527,-47.363,-1000.0
1742204535.919,315.43,999.512,-59.082,418.945
1742204535.923,999.512,625.0,-44.922,999.512
1742204535.927,999.512,-275.391,-49.316,994.141
1742204535.931,234.863,-708.496,-46.387,97.656
1742204535.934,-1000.0,-1000.0,-52.246,-1000.0
1742204535.938,-1000.0,-71.289,-54.688,-983.398
1742204535.942,-971.191,349.121,-40.039,-978.027
1742204535.946,-948.73,-789.062,-66.895,-952.148
1742204535.95,-1000.0,89.844,-66.406,-1000.0
1742204535.907,842.773,-393.555,-22.461,817.383
1742204535.911,-599.121,-1000.0,-31.738,-635.254
1742204535.915,-1000.0,-165.527,-47.363,-1000.0
1742204535.919,315.43,999.512,-59.082,418.945
1742204535.923,999.512,625.0,-44.922,999.512
1742204535.927,999.512,-275.391,-49.316,994.141
1742204535.931,234.863,-708.496,-46.387,97.656
1742204535.934,-1000.0,-1000.0,-52.246,-1000.0
1742204535.938,-1000.0,-71.289,-54.688,-983.398
1742204535.942,-971.191,349.121,-40.039,-978.027
1742204535.946,-948.73,-789.062,-66.895,-952.148
1742204535.95,-1000.0,89.844,-66.406,-1000.0
1742204535.952,-322.266,999.512,-58.594,-286.133
1742204535.956,969.238,975.098,-80.566,969.727
1742204535.96,973.633,-51.758,-45.41,971.68
1742204535.964,929.688,-855.957,-29.297,932.617
1742204535.968,987.793,479.004,-41.016,988.281
1742204535.972,925.293,922.852,-31.25,924.316
1742204535.976,979.492,-379.395,-44.922,983.887
1742204535.979,970.703,-118.652,-36.621,959.961
1742204535.983,-410.645,-526.855,-26.855,-424.805
1742204535.987,-1000.0,-1000.0,-23.926,-1000.0
1742204535.991,-979.004,13.184,-16.602,-998.535
1742204535.995,-913.086,924.316,-38.086,-792.48
1742204535.952,-322.266,999.512,-58.594,-286.133
1742204535.956,969.238,975.098,-80.566,969.727
1742204535.96,973.633,-51.758,-45.41,971.68
1742204535.964,929.688,-855.957,-29.297,932.617
1742204535.968,987.793,479.004,-41.016,988.281
1742204535.972,925.293,922.852,-31.25,924.316
1742204535.976,979.492,-379.395,-44.922,983.887
1742204535.979,970.703,-118.652,-36.621,959.961
1742204535.983,-410.645,-526.855,-26.855,-424.805
1742204535.987,-1000.0,-1000.0,-23.926,-1000.0
1742204535.991,-979.004,13.184,-16.602,-998.535
1742204535.995,-913.086,924.316,-38.086,-792.48
1742204535.997,598.145,999.512,-46.875,713.867
1742204536.001,999.512,156.738,-51.758,999.512
1742204536.005,-405.273,-975.098,-56.152,-432.129
1742204536.009,-1000.0,-222.656,-47.852,-1000.0
1742204536.013,-1000.0,332.031,-62.012,-998.047
1742204536.017,-145.996,744.141,-56.641,67.383
1742204536.021,999.512,546.387,-44.922,999.512
1742204536.024,945.801,-681.641,-44.922,923.34
1742204536.028,960.938,513.672,-38.574,974.609
1742204536.032,908.691,140.137,-57.617,908.203
1742204536.036,999.512,-265.625,-52.734,999.512
1742204536.04,794.434,113.281,-38.086,799.805
1742204535.997,598.145,999.512,-46.875,713.867
1742204536.001,999.512,156.738,-51.758,999.512
1742204536.005,-405.273,-975.098,-56.152,-432.129
1742204536.009,-1000.0,-222.656,-47.852,-1000.0
1742204536.013,-1000.0,332.031,-62.012,-998.047
1742204536.017,-145.996,744.141,-56.641,67.383
1742204536.021,999.512,546.387,-44.922,999.512
1742204536.024,945.801,-681.641,-44.922,923.34
1742204536.028,960.938,513.672,-38.574,974.609
1742204536.032,908.691,140.137,-57.617,908.203
1742204536.036,999.512,-265.625,-52.734,999.512
1742204536.04,794.434,113.281,-38.086,799.805
1742204535.997,598.145,999.512,-46.875,713.867
1742204536.001,999.512,156.738,-51.758,999.512
1742204536.005,-405.273,-975.098,-56.152,-432.129
1742204536.009,-1000.0,-222.656,-47.852,-1000.0
1742204536.013,-1000.0,332.031,-62.012,-998.047
1742204536.017,-145.996,744.141,-56.641,67.383
1742204536.021,999.512,546.387,-44.922,999.512
1742204536.024,945.801,-681.641,-44.922,923.34
1742204536.028,960.938,513.672,-38.574,974.609
1742204536.032,908.691,140.137,-57.617,908.203
1742204536.036,999.512,-265.625,-52.734,999.512
1742204536.04,794.434,113.281,-38.086,799.805
1742204536.042,-694.336,-943.848,-64.453,-664.551
1742204536.046,-1000.0,-623.535,-54.199,-1000.0
1742204536.05,-1000.0,389.648,-54.688,-1000.0
1742204536.054,-728.027,739.258,-49.805,-381.836
1742204536.058,765.137,915.039,-34.18,916.016
1742204536.062,999.512,561.035,-56.641,989.258
1742204536.066,917.48,-330.566,-44.922,942.871
1742204536.069,919.922,-224.121,-56.152,916.504
1742204536.073,999.512,210.938,-67.871,999.512
1742204536.077,784.668,-399.414,-43.457,794.922
1742204536.081,-657.715,-1000.0,-61.035,-621.582
1742204536.085,-1000.0,-781.738,-50.781,-1000.0
1742204536.042,-694.336,-943.848,-64.453,-664.551
1742204536.046,-1000.0,-623.535,-54.199,-1000.0
1742204536.05,-1000.0,389.648,-54.688,-1000.0
1742204536.054,-728.027,739.258,-49.805,-381.836
1742204536.058,765.137,915.039,-34.18,916.016
1742204536.062,999.512,561.035,-56.641,989.258
1742204536.066,917.48,-330.566,-44.922,942.871
1742204536.069,919.922,-224.121,-56.152,916.504
1742204536.073,999.512,210.938,-67.871,999.512
1742204536.077,784.668,-399.414,-43.457,794.922
1742204536.081,-657.715,-1000.0,-61.035,-621.582
1742204536.085,-1000.0,-781.738,-50.781,-1000.0
1742204536.087,-1000.0,628.906,-31.738,-935.059
1742204536.091,80.078,984.863,-30.273,263.184
1742204536.095,999.512,771.484,-19.043,999.512
1742204536.099,992.676,579.59,-13.672,958.008
1742204536.103,-142.09,-865.234,-13.184,-155.762
1742204536.107,-1000.0,-486.328,-23.438,-1000.0
1742204536.111,-948.73,338.867,-31.738,-951.172
1742204536.114,-1000.0,-874.512,-18.555,-1000.0
1742204536.118,-944.336,-846.68,-25.391,-944.336
1742204536.122,-1000.0,275.391,-33.691,-1000.0
1742204536.126,-891.113,80.078,-42.48,-882.812
1742204536.13,578.613,559.082,-71.777,573.73
1742204536.135,999.512,999.512,-33.203,999.512
1742204536.139,990.234,-45.898,-24.902,973.633
1742204536.143,631.836,-1000.0,-59.57,397.461
1742204536.147,-936.035,-924.805,-55.664,-1000.0
1742204536.151,-948.73,309.57,-69.336,-884.766
1742204536.155,568.848,999.512,-37.109,618.652
1742204536.159,999.512,311.523,-23.926,999.512
1742204536.162,123.047,-892.09,-49.316,-32.227
1742204536.166,-1000.0,-1000.0,-29.297,-1000.0
1742204536.17,-1000.0,-88.379,-31.25,-974.121
1742204536.174,242.676,922.852,-26.855,352.539
1742204536.178,999.512,831.543,-6.836,999.512
1742204536.135,999.512,999.512,-33.203,999.512
1742204536.139,990.234,-45.898,-24.902,973.633
1742204536.143,631.836,-1000.0,-59.57,397.461
1742204536.147,-936.035,-924.805,-55.664,-1000.0
1742204536.151,-948.73,309.57,-69.336,-884.766
1742204536.155,568.848,999.512,-37.109,618.652
1742204536.159,999.512,311.523,-23.926,999.512
1742204536.162,123.047,-892.09,-49.316,-32.227
1742204536.166,-1000.0,-1000.0,-29.297,-1000.0
1742204536.17,-1000.0,-88.379,-31.25,-974.121
1742204536.174,242.676,922.852,-26.855,352.539
1742204536.178,999.512,831.543,-6.836,999.512
1742204536.177,902.832,-395.996,6.836,900.879
1742204536.181,971.191,3.418,20.996,975.586
1742204536.185,906.25,999.512,9.277,910.156
1742204536.189,999.512,399.902,0.0,999.512
1742204536.193,272.949,-837.402,-2.93,273.438
1742204536.197,-969.727,-930.176,-18.066,-949.707
1742204536.201,-1000.0,-691.895,-14.648,-1000.0
1742204536.204,-983.398,-382.812,-18.555,-939.941
1742204536.208,229.492,840.332,-27.344,310.059
1742204536.212,999.512,923.34,-12.207,999.512
1742204536.216,867.676,-551.27,-23.438,837.891
1742204536.22,-516.113,-1000.0,-20.508,-572.754
1742204536.224,-1000.0,-382.812,-20.508,-1000.0
1742204536.228,344.238,909.668,-26.855,434.57
1742204536.232,999.512,869.629,-15.137,999.512
1742204536.236,899.414,-668.457,-26.855,877.93
1742204536.24,979.98,-127.93,-23.438,912.109
1742204536.244,899.414,999.512,-14.648,895.02
1742204536.248,999.512,348.633,-25.391,999.512
1742204536.251,406.738,-780.273,-26.855,412.598
1742204536.255,-956.543,-1000.0,-28.809,-936.523
1742204536.259,-1000.0,-503.906,-26.367,-1000.0
1742204536.263,-954.59,831.543,-22.461,-953.613
1742204536.267,-1000.0,130.859,-39.062,-1000.0
1742204536.224,-1000.0,-382.812,-20.508,-1000.0
1742204536.228,344.238,909.668,-26.855,434.57
1742204536.232,999.512,869.629,-15.137,999.512
1742204536.236,899.414,-668.457,-26.855,877.93
1742204536.24,979.98,-127.93,-23.438,912.109
1742204536.244,899.414,999.512,-14.648,895.02
1742204536.248,999.512,348.633,-25.391,999.512
1742204536.251,406.738,-780.273,-26.855,412.598
1742204536.255,-956.543,-1000.0,-28.809,-936.523
1742204536.259,-1000.0,-503.906,-26.367,-1000.0
1742204536.263,-954.59,831.543,-22.461,-953.613
1742204536.267,-1000.0,130.859,-39.062,-1000.0
1742204536.282,-968.75,-799.316,-40.039,-969.238
1742204536.286,-993.164,-296.875,-41.504,-994.141
1742204536.29,-1000.0,-242.188,-42.48,-1000.0
1742204536.294,259.766,676.27,-40.039,242.676
1742204536.298,999.512,999.512,-55.664,999.512
1742204536.302,957.031,668.945,-45.898,978.027
1742204536.306,850.098,-424.316,-41.992,777.344
1742204536.309,-611.816,-1000.0,-57.129,-682.129
1742204536.313,-1000.0,17.578,-59.57,-1000.0
1742204536.317,-926.27,347.168,-69.824,-929.688
1742204536.321,-1000.0,-830.078,-55.664,-1000.0
1742204536.325,-948.242,-357.422,-50.781,-948.73
1742204536.282,-968.75,-799.316,-40.039,-969.238
1742204536.286,-993.164,-296.875,-41.504,-994.141
1742204536.29,-1000.0,-242.188,-42.48,-1000.0
1742204536.294,259.766,676.27,-40.039,242.676
1742204536.298,999.512,999.512,-55.664,999.512
1742204536.302,957.031,668.945,-45.898,978.027
1742204536.306,850.098,-424.316,-41.992,777.344
1742204536.309,-611.816,-1000.0,-57.129,-682.129
1742204536.313,-1000.0,17.578,-59.57,-1000.0
1742204536.317,-926.27,347.168,-69.824,-929.688
1742204536.321,-1000.0,-830.078,-55.664,-1000.0
1742204536.325,-948.242,-357.422,-50.781,-948.73
1742204536.327,-1000.0,182.617,-63.965,-1000.0
1742204536.331,-934.57,321.777,-59.082,-935.547
1742204536.335,495.117,915.527,-60.059,490.234
1742204536.339,999.512,916.504,-43.945,999.512
1742204536.343,891.602,-358.398,-25.391,892.578
1742204536.347,984.863,236.816,-25.391,986.328
1742204536.351,948.242,744.141,-18.555,948.242
1742204536.354,934.57,-806.152,-17.09,939.453
1742204536.358,999.512,-448.73,-23.926,999.512
1742204536.362,-73.242,-520.508,-26.855,-73.242
1742204536.366,-1000.0,-851.074,-26.367,-1000.0
1742204536.37,-955.566,536.133,-18.555,-959.961
1742204536.327,-1000.0,182.617,-63.965,-1000.0
1742204536.331,-934.57,321.777,-59.082,-935.547
1742204536.335,495.117,915.527,-60.059,490.234
1742204536.339,999.512,916.504,-43.945,999.512
1742204536.343,891.602,-358.398,-25.391,892.578
1742204536.347,984.863,236.816,-25.391,986.328
1742204536.351,948.242,744.141,-18.555,948.242
1742204536.354,934.57,-806.152,-17.09,939.453
1742204536.358,999.512,-448.73,-23.926,999.512
1742204536.362,-73.242,-520.508,-26.855,-73.242
1742204536.366,-1000.0,-851.074,-26.367,-1000.0
1742204536.37,-955.566,536.133,-18.555,-959.961
1742204536.372,-990.723,-181.152,-20.996,-989.746
1742204536.376,-1000.0,-573.242,-35.645,-1000.0
1742204536.38,-971.191,262.695,-34.668,-971.68
1742204536.384,-988.281,521.973,-39.062,-989.258
1742204536.388,-1000.0,-619.141,-33.203,-1000.0
1742204536.392,229.004,410.645,-28.809,212.402
1742204536.396,999.512,999.512,-35.156,999.512
1742204536.399,955.078,-624.023,-31.738,969.727
1742204536.403,850.586,-1000.0,-46.387,806.152
1742204536.407,-530.762,-968.262,-47.363,-603.027
1742204536.411,-1000.0,-705.566,-48.828,-1000.0
1742204536.415,-396.484,644.531,-49.805,-194.336
1742204536.372,-990.723,-181.152,-20.996,-989.746
1742204536.376,-1000.0,-573.242,-35.645,-1000.0
1742204536.38,-971.191,262.695,-34.668,-971.68
1742204536.384,-988.281,521.973,-39.062,-989.258
1742204536.388,-1000.0,-619.141,-33.203,-1000.0
1742204536.392,229.004,410.645,-28.809,212.402
1742204536.396,999.512,999.512,-35.156,999.512
1742204536.399,955.078,-624.023,-31.738,969.727
1742204536.403,850.586,-1000.0,-46.387,806.152
1742204536.407,-530.762,-968.262,-47.363,-603.027
1742204536.411,-1000.0,-705.566,-48.828,-1000.0
1742204536.415,-396.484,644.531,-49.805,-194.336
1742204536.418,899.414,999.512,-36.621,968.75
1742204536.422,999.512,673.34,-43.945,968.75
1742204536.426,-251.465,-758.301,-42.969,-301.27
1742204536.43,-1000.0,-990.234,-41.016,-1000.0
1742204536.434,-777.344,483.887,-42.48,-684.57
1742204536.438,560.059,999.512,-28.32,668.945
1742204536.442,999.512,-102.051,-31.25,999.512
1742204536.445,230.469,-1000.0,-30.762,20.02
1742204536.449,-990.234,-886.719,-23.926,-1000.0
1742204536.453,-1000.0,145.508,-33.691,-943.848
1742204536.457,303.711,937.012,-29.297,434.082
1742204536.461,999.512,820.312,-21.484,999.512
1742204536.418,899.414,999.512,-36.621,968.75
1742204536.422,999.512,673.34,-43.945,968.75
1742204536.426,-251.465,-758.301,-42.969,-301.27
1742204536.43,-1000.0,-990.234,-41.016,-1000.0
1742204536.434,-777.344,483.887,-42.48,-684.57
1742204536.438,560.059,999.512,-28.32,668.945
1742204536.442,999.512,-102.051,-31.25,999.512
1742204536.445,230.469,-1000.0,-30.762,20.02
1742204536.449,-990.234,-886.719,-23.926,-1000.0
1742204536.453,-1000.0,145.508,-33.691,-943.848
1742204536.457,303.711,937.012,-29.297,434.082
1742204536.461,999.512,820.312,-21.484,999.512
1742204536.462,904.297,-153.32,-22.949,902.832
1742204536.466,948.73,-67.871,-20.02,952.148
1742204536.47,942.871,645.508,-32.227,949.707
1742204536.474,999.512,554.199,-33.691,999.512
1742204536.478,-146.973,-748.535,-39.062,-174.316
1742204536.482,-1000.0,-1000.0,-46.387,-1000.0
1742204536.486,-947.266,603.516,-42.969,-947.266
1742204536.489,-995.605,-74.219,-61.523,-996.582
1742204536.493,-1000.0,-1000.0,-61.035,-1000.0
1742204536.497,-937.012,-286.133,-59.57,-937.988
1742204536.501,-1000.0,-358.887,-69.336,-1000.0
1742204536.505,-829.102,392.578,-60.547,-828.613
1742204536.462,904.297,-153.32,-22.949,902.832
1742204536.466,948.73,-67.871,-20.02,952.148
1742204536.47,942.871,645.508,-32.227,949.707
1742204536.474,999.512,554.199,-33.691,999.512
1742204536.478,-146.973,-748.535,-39.062,-174.316
1742204536.482,-1000.0,-1000.0,-46.387,-1000.0
1742204536.486,-947.266,603.516,-42.969,-947.266
1742204536.489,-995.605,-74.219,-61.523,-996.582
1742204536.493,-1000.0,-1000.0,-61.035,-1000.0
1742204536.497,-937.012,-286.133,-59.57,-937.988
1742204536.501,-1000.0,-358.887,-69.336,-1000.0
1742204536.505,-829.102,392.578,-60.547,-828.613
1742204536.511,641.602,999.512,-66.895,635.254
1742204536.515,999.512,591.797,-59.082,999.512
1742204536.519,894.043,-650.391,-47.363,895.508
1742204536.523,983.398,-410.156,-62.988,983.887
1742204536.527,980.469,607.91,-55.176,979.004
1742204536.531,893.555,811.035,-40.039,898.438
1742204536.535,999.512,-165.039,-46.387,999.512
1742204536.538,525.879,-775.879,-57.129,502.93
1742204536.542,-922.852,-969.238,-64.453,-913.086
1742204536.546,-982.422,-567.871,-59.57,-983.398
1742204536.55,-1000.0,165.527,-53.711,-1000.0
1742204536.554,-824.219,504.395,-43.945,-618.652
1742204536.511,641.602,999.512,-66.895,635.254
1742204536.515,999.512,591.797,-59.082,999.512
1742204536.519,894.043,-650.391,-47.363,895.508
1742204536.523,983.398,-410.156,-62.988,983.887
1742204536.527,980.469,607.91,-55.176,979.004
1742204536.531,893.555,811.035,-40.039,898.438
1742204536.535,999.512,-165.039,-46.387,999.512
1742204536.538,525.879,-775.879,-57.129,502.93
1742204536.542,-922.852,-969.238,-64.453,-913.086
1742204536.546,-982.422,-567.871,-59.57,-983.398
1742204536.55,-1000.0,165.527,-53.711,-1000.0
1742204536.554,-824.219,504.395,-43.945,-618.652
1742204536.553,667.48,999.512,-36.133,803.223
1742204536.557,999.512,189.941,-42.48,999.512
1742204536.561,895.996,-238.281,-33.203,848.145
1742204536.565,985.352,594.238,-33.691,967.285
1742204536.569,907.227,-640.137,-47.363,918.457
1742204536.573,999.512,204.102,-37.109,999.512
1742204536.577,265.137,246.582,-47.363,254.883
1742204536.58,-1000.0,-1000.0,-52.246,-1000.0
1742204536.584,-1000.0,-138.184,-31.25,-1000.0
1742204536.588,-965.82,566.895,-30.273,-966.309
1742204536.592,-1000.0,-797.852,-37.598,-1000.0
1742204536.596,-937.5,-360.84,-39.062,-936.035
1742204536.553,667.48,999.512,-36.133,803.223
1742204536.557,999.512,189.941,-42.48,999.512
1742204536.561,895.996,-238.281,-33.203,848.145
1742204536.565,985.352,594.238,-33.691,967.285
1742204536.569,907.227,-640.137,-47.363,918.457
1742204536.573,999.512,204.102,-37.109,999.512
1742204536.577,265.137,246.582,-47.363,254.883
1742204536.58,-1000.0,-1000.0,-52.246,-1000.0
1742204536.584,-1000.0,-138.184,-31.25,-1000.0
1742204536.588,-965.82,566.895,-30.273,-966.309
1742204536.592,-1000.0,-797.852,-37.598,-1000.0
1742204536.596,-937.5,-360.84,-39.062,-936.035
1742204536.599,-1000.0,451.66,-37.109,-1000.0
1742204536.603,-833.984,261.719,-41.504,-798.828
1742204536.607,636.23,931.152,-47.363,666.016
1742204536.611,999.512,663.086,-42.969,999.512
1742204536.615,894.043,-655.762,-38.574,896.973
1742204536.619,983.398,453.125,-29.785,984.863
1742204536.623,979.492,740.234,-24.902,971.191
1742204536.626,894.043,-941.406,-35.156,906.738
1742204536.63,999.512,-613.281,-39.062,999.512
1742204536.634,510.254,-184.57,-32.227,348.145
1742204536.638,-914.551,-900.391,-33.203,-966.309
1742204536.642,-1000.0,276.855,-29.785,-1000.0
1742204536.599,-1000.0,451.66,-37.109,-1000.0
1742204536.603,-833.984,261.719,-41.504,-798.828
1742204536.607,636.23,931.152,-47.363,666.016
1742204536.611,999.512,663.086,-42.969,999.512
1742204536.615,894.043,-655.762,-38.574,896.973
1742204536.619,983.398,453.125,-29.785,984.863
1742204536.623,979.492,740.234,-24.902,971.191
1742204536.626,894.043,-941.406,-35.156,906.738
1742204536.63,999.512,-613.281,-39.062,999.512
1742204536.634,510.254,-184.57,-32.227,348.145
1742204536.638,-914.551,-900.391,-33.203,-966.309
1742204536.642,-1000.0,276.855,-29.785,-1000.0
1742204536.657,-946.777,403.32,-29.297,-958.984
1742204536.661,-1000.0,-865.234,-29.297,-1000.0
1742204536.665,-946.289,-276.367,-10.742,-949.707
1742204536.669,-1000.0,585.449,-15.137,-1000.0
1742204536.673,-920.898,-502.93,-32.715,-943.359
1742204536.677,517.09,571.777,-30.762,477.539
1742204536.681,999.512,638.184,-36.133,999.512
1742204536.684,891.602,-1000.0,-35.156,892.578
1742204536.688,980.957,-40.527,-38.574,980.469
1742204536.692,983.887,546.387,-44.434,981.934
1742204536.696,895.996,-592.773,-55.176,897.461
1742204536.7,999.512,477.051,-52.246,999.512
1742204536.657,-946.777,403.32,-29.297,-958.984
1742204536.661,-1000.0,-865.234,-29.297,-1000.0
1742204536.665,-946.289,-276.367,-10.742,-949.707
1742204536.669,-1000.0,585.449,-15.137,-1000.0
1742204536.673,-920.898,-502.93,-32.715,-943.359
1742204536.677,517.09,571.777,-30.762,477.539
1742204536.681,999.512,638.184,-36.133,999.512
1742204536.684,891.602,-1000.0,-35.156,892.578
1742204536.688,980.957,-40.527,-38.574,980.469
1742204536.692,983.887,546.387,-44.434,981.934
1742204536.696,895.996,-592.773,-55.176,897.461
1742204536.7,999.512,477.051,-52.246,999.512
1742204536.69,693.848,477.051,-42.969,612.305
1742204536.694,-784.668,-1000.0,-55.664,-834.473
1742204536.698,-1000.0,-977.539,-52.246,-1000.0
1742204536.702,-933.105,399.902,-50.781,-939.453
1742204536.706,-1000.0,741.699,-54.199,-1000.0
1742204536.71,-1000.0,92.773,-40.039,-1000.0
1742204536.714,-929.199,-622.07,-49.316,-932.129
1742204536.717,-1000.0,-251.953,-46.875,-1000.0
1742204536.721,-707.52,738.281,-41.992,-693.848
1742204536.725,767.578,896.484,-51.758,761.23
1742204536.729,999.512,-217.773,-40.039,999.512
1742204536.733,900.879,-271.973,-41.504,902.832
1742204536.69,693.848,477.051,-42.969,612.305
1742204536.694,-784.668,-1000.0,-55.664,-834.473
1742204536.698,-1000.0,-977.539,-52.246,-1000.0
1742204536.702,-933.105,399.902,-50.781,-939.453
1742204536.706,-1000.0,741.699,-54.199,-1000.0
1742204536.71,-1000.0,92.773,-40.039,-1000.0
1742204536.714,-929.199,-622.07,-49.316,-932.129
1742204536.717,-1000.0,-251.953,-46.875,-1000.0
1742204536.721,-707.52,738.281,-41.992,-693.848
1742204536.725,767.578,896.484,-51.758,761.23
1742204536.729,999.512,-217.773,-40.039,999.512
1742204536.733,900.879,-271.973,-41.504,902.832
1742204536.747,993.164,533.203,-37.598,994.141
1742204536.751,931.641,-178.223,-43.457,927.734
1742204536.755,965.332,-272.461,-46.875,977.051
1742204536.759,999.512,791.504,-26.855,977.051
1742204536.763,-314.453,-468.262,-35.156,-369.141
1742204536.767,-1000.0,-1000.0,-34.668,-1000.0
1742204536.771,-932.129,518.066,-15.625,-930.664
1742204536.774,-1000.0,-458.496,-27.344,-1000.0
1742204536.778,-1000.0,-1000.0,-30.762,-1000.0
1742204536.782,-933.594,233.398,-32.227,-935.059
1742204536.786,-1000.0,-113.77,-39.062,-1000.0
1742204536.79,-788.086,145.508,-22.949,-791.016
1742204536.747,993.164,533.203,-37.598,994.141
1742204536.751,931.641,-178.223,-43.457,927.734
1742204536.755,965.332,-272.461,-46.875,977.051
1742204536.759,999.512,791.504,-26.855,977.051
1742204536.763,-314.453,-468.262,-35.156,-369.141
1742204536.767,-1000.0,-1000.0,-34.668,-1000.0
1742204536.771,-932.129,518.066,-15.625,-930.664
1742204536.774,-1000.0,-458.496,-27.344,-1000.0
1742204536.778,-1000.0,-1000.0,-30.762,-1000.0
1742204536.782,-933.594,233.398,-32.227,-935.059
1742204536.786,-1000.0,-113.77,-39.062,-1000.0
1742204536.79,-788.086,145.508,-22.949,-791.016
1742204536.792,688.965,999.512,-26.367,678.223
1742204536.796,999.512,571.777,-36.133,999.512
1742204536.8,895.508,-762.695,-41.504,896.973
1742204536.804,984.863,25.391,-43.945,986.328
1742204536.808,969.238,999.512,-37.109,966.797
1742204536.812,905.762,759.277,-38.574,912.109
1742204536.816,999.512,-196.289,-38.086,999.512
1742204536.819,286.133,-838.867,-44.434,243.164
1742204536.823,-1000.0,-982.422,-66.406,-1000.0
1742204536.827,-949.707,-551.758,-53.711,-947.266
1742204536.831,-1000.0,140.625,-48.828,-1000.0
1742204536.835,-901.367,374.023,-51.27,-713.867
1742204536.792,688.965,999.512,-26.367,678.223
1742204536.796,999.512,571.777,-36.133,999.512
1742204536.8,895.508,-762.695,-41.504,896.973
1742204536.804,984.863,25.391,-43.945,986.328
1742204536.808,969.238,999.512,-37.109,966.797
1742204536.812,905.762,759.277,-38.574,912.109
1742204536.816,999.512,-196.289,-38.086,999.512
1742204536.819,286.133,-838.867,-44.434,243.164
1742204536.823,-1000.0,-982.422,-66.406,-1000.0
1742204536.827,-949.707,-551.758,-53.711,-947.266
1742204536.831,-1000.0,140.625,-48.828,-1000.0
1742204536.835,-901.367,374.023,-51.27,-713.867
1742204536.837,563.965,937.012,-40.039,687.988
1742204536.841,999.512,529.297,-38.574,999.512
1742204536.845,891.602,271.484,-31.25,904.297
1742204536.849,998.535,626.953,-31.738,997.559
1742204536.853,907.715,-692.383,-30.273,905.762
1742204536.857,999.512,188.965,-18.555,999.512
1742204536.861,855.469,711.914,-30.762,834.961
1742204536.864,-566.406,-982.422,-29.297,-645.02
1742204536.868,-1000.0,-728.516,-14.16,-1000.0
1742204536.872,-34.668,834.473,-18.066,240.723
1742204536.876,999.512,771.973,-19.043,999.512
1742204536.88,941.406,-546.387,-19.531,915.527
1742204536.837,563.965,937.012,-40.039,687.988
1742204536.841,999.512,529.297,-38.574,999.512
1742204536.845,891.602,271.484,-31.25,904.297
1742204536.849,998.535,626.953,-31.738,997.559
1742204536.853,907.715,-692.383,-30.273,905.762
1742204536.857,999.512,188.965,-18.555,999.512
1742204536.861,855.469,711.914,-30.762,834.961
1742204536.864,-566.406,-982.422,-29.297,-645.02
1742204536.868,-1000.0,-728.516,-14.16,-1000.0
1742204536.872,-34.668,834.473,-18.066,240.723
1742204536.876,999.512,771.973,-19.043,999.512
1742204536.88,941.406,-546.387,-19.531,915.527
1742204536.883,945.801,-473.633,-19.531,964.355
1742204536.887,985.84,805.664,-26.367,978.516
1742204536.891,894.043,130.859,-39.551,901.855
1742204536.895,999.512,-612.793,-33.691,999.512
1742204536.899,521.484,-498.535,-33.203,460.449
1742204536.903,-907.227,-780.273,-29.297,-915.039
1742204536.907,-1000.0,-209.961,-24.902,-1000.0
1742204536.91,-961.426,-115.234,-41.992,-965.82
1742204536.914,-960.449,-360.352,-41.016,-959.473
1742204536.918,-1000.0,-283.691,-43.945,-1000.0
1742204536.922,-913.086,-82.031,-44.922,-914.551
1742204536.926,529.297,867.188,-37.109,527.832
1742204536.883,945.801,-473.633,-19.531,964.355
1742204536.887,985.84,805.664,-26.367,978.516
1742204536.891,894.043,130.859,-39.551,901.855
1742204536.895,999.512,-612.793,-33.691,999.512
1742204536.899,521.484,-498.535,-33.203,460.449
1742204536.903,-907.227,-780.273,-29.297,-915.039
1742204536.907,-1000.0,-209.961,-24.902,-1000.0
1742204536.91,-961.426,-115.234,-41.992,-965.82
1742204536.914,-960.449,-360.352,-41.016,-959.473
1742204536.918,-1000.0,-283.691,-43.945,-1000.0
1742204536.922,-913.086,-82.031,-44.922,-914.551
1742204536.926,529.297,867.188,-37.109,527.832
1742204536.927,999.512,763.184,-55.664,999.512
1742204536.931,891.602,-835.449,-58.105,892.09
1742204536.935,981.445,-428.223,-51.27,981.934
1742204536.939,979.492,670.898,-54.688,979.004
1742204536.943,919.434,-638.672,-52.246,923.34
1742204536.947,993.164,373.047,-60.059,986.328
1742204536.951,935.059,752.441,-53.223,954.59
1742204536.954,-481.934,-909.668,-41.992,-438.965
1742204536.958,-1000.0,-1000.0,-46.387,-1000.0
1742204536.962,-980.469,-47.363,-39.062,-997.07
1742204536.966,-903.32,559.57,-47.363,-837.891
1742204536.97,563.965,973.145,-47.363,632.812
1742204536.927,999.512,763.184,-55.664,999.512
1742204536.931,891.602,-835.449,-58.105,892.09
1742204536.935,981.445,-428.223,-51.27,981.934
1742204536.939,979.492,670.898,-54.688,979.004
1742204536.943,919.434,-638.672,-52.246,923.34
1742204536.947,993.164,373.047,-60.059,986.328
1742204536.951,935.059,752.441,-53.223,954.59
1742204536.954,-481.934,-909.668,-41.992,-438.965
1742204536.958,-1000.0,-1000.0,-46.387,-1000.0
1742204536.962,-980.469,-47.363,-39.062,-997.07
1742204536.966,-903.32,559.57,-47.363,-837.891
1742204536.97,563.965,973.145,-47.363,632.812
1742204536.975,999.512,396.484,-43.945,999.512
1742204536.979,891.602,-494.629,-61.035,895.508
1742204536.983,980.469,619.141,-46.875,982.91
1742204536.987,951.172,111.328,-41.992,949.707
1742204536.991,944.824,-465.82,-42.969,950.195
1742204536.995,891.113,525.879,-38.086,892.578
1742204536.999,-208.984,-84.961,-51.27,-215.332
1742204537.002,-1000.0,-1000.0,-45.898,-1000.0
1742204537.006,-959.473,-341.797,-42.48,-960.449
1742204537.01,-991.211,648.438,-40.527,-991.699
1742204537.014,-1000.0,-677.734,-29.785,-1000.0
1742204537.018,-932.617,-197.754,-35.645,-933.105
1742204536.975,999.512,396.484,-43.945,999.512
1742204536.979,891.602,-494.629,-61.035,895.508
1742204536.983,980.469,619.141,-46.875,982.91
1742204536.987,951.172,111.328,-41.992,949.707
1742204536.991,944.824,-465.82,-42.969,950.195
1742204536.995,891.113,525.879,-38.086,892.578
1742204536.999,-208.984,-84.961,-51.27,-215.332
1742204537.002,-1000.0,-1000.0,-45.898,-1000.0
1742204537.006,-959.473,-341.797,-42.48,-960.449
1742204537.01,-991.211,648.438,-40.527,-991.699
1742204537.014,-1000.0,-677.734,-29.785,-1000.0
1742204537.018,-932.617,-197.754,-35.645,-933.105
1742204537.032,-1000.0,775.879,-36.133,-1000.0
1742204537.036,-757.324,132.324,-45.898,-679.199
1742204537.04,645.996,824.219,-52.246,696.289
1742204537.044,999.512,837.402,-34.668,999.512
1742204537.048,787.598,-538.574,-41.504,777.344
1742204537.052,-580.078,-1000.0,-37.598,-601.074
1742204537.056,-1000.0,-959.473,-29.785,-1000.0
1742204537.059,-927.734,-272.949,-39.551,-927.734
1742204537.063,-1000.0,209.473,-33.691,-1000.0
1742204537.067,-947.754,-317.383,-38.086,-937.988
1742204537.071,-1000.0,-454.59,-38.086,-1000.0
1742204537.075,-195.312,634.277,-35.645,-372.559
1742204537.032,-1000.0,775.879,-36.133,-1000.0
1742204537.036,-757.324,132.324,-45.898,-679.199
1742204537.04,645.996,824.219,-52.246,696.289
1742204537.044,999.512,837.402,-34.668,999.512
1742204537.048,787.598,-538.574,-41.504,777.344
1742204537.052,-580.078,-1000.0,-37.598,-601.074
1742204537.056,-1000.0,-959.473,-29.785,-1000.0
1742204537.059,-927.734,-272.949,-39.551,-927.734
1742204537.063,-1000.0,209.473,-33.691,-1000.0
1742204537.067,-947.754,-317.383,-38.086,-937.988
1742204537.071,-1000.0,-454.59,-38.086,-1000.0
1742204537.075,-195.312,634.277,-35.645,-372.559
1742204537.077,939.453,999.512,-44.434,873.047
1742204537.081,999.512,233.398,-37.598,999.512
1742204537.085,752.93,-889.648,-33.203,555.176
1742204537.089,-618.164,-1000.0,-25.879,-755.859
1742204537.093,-1000.0,30.273,-16.602,-1000.0
1742204537.097,-554.199,978.027,-23.438,-501.953
1742204537.101,825.195,978.516,-26.367,860.352
1742204537.104,914.551,-17.578,-32.715,849.121
1742204537.108,-650.879,-1000.0,-38.574,-708.496
1742204537.112,-1000.0,-1000.0,-33.203,-1000.0
1742204537.116,-925.781,134.277,-35.645,-928.223
1742204537.12,-1000.0,596.191,-30.762,-1000.0
1742204537.077,939.453,999.512,-44.434,873.047
1742204537.081,999.512,233.398,-37.598,999.512
1742204537.085,752.93,-889.648,-33.203,555.176
1742204537.089,-618.164,-1000.0,-25.879,-755.859
1742204537.093,-1000.0,30.273,-16.602,-1000.0
1742204537.097,-554.199,978.027,-23.438,-501.953
1742204537.101,825.195,978.516,-26.367,860.352
1742204537.104,914.551,-17.578,-32.715,849.121
1742204537.108,-650.879,-1000.0,-38.574,-708.496
1742204537.112,-1000.0,-1000.0,-33.203,-1000.0
1742204537.116,-925.781,134.277,-35.645,-928.223
1742204537.12,-1000.0,596.191,-30.762,-1000.0
1742204537.122,-942.383,-803.223,-24.414,-941.406
1742204537.126,-1000.0,-261.719,-24.902,-1000.0
1742204537.13,-891.113,981.934,-20.996,-878.906
1742204537.134,580.078,999.512,-24.902,595.703
1742204537.138,999.512,-158.203,-16.602,999.512
1742204537.142,945.312,-91.797,-13.184,950.684
1742204537.146,873.047,573.73,-21.484,857.91
1742204537.149,-597.656,-925.781,-9.277,-617.188
1742204537.153,-1000.0,-819.336,-4.883,-1000.0
1742204537.157,-934.57,576.172,-15.137,-935.547
1742204537.161,-982.422,-566.895,-29.785,-982.422
1742204537.165,-997.559,-361.816,-28.32,-999.512
1742204537.122,-942.383,-803.223,-24.414,-941.406
1742204537.126,-1000.0,-261.719,-24.902,-1000.0
1742204537.13,-891.113,981.934,-20.996,-878.906
1742204537.134,580.078,999.512,-24.902,595.703
1742204537.138,999.512,-158.203,-16.602,999.512
1742204537.142,945.312,-91.797,-13.184,950.684
1742204537.146,873.047,573.73,-21.484,857.91
1742204537.149,-597.656,-925.781,-9.277,-617.188
1742204537.153,-1000.0,-819.336,-4.883,-1000.0
1742204537.157,-934.57,576.172,-15.137,-935.547
1742204537.161,-982.422,-566.895,-29.785,-982.422
1742204537.165,-997.559,-361.816,-28.32,-999.512
1742204537.167,-1000.0,676.27,-13.184,-1000.0
1742204537.171,269.043,823.242,-26.855,272.461
1742204537.175,999.512,938.965,-26.367,999.512
1742204537.179,898.438,-325.684,-15.625,900.879
1742204537.183,972.168,-573.73,-28.32,974.121
1742204537.187,970.215,855.469,-13.672,965.332
1742204537.191,904.297,704.59,-12.695,915.527
1742204537.194,999.512,-780.273,-42.48,999.512
1742204537.198,291.016,-1000.0,-46.875,213.867
1742204537.202,-938.965,-1000.0,-43.945,-945.801
1742204537.206,-1000.0,-807.129,-36.621,-1000.0
1742204537.21,-853.516,595.215,-38.574,-849.609
1742204537.167,-1000.0,676.27,-13.184,-1000.0
1742204537.171,269.043,823.242,-26.855,272.461
1742204537.175,999.512,938.965,-26.367,999.512
1742204537.179,898.438,-325.684,-15.625,900.879
1742204537.183,972.168,-573.73,-28.32,974.121
1742204537.187,970.215,855.469,-13.672,965.332
1742204537.191,904.297,704.59,-12.695,915.527
1742204537.194,999.512,-780.273,-42.48,999.512
1742204537.198,291.016,-1000.0,-46.875,213.867
1742204537.202,-938.965,-1000.0,-43.945,-945.801
1742204537.206,-1000.0,-807.129,-36.621,-1000.0
1742204537.21,-853.516,595.215,-38.574,-849.609
1742204537.213,553.711,999.512,-38.574,570.801
1742204537.217,999.512,-54.199,-28.809,999.512
1742204537.221,891.602,-496.094,-38.086,842.773
1742204537.225,998.535,567.383,-41.016,979.004
1742204537.229,908.691,-349.609,-45.898,916.016
1742204537.233,999.512,399.414,-45.898,999.512
1742204537.237,856.934,434.082,-30.762,844.238
1742204537.24,-597.656,-1000.0,-41.504,-615.723
1742204537.244,-1000.0,-1000.0,-44.922,-1000.0
1742204537.248,-925.781,33.691,-50.293,-926.27
1742204537.252,-1000.0,540.527,-64.453,-1000.0
1742204537.256,-1000.0,-566.895,-49.805,-1000.0
1742204537.213,553.711,999.512,-38.574,570.801
1742204537.217,999.512,-54.199,-28.809,999.512
1742204537.221,891.602,-496.094,-38.086,842.773
1742204537.225,998.535,567.383,-41.016,979.004
1742204537.229,908.691,-349.609,-45.898,916.016
1742204537.233,999.512,399.414,-45.898,999.512
1742204537.237,856.934,434.082,-30.762,844.238
