timestamps,TP9,AF7,AF8,TP10
1742205094.489,-154.785,987.305,-443.848,-141.602
1742205094.493,-20.996,-904.785,-454.102,-18.066
1742205094.497,253.906,133.789,-310.059,279.297
1742205094.501,146.484,-1000.0,-154.785,146.484
1742205094.505,327.637,-970.215,-169.922,353.516
1742205094.509,311.523,-1000.0,-206.055,339.844
1742205094.513,10.742,177.734,-99.609,18.066
1742205094.516,-99.121,-787.109,-158.691,-100.586
1742205094.52,298.34,80.566,-124.023,295.41
1742205094.524,220.703,-122.07,-146.484,209.473
1742205094.528,141.602,-422.852,-468.262,105.957
1742205094.532,429.199,-1000.0,-600.098,430.176
1742205094.534,23.438,-916.992,-411.621,71.777
1742205094.538,213.379,-1000.0,-235.352,265.625
1742205094.542,182.617,55.664,-300.781,221.191
1742205094.546,466.797,-841.309,-553.223,471.68
1742205094.55,537.109,742.188,-787.109,521.973
1742205094.554,-508.789,419.922,-492.188,-514.648
1742205094.558,-272.461,99.121,-102.539,-260.254
1742205094.561,304.688,-1000.0,-182.617,339.355
1742205094.565,137.207,-357.91,-357.91,121.094
1742205094.569,-476.074,-841.797,-403.809,-515.137
1742205094.573,-229.492,134.766,-189.453,-201.172
1742205094.577,679.199,-1000.0,22.949,731.934
1742205094.998,871.094,886.719,-1000.0,865.234
1742205095.002,996.582,-959.473,-1000.0,-989.746
1742205095.006,726.074,760.742,-1000.0,627.441
1742205095.01,738.281,-613.77,-1000.0,637.207
1742205095.014,-995.605,-1000.0,-1000.0,-980.957
1742205095.018,909.668,-1000.0,-1000.0,908.691
1742205095.022,682.129,40.527,-1000.0,688.965
1742205095.025,742.188,-760.742,-1000.0,747.07
1742205095.029,616.699,183.594,-1000.0,628.906
1742205095.033,525.391,-1000.0,-1000.0,524.902
1742205095.037,860.352,-990.723,-1000.0,850.098
1742205095.041,985.352,-969.238,-1000.0,990.234
1742205095.374,629.883,-1000.0,451.172,648.438
1742205095.378,827.637,-819.824,368.164,826.66
1742205095.382,483.398,-314.453,148.926,478.027
1742205095.386,-382.324,-315.43,164.062,-373.535
1742205095.39,378.906,-940.43,276.855,373.535
1742205095.394,125.0,-81.543,356.445,109.863
1742205095.398,-674.805,-892.09,325.684,-673.34
1742205095.401,90.332,921.387,-35.645,121.094
1742205095.405,207.52,957.52,-199.219,240.234
1742205095.409,262.207,909.18,-70.801,242.676
1742205095.413,519.043,-889.648,-18.555,489.258
1742205095.417,716.309,209.473,-95.703,714.844
1742205096.124,976.562,971.68,-803.223,977.539
1742205096.128,964.355,971.191,-725.586,962.891
1742205096.132,921.387,975.098,-786.133,916.992
1742205096.136,913.574,953.613,-990.234,913.574
1742205096.14,-924.316,937.988,-1000.0,-922.852
1742205096.144,713.379,-927.246,-994.629,710.449
1742205096.148,321.777,-93.262,-1000.0,317.871
1742205096.151,941.895,-1000.0,-1000.0,942.871
1742205096.155,-987.793,-949.219,-1000.0,-987.305
1742205096.159,938.477,-993.652,-1000.0,938.477
1742205096.163,977.051,-1000.0,-1000.0,977.539
1742205096.167,970.703,-1000.0,-1000.0,971.191
1742205096.124,976.562,971.68,-803.223,977.539
1742205096.128,964.355,971.191,-725.586,962.891
1742205096.132,921.387,975.098,-786.133,916.992
1742205096.136,913.574,953.613,-990.234,913.574
1742205096.14,-924.316,937.988,-1000.0,-922.852
1742205096.144,713.379,-927.246,-994.629,710.449
1742205096.148,321.777,-93.262,-1000.0,317.871
1742205096.151,941.895,-1000.0,-1000.0,942.871
1742205096.155,-987.793,-949.219,-1000.0,-987.305
1742205096.159,938.477,-993.652,-1000.0,938.477
1742205096.163,977.051,-1000.0,-1000.0,977.539
1742205096.167,970.703,-1000.0,-1000.0,971.191
1742205096.364,977.051,962.402,-1000.0,950.684
1742205096.368,969.238,-900.879,-1000.0,935.547
1742205096.372,436.035,266.113,-1000.0,349.609
1742205096.376,647.949,-949.707,-1000.0,603.027
1742205096.38,-961.914,-1000.0,-1000.0,-955.566
1742205096.384,987.793,-481.934,-1000.0,993.652
1742205096.388,797.363,876.465,-1000.0,758.301
1742205096.391,670.898,-981.445,-1000.0,578.125
1742205096.395,904.297,850.586,-1000.0,862.793
1742205096.399,-984.375,-877.441,-1000.0,-976.562
1742205096.403,562.012,335.938,-1000.0,514.16
1742205096.407,334.473,-1000.0,-1000.0,250.488
1742205096.558,-580.078,-678.711,761.23,-505.371
1742205096.562,43.945,-1000.0,982.422,198.73
1742205096.566,225.586,-513.672,980.957,291.504
1742205096.57,-1.953,954.59,882.324,-2.93
1742205096.574,-148.926,249.512,780.273,-127.93
1742205096.578,-529.785,-964.844,915.527,-454.102
1742205096.582,-942.383,-969.727,985.352,-887.695
1742205096.585,-333.496,-434.082,964.844,-313.477
1742205096.589,-324.707,157.227,972.168,-312.012
1742205096.593,-409.668,-908.203,971.191,-402.344
1742205096.597,-554.688,276.855,971.191,-510.742
1742205096.601,-417.969,-990.234,971.191,-369.141
1742205096.873,389.648,-960.449,933.594,322.266
1742205096.877,613.77,922.363,701.66,596.191
1742205096.881,812.988,-934.082,555.176,820.801
1742205096.885,331.055,407.227,772.461,388.672
1742205096.889,492.188,-934.57,973.633,516.113
1742205096.893,50.781,-1000.0,972.656,55.664
1742205096.897,119.629,-772.949,959.473,142.09
1742205096.9,428.711,-382.812,822.266,447.266
1742205096.904,-270.02,-981.934,866.699,-246.094
1742205096.908,-110.84,-917.48,983.398,-78.125
1742205096.912,398.438,-848.633,963.379,436.523
1742205096.916,270.02,-269.043,750.977,270.996
1742205097.623,-392.578,-669.922,-660.156,-301.27
1742205097.627,-689.453,-1000.0,-163.574,-576.66
1742205097.631,-306.641,-1000.0,-1.953,-250.0
1742205097.635,369.141,93.75,-307.129,408.691
1742205097.639,-312.988,-799.805,-648.926,-295.898
1742205097.643,-889.16,-113.77,-215.332,-865.234
1742205097.647,-881.836,-1000.0,507.324,-861.328
1742205097.65,-407.227,-1000.0,475.098,-421.875
1742205097.654,213.867,-552.734,110.84,234.863
1742205097.658,98.145,790.527,-148.926,105.957
1742205097.662,-845.215,-846.191,48.34,-865.234
1742205097.666,-962.891,210.449,564.941,-950.195
1742205098.374,523.438,834.961,-118.164,475.586
1742205098.378,92.773,-842.285,-321.289,37.109
1742205098.382,-349.609,402.344,-219.727,-362.793
1742205098.386,-269.531,-941.895,139.16,-230.957
1742205098.39,255.371,-968.75,261.719,291.504
1742205098.394,-179.199,-1000.0,192.871,-182.129
1742205098.398,-644.531,-275.391,107.91,-636.719
1742205098.401,-483.398,-903.32,-151.367,-508.789
1742205098.405,-589.844,805.664,-102.051,-617.188
1742205098.409,-539.551,-592.285,163.086,-540.039
1742205098.413,304.688,-1000.0,184.082,311.523
1742205098.417,475.586,369.629,-26.367,458.008
1742205098.419,-516.602,550.781,-118.652,-542.969
1742205098.423,-608.887,-1000.0,345.215,-588.867
1742205098.427,-182.617,-1000.0,687.5,-208.008
1742205098.431,74.707,-952.637,548.34,28.809
1742205098.435,212.402,-1000.0,333.984,198.73
1742205098.439,-343.75,-1000.0,404.785,-310.059
1742205098.443,-936.035,-932.617,789.062,-861.816
1742205098.446,-600.586,-1000.0,870.117,-592.773
1742205098.45,-449.219,-323.242,701.172,-490.723
1742205098.454,-605.957,999.512,528.32,-596.68
1742205098.458,-369.629,974.121,241.211,-333.496
1742205098.462,-703.125,932.129,354.004,-686.035
1742205098.479,-873.535,976.074,589.844,-873.047
1742205098.483,-451.172,972.168,556.152,-449.707
1742205098.487,282.715,971.191,378.418,312.012
1742205098.491,105.957,971.191,209.961,96.68
1742205098.495,-103.027,971.191,443.359,-89.355
1742205098.499,-558.105,981.445,748.535,-508.789
1742205098.503,-160.156,904.785,767.09,-170.898
1742205098.506,452.148,-916.504,412.109,424.805
1742205098.51,111.816,493.652,96.68,131.348
1742205098.514,200.195,-885.742,381.836,238.281
1742205098.518,91.797,-1000.0,747.07,124.023
1742205098.522,86.914,-951.172,761.23,89.844
1742205098.535,167.48,-1000.0,589.844,178.711
1742205098.539,-34.668,-1000.0,432.617,-59.082
1742205098.543,-339.355,-954.102,510.742,-354.492
1742205098.547,-879.883,-1000.0,733.398,-835.449
1742205098.551,-115.723,-848.145,757.812,-97.656
1742205098.555,-297.852,501.465,604.98,-262.207
1742205098.559,-661.133,-924.316,423.828,-655.762
1742205098.562,-595.703,908.691,341.797,-594.238
1742205098.566,-973.145,980.469,563.477,-953.125
1742205098.57,-608.398,971.191,609.863,-621.582
1742205098.574,-129.395,984.863,281.25,-105.957
1742205098.578,171.875,911.133,20.996,192.383
1742205099.228,973.145,-1000.0,112.305,983.398
1742205099.232,770.996,-1000.0,123.535,769.531
1742205099.236,336.914,-1000.0,354.98,375.977
1742205099.24,151.367,-1000.0,466.309,206.543
1742205099.244,156.25,-1000.0,327.637,233.887
1742205099.248,-87.891,-1000.0,221.68,-21.973
1742205099.252,-199.707,-1000.0,244.141,-162.598
1742205099.255,-216.797,-949.707,312.988,-136.719
1742205099.259,-283.691,-1000.0,256.348,-216.309
1742205099.263,265.625,-866.699,86.914,288.574
1742205099.267,458.008,512.695,-267.09,426.758
1742205099.271,-96.68,-933.594,-667.969,-139.16
1742205099.669,470.703,-464.355,-994.141,499.023
1742205099.673,231.934,-903.809,-998.047,267.09
1742205099.677,369.629,205.566,-1000.0,413.574
1742205099.681,541.016,-1000.0,-1000.0,628.418
1742205099.685,38.086,-1000.0,-1000.0,90.332
1742205099.689,-84.961,-818.848,-1000.0,-41.016
1742205099.693,4.395,465.82,-1000.0,64.941
1742205099.696,-75.195,-833.984,-1000.0,-54.199
1742205099.7,-69.824,107.91,-1000.0,-40.039
1742205099.704,160.645,-1000.0,-1000.0,202.148
1742205099.708,440.918,12.207,-1000.0,403.32
1742205099.712,662.109,-960.938,-1000.0,613.77
1742205099.784,-96.191,-848.633,206.055,-148.438
1742205099.788,-95.703,202.148,510.742,-94.727
1742205099.792,-54.199,-1000.0,817.383,-53.711
1742205099.796,224.609,-122.07,845.703,229.98
1742205099.8,-139.16,926.27,529.785,-128.906
1742205099.804,-918.945,-605.469,651.855,-920.898
1742205099.808,-632.812,-1000.0,984.863,-625.0
1742205099.811,-599.121,-935.059,961.914,-588.867
1742205099.815,-419.434,-968.262,980.469,-420.41
1742205099.819,50.293,206.055,895.508,48.34
1742205099.823,-464.355,-727.051,733.887,-443.848
1742205099.827,-965.82,260.742,863.77,-937.012
1742205099.874,163.574,56.641,971.68,138.184
1742205099.878,-384.277,333.984,971.191,-380.859
1742205099.882,-642.09,-199.707,971.191,-640.137
1742205099.886,-886.23,-972.656,971.68,-878.418
1742205099.89,-164.062,798.34,971.191,-204.59
1742205099.894,-75.684,666.016,971.191,-125.0
1742205099.898,-429.199,-829.102,971.191,-438.477
1742205099.901,-183.105,316.406,971.68,-209.961
1742205099.905,429.688,-1000.0,968.75,415.527
1742205099.909,416.504,-29.297,966.309,407.227
1742205099.913,-177.246,-892.578,980.957,-208.008
1742205099.917,253.906,864.746,807.129,157.227
1742205100.294,579.102,-967.285,-487.305,597.656
1742205100.298,171.387,-1000.0,-578.125,200.684
1742205100.302,-222.656,-1000.0,-337.891,-114.746
1742205100.306,426.27,-934.082,-167.969,448.73
1742205100.31,587.891,-1000.0,-312.5,568.359
1742205100.314,-298.828,-252.441,-415.527,-285.645
1742205100.318,-716.309,-956.543,-405.762,-706.543
1742205100.321,-366.211,970.703,-484.375,-328.613
1742205100.325,-101.074,-291.504,-374.023,-91.309
1742205100.329,645.02,-1000.0,-191.895,635.742
1742205100.333,340.82,-127.441,-493.164,326.172
1742205100.337,-94.238,-242.188,-666.504,-115.234
1742205100.444,873.047,909.668,-992.676,768.555
1742205100.448,445.801,-891.602,-1000.0,423.828
1742205100.452,382.812,177.734,-929.199,438.477
1742205100.456,960.449,-1000.0,-800.293,965.332
1742205100.46,-985.352,-983.887,-913.086,-990.234
1742205100.464,543.457,-974.121,-936.035,509.766
1742205100.468,447.266,-986.816,-738.281,402.344
1742205100.471,873.047,-992.676,-699.707,835.449
1742205100.475,713.867,-1000.0,-660.645,704.102
1742205100.479,748.535,-999.023,-656.25,759.277
1742205100.483,-981.445,-1000.0,-901.855,-1000.0
1742205100.487,659.18,-1000.0,-1000.0,661.621
1742205100.489,-16.602,-1000.0,-842.773,32.227
1742205100.493,-11.719,-928.223,-566.406,7.324
1742205100.497,153.809,-1000.0,-593.262,159.668
1742205100.501,495.117,-407.227,-787.109,499.023
1742205100.505,115.723,961.426,-969.238,62.988
1742205100.509,-920.898,960.449,-808.105,-928.223
1742205100.513,-895.996,935.059,-437.012,-847.168
1742205100.516,-52.734,929.688,-596.68,12.695
1742205100.52,451.172,-960.938,-938.965,522.949
1742205100.524,-408.203,705.078,-989.746,-395.996
1742205100.528,-156.25,-689.453,-907.227,-176.758
1742205100.532,506.348,-1000.0,-666.016,497.559
1742205100.729,606.934,-1000.0,-1000.0,587.891
1742205100.733,-98.633,-1000.0,-1000.0,-111.816
1742205100.737,-479.492,-999.512,-1000.0,-453.125
1742205100.741,-193.359,-1000.0,-999.512,-202.637
1742205100.745,259.766,-1000.0,-991.699,234.375
1742205100.749,-259.277,-971.68,-1000.0,-260.254
1742205100.753,-666.504,-1000.0,-906.738,-693.848
1742205100.756,-66.895,-897.949,-701.172,-84.961
1742205100.76,174.805,-705.078,-682.129,163.574
1742205100.764,41.016,-1000.0,-790.527,13.672
1742205100.768,412.109,-554.199,-932.129,387.207
1742205100.772,-314.941,876.465,-793.945,-334.961
1742205100.774,-1000.0,-984.863,-473.633,-1000.0
1742205100.778,-858.887,930.176,-399.414,-856.445
1742205100.782,-439.941,936.523,-519.043,-466.309
1742205100.786,-226.074,-984.375,-760.254,-282.227
1742205100.79,-669.434,830.566,-746.094,-709.961
1742205100.794,-710.449,-461.914,-273.926,-716.797
1742205100.798,-445.312,-1000.0,90.332,-477.051
1742205100.801,-294.434,-163.574,-183.105,-340.332
1742205100.805,-234.863,982.422,-534.18,-308.105
1742205100.809,-574.219,-933.594,-573.73,-649.902
1742205100.813,-317.383,124.023,-391.602,-343.75
1742205100.817,-32.227,-1000.0,-199.219,-49.316
1742205100.954,502.441,911.133,174.316,471.191
1742205100.958,146.484,-891.602,-102.051,137.207
1742205100.962,300.293,167.48,-73.242,319.336
1742205100.966,230.957,-1000.0,214.844,275.879
1742205100.97,238.77,-1000.0,315.43,272.461
1742205100.974,559.57,-524.902,307.129,554.199
1742205100.978,327.148,-991.211,147.949,330.078
1742205100.981,-131.836,699.707,-109.375,-139.16
1742205100.985,-325.684,-812.988,261.719,-293.945
1742205100.989,234.375,-980.469,606.934,289.062
1742205100.993,464.355,-1000.0,341.309,438.477
1742205100.997,584.473,-459.961,226.074,565.918
1742205101.138,-189.941,971.191,971.191,-165.039
1742205101.142,-220.215,971.191,971.191,-187.5
1742205101.146,-137.695,971.191,971.191,-145.508
1742205101.15,72.754,971.191,971.191,45.898
1742205101.154,116.699,971.191,971.191,125.977
1742205101.158,-610.84,971.191,971.191,-605.957
1742205101.162,-764.16,971.191,971.68,-768.555
1742205101.165,-76.66,975.098,971.191,-64.941
1742205101.169,-30.273,953.613,971.191,3.418
1742205101.173,-13.184,937.988,971.191,8.301
1742205101.177,132.324,-930.664,971.191,125.977
1742205101.181,67.383,-86.914,971.191,90.332
1742205101.194,104.98,-1000.0,971.191,110.352
1742205101.198,627.441,-1000.0,971.191,609.863
1742205101.202,658.203,-184.082,971.191,642.09
1742205101.206,61.523,-961.914,971.191,40.527
1742205101.21,32.227,953.125,972.656,43.457
1742205101.214,-248.047,944.824,961.426,-266.602
1742205101.218,-343.262,968.75,988.281,-378.418
1742205101.221,405.762,923.34,914.062,380.371
1742205101.225,884.277,-907.715,697.754,851.562
1742205101.229,437.012,40.527,817.871,395.02
1742205101.233,456.543,-1000.0,987.305,446.777
1742205101.237,662.598,-964.844,966.309,655.273
1742205102.274,-522.461,150.391,959.961,-515.137
1742205102.278,-582.031,785.156,950.684,-570.312
1742205102.282,128.418,858.887,758.301,130.859
1742205102.286,969.238,-866.699,306.152,930.176
1742205102.29,105.957,84.473,259.766,61.523
1742205102.294,-246.582,197.754,491.211,-237.305
1742205102.298,76.66,385.254,409.668,99.609
1742205102.301,773.438,-247.07,-21.484,767.09
1742205102.305,485.352,-869.141,-358.398,425.293
1742205102.309,55.664,491.699,-382.324,-38.574
1742205102.313,643.066,-962.891,-321.289,596.68
1742205102.317,899.902,-1000.0,-303.223,889.648
1742205102.671,895.508,-1000.0,-1000.0,898.926
1742205102.675,895.996,-1000.0,-1000.0,890.137
1742205102.679,606.445,-1000.0,-1000.0,663.086
1742205102.683,549.805,-1000.0,-1000.0,687.988
1742205102.687,827.637,-967.285,-1000.0,932.129
1742205102.691,-184.57,-1000.0,-1000.0,-32.227
1742205102.695,-286.133,-893.066,-1000.0,-164.062
1742205102.698,135.254,-526.855,-1000.0,172.363
1742205102.702,-409.668,25.391,-1000.0,-354.98
1742205102.706,-15.137,958.496,-1000.0,38.086
1742205102.71,-62.5,-949.707,-1000.0,-14.16
1742205102.714,-244.141,-119.629,-1000.0,-147.461
1742205103.204,3.906,971.191,971.191,6.348
1742205103.208,-22.461,971.191,971.191,-54.688
1742205103.212,11.719,971.191,971.191,-12.207
1742205103.216,462.891,971.191,971.191,457.52
1742205103.22,634.277,971.191,971.191,625.488
1742205103.224,148.926,971.191,970.703,139.16
1742205103.228,-58.594,971.191,971.191,-84.961
1742205103.231,410.156,971.191,971.191,379.883
1742205103.235,246.094,985.84,971.191,219.727
1742205103.239,406.25,906.738,971.191,436.035
1742205103.243,620.605,-942.383,971.191,668.457
1742205103.247,336.426,697.266,971.191,310.547
1742205103.444,194.824,979.98,-149.902,123.047
1742205103.448,-405.762,-970.703,-76.66,-426.27
1742205103.452,-279.297,-472.656,112.793,-270.996
1742205103.456,141.113,-354.004,293.457,110.84
1742205103.46,21.484,-890.137,161.133,-21.484
1742205103.464,-127.93,881.348,-48.828,-125.977
1742205103.468,-48.34,-922.363,87.891,-56.152
1742205103.471,-46.875,381.348,119.141,-92.773
1742205103.475,116.211,-996.094,140.625,46.875
1742205103.479,946.289,-1000.0,125.0,913.574
1742205103.483,835.449,-950.684,-58.594,815.43
1742205103.487,553.223,-1000.0,-71.289,475.098
1742205103.909,-190.43,-1000.0,960.449,-192.383
1742205103.913,-823.73,-967.773,969.727,-797.852
1742205103.917,-913.086,-979.004,966.309,-907.227
1742205103.921,-897.949,-1000.0,972.168,-865.723
1742205103.925,-989.258,-1000.0,971.68,-908.203
1742205103.929,-990.723,-1000.0,971.191,-979.004
1742205103.933,-1000.0,-951.172,971.191,-1000.0
1742205103.936,-983.398,-969.727,971.68,-979.98
1742205103.94,-996.582,-991.699,971.68,-995.605
1742205103.944,-1000.0,-965.332,971.191,-1000.0
1742205103.948,-999.512,-1000.0,971.191,-1000.0
1742205103.952,-1000.0,62.988,971.68,-1000.0
1742205104.196,440.43,-1000.0,-1000.0,427.246
1742205104.2,427.246,-205.078,-1000.0,370.605
1742205104.204,228.027,-953.125,-1000.0,169.434
1742205104.208,-47.363,949.219,-1000.0,-35.645
1742205104.212,33.203,940.918,-1000.0,60.059
1742205104.216,-315.918,978.516,-1000.0,-341.309
1742205104.22,-551.27,971.191,-1000.0,-578.613
1742205104.223,-40.527,971.68,-1000.0,-81.055
1742205104.227,35.645,971.191,-1000.0,-20.508
1742205104.231,302.734,971.191,-1000.0,255.859
1742205104.235,578.125,971.191,-1000.0,516.113
1742205104.239,449.707,971.191,-1000.0,392.578
1742205104.329,-948.73,974.121,-157.227,-964.355
1742205104.333,-518.066,971.191,-182.617,-619.141
1742205104.337,-215.332,971.191,-408.203,-296.387
1742205104.341,-170.41,971.191,-449.707,-186.035
1742205104.345,-150.879,971.191,-377.93,-189.453
1742205104.349,-616.211,981.934,-208.008,-612.793
1742205104.353,-544.922,899.414,-110.352,-509.277
1742205104.356,273.926,-896.973,-454.102,272.461
1742205104.36,-293.457,411.133,-525.879,-298.828
1742205104.364,-407.227,-936.035,-126.465,-405.273
1742205104.368,152.344,-1000.0,-24.902,142.578
1742205104.372,256.348,-925.293,-152.344,191.406
1742205105.273,-388.672,923.828,-497.07,-341.797
1742205105.277,279.297,944.336,-763.672,267.578
1742205105.281,136.23,951.66,-959.961,66.406
1742205105.285,-166.504,-960.449,-906.738,-227.539
1742205105.289,-271.484,-101.562,-668.945,-285.645
1742205105.293,-139.16,-1000.0,-306.641,-146.484
1742205105.297,22.461,-145.996,-286.133,10.254
1742205105.3,251.953,979.492,-744.141,252.93
1742205105.304,-59.57,-943.848,-750.977,-59.57
1742205105.308,-435.547,586.914,-397.461,-430.664
1742205105.312,381.836,-809.57,-368.164,403.809
1742205105.316,841.309,-1000.0,-475.586,822.754
1742205105.739,215.82,-947.754,-232.91,177.246
1742205105.743,-3.906,983.398,-209.961,-22.949
1742205105.747,-7.324,935.547,-34.668,-56.641
1742205105.751,60.059,990.723,-24.902,13.672
1742205105.755,280.762,897.461,-156.25,261.23
1742205105.759,150.879,-904.785,-296.875,145.508
1742205105.763,-236.816,457.52,-58.594,-213.379
1742205105.766,195.801,-895.02,83.008,223.145
1742205105.77,551.758,-1000.0,62.5,528.809
1742205105.774,675.293,-178.223,14.648,634.766
1742205105.778,717.285,-887.695,-342.285,687.012
1742205105.782,264.16,685.547,-447.754,268.555
1742205105.919,105.957,-952.637,-571.777,77.148
1742205105.923,192.871,-1000.0,-433.105,208.496
1742205105.927,317.871,-951.172,-482.91,341.309
1742205105.931,289.062,-1000.0,-679.688,285.645
1742205105.935,214.844,-1000.0,-662.598,229.492
1742205105.939,23.926,-987.793,-362.305,49.316
1742205105.943,-274.414,-951.172,-163.574,-250.488
1742205105.946,364.258,-1000.0,-392.578,386.23
1742205105.95,-53.223,-66.895,-654.785,-62.5
1742205105.954,-380.859,-975.586,-638.184,-370.117
1742205105.958,-94.238,-942.871,-645.02,-77.148
1742205105.962,-281.25,114.746,-571.777,-265.137
1742205106.624,965.82,-983.887,29.785,965.82
1742205106.628,-997.07,-973.633,-5.859,-995.605
1742205106.632,754.883,-1000.0,-150.391,736.816
1742205106.636,283.691,-1000.0,-40.039,275.391
1742205106.64,389.16,-1000.0,142.09,414.062
1742205106.644,220.215,-1000.0,243.164,256.836
1742205106.648,-118.164,-1000.0,286.621,-80.566
1742205106.651,-2.93,-1000.0,-20.508,19.531
1742205106.655,-3.906,-1000.0,-145.996,11.23
1742205106.659,-280.762,-1000.0,23.926,-267.578
1742205106.663,-290.527,-999.023,161.133,-285.645
1742205106.667,-210.449,-941.406,50.781,-200.195
1742205106.909,-87.402,-74.219,-226.562,-71.777
1742205106.913,664.551,-934.57,-283.203,664.551
1742205106.917,745.117,560.547,-390.625,729.98
1742205106.921,187.5,-853.516,-397.949,182.617
1742205106.925,-49.316,-157.715,-286.621,-7.812
1742205106.929,-106.934,-1000.0,-0.488,-61.523
1742205106.933,104.98,-424.805,87.402,104.492
1742205106.936,-200.684,-948.73,-270.02,-212.891
1742205106.94,-340.332,216.797,-292.48,-308.594
1742205106.944,276.367,-1000.0,-63.965,277.344
1742205106.948,370.605,-1000.0,-7.812,292.48
1742205106.952,729.004,-978.516,-133.789,693.359
1742205107.329,384.277,-1000.0,-267.578,361.816
1742205107.333,437.5,308.594,-577.637,393.066
1742205107.337,-457.52,314.453,-603.516,-448.242
1742205107.341,-190.43,-1000.0,-330.566,-149.902
1742205107.345,143.555,-1000.0,-248.535,165.527
1742205107.349,-375.0,-192.871,-244.141,-365.234
1742205107.353,-342.773,-959.961,-371.582,-363.77
1742205107.356,-32.715,938.965,-644.531,-62.012
1742205107.36,-271.973,924.805,-547.363,-282.715
1742205107.364,-529.785,981.445,-372.07,-530.273
1742205107.368,-330.566,983.887,-471.68,-354.98
1742205107.372,478.027,897.949,-748.535,419.434
1742205108.364,-326.172,-1000.0,-530.762,-277.344
1742205108.368,377.441,-685.059,-564.453,395.508
1742205108.372,530.273,607.91,-944.824,523.926
1742205108.376,-226.074,-825.195,-1000.0,-257.812
1742205108.38,-163.574,144.531,-955.078,-173.34
1742205108.384,74.219,-1000.0,-671.875,123.047
1742205108.388,37.109,-815.43,-551.27,99.609
1742205108.391,534.18,496.582,-875.0,521.973
1742205108.395,351.074,-802.246,-1000.0,281.738
1742205108.399,-236.816,395.02,-993.652,-256.836
1742205108.403,-67.383,-890.625,-973.633,-53.711
1742205108.407,360.352,-1000.0,-970.703,353.516
1742205108.544,557.129,-279.785,-1000.0,559.57
1742205108.548,-46.875,-824.707,-1000.0,-49.316
1742205108.552,-573.73,291.016,-974.609,-511.719
1742205108.556,40.527,-1000.0,-729.98,135.742
1742205108.56,748.535,-380.371,-752.441,800.293
1742205108.564,-21.973,919.434,-1000.0,-36.133
1742205108.568,-325.195,-903.809,-988.77,-353.516
1742205108.571,-152.832,509.277,-1000.0,-187.012
1742205108.575,-157.715,-1000.0,-816.406,-142.578
1742205108.579,645.02,-594.238,-680.176,660.156
1742205108.583,628.906,849.609,-969.727,588.867
1742205108.587,-248.047,-862.305,-1000.0,-237.305
1742205108.919,-145.02,-205.566,233.887,-125.977
1742205108.923,261.23,-990.234,-202.637,229.98
1742205108.927,153.32,-925.781,-577.148,132.324
1742205108.931,-284.668,220.215,-441.406,-267.09
1742205108.935,-136.23,-1000.0,-5.371,-132.812
1742205108.939,0.0,-892.578,152.344,-18.066
1742205108.943,-231.934,501.953,-90.332,-275.879
1742205108.946,-64.453,-994.629,-549.316,-129.395
1742205108.95,117.676,-982.91,-591.797,61.035
1742205108.954,-607.91,605.469,-105.469,-604.492
1742205108.958,218.75,-1000.0,13.672,230.469
1742205108.962,702.148,-331.055,-289.062,660.645
1742205109.113,83.008,-881.348,-78.125,53.711
1742205109.117,-397.461,362.305,125.0,-416.992
1742205109.121,-153.32,-924.316,653.32,-165.039
1742205109.125,300.293,-1000.0,767.09,319.824
1742205109.129,375.977,-71.777,329.59,333.008
1742205109.133,-102.539,-935.547,-59.082,-175.781
1742205109.137,-614.258,934.57,99.609,-635.742
1742205109.14,-396.973,-281.738,358.398,-391.602
1742205109.144,164.062,-1000.0,468.262,186.035
1742205109.148,394.531,-220.215,231.445,367.676
1742205109.152,676.758,-847.656,-324.219,612.305
1742205109.156,230.469,557.129,-438.965,204.59
1742205109.159,-147.949,-812.5,-16.602,-130.859
1742205109.163,165.527,-1000.0,323.73,195.312
1742205109.167,507.324,-336.914,92.773,471.68
1742205109.171,364.258,916.992,-306.152,277.832
1742205109.175,181.641,-899.902,-354.98,130.859
1742205109.179,-414.551,-10.254,51.27,-394.043
1742205109.183,-98.633,-1000.0,552.734,-49.805
1742205109.186,476.562,-104.98,273.438,493.652
1742205109.19,502.441,-993.652,-425.293,476.074
1742205109.194,383.789,-917.48,-554.688,341.797
1742205109.198,477.051,167.48,-161.133,451.172
1742205109.202,824.219,-1000.0,131.348,820.801
1742205109.204,823.242,-984.375,-10.254,816.406
1742205109.208,975.098,-973.145,-323.242,966.309
1742205109.212,580.566,-1000.0,-467.773,583.008
1742205109.216,143.066,-937.5,-199.219,193.848
1742205109.22,32.715,-1000.0,36.621,103.516
1742205109.224,42.969,-752.441,2.441,81.543
1742205109.228,12.207,615.234,-235.352,35.156
1742205109.231,-77.637,-803.711,-675.781,-97.656
1742205109.235,-58.594,131.348,-578.613,-104.004
1742205109.239,-115.723,-1000.0,-11.23,-139.648
1742205109.243,205.078,-935.547,-72.754,210.449
1742205109.247,537.598,-1000.0,-554.688,523.438
1742205109.533,-271.973,-939.941,414.551,-294.922
1742205109.537,-527.832,177.734,598.145,-548.34
1742205109.541,-483.887,-1000.0,893.066,-462.891
1742205109.545,151.367,-986.328,791.016,138.672
1742205109.549,182.129,-960.938,409.668,159.668
1742205109.553,-506.348,-965.82,459.473,-496.094
1742205109.557,-487.305,-1000.0,871.094,-443.359
1742205109.56,84.473,-20.996,870.117,76.172
1742205109.564,132.812,-921.387,462.891,93.262
1742205109.568,258.301,929.688,140.137,227.051
1742205109.572,93.262,963.867,-3.418,32.715
1742205109.576,-244.141,948.73,202.637,-286.133
1742205110.137,-440.43,-1000.0,468.262,-458.984
1742205110.141,-179.688,51.758,240.723,-210.449
1742205110.145,-705.078,-908.691,-1.465,-684.57
1742205110.149,-1000.0,923.34,212.891,-1000.0
1742205110.153,-969.238,962.891,691.406,-974.121
1742205110.157,-1000.0,973.145,975.098,-1000.0
1742205110.161,-929.688,971.191,915.039,-937.988
1742205110.164,-674.316,971.191,586.914,-696.289
1742205110.168,-873.047,971.68,708.984,-877.93
1742205110.172,-1000.0,971.191,999.023,-1000.0
1742205110.176,-741.699,973.145,967.773,-749.512
1742205110.18,-187.988,903.32,954.59,-235.352
1742205110.419,609.863,-1000.0,926.758,604.98
1742205110.423,718.75,-220.703,680.176,695.312
1742205110.427,262.695,-821.777,436.523,206.055
1742205110.431,-124.512,195.801,709.961,-124.023
1742205110.435,460.449,-1000.0,986.328,527.832
1742205110.439,269.531,-646.973,977.051,369.141
1742205110.443,-157.715,852.539,828.125,-82.52
1742205110.446,-349.609,971.191,439.453,-338.379
1742205110.45,-592.773,-444.336,626.953,-583.008
1742205110.454,-430.664,-1000.0,999.512,-364.746
1742205110.458,61.035,-981.934,946.289,130.371
1742205110.462,451.172,110.84,645.02,488.281
1742205110.704,764.648,113.281,-334.473,732.91
1742205110.708,382.324,-961.914,-847.656,273.926
1742205110.712,-249.023,-963.867,-773.438,-299.805
1742205110.716,-90.332,27.832,-249.023,-101.074
1742205110.72,658.203,-1000.0,23.438,694.336
1742205110.724,447.266,-111.328,-194.824,454.102
1742205110.728,206.543,-986.328,-533.203,162.598
1742205110.731,450.195,-924.316,-744.141,455.078
1742205110.735,-143.555,100.098,-349.121,-91.309
1742205110.739,14.648,-1000.0,128.906,74.219
1742205110.743,907.227,-975.098,-161.133,902.344
1742205110.747,764.648,-978.027,-686.523,778.809
1742205110.794,225.098,-1000.0,-98.145,252.441
1742205110.798,416.992,-1000.0,-145.508,427.734
1742205110.802,479.492,131.836,-563.477,456.543
1742205110.806,5.859,-776.367,-901.855,18.066
1742205110.81,-581.055,202.637,-643.555,-568.359
1742205110.814,-996.094,-1000.0,37.109,-987.305
1742205110.818,-687.5,-340.332,133.301,-638.672
1742205110.821,68.848,936.035,-550.781,72.266
1742205110.825,149.414,-899.902,-1000.0,117.676
1742205110.829,-876.465,434.082,-734.863,-859.863
1742205110.833,-356.445,-863.281,-265.137,-300.293
1742205110.837,708.008,-1000.0,-298.828,758.301
1742205111.544,879.883,-953.125,-1000.0,876.465
1742205111.548,-375.0,-76.66,-193.359,-376.465
1742205111.552,-1000.0,-1000.0,-988.77,-1000.0
1742205111.556,-231.445,-404.297,988.77,-229.004
1742205111.56,-922.363,884.766,-44.922,-915.527
1742205111.564,740.723,-879.883,-1000.0,711.426
1742205111.568,-539.551,214.844,-182.617,-567.383
1742205111.571,-1000.0,-1000.0,996.094,-1000.0
1742205111.575,-328.125,-543.945,-956.055,-325.195
1742205111.579,939.453,854.004,331.055,943.848
1742205111.583,-933.105,-865.234,-1000.0,-936.523
1742205111.587,-45.898,119.629,-297.852,-54.199
1742205111.798,932.129,307.617,-676.758,940.43
1742205111.802,-902.832,-782.227,-1000.0,-907.715
1742205111.806,225.586,175.293,-1000.0,229.98
1742205111.81,-1000.0,-1000.0,-607.422,-1000.0
1742205111.814,-510.742,-937.012,-130.371,-488.281
1742205111.818,824.219,340.82,-779.297,840.332
1742205111.822,-849.121,-776.367,-1000.0,-851.074
1742205111.825,181.152,287.109,-1000.0,178.711
1742205111.829,-1000.0,-961.426,-830.566,-1000.0
1742205111.833,-411.621,-1000.0,-575.195,-372.559
1742205111.837,672.852,-79.59,-909.18,686.035
1742205111.841,-862.305,-805.176,-1000.0,-866.211
1742205111.844,333.496,471.68,-1000.0,334.961
1742205111.848,-1000.0,-889.16,-955.078,-1000.0
1742205111.852,-921.387,-1000.0,-871.582,-896.973
1742205111.856,339.355,-135.254,-981.934,368.164
1742205111.86,-805.664,-885.742,-1000.0,-808.594
1742205111.864,447.266,752.441,-997.07,443.848
1742205111.868,-998.047,-591.309,-996.582,-999.023
1742205111.871,-722.656,-1000.0,-980.957,-712.891
1742205111.875,465.332,-201.172,-1000.0,466.309
1742205111.879,-912.109,-935.547,-995.117,-912.598
1742205111.883,653.809,869.629,-999.023,649.902
1742205111.887,-686.035,-441.895,-1000.0,-693.848
1742205112.294,88.867,-1000.0,705.566,81.543
1742205112.298,455.566,-184.082,471.68,442.383
1742205112.302,927.246,983.398,-321.777,911.621
1742205112.306,842.773,-896.973,-717.773,802.734
1742205112.31,103.516,126.465,-260.254,-18.555
1742205112.314,-204.59,-1000.0,497.07,-219.727
1742205112.318,530.273,55.664,439.453,550.781
1742205112.321,-906.25,-956.543,-529.785,-909.668
1742205112.325,608.398,-941.895,-1000.0,571.777
1742205112.329,-371.094,289.551,-411.133,-431.152
1742205112.333,166.504,-1000.0,220.215,178.223
1742205112.337,942.383,-1000.0,36.621,945.801
1742205112.444,36.621,-1000.0,-469.727,55.664
1742205112.448,660.645,125.977,-812.5,663.574
1742205112.452,563.965,-897.949,-1000.0,520.996
1742205112.456,-406.25,874.023,-1000.0,-421.875
1742205112.46,-961.914,-322.266,-917.969,-956.543
1742205112.464,-766.602,-1000.0,-625.488,-757.324
1742205112.468,-401.855,-195.801,-766.113,-412.109
1742205112.471,438.965,-897.461,-1000.0,370.117
1742205112.475,-12.695,777.344,-1000.0,-79.59
1742205112.479,-756.348,-574.707,-945.801,-742.188
1742205112.483,-279.785,-1000.0,-703.613,-274.414
1742205112.487,192.871,-172.852,-808.594,117.188
1742205112.579,507.812,-1000.0,437.5,532.715
1742205112.583,648.438,-250.488,252.93,691.406
1742205112.587,32.715,-836.914,-139.648,77.148
1742205112.591,-358.398,413.086,66.895,-334.961
1742205112.595,-696.777,-981.934,757.324,-628.418
1742205112.599,-660.156,-1000.0,994.629,-539.062
1742205112.603,-51.27,86.426,953.125,-14.648
1742205112.606,103.027,-845.703,504.883,12.695
1742205112.61,-270.508,630.859,472.656,-319.336
1742205112.614,-858.887,-578.125,977.051,-777.832
1742205112.618,-740.723,-1000.0,982.91,-554.199
1742205112.622,-56.152,-553.711,944.336,62.012
1742205112.669,-835.449,217.773,971.191,-799.805
1742205112.673,-922.363,-1000.0,971.191,-847.168
1742205112.677,-252.93,-500.977,971.191,-125.488
1742205112.681,-269.531,935.059,971.191,-185.547
1742205112.685,-873.535,-997.07,971.191,-853.027
1742205112.689,-938.965,919.922,971.191,-929.199
1742205112.693,-1000.0,986.328,971.191,-1000.0
1742205112.696,-371.094,981.445,971.191,-313.965
1742205112.7,429.199,898.926,971.191,554.688
1742205112.704,243.164,-904.297,971.191,290.039
1742205112.708,-241.699,433.105,971.191,-250.0
1742205112.712,-427.246,-1000.0,971.191,-343.262
1742205112.819,-118.652,993.652,718.75,-55.176
1742205112.823,313.965,-137.695,-996.582,425.781
1742205112.827,888.672,-1000.0,858.398,952.637
1742205112.831,-993.652,-1000.0,357.422,-998.047
1742205112.835,862.793,-242.676,9.277,866.699
1742205112.839,-566.406,550.293,360.84,-520.02
1742205112.843,-381.348,-954.59,953.613,-301.758
1742205112.846,888.672,-1.465,654.785,929.199
1742205112.85,982.91,-895.996,-167.48,-993.164
1742205112.854,629.395,-965.82,-531.25,652.832
1742205112.858,193.359,68.359,-166.992,300.293
1742205112.862,610.84,-1000.0,386.23,732.422
1742205113.044,487.793,-836.914,-789.551,425.781
1742205113.048,-353.516,211.914,-588.867,-342.285
1742205113.052,-561.523,-1000.0,-174.316,-502.441
1742205113.056,-14.648,-917.48,-111.328,-14.648
1742205113.06,474.121,-1000.0,-434.082,516.602
1742205113.064,-100.098,-353.516,-511.719,-56.641
1742205113.068,-977.539,-820.312,-243.164,-986.816
1742205113.071,-989.258,476.074,-66.406,-972.656
1742205113.075,-242.188,-920.41,98.145,-221.191
1742205113.079,73.242,194.824,-14.648,33.691
1742205113.083,-49.805,-734.375,-405.273,-104.004
1742205113.087,-336.426,407.715,-339.355,-329.102
1742205113.418,867.676,971.191,971.191,777.832
1742205113.422,-948.242,971.191,971.191,-934.57
1742205113.426,549.805,971.191,971.191,467.285
1742205113.43,285.156,971.191,971.191,145.02
1742205113.434,859.863,971.191,971.191,765.625
1742205113.438,967.773,971.191,971.191,954.59
1742205113.442,989.258,971.191,971.191,-995.605
1742205113.445,780.273,971.191,974.121,723.145
1742205113.449,47.852,971.191,956.543,-103.027
1742205113.453,399.414,977.051,971.191,318.359
1742205113.457,-986.328,945.801,941.406,-981.445
1742205113.461,-986.816,952.148,275.391,-985.84
1742205113.556,54.688,-1000.0,512.207,37.598
1742205113.56,884.766,-174.316,-152.344,839.844
1742205113.564,976.562,962.891,-1000.0,982.91
1742205113.568,993.652,-833.008,-990.234,985.84
1742205113.572,399.902,14.16,-979.492,450.195
1742205113.576,416.992,-500.488,-1000.0,479.492
1742205113.58,-977.051,969.727,-1000.0,-981.445
1742205113.583,963.867,-980.469,-1000.0,964.355
1742205113.587,959.473,920.41,-1000.0,961.914
1742205113.591,974.121,983.887,-1000.0,974.121
1742205113.595,970.703,981.445,-1000.0,971.191
1742205113.599,970.703,930.176,-1000.0,971.191
1742205113.944,-490.234,-919.434,-698.242,-473.633
1742205113.948,492.188,261.23,-1000.0,520.02
1742205113.952,231.445,-773.926,-1000.0,232.91
1742205113.956,-398.926,184.082,-991.699,-408.203
1742205113.96,-1000.0,-1000.0,-1000.0,-1000.0
1742205113.964,-662.598,-904.785,-988.281,-657.227
1742205113.968,590.82,421.875,-996.582,573.73
1742205113.971,-815.43,-905.273,-1000.0,-817.871
1742205113.975,192.383,895.02,-999.512,191.406
1742205113.979,-1000.0,-360.84,-1000.0,-1000.0
1742205113.983,-229.98,-1000.0,-1000.0,-262.695
1742205113.987,889.648,128.418,-1000.0,885.254
1742205114.124,-929.688,-878.418,-1000.0,-934.57
1742205114.128,27.344,187.988,-819.824,8.789
1742205114.132,-1000.0,-1000.0,322.754,-1000.0
1742205114.136,-838.379,-1000.0,-933.594,-833.496
1742205114.14,-6.348,-110.352,745.117,-30.762
1742205114.144,-527.832,992.676,553.711,-550.293
1742205114.148,-1000.0,-917.48,914.062,-1000.0
1742205114.151,-932.129,165.039,995.605,-935.059
1742205114.155,-1000.0,-1000.0,956.055,-1000.0
1742205114.159,-571.289,-983.398,973.633,-586.426
1742205114.163,-201.66,-973.633,971.191,-240.723
1742205114.167,-836.426,-1000.0,971.68,-840.332
1742205114.229,-941.406,-941.895,971.191,-941.406
1742205114.233,-1000.0,-1000.0,971.68,-1000.0
1742205114.237,-197.266,-216.309,971.68,-204.102
1742205114.241,-959.961,-956.543,979.004,-964.355
1742205114.245,952.637,954.59,917.48,954.59
1742205114.249,944.336,943.848,-951.66,944.824
1742205114.253,976.562,978.027,615.234,977.539
1742205114.256,970.703,971.68,-704.59,971.191
1742205114.26,970.703,971.191,-1000.0,971.191
1742205114.264,970.703,971.191,-951.66,971.191
1742205114.268,970.703,971.68,-1000.0,971.191
1742205114.272,970.703,971.68,-1000.0,971.191
1742205114.409,-1000.0,971.68,971.68,-1000.0
1742205114.413,-1000.0,971.191,971.68,-1000.0
1742205114.417,-1000.0,971.68,971.68,-1000.0
1742205114.421,-1000.0,971.68,971.68,-1000.0
1742205114.425,-1000.0,971.68,971.191,-1000.0
1742205114.429,-1000.0,971.191,971.191,-1000.0
1742205114.433,-1000.0,971.191,971.68,-1000.0
1742205114.436,-1000.0,971.68,971.191,-1000.0
1742205114.44,-1000.0,971.191,971.191,-1000.0
1742205114.444,-1000.0,971.68,971.68,-1000.0
1742205114.448,-1000.0,971.68,971.191,-1000.0
1742205114.452,-1000.0,971.68,971.191,-1000.0
1742205114.453,-1000.0,971.68,971.191,-1000.0
1742205114.457,-1000.0,971.68,971.68,-1000.0
1742205114.461,-1000.0,971.68,971.191,-1000.0
1742205114.465,-1000.0,971.68,971.68,-1000.0
1742205114.469,-1000.0,971.68,971.68,-1000.0
1742205114.473,-933.105,971.68,971.191,-934.57
1742205114.477,-1000.0,971.68,971.68,-1000.0
1742205114.48,-303.711,971.191,971.191,-269.531
1742205114.484,-991.211,971.191,971.191,-976.074
1742205114.488,968.75,971.191,971.191,963.379
1742205114.492,936.035,971.191,971.191,939.941
1742205114.496,979.492,971.191,971.191,979.492
1742205114.559,970.703,971.191,-979.492,971.191
1742205114.563,970.703,971.191,-975.586,971.191
1742205114.567,970.703,971.191,-1000.0,971.191
1742205114.571,970.703,971.191,-1000.0,971.191
1742205114.575,970.703,971.191,-1000.0,971.191
1742205114.579,970.703,971.68,-1000.0,971.191
1742205114.583,970.703,977.539,-1000.0,971.191
1742205114.586,970.703,902.832,-1000.0,971.191
1742205114.59,970.703,-889.648,-1000.0,971.191
1742205114.594,970.703,293.945,-1000.0,971.191
1742205114.598,970.703,-1000.0,-1000.0,971.191
1742205114.602,970.703,-1000.0,-1000.0,971.191
1742205114.649,-971.191,-1000.0,-1000.0,-971.68
1742205114.653,-1000.0,-1000.0,-1000.0,-1000.0
1742205114.657,-1000.0,-1000.0,-1000.0,-1000.0
1742205114.661,-1000.0,-1000.0,-1000.0,-1000.0
1742205114.665,-1000.0,-1000.0,-1000.0,-1000.0
1742205114.669,-1000.0,-1000.0,-1000.0,-1000.0
1742205114.673,-1000.0,-1000.0,-1000.0,-1000.0
1742205114.676,-1000.0,-1000.0,-1000.0,-1000.0
1742205114.68,-1000.0,-1000.0,-1000.0,-1000.0
1742205114.684,-1000.0,-1000.0,-1000.0,-1000.0
1742205114.688,-1000.0,-1000.0,-1000.0,-1000.0
1742205114.692,-1000.0,-1000.0,-1000.0,-1000.0
1742205114.964,-1000.0,388.184,971.68,-1000.0
1742205114.968,-1000.0,-908.203,971.68,-1000.0
1742205114.972,-1000.0,906.738,971.191,-1000.0
1742205114.976,-1000.0,978.027,971.68,-1000.0
1742205114.98,-931.152,971.68,971.68,-928.711
1742205114.984,-1000.0,971.68,971.68,-1000.0
1742205114.988,-657.227,971.68,971.191,-608.887
1742205114.991,783.691,971.191,971.191,833.008
1742205114.995,-963.379,971.191,971.191,-972.656
1742205114.999,910.645,971.191,980.957,914.062
1742205115.003,985.352,971.191,900.879,986.328
1742205115.007,970.215,971.191,-900.879,971.191
1742205115.354,-1000.0,971.68,971.68,-1000.0
1742205115.358,-1000.0,971.191,971.68,-1000.0
1742205115.362,-1000.0,971.68,971.68,-1000.0
1742205115.366,-1000.0,971.68,971.68,-1000.0
1742205115.37,-1000.0,971.68,971.191,-1000.0
1742205115.374,-1000.0,971.68,971.191,-1000.0
1742205115.378,-1000.0,971.68,971.191,-1000.0
1742205115.381,-1000.0,971.191,971.191,-1000.0
1742205115.385,-1000.0,984.863,971.68,-1000.0
1742205115.389,-1000.0,912.598,971.68,-1000.0
1742205115.393,-1000.0,-957.031,971.191,-1000.0
1742205115.397,-1000.0,742.188,971.68,-1000.0
1742205115.444,-954.102,971.191,971.68,-951.66
1742205115.448,-697.754,971.191,971.191,-647.461
1742205115.452,-918.945,971.191,971.68,-884.766
1742205115.456,-1000.0,971.68,971.68,-1000.0
1742205115.46,-950.684,971.68,971.191,-945.801
1742205115.464,-1000.0,971.68,971.68,-1000.0
1742205115.468,-702.637,971.191,971.191,-661.133
1742205115.471,-421.875,971.191,971.191,-341.797
1742205115.475,-909.668,971.68,971.68,-898.438
1742205115.479,-1000.0,971.68,971.68,-1000.0
1742205115.483,-525.391,971.68,971.191,-493.652
1742205115.487,601.562,971.191,971.191,688.965
1742205115.534,-1000.0,-1000.0,971.191,-1000.0
1742205115.538,-848.145,-1000.0,971.191,-764.16
1742205115.542,10.254,-188.965,971.191,148.438
1742205115.546,247.07,-961.914,971.191,379.883
1742205115.55,-640.625,954.59,971.191,-530.762
1742205115.554,-983.398,944.824,971.191,-995.117
1742205115.558,-1000.0,980.957,971.191,-1000.0
1742205115.561,-170.41,956.055,971.191,-135.254
1742205115.565,-875.488,930.664,971.191,-868.164
1742205115.569,454.59,-908.203,971.191,498.535
1742205115.573,-746.094,-13.672,971.191,-633.789
1742205115.577,-597.656,-1000.0,971.191,-426.27
1742205115.669,-503.418,-1000.0,971.191,-375.977
1742205115.673,513.672,-652.832,971.191,648.438
1742205115.677,946.777,762.207,971.191,947.754
1742205115.681,-905.273,-893.555,971.191,-905.762
1742205115.685,352.539,679.199,971.191,357.422
1742205115.689,-549.316,-886.23,971.191,-454.59
1742205115.693,422.363,-572.266,971.191,530.762
1742205115.696,977.051,896.973,971.191,976.562
1742205115.7,-946.289,-874.512,971.191,-945.312
1742205115.704,217.773,331.055,971.191,235.352
1742205115.708,-889.16,-959.961,971.191,-776.855
1742205115.712,-473.145,-1000.0,971.191,-275.391
1742205116.284,-869.629,-779.297,-318.359,-881.348
1742205116.288,270.996,260.742,-403.32,291.016
1742205116.292,-898.438,-980.957,651.855,-874.512
1742205116.296,-1000.0,-1000.0,-960.449,-996.582
1742205116.3,315.43,-129.395,845.215,336.426
1742205116.304,-949.707,983.887,53.711,-947.266
1742205116.308,-250.0,-916.016,-234.863,-246.094
1742205116.311,-1000.0,214.844,629.395,-1000.0
1742205116.315,-403.32,-1000.0,-979.98,-357.422
1742205116.319,672.852,-283.691,929.688,717.285
1742205116.323,-874.023,-817.871,194.336,-879.395
1742205116.327,237.305,536.133,-370.117,241.211
1742205117.169,-310.059,-1000.0,-470.215,-246.094
1742205117.173,-307.129,-1000.0,-264.648,-251.953
1742205117.177,-58.594,-486.816,-475.586,-39.551
1742205117.181,-548.34,921.875,-724.609,-548.828
1742205117.185,-1000.0,-996.094,-555.664,-1000.0
1742205117.189,-969.727,922.363,-167.969,-967.285
1742205117.193,-1000.0,989.258,102.051,-1000.0
1742205117.196,-216.797,954.102,-206.543,-256.348
1742205117.2,38.086,937.5,-494.629,-16.113
1742205117.204,-376.465,-935.059,-323.242,-418.457
1742205117.208,-164.551,-63.477,-36.621,-208.008
1742205117.212,242.188,-1000.0,211.426,229.004
1742205117.544,-489.258,747.07,466.309,-511.23
1742205117.548,-17.09,-608.887,899.902,-28.809
1742205117.552,449.707,-1000.0,-991.699,483.398
1742205117.556,152.832,-153.32,830.566,160.156
1742205117.56,-149.414,-969.727,390.137,-126.465
1742205117.564,-881.348,955.078,525.391,-860.352
1742205117.568,-1000.0,944.336,974.609,-1000.0
1742205117.571,-722.168,975.098,942.383,-722.656
1742205117.575,-184.082,984.375,743.652,-177.734
1742205117.579,63.477,893.555,421.875,104.004
1742205117.583,115.723,-886.719,299.316,138.672
1742205117.587,-167.969,550.781,537.109,-184.082
1742205117.589,376.953,-967.773,769.531,362.305
1742205117.593,698.73,-20.996,666.016,694.824
1742205117.597,247.07,-748.047,129.883,240.234
1742205117.601,-218.75,504.883,-39.551,-220.215
1742205117.605,-367.676,-903.809,375.488,-364.258
1742205117.609,-20.02,-1000.0,812.5,14.648
1742205117.613,333.984,331.055,680.664,360.84
1742205117.616,806.641,-938.965,-35.156,777.344
1742205117.62,497.07,972.656,-441.895,425.293
1742205117.624,-398.926,-81.543,-17.09,-468.75
1742205117.628,12.695,-1000.0,456.055,1.465
1742205117.632,786.621,-314.453,280.762,802.246
1742205117.636,687.988,930.176,-322.754,672.363
1742205117.64,201.172,-952.148,-575.195,170.41
1742205117.644,-379.883,338.379,-246.094,-370.605
1742205117.648,191.406,-933.594,157.227,214.844
1742205117.652,-883.789,-1000.0,-2.93,-887.207
1742205117.656,708.496,268.066,-516.602,702.148
1742205117.66,231.445,-911.133,-749.512,207.031
1742205117.663,257.324,905.762,-728.027,238.281
1742205117.667,-67.871,971.191,-562.5,-33.203
1742205117.671,446.289,973.145,-715.332,466.797
1742205117.675,-948.242,908.203,-1000.0,-947.754
1742205117.679,977.051,-889.648,-990.234,972.656
1742205117.919,-1000.0,971.68,971.68,-1000.0
1742205117.923,-1000.0,971.68,971.68,-1000.0
1742205117.927,-1000.0,971.68,971.68,-1000.0
1742205117.931,-1000.0,971.191,971.68,-1000.0
1742205117.935,-1000.0,971.68,971.68,-1000.0
1742205117.939,-1000.0,971.68,971.68,-1000.0
1742205117.943,-1000.0,971.191,971.68,-1000.0
1742205117.946,-973.145,971.68,971.191,-970.703
1742205117.95,-987.793,971.191,971.191,-993.164
1742205117.954,-1000.0,971.191,971.68,-1000.0
1742205117.958,188.965,971.68,971.191,219.238
1742205117.962,-902.832,971.191,971.191,-902.344
1742205118.024,970.703,899.902,-1000.0,971.191
1742205118.028,970.703,-905.762,-1000.0,971.191
1742205118.032,970.703,487.305,-1000.0,971.191
1742205118.036,970.703,-922.363,-1000.0,971.191
1742205118.04,970.703,-1000.0,-1000.0,971.191
1742205118.044,970.703,-949.707,-1000.0,971.191
1742205118.048,970.703,-1000.0,-1000.0,971.191
1742205118.051,971.191,-1000.0,-1000.0,971.68
1742205118.055,968.262,-1000.0,-1000.0,970.215
1742205118.059,920.41,-1000.0,-1000.0,926.758
1742205118.063,-923.34,-1000.0,-1000.0,-943.848
1742205118.067,262.695,-1000.0,-1000.0,402.832
1742205118.204,-927.734,-955.566,-1000.0,-988.281
1742205118.208,-954.59,724.609,-1000.0,-1000.0
1742205118.212,-826.66,-674.316,-1000.0,-863.77
1742205118.216,-659.668,-1000.0,-1000.0,-818.359
1742205118.22,-586.914,-939.453,-1000.0,-754.883
1742205118.224,-776.367,-1000.0,-1000.0,-834.473
1742205118.228,-1000.0,-1000.0,-1000.0,-1000.0
1742205118.231,-986.328,-1000.0,-989.746,-990.723
1742205118.235,-998.535,-1000.0,-1000.0,-999.023
1742205118.239,-1000.0,-1000.0,-918.457,-1000.0
1742205118.243,-1000.0,-1000.0,-557.617,-1000.0
1742205118.247,-1000.0,-1000.0,230.957,-1000.0
1742205118.864,132.812,-987.305,785.645,129.883
1742205118.868,68.359,-932.617,566.895,83.496
1742205118.872,-274.902,288.574,814.453,-247.07
1742205118.876,443.359,-1000.0,998.047,482.422
1742205118.88,835.938,-623.047,938.965,853.027
1742205118.884,294.922,749.023,708.496,312.5
1742205118.888,-286.621,-851.562,526.367,-256.348
1742205118.891,-986.816,512.207,702.637,-979.004
1742205118.895,-554.199,-1000.0,974.609,-517.09
1742205118.899,581.055,-245.117,835.938,612.793
1742205118.903,-998.047,-966.797,227.051,-991.211
1742205118.907,953.613,-921.875,-279.297,920.898
1742205119.374,390.137,-259.766,374.023,385.742
1742205119.378,-862.793,-866.699,-690.43,-867.188
1742205119.382,264.648,575.195,-1000.0,235.84
1742205119.386,-1000.0,-820.801,-169.434,-1000.0
1742205119.39,-941.895,-1000.0,875.977,-918.457
1742205119.394,-293.945,-220.703,812.988,-274.414
1742205119.398,364.746,-902.344,-189.453,362.305
1742205119.401,-214.355,739.258,-972.656,-212.891
1742205119.405,-1000.0,-616.699,-222.168,-1000.0
1742205119.409,-797.852,-1000.0,910.645,-791.504
1742205119.413,298.34,-268.066,815.918,312.012
1742205119.417,-988.281,972.656,-245.117,-995.117
1742205119.419,527.832,-962.402,-932.617,513.672
1742205119.423,-593.75,-144.043,1.465,-596.68
1742205119.427,-1000.0,-1000.0,997.07,-1000.0
1742205119.431,-391.602,-841.309,962.891,-407.715
1742205119.435,780.273,412.109,281.25,757.812
1742205119.439,5.371,-866.211,-428.223,-3.418
1742205119.443,-938.477,772.461,282.715,-945.801
1742205119.446,-1000.0,-640.137,995.117,-1000.0
1742205119.45,-647.461,-997.07,-992.188,-584.961
1742205119.454,509.766,482.91,659.668,566.406
1742205119.458,409.18,-796.387,-183.594,396.973
1742205119.462,-711.914,158.203,245.117,-716.797
1742205119.464,-1000.0,-1000.0,-997.559,-1000.0
1742205119.468,-302.246,-990.234,989.258,-289.062
1742205119.472,534.668,247.559,813.477,511.719
1742205119.476,418.945,-767.09,231.934,384.766
1742205119.48,-234.375,217.285,424.805,-229.98
1742205119.484,-1000.0,-972.168,995.117,-1000.0
1742205119.488,-854.004,-1000.0,970.215,-833.984
1742205119.491,378.906,-245.605,957.031,383.301
1742205119.495,729.98,-826.172,628.906,648.926
1742205119.499,-375.0,228.516,639.648,-423.828
1742205119.503,-1000.0,-1000.0,992.676,-1000.0
1742205119.507,-846.68,-1000.0,967.285,-806.641
1742205120.409,-299.805,332.031,-31.25,-304.199
1742205120.413,167.48,-1000.0,414.551,145.996
1742205120.417,650.879,-288.086,246.094,622.559
1742205120.421,876.465,972.168,-424.805,870.117
1742205120.425,710.449,-908.203,-859.375,708.496
1742205120.429,-311.035,395.508,-402.832,-292.48
1742205120.433,-132.324,-958.984,306.152,-72.754
1742205120.436,721.68,-1000.0,119.629,752.441
1742205120.44,952.637,-953.613,-632.324,950.195
1742205120.444,-958.008,-1000.0,-1000.0,-956.055
1742205120.448,396.973,-950.684,-706.055,389.648
1742205120.452,-154.297,-1000.0,48.828,-127.93
1742205120.544,-1000.0,-1000.0,-710.938,-1000.0
1742205120.548,-638.184,-1000.0,-184.082,-620.117
1742205120.552,669.922,72.754,-672.852,696.289
1742205120.556,-870.117,-776.367,-1000.0,-877.93
1742205120.56,74.219,199.707,-1000.0,57.129
1742205120.564,-1000.0,-1000.0,-595.703,-1000.0
1742205120.568,-696.777,-1000.0,156.25,-695.312
1742205120.571,675.781,183.105,-484.863,678.223
1742205120.575,-995.605,-769.043,-1000.0,994.629
1742205120.579,-88.867,323.242,-1000.0,-111.816
1742205120.583,-1000.0,-929.688,-809.082,-1000.0
1742205120.587,-899.414,-1000.0,-250.0,-912.109
1742205121.069,-1000.0,-1000.0,972.168,-1000.0
1742205121.073,-1000.0,-1000.0,971.191,-1000.0
1742205121.077,-1000.0,-1000.0,971.191,-1000.0
1742205121.081,-1000.0,-1000.0,971.191,-1000.0
1742205121.085,-1000.0,-1000.0,971.191,-1000.0
1742205121.089,-1000.0,-1000.0,971.191,-1000.0
1742205121.093,-1000.0,-999.023,971.68,-1000.0
1742205121.096,-1000.0,-941.406,971.68,-1000.0
1742205121.1,-1000.0,-1000.0,971.68,-1000.0
1742205121.104,-1000.0,-184.082,971.68,-1000.0
1742205121.108,-1000.0,-950.195,971.191,-1000.0
1742205121.112,-987.793,950.684,971.191,-987.305
1742205121.249,-972.168,-1000.0,-992.188,-970.703
1742205121.253,-1000.0,-1000.0,-956.543,-1000.0
1742205121.257,-1000.0,-1000.0,-1000.0,-1000.0
1742205121.261,-1000.0,-1000.0,-91.797,-1000.0
1742205121.265,-1000.0,-945.312,-950.684,-1000.0
1742205121.269,-1000.0,-1000.0,946.289,-1000.0
1742205121.273,-1000.0,-783.203,951.172,-1000.0
1742205121.276,-1000.0,598.633,977.051,-1000.0
1742205121.28,-1000.0,-938.477,971.68,-1000.0
1742205121.284,-1000.0,910.645,971.191,-1000.0
1742205121.288,-1000.0,981.934,971.191,-1000.0
1742205121.292,-1000.0,971.68,971.191,-1000.0
1742205121.339,500.977,971.191,971.191,479.98
1742205121.343,657.715,971.191,971.191,637.695
1742205121.347,-957.52,971.191,971.191,-953.613
1742205121.351,948.242,971.191,971.191,948.242
1742205121.355,971.191,971.191,973.145,971.68
1742205121.359,970.703,971.191,964.844,971.191
1742205121.363,970.215,971.191,920.898,971.191
1742205121.366,970.215,971.191,-913.574,971.191
1742205121.37,970.703,971.191,90.82,971.191
1742205121.374,970.703,971.68,-1000.0,971.191
1742205121.378,970.703,971.68,-974.609,971.191
1742205121.382,970.703,971.68,-979.492,971.191
1742205122.569,-540.527,7.812,-1000.0,-586.426
1742205122.573,-1000.0,-1000.0,-1000.0,-1000.0
1742205122.577,-213.867,-742.188,-1000.0,-218.75
1742205122.581,-987.793,592.285,-1000.0,-986.816
1742205122.585,-968.75,-811.035,-1000.0,-973.633
1742205122.589,-165.039,69.824,-1000.0,-179.199
1742205122.593,-1000.0,-1000.0,-1000.0,-1000.0
1742205122.596,-45.41,-1000.0,-1000.0,-54.688
1742205122.6,970.703,-73.242,-1000.0,964.844
1742205122.604,-905.762,-793.457,-1000.0,-904.297
1742205122.608,237.793,311.523,-1000.0,229.98
1742205122.612,-612.793,-1000.0,-1000.0,-625.488
1742205122.899,21.484,-456.055,971.191,-70.801
1742205122.903,436.523,926.27,971.191,236.816
1742205122.907,634.277,-871.094,971.191,422.363
1742205122.911,-177.734,378.418,972.168,-259.766
1742205122.915,-232.422,-1000.0,967.773,-234.375
1742205122.919,366.699,-682.617,959.961,326.66
1742205122.923,253.418,816.895,-995.117,179.688
1742205122.926,637.695,-970.703,658.691,572.754
1742205122.93,160.156,910.645,513.672,104.004
1742205122.934,-204.59,986.328,895.996,-317.871
1742205122.938,863.281,986.816,818.359,761.23
1742205122.942,938.477,900.391,194.824,920.898
1742205122.944,-939.941,-919.922,-733.398,-927.246
1742205122.948,511.23,605.957,-893.555,484.863
1742205122.952,390.625,-852.051,23.438,345.703
1742205122.956,-958.496,-976.562,464.844,-965.82
1742205122.96,926.27,-1000.0,-347.168,926.27
1742205122.964,-929.199,-333.984,-1000.0,-926.758
1742205122.968,342.285,471.68,-1000.0,324.707
1742205122.971,-162.598,-908.691,-803.711,-177.246
1742205122.975,500.488,-1000.0,-480.957,461.914
1742205122.979,870.117,-935.547,-748.047,829.59
1742205122.983,-936.035,-1000.0,-1000.0,-923.828
1742205122.987,721.68,-1000.0,-1000.0,702.637
1742205123.214,851.562,799.805,-1000.0,844.727
1742205123.218,-89.844,-606.445,-759.277,-94.727
1742205123.222,-787.109,-1000.0,254.395,-736.328
1742205123.226,-579.102,-935.059,832.52,-504.395
1742205123.23,61.523,-1000.0,453.125,82.52
1742205123.234,-134.766,-1000.0,189.453,-137.695
1742205123.238,-931.641,-928.711,631.836,-928.223
1742205123.241,-762.207,-1000.0,-965.82,-701.172
1742205123.245,445.312,-408.691,607.91,508.301
1742205123.249,-994.629,965.332,-543.457,999.512
1742205123.253,940.43,988.281,-1000.0,941.895
1742205123.257,970.703,937.012,-965.332,972.168
1742205123.649,-1000.0,-1000.0,-1000.0,-1000.0
1742205123.653,-1000.0,-1000.0,-1000.0,-1000.0
1742205123.657,-1000.0,-1000.0,-1000.0,-1000.0
1742205123.661,-1000.0,-1000.0,-954.59,-1000.0
1742205123.665,-1000.0,-1000.0,-1000.0,-1000.0
1742205123.669,-1000.0,-1000.0,-701.66,-1000.0
1742205123.673,-1000.0,-927.734,560.547,-1000.0
1742205123.676,-1000.0,-1000.0,-967.773,-1000.0
1742205123.68,-1000.0,-616.211,927.246,-1000.0
1742205123.684,-1000.0,808.594,974.121,-1000.0
1742205123.688,-1000.0,-970.215,972.168,-1000.0
1742205123.692,-1000.0,915.039,971.191,-1000.0
1742205123.934,-1000.0,-1000.0,971.191,-1000.0
1742205123.938,-1000.0,-999.512,971.191,-1000.0
1742205123.942,-1000.0,-939.941,971.191,-1000.0
1742205123.946,-1000.0,-1000.0,971.191,-1000.0
1742205123.95,-1000.0,-192.383,971.68,-1000.0
1742205123.954,-999.512,-951.172,971.68,-997.07
1742205123.958,-986.328,951.66,971.68,-993.652
1742205123.961,-999.512,946.289,971.68,-977.051
1742205123.965,-764.648,977.539,971.191,-761.23
1742205123.969,21.484,971.191,971.191,-16.113
1742205123.973,750.977,971.191,971.191,745.605
1742205123.977,949.219,971.191,971.191,939.941
1742205124.414,874.023,-891.602,922.852,872.559
1742205124.418,555.176,185.059,948.242,588.867
1742205124.422,895.996,-1000.0,969.238,910.645
1742205124.426,969.727,-928.223,979.492,965.332
1742205124.43,-987.793,-1000.0,649.414,-985.84
1742205124.434,833.008,-325.684,257.812,836.426
1742205124.438,243.652,377.441,560.059,263.672
1742205124.441,381.836,-410.156,907.715,424.316
1742205124.445,776.367,35.645,631.348,811.523
1742205124.449,948.242,951.66,-80.078,947.266
1742205124.453,-933.105,-894.531,-696.289,-931.641
1742205124.457,495.605,485.84,-602.051,478.516
1742205124.534,-985.84,-984.375,-1000.0,-985.84
1742205124.538,417.969,-977.539,-1000.0,378.418
1742205124.542,99.121,-1000.0,-1000.0,68.359
1742205124.546,594.727,101.074,-1000.0,582.031
1742205124.55,821.289,-905.273,-1000.0,803.711
1742205124.554,40.039,941.895,-1000.0,15.137
1742205124.558,81.543,-253.418,-1000.0,38.086
1742205124.561,958.008,-1000.0,-1000.0,930.176
1742205124.565,943.359,-943.359,-1000.0,942.383
1742205124.569,961.426,-1000.0,-1000.0,964.355
1742205124.573,934.57,-1000.0,-1000.0,931.641
1742205124.577,370.117,-934.57,-1000.0,335.449
1742205124.924,-85.449,-999.023,971.191,41.992
1742205124.928,-482.91,-1000.0,971.191,-319.336
1742205124.932,-765.137,-1000.0,971.191,-575.195
1742205124.936,-994.141,-972.168,971.191,-940.43
1742205124.94,-986.328,-989.258,971.191,-985.352
1742205124.944,-933.594,-1000.0,971.191,-814.941
1742205124.948,-903.32,202.637,971.191,-790.039
1742205124.951,-1000.0,-898.926,971.68,-1000.0
1742205124.955,-1000.0,911.621,971.68,-1000.0
1742205124.959,-996.094,971.191,971.68,-992.676
1742205124.963,-1000.0,972.168,971.68,-1000.0
1742205124.967,-1000.0,971.191,971.68,-1000.0
1742205125.284,970.703,-1000.0,-1000.0,971.191
1742205125.288,971.68,-1000.0,-1000.0,972.168
1742205125.292,963.379,-1000.0,-1000.0,962.891
1742205125.296,974.609,-1000.0,-1000.0,977.051
1742205125.3,950.684,-1000.0,-1000.0,950.195
1742205125.304,811.523,-1000.0,-1000.0,793.457
1742205125.308,383.789,-1000.0,-1000.0,383.789
1742205125.311,-109.375,-1000.0,-1000.0,-79.102
1742205125.315,-565.43,-1000.0,-1000.0,-543.457
1742205125.319,-1000.0,-1000.0,-1000.0,-1000.0
1742205125.323,-995.117,-1000.0,-1000.0,-995.605
1742205125.327,-990.723,-1000.0,-1000.0,-990.234
1742205125.404,-1000.0,-1000.0,977.539,-1000.0
1742205125.408,-1000.0,-1000.0,967.285,-1000.0
1742205125.412,-1000.0,-932.129,967.285,-1000.0
1742205125.416,-1000.0,-1000.0,974.609,-1000.0
1742205125.42,-1000.0,-319.824,950.195,-1000.0
1742205125.424,-989.258,-995.605,947.754,-990.234
1742205125.428,-1000.0,972.168,976.074,-1000.0
1742205125.431,-895.02,936.035,947.754,-901.367
1742205125.435,-587.891,980.957,642.09,-628.906
1742205125.439,-582.031,971.68,315.43,-703.613
1742205125.443,-757.812,971.68,440.43,-895.508
1742205125.447,-811.035,971.68,647.461,-843.75
1742205125.614,950.195,-890.137,-388.672,918.457
1742205125.618,650.879,189.941,-161.133,566.406
1742205125.622,118.652,-1000.0,349.121,113.281
1742205125.626,85.449,-984.375,757.812,139.648
1742205125.63,273.438,-973.145,916.992,333.008
1742205125.634,-486.328,-1000.0,966.309,-440.918
1742205125.638,-1000.0,-1000.0,970.215,-1000.0
1742205125.641,-981.934,-1000.0,970.703,-982.91
1742205125.645,-992.188,-1000.0,971.68,-990.723
1742205125.649,-1000.0,-1000.0,971.68,-1000.0
1742205125.653,-1000.0,-1000.0,971.68,-1000.0
1742205125.657,-1000.0,-1000.0,971.68,-1000.0
1742205126.364,-389.648,-1000.0,982.422,-376.465
1742205126.368,42.48,-245.605,883.301,28.32
1742205126.372,-470.215,-909.668,550.781,-503.906
1742205126.376,-539.062,942.383,565.43,-592.285
1742205126.38,-330.078,943.848,895.996,-347.656
1742205126.384,-602.051,990.723,972.168,-554.199
1742205126.388,-413.086,919.922,979.98,-381.348
1742205126.391,80.078,-984.375,859.863,70.801
1742205126.395,-320.312,855.957,695.312,-321.289
1742205126.399,-747.559,-532.715,884.766,-729.492
1742205126.403,-220.215,-1000.0,992.188,-228.027
1742205126.407,222.656,-934.082,960.938,224.121
1742205126.784,600.586,-952.637,59.57,625.0
1742205126.788,585.938,-909.18,-269.043,615.234
1742205126.792,318.848,-1000.0,-355.469,296.875
1742205126.796,-212.891,-945.312,-95.215,-203.613
1742205126.8,-769.531,-1000.0,180.176,-709.473
1742205126.804,-418.457,-169.922,220.215,-330.078
1742205126.808,261.23,979.98,-120.117,321.289
1742205126.811,554.199,-935.547,-525.879,576.172
1742205126.815,-237.305,528.32,-476.562,-242.676
1742205126.819,-410.645,-808.594,-125.977,-393.066
1742205126.823,69.336,-1000.0,-81.055,124.512
1742205126.827,208.008,-214.355,-376.465,194.824
1742205127.459,-972.168,971.68,527.832,-966.797
1742205127.463,-348.633,973.145,414.062,-346.191
1742205127.467,130.371,906.738,143.555,136.719
1742205127.471,-396.973,-889.648,128.906,-411.133
1742205127.475,-924.316,203.125,417.48,-934.082
1742205127.479,-815.43,-1000.0,817.383,-801.758
1742205127.483,-748.535,-1000.0,957.52,-765.625
1742205127.486,-399.902,-900.879,654.785,-433.594
1742205127.49,223.145,426.27,280.273,205.078
1742205127.494,-257.812,-910.156,247.559,-265.625
1742205127.498,-336.914,916.992,438.477,-344.727
1742205127.502,-24.902,929.688,420.898,-49.316
1742205127.549,-36.621,-921.875,-91.309,-44.922
1742205127.553,-12.207,163.574,183.594,-24.902
1742205127.557,382.324,-1000.0,271.484,373.047
1742205127.561,534.668,-983.398,148.926,515.625
1742205127.565,554.688,-970.215,-99.121,544.434
1742205127.569,-0.488,-977.539,15.137,27.832
1742205127.573,-516.113,-990.234,431.641,-475.586
1742205127.576,273.926,-1000.0,398.926,308.105
1742205127.58,290.527,147.461,-11.23,289.062
1742205127.584,-90.332,-935.547,-361.816,-118.652
1742205127.588,-341.309,958.496,-381.348,-388.184
1742205127.592,-323.73,-81.543,7.324,-354.98
1742205127.864,248.047,-1000.0,493.652,313.477
1742205127.868,394.531,-950.195,250.977,462.402
1742205127.872,365.234,-1000.0,-5.371,390.625
1742205127.876,-135.742,-938.477,258.301,-104.98
1742205127.88,221.191,-1000.0,561.035,240.723
1742205127.884,-43.945,-198.73,543.457,-60.059
1742205127.888,-1000.0,992.676,466.309,-995.605
1742205127.891,-638.184,-993.652,243.164,-596.191
1742205127.895,-666.992,778.809,134.766,-640.137
1742205127.899,-355.957,-550.293,376.953,-341.309
1742205127.903,271.973,-1000.0,535.156,249.023
1742205127.907,284.668,-1000.0,432.617,275.879
1742205128.343,65.43,-1000.0,121.094,35.156
1742205128.347,-362.793,-940.918,311.523,-363.77
1742205128.351,-125.977,-1000.0,546.875,-90.82
1742205128.355,66.406,-187.012,526.855,88.379
1742205128.359,86.914,-959.473,176.27,55.176
1742205128.363,-478.027,954.59,-20.508,-494.141
1742205128.367,-785.645,944.824,278.809,-776.855
1742205128.37,-559.082,977.539,529.785,-502.93
1742205128.374,232.91,975.098,317.871,291.992
1742205128.378,745.605,953.613,-57.129,731.934
1742205128.382,583.984,939.453,-215.82,568.848
1742205128.386,71.777,-939.453,-56.641,54.688
1742205129.273,593.262,-753.418,-526.855,550.293
1742205129.277,340.82,493.164,-544.434,291.992
1742205129.281,309.082,-833.496,-95.703,279.297
1742205129.285,925.781,-1000.0,90.332,923.34
1742205129.289,-964.844,-946.289,-266.602,-963.379
1742205129.293,650.879,-1000.0,-512.695,649.902
1742205129.297,-124.023,-1000.0,-323.242,-117.188
1742205129.3,77.148,-973.145,-88.867,119.629
1742205129.304,771.484,-986.816,-267.578,794.922
1742205129.308,974.609,-1000.0,-666.016,973.145
1742205129.312,644.043,164.551,-951.66,625.488
1742205129.316,174.316,-870.117,-1000.0,114.258
1742205129.979,-93.75,-895.508,-230.957,-72.266
1742205129.983,-667.969,-322.754,92.285,-623.535
1742205129.987,-179.688,-1000.0,352.539,-159.668
1742205129.991,351.074,-1000.0,257.324,376.465
1742205129.995,49.316,-246.094,-24.902,68.359
1742205129.999,-805.176,-966.309,27.832,-802.246
1742205130.003,-1000.0,960.449,448.242,-1000.0
1742205130.006,-861.328,941.895,515.137,-839.355
1742205130.01,-411.133,972.168,229.492,-356.934
1742205130.014,-82.52,898.438,-59.082,-76.66
1742205130.018,-292.48,999.023,-93.75,-305.664
1742205130.022,6.836,-112.305,272.949,9.766
1742205130.219,477.051,22.949,360.352,429.688
1742205130.223,-813.477,-799.316,254.395,-841.797
1742205130.227,-589.844,172.363,557.129,-595.703
1742205130.231,232.91,-1000.0,688.965,207.031
1742205130.235,478.027,-939.941,544.922,465.332
1742205130.239,218.75,402.344,269.531,192.871
1742205130.243,-702.148,-912.598,116.211,-713.379
1742205130.246,-646.484,906.25,326.66,-687.012
1742205130.25,117.188,978.027,375.977,70.312
1742205130.254,396.973,971.191,133.789,382.812
1742205130.258,500.0,969.238,-114.258,477.539
1742205130.262,369.141,905.762,-262.695,336.914
1742205130.398,-376.465,911.621,-126.953,-407.715
1742205130.402,-320.801,995.605,33.691,-346.191
1742205130.406,-255.371,931.152,-19.043,-246.582
1742205130.41,108.887,987.793,-236.816,126.953
1742205130.414,-191.406,934.082,-410.645,-196.777
1742205130.418,-860.84,-361.328,-90.82,-817.383
1742205130.422,-773.438,-1000.0,408.203,-712.891
1742205130.425,-293.945,-996.094,391.113,-242.188
1742205130.429,284.668,52.246,-91.797,308.105
1742205130.433,6.836,-809.082,-565.918,-26.367
1742205130.437,-636.719,625.977,-481.934,-631.836
1742205130.441,-469.727,-962.891,-75.684,-469.238
1742205130.639,-3.906,68.359,-228.516,44.922
1742205130.643,-663.086,835.938,-188.965,-680.664
1742205130.647,-481.445,-661.621,127.441,-555.664
1742205130.651,154.297,-1000.0,359.863,135.254
1742205130.655,200.195,-255.859,198.242,187.012
1742205130.659,-484.863,990.234,18.066,-510.254
1742205130.663,-902.832,972.656,238.281,-921.387
1742205130.666,-743.652,935.547,435.059,-734.375
1742205130.67,-801.27,980.957,339.844,-765.625
1742205130.674,-329.102,982.91,116.211,-343.262
1742205130.678,317.383,897.461,-122.559,278.32
1742205130.682,76.172,-903.809,-94.238,42.48
1742205130.819,104.492,-1000.0,-248.047,76.172
1742205130.823,532.227,-928.711,-215.332,535.156
1742205130.827,642.578,-1000.0,-424.805,639.16
1742205130.831,462.402,-182.129,-629.883,452.148
1742205130.835,-244.141,-971.191,-714.844,-254.395
1742205130.839,-659.668,-355.469,-394.531,-645.508
1742205130.843,-119.141,-1000.0,-89.355,-116.211
1742205130.846,420.898,-65.43,-453.125,394.531
1742205130.85,250.0,-819.824,-918.945,239.258
1742205130.854,-159.18,523.926,-1000.0,-180.664
1742205130.858,-160.156,-898.438,-653.809,-173.34
1742205130.862,470.215,-1000.0,-306.641,503.418
1742205130.864,847.168,-944.336,-471.191,838.379
1742205130.868,917.48,-1000.0,-745.605,918.457
1742205130.872,447.754,-1000.0,-745.117,448.242
1742205130.876,-100.098,-984.375,-366.699,-144.531
1742205130.88,-368.652,-963.379,-167.969,-389.16
1742205130.884,-422.363,-1000.0,-152.344,-375.977
1742205130.888,-504.883,-26.855,-209.473,-453.613
1742205130.891,-1000.0,-781.25,-392.09,-1000.0
1742205130.895,-716.309,202.148,-354.004,-705.566
1742205130.899,-111.328,-1000.0,-203.125,-51.27
1742205130.903,24.414,-583.984,-251.465,81.543
1742205130.907,29.297,-963.379,-492.188,4.395
1742205131.854,905.762,-237.793,-641.602,885.742
1742205131.858,6.836,72.754,-580.566,-12.207
1742205131.862,-243.164,-1000.0,-331.543,-318.359
1742205131.866,376.465,-1000.0,-198.73,284.668
1742205131.87,303.711,-152.344,-438.477,327.148
1742205131.874,-514.16,832.52,-728.516,-476.074
1742205131.878,-445.312,709.473,-583.984,-430.664
1742205131.881,-417.969,979.492,-327.148,-402.344
1742205131.885,106.934,-216.309,-344.238,133.301
1742205131.889,874.512,-1000.0,-543.945,843.262
1742205131.893,669.434,-131.836,-840.332,598.145
1742205131.897,116.211,206.543,-822.266,86.914
1742205132.409,-283.203,-919.434,-222.168,-248.535
1742205132.413,-1000.0,-946.289,40.527,-1000.0
1742205132.417,-746.094,-1000.0,305.176,-751.465
1742205132.421,-270.508,-180.664,375.488,-304.688
1742205132.425,-429.199,-948.73,127.93,-426.27
1742205132.429,-880.371,950.195,80.078,-869.629
1742205132.433,-1000.0,946.777,450.195,-1000.0
1742205132.436,-1000.0,987.793,721.191,-1000.0
1742205132.44,-899.902,900.391,598.145,-891.113
1742205132.444,-236.328,-901.367,289.062,-221.191
1742205132.448,-179.199,434.082,198.242,-161.621
1742205132.452,-164.062,-958.496,455.078,-169.922
1742205133.158,-68.848,-984.375,114.258,-79.59
1742205133.162,26.855,-973.145,62.012,33.691
1742205133.166,-136.719,-1000.0,3.906,-132.812
1742205133.17,-274.414,-944.336,186.035,-321.289
1742205133.174,-252.441,-1000.0,428.223,-287.598
1742205133.178,-344.238,-775.391,613.281,-355.469
1742205133.182,-525.391,617.676,585.449,-525.391
1742205133.185,-395.02,-969.727,347.168,-435.547
1742205133.189,-625.0,903.809,444.824,-671.875
1742205133.193,-1000.0,995.117,719.238,-1000.0
1742205133.197,-829.102,-175.781,780.762,-834.473
1742205133.201,-392.09,-1000.0,837.891,-402.832
1742205133.864,-727.539,971.191,971.191,-808.105
1742205133.868,-820.312,971.68,971.191,-854.98
1742205133.872,-989.746,971.68,971.68,-1000.0
1742205133.876,-920.898,971.68,971.191,-948.242
1742205133.88,-1000.0,971.68,971.191,-1000.0
1742205133.884,-890.137,971.68,971.191,-887.695
1742205133.888,-682.129,971.191,971.191,-691.895
1742205133.891,-954.59,971.68,971.191,-969.727
1742205133.895,-1000.0,971.191,971.68,-1000.0
1742205133.899,-678.711,979.004,971.191,-774.414
1742205133.903,-305.664,939.453,971.191,-450.195
1742205133.907,-350.586,972.168,971.191,-481.445
1742205133.954,21.484,-1000.0,971.191,-33.203
1742205133.958,7.324,-868.164,971.191,26.367
1742205133.962,-62.5,-1000.0,971.191,-34.18
1742205133.966,-480.469,-186.035,971.191,-495.117
1742205133.97,-930.176,-949.219,971.191,-942.871
1742205133.974,-1000.0,950.684,971.191,-997.07
1742205133.978,-939.453,946.777,971.68,-974.609
1742205133.981,-531.738,977.051,971.191,-637.207
1742205133.985,14.16,971.191,971.191,-106.445
1742205133.989,215.82,971.191,971.191,96.68
1742205133.993,94.238,972.656,971.191,73.242
1742205133.997,135.254,965.332,971.191,166.504
1742205134.149,964.355,-1000.0,-1000.0,969.238
1742205134.153,972.168,-1000.0,-1000.0,966.797
1742205134.157,631.348,-1000.0,-1000.0,703.125
1742205134.161,694.336,-947.266,-1000.0,782.227
1742205134.165,851.562,-1000.0,-1000.0,886.23
1742205134.169,844.727,-893.555,-1000.0,909.18
1742205134.173,222.168,569.824,-1000.0,312.5
1742205134.176,-827.148,996.582,-1000.0,-742.188
1742205134.18,28.32,-497.559,-1000.0,108.398
1742205134.184,-992.188,-1000.0,-1000.0,-948.242
1742205134.188,975.098,-929.199,-1000.0,971.191
1742205134.192,637.695,-938.477,-1000.0,684.082
1742205134.659,255.371,-1000.0,-998.047,292.969
1742205134.663,810.547,-998.047,-1000.0,862.305
1742205134.667,396.484,-978.516,-999.512,504.395
1742205134.671,-119.629,-1000.0,-1000.0,-21.973
1742205134.675,-225.586,-546.387,-1000.0,-132.324
1742205134.679,-384.766,292.969,-1000.0,-246.094
1742205134.683,-142.09,834.961,-1000.0,-41.504
1742205134.686,417.969,-866.211,-1000.0,479.98
1742205134.69,308.594,160.156,-1000.0,367.188
1742205134.694,632.324,-1000.0,-1000.0,669.434
1742205134.698,895.508,-984.375,-1000.0,919.434
1742205134.702,976.074,-972.168,-997.07,981.445
1742205134.809,-204.59,906.25,-228.027,-195.801
1742205134.813,-647.949,940.918,-416.016,-615.234
1742205134.817,-332.52,-884.277,-533.203,-310.059
1742205134.821,-187.012,-11.719,-335.449,-199.707
1742205134.825,77.637,-396.484,-146.484,61.035
1742205134.829,-664.551,-962.402,-125.0,-685.059
1742205134.833,-814.941,965.82,-179.199,-804.199
1742205134.836,-687.988,921.875,-199.219,-670.898
1742205134.84,-684.082,-985.352,-196.289,-668.945
1742205134.844,-284.18,-111.816,-188.965,-257.812
1742205134.848,-85.938,-1000.0,-136.719,-70.801
1742205134.852,178.223,-332.52,-246.094,161.621
1742205135.783,-411.133,114.258,921.875,-425.781
1742205135.787,275.879,-12.695,939.453,257.324
1742205135.791,241.699,-589.355,978.516,234.863
1742205135.795,-421.387,49.805,969.238,-423.34
1742205135.799,59.57,64.453,971.68,61.523
1742205135.803,-53.711,225.098,971.191,-56.152
1742205135.807,-1000.0,-774.902,971.68,-1000.0
1742205135.81,-907.715,206.055,971.68,-907.227
1742205135.814,-520.996,-447.266,971.191,-517.578
1742205135.818,-93.262,343.262,971.191,-104.492
1742205135.822,-98.633,207.52,971.191,-110.84
1742205135.826,-587.402,73.73,971.191,-580.078
