timestamps,TP9,AF7,AF8,TP10
1742206994.397,-937.988,-714.355,976.074,-894.531
1742206994.401,-359.375,-1000.0,978.027,-309.57
1742206994.405,198.73,592.285,920.41,180.176
1742206994.409,537.598,-985.84,454.59,513.672
1742206994.397,-937.988,-714.355,976.074,-894.531
1742206994.401,-359.375,-1000.0,978.027,-309.57
1742206994.405,198.73,592.285,920.41,180.176
1742206994.409,537.598,-985.84,454.59,513.672
1742206994.397,-937.988,-714.355,976.074,-894.531
1742206994.401,-359.375,-1000.0,978.027,-309.57
1742206994.405,198.73,592.285,920.41,180.176
1742206994.409,537.598,-985.84,454.59,513.672
1742206994.412,390.137,979.98,435.059,344.238
1742206994.416,-154.785,861.328,879.395,-196.289
1742206994.42,437.988,-720.215,-994.141,469.727
1742206994.424,950.195,-67.871,495.605,957.031
1742206994.428,424.805,-862.305,-552.734,431.152
1742206994.432,-41.992,915.039,-905.273,-38.086
1742206994.436,-133.301,960.449,-742.188,-160.645
1742206994.439,482.91,975.098,-923.828,445.801
1742206994.443,952.637,987.793,-1000.0,940.918
1742206994.447,877.441,914.062,-990.234,866.211
1742206994.451,883.301,-976.562,-1000.0,858.398
1742206994.455,688.965,868.164,-1000.0,701.66
1742206994.412,390.137,979.98,435.059,344.238
1742206994.416,-154.785,861.328,879.395,-196.289
1742206994.42,437.988,-720.215,-994.141,469.727
1742206994.424,950.195,-67.871,495.605,957.031
1742206994.428,424.805,-862.305,-552.734,431.152
1742206994.432,-41.992,915.039,-905.273,-38.086
1742206994.436,-133.301,960.449,-742.188,-160.645
1742206994.439,482.91,975.098,-923.828,445.801
1742206994.443,952.637,987.793,-1000.0,940.918
1742206994.447,877.441,914.062,-990.234,866.211
1742206994.451,883.301,-976.562,-1000.0,858.398
1742206994.455,688.965,868.164,-1000.0,701.66
1742206994.471,770.02,-587.402,-1000.0,793.945
1742206994.475,991.211,-1000.0,-978.516,993.652
1742206994.479,963.867,-925.781,-998.535,958.496
1742206994.483,360.352,-1000.0,-970.703,347.656
1742206994.487,-550.293,-1000.0,-58.105,-556.152
1742206994.491,-991.699,-1000.0,904.297,-990.234
1742206994.495,-893.555,-1000.0,979.004,-875.0
1742206994.498,-250.977,-1000.0,923.828,-253.906
1742206994.502,-383.789,-1000.0,961.426,-382.324
1742206994.506,-722.168,-1000.0,976.074,-756.348
1742206994.51,-925.781,-932.129,969.727,-965.82
1742206994.514,-722.168,-1000.0,971.68,-714.844
1742206994.471,770.02,-587.402,-1000.0,793.945
1742206994.475,991.211,-1000.0,-978.516,993.652
1742206994.479,963.867,-925.781,-998.535,958.496
1742206994.483,360.352,-1000.0,-970.703,347.656
1742206994.487,-550.293,-1000.0,-58.105,-556.152
1742206994.491,-991.699,-1000.0,904.297,-990.234
1742206994.495,-893.555,-1000.0,979.004,-875.0
1742206994.498,-250.977,-1000.0,923.828,-253.906
1742206994.502,-383.789,-1000.0,961.426,-382.324
1742206994.506,-722.168,-1000.0,976.074,-756.348
1742206994.51,-925.781,-932.129,969.727,-965.82
1742206994.514,-722.168,-1000.0,971.68,-714.844
1742206994.471,770.02,-587.402,-1000.0,793.945
1742206994.475,991.211,-1000.0,-978.516,993.652
1742206994.479,963.867,-925.781,-998.535,958.496
1742206994.483,360.352,-1000.0,-970.703,347.656
1742206994.487,-550.293,-1000.0,-58.105,-556.152
1742206994.491,-991.699,-1000.0,904.297,-990.234
1742206994.495,-893.555,-1000.0,979.004,-875.0
1742206994.498,-250.977,-1000.0,923.828,-253.906
1742206994.502,-383.789,-1000.0,961.426,-382.324
1742206994.506,-722.168,-1000.0,976.074,-756.348
1742206994.51,-925.781,-932.129,969.727,-965.82
1742206994.514,-722.168,-1000.0,971.68,-714.844
1742206994.515,-300.293,-685.059,971.191,-292.48
1742206994.519,-732.91,770.02,971.191,-737.793
1742206994.523,-1000.0,-953.125,971.68,-1000.0
1742206994.527,-943.848,907.715,971.191,-930.664
1742206994.531,-641.602,-996.094,971.191,-617.188
1742206994.535,-268.066,912.598,971.191,-249.023
1742206994.539,-226.074,-989.746,971.68,-250.977
1742206994.542,-465.332,925.293,973.633,-486.816
1742206994.546,-322.754,-696.777,951.66,-293.945
1742206994.55,371.582,-831.055,995.117,334.473
1742206994.554,579.102,839.355,847.168,480.957
1742206994.558,313.477,957.031,333.984,250.488
1742206994.515,-300.293,-685.059,971.191,-292.48
1742206994.519,-732.91,770.02,971.191,-737.793
1742206994.523,-1000.0,-953.125,971.68,-1000.0
1742206994.527,-943.848,907.715,971.191,-930.664
1742206994.531,-641.602,-996.094,971.191,-617.188
1742206994.535,-268.066,912.598,971.191,-249.023
1742206994.539,-226.074,-989.746,971.68,-250.977
1742206994.542,-465.332,925.293,973.633,-486.816
1742206994.546,-322.754,-696.777,951.66,-293.945
1742206994.55,371.582,-831.055,995.117,334.473
1742206994.554,579.102,839.355,847.168,480.957
1742206994.558,313.477,957.031,333.984,250.488
1742206994.56,-325.684,-950.195,338.379,-343.75
1742206994.564,-605.469,588.379,835.938,-601.562
1742206994.568,148.438,-744.629,970.703,163.574
1742206994.572,505.859,422.363,441.406,485.84
1742206994.576,632.324,-841.309,-257.812,591.797
1742206994.58,204.102,881.836,-360.84,187.5
1742206994.584,-486.328,993.652,222.168,-449.707
1742206994.587,-79.102,938.965,488.281,-41.992
1742206994.591,531.25,965.82,-105.469,545.41
1742206994.595,734.375,-981.445,-764.648,739.258
1742206994.599,300.293,-281.25,-708.984,330.078
1742206994.603,492.188,-1000.0,-5.371,511.23
1742206994.56,-325.684,-950.195,338.379,-343.75
1742206994.564,-605.469,588.379,835.938,-601.562
1742206994.568,148.438,-744.629,970.703,163.574
1742206994.572,505.859,422.363,441.406,485.84
1742206994.576,632.324,-841.309,-257.812,591.797
1742206994.58,204.102,881.836,-360.84,187.5
1742206994.584,-486.328,993.652,222.168,-449.707
1742206994.587,-79.102,938.965,488.281,-41.992
1742206994.591,531.25,965.82,-105.469,545.41
1742206994.595,734.375,-981.445,-764.648,739.258
1742206994.599,300.293,-281.25,-708.984,330.078
1742206994.603,492.188,-1000.0,-5.371,511.23
1742206994.56,-325.684,-950.195,338.379,-343.75
1742206994.564,-605.469,588.379,835.938,-601.562
1742206994.568,148.438,-744.629,970.703,163.574
1742206994.572,505.859,422.363,441.406,485.84
1742206994.576,632.324,-841.309,-257.812,591.797
1742206994.58,204.102,881.836,-360.84,187.5
1742206994.584,-486.328,993.652,222.168,-449.707
1742206994.587,-79.102,938.965,488.281,-41.992
1742206994.591,531.25,965.82,-105.469,545.41
1742206994.595,734.375,-981.445,-764.648,739.258
1742206994.599,300.293,-281.25,-708.984,330.078
1742206994.603,492.188,-1000.0,-5.371,511.23
1742206994.607,622.559,-934.57,505.859,608.887
1742206994.611,803.711,-1000.0,184.082,800.293
1742206994.615,-962.402,-1000.0,-516.113,-961.426
1742206994.619,812.5,-1000.0,-624.023,801.758
1742206994.623,56.641,-943.359,-3.906,70.312
1742206994.627,-28.809,-1000.0,595.703,-2.441
1742206994.631,223.633,-953.125,309.082,208.496
1742206994.634,-75.684,625.0,-488.281,-60.547
1742206994.638,-209.961,887.695,-954.102,-154.297
1742206994.642,38.086,-767.09,-548.828,32.227
1742206994.646,199.219,-1000.0,49.805,166.504
1742206994.65,29.785,-893.555,-85.449,51.758
1742206994.607,622.559,-934.57,505.859,608.887
1742206994.611,803.711,-1000.0,184.082,800.293
1742206994.615,-962.402,-1000.0,-516.113,-961.426
1742206994.619,812.5,-1000.0,-624.023,801.758
1742206994.623,56.641,-943.359,-3.906,70.312
1742206994.627,-28.809,-1000.0,595.703,-2.441
1742206994.631,223.633,-953.125,309.082,208.496
1742206994.634,-75.684,625.0,-488.281,-60.547
1742206994.638,-209.961,887.695,-954.102,-154.297
1742206994.642,38.086,-767.09,-548.828,32.227
1742206994.646,199.219,-1000.0,49.805,166.504
1742206994.65,29.785,-893.555,-85.449,51.758
1742206994.665,-839.844,-1000.0,-661.133,-832.52
1742206994.669,-1000.0,-1000.0,-1000.0,-1000.0
1742206994.673,-950.684,-997.559,-1000.0,-948.73
1742206994.677,-1000.0,-1000.0,-513.672,-1000.0
1742206994.681,-1000.0,-1000.0,-431.641,-1000.0
1742206994.685,-1000.0,-1000.0,-949.707,-1000.0
1742206994.689,-1000.0,-1000.0,-1000.0,-1000.0
1742206994.692,-926.27,-938.965,-983.887,-926.27
1742206994.696,-1000.0,-1000.0,-967.773,-1000.0
1742206994.7,-791.504,-848.145,-974.609,-791.016
1742206994.704,390.137,617.676,-1000.0,386.719
1742206994.708,-290.039,-918.457,-996.582,-293.457
1742206994.665,-839.844,-1000.0,-661.133,-832.52
1742206994.669,-1000.0,-1000.0,-1000.0,-1000.0
1742206994.673,-950.684,-997.559,-1000.0,-948.73
1742206994.677,-1000.0,-1000.0,-513.672,-1000.0
1742206994.681,-1000.0,-1000.0,-431.641,-1000.0
1742206994.685,-1000.0,-1000.0,-949.707,-1000.0
1742206994.689,-1000.0,-1000.0,-1000.0,-1000.0
1742206994.692,-926.27,-938.965,-983.887,-926.27
1742206994.696,-1000.0,-1000.0,-967.773,-1000.0
1742206994.7,-791.504,-848.145,-974.609,-791.016
1742206994.704,390.137,617.676,-1000.0,386.719
1742206994.708,-290.039,-918.457,-996.582,-293.457
1742206994.697,-250.977,898.438,-1000.0,-279.297
1742206994.701,139.16,987.793,-766.602,60.059
1742206994.705,461.914,971.191,-664.551,383.789
1742206994.709,981.934,971.191,-934.082,971.191
1742206994.713,951.172,971.191,-1000.0,950.684
1742206994.717,569.336,971.68,-963.379,519.531
1742206994.721,410.645,971.191,-556.152,321.289
1742206994.724,518.066,971.191,-472.168,441.406
1742206994.728,881.348,971.191,-916.016,874.512
1742206994.732,975.586,971.191,-1000.0,969.727
1742206994.736,405.273,971.191,-1000.0,395.996
1742206994.74,249.023,971.191,-833.008,246.582
1742206994.697,-250.977,898.438,-1000.0,-279.297
1742206994.701,139.16,987.793,-766.602,60.059
1742206994.705,461.914,971.191,-664.551,383.789
1742206994.709,981.934,971.191,-934.082,971.191
1742206994.713,951.172,971.191,-1000.0,950.684
1742206994.717,569.336,971.68,-963.379,519.531
1742206994.721,410.645,971.191,-556.152,321.289
1742206994.724,518.066,971.191,-472.168,441.406
1742206994.728,881.348,971.191,-916.016,874.512
1742206994.732,975.586,971.191,-1000.0,969.727
1742206994.736,405.273,971.191,-1000.0,395.996
1742206994.74,249.023,971.191,-833.008,246.582
1742206994.697,-250.977,898.438,-1000.0,-279.297
1742206994.701,139.16,987.793,-766.602,60.059
1742206994.705,461.914,971.191,-664.551,383.789
1742206994.709,981.934,971.191,-934.082,971.191
1742206994.713,951.172,971.191,-1000.0,950.684
1742206994.717,569.336,971.68,-963.379,519.531
1742206994.721,410.645,971.191,-556.152,321.289
1742206994.724,518.066,971.191,-472.168,441.406
1742206994.728,881.348,971.191,-916.016,874.512
1742206994.732,975.586,971.191,-1000.0,969.727
1742206994.736,405.273,971.191,-1000.0,395.996
1742206994.74,249.023,971.191,-833.008,246.582
1742206994.742,368.164,970.703,-556.641,315.918
1742206994.746,823.73,987.793,-824.707,801.758
1742206994.75,986.328,914.062,-1000.0,995.117
1742206994.754,161.621,998.047,-986.816,181.641
1742206994.758,8.301,929.688,-707.031,48.34
1742206994.762,625.0,-685.547,-141.113,663.574
1742206994.766,952.148,-627.93,-144.043,957.52
1742206994.769,976.562,875.977,-828.613,974.609
1742206994.773,928.711,-924.805,-1000.0,927.246
1742206994.777,712.891,735.84,-519.043,718.75
1742206994.781,765.625,-671.387,112.793,770.996
1742206994.785,-861.328,-1000.0,131.836,-863.77
1742206994.742,368.164,970.703,-556.641,315.918
1742206994.746,823.73,987.793,-824.707,801.758
1742206994.75,986.328,914.062,-1000.0,995.117
1742206994.754,161.621,998.047,-986.816,181.641
1742206994.758,8.301,929.688,-707.031,48.34
1742206994.762,625.0,-685.547,-141.113,663.574
1742206994.766,952.148,-627.93,-144.043,957.52
1742206994.769,976.562,875.977,-828.613,974.609
1742206994.773,928.711,-924.805,-1000.0,927.246
1742206994.777,712.891,735.84,-519.043,718.75
1742206994.781,765.625,-671.387,112.793,770.996
1742206994.785,-861.328,-1000.0,131.836,-863.77
1742206994.742,368.164,970.703,-556.641,315.918
1742206994.746,823.73,987.793,-824.707,801.758
1742206994.75,986.328,914.062,-1000.0,995.117
1742206994.754,161.621,998.047,-986.816,181.641
1742206994.758,8.301,929.688,-707.031,48.34
1742206994.762,625.0,-685.547,-141.113,663.574
1742206994.766,952.148,-627.93,-144.043,957.52
1742206994.769,976.562,875.977,-828.613,974.609
1742206994.773,928.711,-924.805,-1000.0,927.246
1742206994.777,712.891,735.84,-519.043,718.75
1742206994.781,765.625,-671.387,112.793,770.996
1742206994.785,-861.328,-1000.0,131.836,-863.77
1742206994.787,579.59,-944.824,-311.523,582.52
1742206994.791,-479.98,-960.938,-459.473,-477.539
1742206994.795,-468.75,-1000.0,-211.426,-466.797
1742206994.799,-534.668,-896.973,348.633,-507.324
1742206994.803,-89.844,531.25,325.684,-96.191
1742206994.807,144.531,-935.059,-334.473,153.809
1742206994.811,-132.812,966.797,-633.789,-84.961
1742206994.814,-319.824,-15.137,-348.633,-261.23
1742206994.818,44.922,-1000.0,206.543,102.539
1742206994.822,698.242,-956.543,293.945,714.844
1742206994.826,900.879,303.711,-281.25,870.117
1742206994.83,219.238,-787.598,-707.52,255.859
1742206994.787,579.59,-944.824,-311.523,582.52
1742206994.791,-479.98,-960.938,-459.473,-477.539
1742206994.795,-468.75,-1000.0,-211.426,-466.797
1742206994.799,-534.668,-896.973,348.633,-507.324
1742206994.803,-89.844,531.25,325.684,-96.191
1742206994.807,144.531,-935.059,-334.473,153.809
1742206994.811,-132.812,966.797,-633.789,-84.961
1742206994.814,-319.824,-15.137,-348.633,-261.23
1742206994.818,44.922,-1000.0,206.543,102.539
1742206994.822,698.242,-956.543,293.945,714.844
1742206994.826,900.879,303.711,-281.25,870.117
1742206994.83,219.238,-787.598,-707.52,255.859
1742206994.846,-294.922,261.719,-287.109,-235.352
1742206994.85,222.656,-888.184,491.699,212.402
1742206994.854,505.859,-1000.0,779.297,502.441
1742206994.858,529.785,-757.324,493.652,599.609
1742206994.862,372.07,753.906,49.805,436.035
1742206994.866,-665.527,996.582,355.957,-605.957
1742206994.87,-882.812,-578.613,929.199,-751.465
1742206994.873,80.078,-1000.0,997.559,192.871
1742206994.877,736.328,-1000.0,810.059,790.039
1742206994.881,480.957,-384.766,465.82,533.691
1742206994.885,-169.922,692.871,615.723,-84.961
1742206994.889,-89.355,-496.094,945.312,60.059
1742206994.846,-294.922,261.719,-287.109,-235.352
1742206994.85,222.656,-888.184,491.699,212.402
1742206994.854,505.859,-1000.0,779.297,502.441
1742206994.858,529.785,-757.324,493.652,599.609
1742206994.862,372.07,753.906,49.805,436.035
1742206994.866,-665.527,996.582,355.957,-605.957
1742206994.87,-882.812,-578.613,929.199,-751.465
1742206994.873,80.078,-1000.0,997.559,192.871
1742206994.877,736.328,-1000.0,810.059,790.039
1742206994.881,480.957,-384.766,465.82,533.691
1742206994.885,-169.922,692.871,615.723,-84.961
1742206994.889,-89.355,-496.094,945.312,60.059
1742206994.846,-294.922,261.719,-287.109,-235.352
1742206994.85,222.656,-888.184,491.699,212.402
1742206994.854,505.859,-1000.0,779.297,502.441
1742206994.858,529.785,-757.324,493.652,599.609
1742206994.862,372.07,753.906,49.805,436.035
1742206994.866,-665.527,996.582,355.957,-605.957
1742206994.87,-882.812,-578.613,929.199,-751.465
1742206994.873,80.078,-1000.0,997.559,192.871
1742206994.877,736.328,-1000.0,810.059,790.039
1742206994.881,480.957,-384.766,465.82,533.691
1742206994.885,-169.922,692.871,615.723,-84.961
1742206994.889,-89.355,-496.094,945.312,60.059
1742206994.891,520.996,-1000.0,984.863,624.512
1742206994.895,827.148,-592.285,953.125,865.234
1742206994.899,312.988,702.148,758.301,409.668
1742206994.903,-297.363,-827.148,840.82,-151.855
1742206994.907,-609.863,133.789,982.91,-472.656
1742206994.911,-400.879,-1000.0,962.402,-300.781
1742206994.915,166.016,141.602,983.398,188.477
1742206994.918,482.91,-956.543,555.176,541.992
1742206994.922,-211.426,995.605,388.184,-64.941
1742206994.926,-854.98,687.5,845.703,-788.574
1742206994.93,-88.867,-865.234,-988.77,-32.227
1742206994.934,672.852,-950.684,910.645,711.914
1742206994.891,520.996,-1000.0,984.863,624.512
1742206994.895,827.148,-592.285,953.125,865.234
1742206994.899,312.988,702.148,758.301,409.668
1742206994.903,-297.363,-827.148,840.82,-151.855
1742206994.907,-609.863,133.789,982.91,-472.656
1742206994.911,-400.879,-1000.0,962.402,-300.781
1742206994.915,166.016,141.602,983.398,188.477
1742206994.918,482.91,-956.543,555.176,541.992
1742206994.922,-211.426,995.605,388.184,-64.941
1742206994.926,-854.98,687.5,845.703,-788.574
1742206994.93,-88.867,-865.234,-988.77,-32.227
1742206994.934,672.852,-950.684,910.645,711.914
1742206994.936,787.598,559.57,328.613,803.711
1742206994.94,258.789,-834.961,38.574,335.938
1742206994.944,-269.531,570.312,525.879,-143.066
1742206994.948,125.0,-923.34,956.055,242.188
1742206994.952,833.496,-572.266,930.664,859.863
1742206994.956,676.758,863.77,429.688,688.477
1742206994.96,270.996,-887.207,103.027,304.199
1742206994.963,56.641,228.027,455.078,89.844
1742206994.967,385.742,-983.887,944.824,485.84
1742206994.971,820.312,-1000.0,934.082,906.738
1742206994.975,989.746,-964.844,290.039,988.281
1742206994.979,775.391,-1000.0,-125.977,802.734
1742206994.936,787.598,559.57,328.613,803.711
1742206994.94,258.789,-834.961,38.574,335.938
1742206994.944,-269.531,570.312,525.879,-143.066
1742206994.948,125.0,-923.34,956.055,242.188
1742206994.952,833.496,-572.266,930.664,859.863
1742206994.956,676.758,863.77,429.688,688.477
1742206994.96,270.996,-887.207,103.027,304.199
1742206994.963,56.641,228.027,455.078,89.844
1742206994.967,385.742,-983.887,944.824,485.84
1742206994.971,820.312,-1000.0,934.082,906.738
1742206994.975,989.746,-964.844,290.039,988.281
1742206994.979,775.391,-1000.0,-125.977,802.734
1742206994.936,787.598,559.57,328.613,803.711
1742206994.94,258.789,-834.961,38.574,335.938
1742206994.944,-269.531,570.312,525.879,-143.066
1742206994.948,125.0,-923.34,956.055,242.188
1742206994.952,833.496,-572.266,930.664,859.863
1742206994.956,676.758,863.77,429.688,688.477
1742206994.96,270.996,-887.207,103.027,304.199
1742206994.963,56.641,228.027,455.078,89.844
1742206994.967,385.742,-983.887,944.824,485.84
1742206994.971,820.312,-1000.0,934.082,906.738
1742206994.975,989.746,-964.844,290.039,988.281
1742206994.979,775.391,-1000.0,-125.977,802.734
1742206994.983,140.137,-1000.0,335.938,204.102
1742206994.987,3.906,-931.152,910.645,64.453
1742206994.991,312.5,-1000.0,797.363,347.168
1742206994.995,590.332,-699.707,115.723,613.77
1742206994.999,496.582,689.453,-392.09,487.305
1742206995.003,-252.93,-843.262,-132.812,-225.098
1742206995.007,-652.832,457.52,481.934,-592.285
1742206995.01,-84.961,-797.363,549.316,-58.594
1742206995.014,397.461,-1000.0,-23.438,437.012
1742206995.018,567.871,-478.027,-563.477,611.816
1742206995.022,-82.031,581.543,-532.227,-80.078
1742206995.026,-345.215,-489.746,98.633,-311.523
1742206994.983,140.137,-1000.0,335.938,204.102
1742206994.987,3.906,-931.152,910.645,64.453
1742206994.991,312.5,-1000.0,797.363,347.168
1742206994.995,590.332,-699.707,115.723,613.77
1742206994.999,496.582,689.453,-392.09,487.305
1742206995.003,-252.93,-843.262,-132.812,-225.098
1742206995.007,-652.832,457.52,481.934,-592.285
1742206995.01,-84.961,-797.363,549.316,-58.594
1742206995.014,397.461,-1000.0,-23.438,437.012
1742206995.018,567.871,-478.027,-563.477,611.816
1742206995.022,-82.031,581.543,-532.227,-80.078
1742206995.026,-345.215,-489.746,98.633,-311.523
1742206995.026,546.387,-1000.0,414.062,554.199
1742206995.03,847.656,-838.867,-115.723,845.703
1742206995.034,428.223,634.766,-730.957,445.801
1742206995.038,-407.227,954.59,-372.07,-366.211
1742206995.042,-1000.0,-603.027,610.84,-1000.0
1742206995.046,-919.922,-1000.0,-983.398,-878.906
1742206995.05,-88.867,-680.664,924.316,-15.625
1742206995.053,-218.75,542.48,426.758,-203.613
1742206995.057,-801.27,-457.031,569.336,-732.422
1742206995.061,-914.062,-1000.0,-993.652,-876.465
1742206995.065,-1000.0,-910.156,960.938,-1000.0
1742206995.069,-770.508,-1000.0,964.844,-730.957
1742206995.026,546.387,-1000.0,414.062,554.199
1742206995.03,847.656,-838.867,-115.723,845.703
1742206995.034,428.223,634.766,-730.957,445.801
1742206995.038,-407.227,954.59,-372.07,-366.211
1742206995.042,-1000.0,-603.027,610.84,-1000.0
1742206995.046,-919.922,-1000.0,-983.398,-878.906
1742206995.05,-88.867,-680.664,924.316,-15.625
1742206995.053,-218.75,542.48,426.758,-203.613
1742206995.057,-801.27,-457.031,569.336,-732.422
1742206995.061,-914.062,-1000.0,-993.652,-876.465
1742206995.065,-1000.0,-910.156,960.938,-1000.0
1742206995.069,-770.508,-1000.0,964.844,-730.957
1742206995.086,-640.137,-1000.0,973.633,-582.52
1742206995.09,-900.391,-942.383,971.68,-893.555
1742206995.094,-1000.0,-1000.0,971.68,-1000.0
1742206995.098,-888.672,-891.113,971.68,-893.066
1742206995.102,-667.48,567.871,971.68,-664.062
1742206995.106,-514.16,-909.668,972.168,-490.234
1742206995.11,-837.891,896.484,977.051,-838.379
1742206995.113,-993.652,987.793,939.941,-988.281
1742206995.117,-545.41,971.191,989.746,-553.223
1742206995.121,84.961,971.191,799.805,53.223
1742206995.125,842.285,971.191,-296.875,836.426
1742206995.129,995.117,971.68,-1000.0,994.141
1742206995.086,-640.137,-1000.0,973.633,-582.52
1742206995.09,-900.391,-942.383,971.68,-893.555
1742206995.094,-1000.0,-1000.0,971.68,-1000.0
1742206995.098,-888.672,-891.113,971.68,-893.066
1742206995.102,-667.48,567.871,971.68,-664.062
1742206995.106,-514.16,-909.668,972.168,-490.234
1742206995.11,-837.891,896.484,977.051,-838.379
1742206995.113,-993.652,987.793,939.941,-988.281
1742206995.117,-545.41,971.191,989.746,-553.223
1742206995.121,84.961,971.191,799.805,53.223
1742206995.125,842.285,971.191,-296.875,836.426
1742206995.129,995.117,971.68,-1000.0,994.141
1742206995.086,-640.137,-1000.0,973.633,-582.52
1742206995.09,-900.391,-942.383,971.68,-893.555
1742206995.094,-1000.0,-1000.0,971.68,-1000.0
1742206995.098,-888.672,-891.113,971.68,-893.066
1742206995.102,-667.48,567.871,971.68,-664.062
1742206995.106,-514.16,-909.668,972.168,-490.234
1742206995.11,-837.891,896.484,977.051,-838.379
1742206995.113,-993.652,987.793,939.941,-988.281
1742206995.117,-545.41,971.191,989.746,-553.223
1742206995.121,84.961,971.191,799.805,53.223
1742206995.125,842.285,971.191,-296.875,836.426
1742206995.129,995.117,971.68,-1000.0,994.141
1742206995.116,399.414,971.191,-667.48,396.484
1742206995.12,-37.109,971.191,-154.297,-9.277
1742206995.124,129.395,973.145,-257.812,149.902
1742206995.128,479.98,969.238,-847.656,495.605
1742206995.132,863.281,917.48,-1000.0,857.91
1742206995.136,524.414,-929.199,-990.234,553.711
1742206995.14,-696.289,265.625,-778.32,-642.09
1742206995.143,-373.047,-1000.0,-812.5,-348.145
1742206995.147,-855.469,-843.75,-1000.0,-847.168
1742206995.151,445.801,284.668,-993.652,430.664
1742206995.155,-926.758,-542.48,-998.047,-931.152
1742206995.159,-1000.0,-1000.0,-1000.0,-1000.0
1742206995.116,399.414,971.191,-667.48,396.484
1742206995.12,-37.109,971.191,-154.297,-9.277
1742206995.124,129.395,973.145,-257.812,149.902
1742206995.128,479.98,969.238,-847.656,495.605
1742206995.132,863.281,917.48,-1000.0,857.91
1742206995.136,524.414,-929.199,-990.234,553.711
1742206995.14,-696.289,265.625,-778.32,-642.09
1742206995.143,-373.047,-1000.0,-812.5,-348.145
1742206995.147,-855.469,-843.75,-1000.0,-847.168
1742206995.151,445.801,284.668,-993.652,430.664
1742206995.155,-926.758,-542.48,-998.047,-931.152
1742206995.159,-1000.0,-1000.0,-1000.0,-1000.0
1742206995.116,399.414,971.191,-667.48,396.484
1742206995.12,-37.109,971.191,-154.297,-9.277
1742206995.124,129.395,973.145,-257.812,149.902
1742206995.128,479.98,969.238,-847.656,495.605
1742206995.132,863.281,917.48,-1000.0,857.91
1742206995.136,524.414,-929.199,-990.234,553.711
1742206995.14,-696.289,265.625,-778.32,-642.09
1742206995.143,-373.047,-1000.0,-812.5,-348.145
1742206995.147,-855.469,-843.75,-1000.0,-847.168
1742206995.151,445.801,284.668,-993.652,430.664
1742206995.155,-926.758,-542.48,-998.047,-931.152
1742206995.159,-1000.0,-1000.0,-1000.0,-1000.0
1742206995.163,29.297,-542.969,-1000.0,41.504
1742206995.167,930.664,734.863,-1000.0,927.246
1742206995.171,610.352,-917.48,-1000.0,581.055
1742206995.175,307.617,830.566,-1000.0,314.453
1742206995.179,-61.035,-672.852,-1000.0,-4.395
1742206995.183,-66.406,-996.094,-1000.0,-43.457
1742206995.187,275.879,651.855,-1000.0,273.438
1742206995.19,823.73,-927.734,-1000.0,805.664
1742206995.194,626.953,896.973,-1000.0,589.844
1742206995.198,14.648,986.816,-1000.0,42.48
1742206995.202,69.824,985.84,-1000.0,124.023
1742206995.206,582.52,914.551,-1000.0,599.121
1742206995.163,29.297,-542.969,-1000.0,41.504
1742206995.167,930.664,734.863,-1000.0,927.246
1742206995.171,610.352,-917.48,-1000.0,581.055
1742206995.175,307.617,830.566,-1000.0,314.453
1742206995.179,-61.035,-672.852,-1000.0,-4.395
1742206995.183,-66.406,-996.094,-1000.0,-43.457
1742206995.187,275.879,651.855,-1000.0,273.438
1742206995.19,823.73,-927.734,-1000.0,805.664
1742206995.194,626.953,896.973,-1000.0,589.844
1742206995.198,14.648,986.816,-1000.0,42.48
1742206995.202,69.824,985.84,-1000.0,124.023
1742206995.206,582.52,914.551,-1000.0,599.121
1742206995.163,29.297,-542.969,-1000.0,41.504
1742206995.167,930.664,734.863,-1000.0,927.246
1742206995.171,610.352,-917.48,-1000.0,581.055
1742206995.175,307.617,830.566,-1000.0,314.453
1742206995.179,-61.035,-672.852,-1000.0,-4.395
1742206995.183,-66.406,-996.094,-1000.0,-43.457
1742206995.187,275.879,651.855,-1000.0,273.438
1742206995.19,823.73,-927.734,-1000.0,805.664
1742206995.194,626.953,896.973,-1000.0,589.844
1742206995.198,14.648,986.816,-1000.0,42.48
1742206995.202,69.824,985.84,-1000.0,124.023
1742206995.206,582.52,914.551,-1000.0,599.121
1742206995.221,588.379,-976.562,-1000.0,586.914
1742206995.225,175.781,854.004,-1000.0,174.805
1742206995.229,61.035,-536.621,-1000.0,102.539
1742206995.233,70.312,-1000.0,-1000.0,132.812
1742206995.237,792.969,-921.387,-1000.0,804.688
1742206995.241,821.777,471.191,-995.605,791.992
1742206995.245,182.129,-918.457,-1000.0,214.844
1742206995.248,-113.281,-509.766,-996.582,14.648
1742206995.252,308.105,-1000.0,-873.047,420.41
1742206995.256,933.594,-927.734,-940.43,949.219
1742206995.26,987.793,-1000.0,-995.605,984.863
1742206995.264,868.164,-1000.0,-1000.0,841.797
1742206995.266,-155.762,-1000.0,-886.719,-145.508
1742206995.27,-335.938,-1000.0,-296.875,-250.488
1742206995.274,404.785,-1000.0,-273.926,414.551
1742206995.278,227.539,-1000.0,-679.199,241.699
1742206995.282,-87.891,-1000.0,-935.059,-28.32
1742206995.286,-540.039,-948.242,-522.461,-469.238
1742206995.29,-627.441,-1000.0,238.77,-556.641
1742206995.293,92.773,-932.617,59.57,89.355
1742206995.297,390.625,508.301,-759.277,353.027
1742206995.301,216.309,-962.891,-1000.0,236.816
1742206995.305,-156.738,974.609,-978.027,-108.887
1742206995.309,-574.707,699.707,-545.898,-491.699
1742206995.266,-155.762,-1000.0,-886.719,-145.508
1742206995.27,-335.938,-1000.0,-296.875,-250.488
1742206995.274,404.785,-1000.0,-273.926,414.551
1742206995.278,227.539,-1000.0,-679.199,241.699
1742206995.282,-87.891,-1000.0,-935.059,-28.32
1742206995.286,-540.039,-948.242,-522.461,-469.238
1742206995.29,-627.441,-1000.0,238.77,-556.641
1742206995.293,92.773,-932.617,59.57,89.355
1742206995.297,390.625,508.301,-759.277,353.027
1742206995.301,216.309,-962.891,-1000.0,236.816
1742206995.305,-156.738,974.609,-978.027,-108.887
1742206995.309,-574.707,699.707,-545.898,-491.699
1742206995.266,-155.762,-1000.0,-886.719,-145.508
1742206995.27,-335.938,-1000.0,-296.875,-250.488
1742206995.274,404.785,-1000.0,-273.926,414.551
1742206995.278,227.539,-1000.0,-679.199,241.699
1742206995.282,-87.891,-1000.0,-935.059,-28.32
1742206995.286,-540.039,-948.242,-522.461,-469.238
1742206995.29,-627.441,-1000.0,238.77,-556.641
1742206995.293,92.773,-932.617,59.57,89.355
1742206995.297,390.625,508.301,-759.277,353.027
1742206995.301,216.309,-962.891,-1000.0,236.816
1742206995.305,-156.738,974.609,-978.027,-108.887
1742206995.309,-574.707,699.707,-545.898,-491.699
1742206995.311,123.047,-887.207,-276.855,219.727
1742206995.315,743.164,-449.707,-769.531,764.16
1742206995.319,19.043,972.168,-1000.0,0.977
1742206995.323,-884.766,-920.41,-905.273,-877.441
1742206995.327,-947.266,-11.23,-432.617,-871.582
1742206995.331,-294.434,-1000.0,-37.109,-233.887
1742206995.335,299.316,91.309,-429.688,273.438
1742206995.338,-212.402,-839.355,-975.098,-211.426
1742206995.342,-541.992,-263.184,-957.031,-483.398
1742206995.346,-370.117,-1000.0,-374.512,-333.984
1742206995.35,-437.5,-984.863,93.75,-427.734
1742206995.354,104.98,-923.828,-148.438,125.0
1742206995.311,123.047,-887.207,-276.855,219.727
1742206995.315,743.164,-449.707,-769.531,764.16
1742206995.319,19.043,972.168,-1000.0,0.977
1742206995.323,-884.766,-920.41,-905.273,-877.441
1742206995.327,-947.266,-11.23,-432.617,-871.582
1742206995.331,-294.434,-1000.0,-37.109,-233.887
1742206995.335,299.316,91.309,-429.688,273.438
1742206995.338,-212.402,-839.355,-975.098,-211.426
1742206995.342,-541.992,-263.184,-957.031,-483.398
1742206995.346,-370.117,-1000.0,-374.512,-333.984
1742206995.35,-437.5,-984.863,93.75,-427.734
1742206995.354,104.98,-923.828,-148.438,125.0
1742206995.356,30.273,654.785,-663.086,47.852
1742206995.36,-760.742,944.336,-604.004,-723.145
1742206995.364,-608.887,-631.348,92.773,-561.035
1742206995.368,-358.887,-1000.0,714.355,-327.148
1742206995.372,118.652,-816.406,579.59,126.465
1742206995.376,-296.875,557.617,-27.832,-314.941
1742206995.38,-1000.0,-984.863,17.578,-1000.0
1742206995.383,-989.746,-950.684,473.633,-975.586
1742206995.387,-980.469,426.27,832.031,-973.633
1742206995.391,-151.855,-862.305,791.016,-163.574
1742206995.395,197.266,367.188,49.805,144.043
1742206995.399,-470.703,-847.168,-237.793,-493.164
1742206995.356,30.273,654.785,-663.086,47.852
1742206995.36,-760.742,944.336,-604.004,-723.145
1742206995.364,-608.887,-631.348,92.773,-561.035
1742206995.368,-358.887,-1000.0,714.355,-327.148
1742206995.372,118.652,-816.406,579.59,126.465
1742206995.376,-296.875,557.617,-27.832,-314.941
1742206995.38,-1000.0,-984.863,17.578,-1000.0
1742206995.383,-989.746,-950.684,473.633,-975.586
1742206995.387,-980.469,426.27,832.031,-973.633
1742206995.391,-151.855,-862.305,791.016,-163.574
1742206995.395,197.266,367.188,49.805,144.043
1742206995.399,-470.703,-847.168,-237.793,-493.164
1742206995.866,593.262,-379.883,995.117,546.387
1742206995.87,373.047,-949.707,775.391,320.312
1742206995.874,469.727,958.984,524.902,427.734
1742206995.878,-238.77,938.965,846.68,-283.691
1742206995.882,-653.32,980.469,988.77,-666.992
1742206995.886,-393.066,986.816,979.98,-387.207
1742206995.89,150.391,915.527,726.074,152.344
1742206995.893,221.191,-979.98,110.352,214.355
1742206995.897,-89.355,860.352,281.738,-103.027
1742206995.901,-77.637,-502.93,875.977,-91.797
1742206995.905,130.371,-1000.0,990.234,131.348
1742206995.909,687.5,-748.047,638.184,651.367
1742206996.241,-551.27,780.273,-10.254,-579.59
1742206996.245,-50.781,-706.543,414.062,-109.375
1742206996.249,528.809,-1000.0,8.301,478.516
1742206996.253,-93.75,625.488,-522.949,-145.996
1742206996.257,-666.016,-924.316,-471.191,-705.566
1742206996.261,-911.133,896.484,74.219,-921.875
1742206996.265,-1000.0,995.117,576.172,-996.094
1742206996.268,-541.504,942.383,274.414,-553.711
1742206996.272,533.691,960.938,-507.812,483.398
1742206996.276,475.586,-975.586,-684.57,427.734
1742206996.28,-36.621,-228.516,-43.457,-43.945
1742206996.284,285.645,-1000.0,641.113,281.738
1742206995.914,646.484,815.43,152.344,574.219
1742206995.918,-178.711,564.941,127.93,-205.078
1742206995.922,-189.941,-901.367,687.012,-191.895
1742206995.926,274.902,-1000.0,936.523,249.512
1742206995.93,734.863,-583.008,331.055,697.754
1742206995.934,524.414,800.781,-337.891,477.051
1742206995.938,325.195,-964.355,-365.723,286.133
1742206995.941,254.395,911.133,-59.57,222.168
1742206995.945,15.137,987.305,102.539,-2.441
1742206995.949,666.504,979.98,-407.227,663.574
1742206995.953,994.629,937.012,-960.449,993.652
1742206995.957,630.371,970.703,-1000.0,625.0
1742206995.914,646.484,815.43,152.344,574.219
1742206995.918,-178.711,564.941,127.93,-205.078
1742206995.922,-189.941,-901.367,687.012,-191.895
1742206995.926,274.902,-1000.0,936.523,249.512
1742206995.93,734.863,-583.008,331.055,697.754
1742206995.934,524.414,800.781,-337.891,477.051
1742206995.938,325.195,-964.355,-365.723,286.133
1742206995.941,254.395,911.133,-59.57,222.168
1742206995.945,15.137,987.305,102.539,-2.441
1742206995.949,666.504,979.98,-407.227,663.574
1742206995.953,994.629,937.012,-960.449,993.652
1742206995.957,630.371,970.703,-1000.0,625.0
1742206995.914,646.484,815.43,152.344,574.219
1742206995.918,-178.711,564.941,127.93,-205.078
1742206995.922,-189.941,-901.367,687.012,-191.895
1742206995.926,274.902,-1000.0,936.523,249.512
1742206995.93,734.863,-583.008,331.055,697.754
1742206995.934,524.414,800.781,-337.891,477.051
1742206995.938,325.195,-964.355,-365.723,286.133
1742206995.941,254.395,911.133,-59.57,222.168
1742206995.945,15.137,987.305,102.539,-2.441
1742206995.949,666.504,979.98,-407.227,663.574
1742206995.953,994.629,937.012,-960.449,993.652
1742206995.957,630.371,970.703,-1000.0,625.0
1742206995.971,332.52,988.281,-874.512,336.914
1742206995.975,389.16,-241.211,-687.012,430.176
1742206995.979,936.035,-1000.0,-897.949,957.031
1742206995.983,934.082,-614.258,-1000.0,907.715
1742206995.987,399.414,747.07,-986.328,383.789
1742206995.991,-18.555,-952.637,-1000.0,-35.645
1742206995.995,69.336,917.969,-1000.0,38.574
1742206995.998,799.316,953.125,-1000.0,797.363
1742206996.002,-958.008,968.75,-1000.0,-955.566
1742206996.006,899.902,-987.793,-1000.0,896.484
1742206996.01,773.438,-299.316,-1000.0,773.926
1742206996.014,864.258,-1000.0,-1000.0,861.816
1742206995.971,332.52,988.281,-874.512,336.914
1742206995.975,389.16,-241.211,-687.012,430.176
1742206995.979,936.035,-1000.0,-897.949,957.031
1742206995.983,934.082,-614.258,-1000.0,907.715
1742206995.987,399.414,747.07,-986.328,383.789
1742206995.991,-18.555,-952.637,-1000.0,-35.645
1742206995.995,69.336,917.969,-1000.0,38.574
1742206995.998,799.316,953.125,-1000.0,797.363
1742206996.002,-958.008,968.75,-1000.0,-955.566
1742206996.006,899.902,-987.793,-1000.0,896.484
1742206996.01,773.438,-299.316,-1000.0,773.926
1742206996.014,864.258,-1000.0,-1000.0,861.816
1742206995.971,332.52,988.281,-874.512,336.914
1742206995.975,389.16,-241.211,-687.012,430.176
1742206995.979,936.035,-1000.0,-897.949,957.031
1742206995.983,934.082,-614.258,-1000.0,907.715
1742206995.987,399.414,747.07,-986.328,383.789
1742206995.991,-18.555,-952.637,-1000.0,-35.645
1742206995.995,69.336,917.969,-1000.0,38.574
1742206995.998,799.316,953.125,-1000.0,797.363
1742206996.002,-958.008,968.75,-1000.0,-955.566
1742206996.006,899.902,-987.793,-1000.0,896.484
1742206996.01,773.438,-299.316,-1000.0,773.926
1742206996.014,864.258,-1000.0,-1000.0,861.816
1742206996.016,962.402,-933.105,-1000.0,962.402
1742206996.02,955.566,-1000.0,-1000.0,957.52
1742206996.024,961.426,-1000.0,-1000.0,961.914
1742206996.028,795.41,-1000.0,-1000.0,797.363
1742206996.032,143.555,-937.5,-1000.0,176.758
1742206996.036,-128.906,-1000.0,-1000.0,-53.223
1742206996.04,491.699,-887.207,-1000.0,525.879
1742206996.043,286.133,741.211,-1000.0,265.137
1742206996.047,-226.562,770.508,-1000.0,-213.379
1742206996.051,-146.484,-861.816,-1000.0,-72.266
1742206996.055,292.48,-1000.0,-1000.0,337.402
1742206996.059,714.355,-936.035,-1000.0,737.793
1742206996.016,962.402,-933.105,-1000.0,962.402
1742206996.02,955.566,-1000.0,-1000.0,957.52
1742206996.024,961.426,-1000.0,-1000.0,961.914
1742206996.028,795.41,-1000.0,-1000.0,797.363
1742206996.032,143.555,-937.5,-1000.0,176.758
1742206996.036,-128.906,-1000.0,-1000.0,-53.223
1742206996.04,491.699,-887.207,-1000.0,525.879
1742206996.043,286.133,741.211,-1000.0,265.137
1742206996.047,-226.562,770.508,-1000.0,-213.379
1742206996.051,-146.484,-861.816,-1000.0,-72.266
1742206996.055,292.48,-1000.0,-1000.0,337.402
1742206996.059,714.355,-936.035,-1000.0,737.793
1742206996.016,962.402,-933.105,-1000.0,962.402
1742206996.02,955.566,-1000.0,-1000.0,957.52
1742206996.024,961.426,-1000.0,-1000.0,961.914
1742206996.028,795.41,-1000.0,-1000.0,797.363
1742206996.032,143.555,-937.5,-1000.0,176.758
1742206996.036,-128.906,-1000.0,-1000.0,-53.223
1742206996.04,491.699,-887.207,-1000.0,525.879
1742206996.043,286.133,741.211,-1000.0,265.137
1742206996.047,-226.562,770.508,-1000.0,-213.379
1742206996.051,-146.484,-861.816,-1000.0,-72.266
1742206996.055,292.48,-1000.0,-1000.0,337.402
1742206996.059,714.355,-936.035,-1000.0,737.793
1742206996.061,317.383,-1000.0,-998.535,371.582
1742206996.065,29.785,-941.406,-1000.0,69.824
1742206996.069,-337.891,-1000.0,-991.211,-283.691
1742206996.073,-164.062,-876.465,-970.215,-117.676
1742206996.077,311.523,602.051,-997.559,294.434
1742206996.081,-222.168,-971.68,-1000.0,-222.168
1742206996.085,-442.383,957.52,-999.023,-424.805
1742206996.088,-283.203,849.121,-1000.0,-271.973
1742206996.092,-370.605,-626.465,-1000.0,-312.5
1742206996.096,379.883,-1000.0,-1000.0,392.578
1742206996.1,659.668,-939.453,-992.188,648.438
1742206996.104,241.699,-972.168,-1000.0,243.164
1742206996.061,317.383,-1000.0,-998.535,371.582
1742206996.065,29.785,-941.406,-1000.0,69.824
1742206996.069,-337.891,-1000.0,-991.211,-283.691
1742206996.073,-164.062,-876.465,-970.215,-117.676
1742206996.077,311.523,602.051,-997.559,294.434
1742206996.081,-222.168,-971.68,-1000.0,-222.168
1742206996.085,-442.383,957.52,-999.023,-424.805
1742206996.088,-283.203,849.121,-1000.0,-271.973
1742206996.092,-370.605,-626.465,-1000.0,-312.5
1742206996.096,379.883,-1000.0,-1000.0,392.578
1742206996.1,659.668,-939.453,-992.188,648.438
1742206996.104,241.699,-972.168,-1000.0,243.164
1742206996.108,-357.91,-1000.0,-977.051,-336.914
1742206996.112,-238.281,-965.332,-844.238,-200.195
1742206996.116,621.582,333.008,-953.125,611.328
1742206996.12,637.207,-796.875,-1000.0,621.094
1742206996.124,-261.719,579.59,-1000.0,-222.168
1742206996.128,-896.973,-745.117,-834.473,-838.379
1742206996.132,-944.824,-1000.0,-436.035,-923.34
1742206996.135,-185.547,-917.969,-760.254,-182.129
1742206996.139,373.535,371.094,-1000.0,327.637
1742206996.143,-143.555,-814.941,-997.07,-185.547
1742206996.147,-712.402,9.277,-981.445,-693.359
1742206996.151,-650.879,-1000.0,-556.641,-619.629
1742206996.108,-357.91,-1000.0,-977.051,-336.914
1742206996.112,-238.281,-965.332,-844.238,-200.195
1742206996.116,621.582,333.008,-953.125,611.328
1742206996.12,637.207,-796.875,-1000.0,621.094
1742206996.124,-261.719,579.59,-1000.0,-222.168
1742206996.128,-896.973,-745.117,-834.473,-838.379
1742206996.132,-944.824,-1000.0,-436.035,-923.34
1742206996.135,-185.547,-917.969,-760.254,-182.129
1742206996.139,373.535,371.094,-1000.0,327.637
1742206996.143,-143.555,-814.941,-997.07,-185.547
1742206996.147,-712.402,9.277,-981.445,-693.359
1742206996.151,-650.879,-1000.0,-556.641,-619.629
1742206996.108,-357.91,-1000.0,-977.051,-336.914
1742206996.112,-238.281,-965.332,-844.238,-200.195
1742206996.116,621.582,333.008,-953.125,611.328
1742206996.12,637.207,-796.875,-1000.0,621.094
1742206996.124,-261.719,579.59,-1000.0,-222.168
1742206996.128,-896.973,-745.117,-834.473,-838.379
1742206996.132,-944.824,-1000.0,-436.035,-923.34
1742206996.135,-185.547,-917.969,-760.254,-182.129
1742206996.139,373.535,371.094,-1000.0,327.637
1742206996.143,-143.555,-814.941,-997.07,-185.547
1742206996.147,-712.402,9.277,-981.445,-693.359
1742206996.151,-650.879,-1000.0,-556.641,-619.629
1742206996.166,1.953,-853.516,-635.742,-2.93
1742206996.17,584.961,542.969,-994.629,527.832
1742206996.174,69.824,-924.316,-1000.0,21.973
1742206996.178,-943.848,974.609,-905.273,-941.406
1742206996.182,-640.137,-389.648,-502.441,-624.023
1742206996.186,-21.973,-989.258,-549.805,-27.832
1742206996.19,-399.902,596.68,-928.711,-401.367
1742206996.193,-503.906,-829.102,-1000.0,-483.398
1742206996.197,-620.117,587.891,-967.285,-604.492
1742206996.201,-694.824,-704.102,-460.938,-668.945
1742206996.205,-54.688,-1000.0,-279.785,-57.129
1742206996.209,527.832,-422.363,-775.879,501.465
1742206996.197,264.16,-989.258,-1000.0,234.863
1742206996.201,-530.762,618.652,-837.402,-542.969
1742206996.205,-846.68,-850.098,-160.156,-850.098
1742206996.209,-259.766,-1000.0,175.293,-267.578
1742206996.213,293.945,-7.812,-448.73,257.324
1742206996.217,-429.688,982.91,-954.59,-448.73
1742206996.221,-1000.0,-971.191,-662.109,-995.117
1742206996.224,-943.359,177.246,-93.75,-938.477
1742206996.228,-258.789,-1000.0,220.703,-255.859
1742206996.232,251.953,-840.82,-225.586,227.539
1742206996.236,-329.102,554.688,-868.164,-350.586
1742206996.24,-567.383,-866.211,-684.082,-562.5
1742206996.197,264.16,-989.258,-1000.0,234.863
1742206996.201,-530.762,618.652,-837.402,-542.969
1742206996.205,-846.68,-850.098,-160.156,-850.098
1742206996.209,-259.766,-1000.0,175.293,-267.578
1742206996.213,293.945,-7.812,-448.73,257.324
1742206996.217,-429.688,982.91,-954.59,-448.73
1742206996.221,-1000.0,-971.191,-662.109,-995.117
1742206996.224,-943.359,177.246,-93.75,-938.477
1742206996.228,-258.789,-1000.0,220.703,-255.859
1742206996.232,251.953,-840.82,-225.586,227.539
1742206996.236,-329.102,554.688,-868.164,-350.586
1742206996.24,-567.383,-866.211,-684.082,-562.5
1742206996.287,483.398,-941.406,494.629,457.031
1742206996.291,160.156,-1000.0,-164.551,164.062
1742206996.295,-137.695,-1000.0,-358.887,-105.469
1742206996.299,-596.68,-985.84,172.363,-586.914
1742206996.303,-840.332,-965.82,861.816,-844.727
1742206996.307,-638.184,-1000.0,853.516,-630.859
1742206996.311,-208.984,-21.484,201.172,-233.887
1742206996.314,-280.762,-945.312,-252.441,-333.984
1742206996.318,-952.148,937.5,180.664,-962.402
1742206996.322,-1000.0,956.543,796.875,-1000.0
1742206996.326,-488.281,979.98,610.352,-481.934
1742206996.33,423.828,958.008,-152.344,372.07
1742206996.856,953.613,-970.703,-1000.0,956.543
1742206996.86,-997.07,-983.398,-1000.0,-999.512
1742206996.864,869.629,-1000.0,-1000.0,867.188
1742206996.868,413.086,-938.477,-1000.0,457.52
1742206996.872,440.918,-1000.0,-1000.0,500.977
1742206996.876,370.117,-883.301,-1000.0,400.391
1742206996.88,-168.945,676.27,-1000.0,-140.137
1742206996.883,-511.719,995.117,-1000.0,-471.68
1742206996.887,-400.391,-570.312,-1000.0,-366.211
1742206996.891,166.016,-1000.0,-1000.0,159.18
1742206996.895,866.699,-933.594,-1000.0,857.422
1742206996.899,910.645,216.797,-1000.0,900.391
1742206996.376,514.648,923.34,-636.23,439.941
1742206996.38,-122.559,-896.973,-391.113,-173.34
1742206996.384,-367.188,10.254,170.41,-398.926
1742206996.388,103.027,-1000.0,349.121,81.055
1742206996.392,448.73,388.672,-369.629,419.434
1742206996.396,181.152,-941.406,-993.652,177.246
1742206996.4,-113.77,-994.141,-839.844,-112.793
1742206996.403,-231.934,464.355,-410.156,-238.281
1742206996.407,501.953,-917.48,-308.594,493.652
1742206996.411,-968.262,-1000.0,-806.641,-969.238
1742206996.415,943.359,-956.543,-1000.0,939.941
1742206996.419,390.137,-997.07,-970.703,386.719
1742206996.376,514.648,923.34,-636.23,439.941
1742206996.38,-122.559,-896.973,-391.113,-173.34
1742206996.384,-367.188,10.254,170.41,-398.926
1742206996.388,103.027,-1000.0,349.121,81.055
1742206996.392,448.73,388.672,-369.629,419.434
1742206996.396,181.152,-941.406,-993.652,177.246
1742206996.4,-113.77,-994.141,-839.844,-112.793
1742206996.403,-231.934,464.355,-410.156,-238.281
1742206996.407,501.953,-917.48,-308.594,493.652
1742206996.411,-968.262,-1000.0,-806.641,-969.238
1742206996.415,943.359,-956.543,-1000.0,939.941
1742206996.419,390.137,-997.07,-970.703,386.719
1742206996.376,514.648,923.34,-636.23,439.941
1742206996.38,-122.559,-896.973,-391.113,-173.34
1742206996.384,-367.188,10.254,170.41,-398.926
1742206996.388,103.027,-1000.0,349.121,81.055
1742206996.392,448.73,388.672,-369.629,419.434
1742206996.396,181.152,-941.406,-993.652,177.246
1742206996.4,-113.77,-994.141,-839.844,-112.793
1742206996.403,-231.934,464.355,-410.156,-238.281
1742206996.407,501.953,-917.48,-308.594,493.652
1742206996.411,-968.262,-1000.0,-806.641,-969.238
1742206996.415,943.359,-956.543,-1000.0,939.941
1742206996.419,390.137,-997.07,-970.703,386.719
1742206996.382,-368.164,-970.703,-518.555,-336.914
1742206996.386,66.406,-1000.0,-204.102,72.754
1742206996.39,833.984,-55.664,-718.262,788.574
1742206996.394,446.289,-868.164,-1000.0,420.898
1742206996.398,-302.246,720.215,-996.094,-273.926
1742206996.402,-611.816,-654.297,-434.57,-576.172
1742206996.406,-396.973,-1000.0,206.543,-383.789
1742206996.409,516.113,-877.93,-295.898,494.141
1742206996.413,145.996,609.863,-966.309,112.305
1742206996.417,-557.617,958.496,-977.539,-556.641
1742206996.421,-361.328,-643.555,-453.613,-342.773
1742206996.425,-417.48,-1000.0,160.645,-410.156
1742206996.382,-368.164,-970.703,-518.555,-336.914
1742206996.386,66.406,-1000.0,-204.102,72.754
1742206996.39,833.984,-55.664,-718.262,788.574
1742206996.394,446.289,-868.164,-1000.0,420.898
1742206996.398,-302.246,720.215,-996.094,-273.926
1742206996.402,-611.816,-654.297,-434.57,-576.172
1742206996.406,-396.973,-1000.0,206.543,-383.789
1742206996.409,516.113,-877.93,-295.898,494.141
1742206996.413,145.996,609.863,-966.309,112.305
1742206996.417,-557.617,958.496,-977.539,-556.641
1742206996.421,-361.328,-643.555,-453.613,-342.773
1742206996.425,-417.48,-1000.0,160.645,-410.156
1742206996.382,-368.164,-970.703,-518.555,-336.914
1742206996.386,66.406,-1000.0,-204.102,72.754
1742206996.39,833.984,-55.664,-718.262,788.574
1742206996.394,446.289,-868.164,-1000.0,420.898
1742206996.398,-302.246,720.215,-996.094,-273.926
1742206996.402,-611.816,-654.297,-434.57,-576.172
1742206996.406,-396.973,-1000.0,206.543,-383.789
1742206996.409,516.113,-877.93,-295.898,494.141
1742206996.413,145.996,609.863,-966.309,112.305
1742206996.417,-557.617,958.496,-977.539,-556.641
1742206996.421,-361.328,-643.555,-453.613,-342.773
1742206996.425,-417.48,-1000.0,160.645,-410.156
1742206996.451,83.008,-919.922,-35.645,59.57
1742206996.455,170.898,355.957,-771.973,131.836
1742206996.459,-840.82,-894.531,-976.074,-848.633
1742206996.463,-1000.0,900.391,-337.402,-1000.0
1742206996.467,-1000.0,979.98,186.035,-992.676
1742206996.471,-782.227,987.305,54.199,-780.762
1742206996.475,60.059,914.551,-555.176,27.832
1742206996.478,57.129,-990.723,-920.41,7.812
1742206996.482,-194.336,916.016,-455.078,-234.375
1742206996.486,-308.594,-604.98,231.445,-302.734
1742206996.49,132.324,-1000.0,351.074,112.793
1742206996.494,629.883,454.59,-275.391,540.039
1742206996.451,83.008,-919.922,-35.645,59.57
1742206996.455,170.898,355.957,-771.973,131.836
1742206996.459,-840.82,-894.531,-976.074,-848.633
1742206996.463,-1000.0,900.391,-337.402,-1000.0
1742206996.467,-1000.0,979.98,186.035,-992.676
1742206996.471,-782.227,987.305,54.199,-780.762
1742206996.475,60.059,914.551,-555.176,27.832
1742206996.478,57.129,-990.723,-920.41,7.812
1742206996.482,-194.336,916.016,-455.078,-234.375
1742206996.486,-308.594,-604.98,231.445,-302.734
1742206996.49,132.324,-1000.0,351.074,112.793
1742206996.494,629.883,454.59,-275.391,540.039
1742206996.451,83.008,-919.922,-35.645,59.57
1742206996.455,170.898,355.957,-771.973,131.836
1742206996.459,-840.82,-894.531,-976.074,-848.633
1742206996.463,-1000.0,900.391,-337.402,-1000.0
1742206996.467,-1000.0,979.98,186.035,-992.676
1742206996.471,-782.227,987.305,54.199,-780.762
1742206996.475,60.059,914.551,-555.176,27.832
1742206996.478,57.129,-990.723,-920.41,7.812
1742206996.482,-194.336,916.016,-455.078,-234.375
1742206996.486,-308.594,-604.98,231.445,-302.734
1742206996.49,132.324,-1000.0,351.074,112.793
1742206996.494,629.883,454.59,-275.391,540.039
1742206996.482,160.645,-918.457,-635.742,91.797
1742206996.486,-288.574,943.848,-137.695,-335.449
1742206996.49,-79.102,-232.91,555.664,-140.625
1742206996.494,630.371,-1000.0,732.422,574.219
1742206996.498,893.066,-940.918,192.383,845.703
1742206996.502,228.516,-1000.0,-103.027,168.457
1742206996.506,-539.062,-1000.0,460.449,-590.82
1742206996.509,-681.641,-931.641,939.941,-751.465
1742206996.513,-29.297,-1000.0,981.934,-123.535
1742206996.517,526.855,-665.527,572.266,417.969
1742206996.521,-148.926,911.621,29.785,-237.305
1742206996.525,-676.27,799.316,291.992,-738.281
1742206996.482,160.645,-918.457,-635.742,91.797
1742206996.486,-288.574,943.848,-137.695,-335.449
1742206996.49,-79.102,-232.91,555.664,-140.625
1742206996.494,630.371,-1000.0,732.422,574.219
1742206996.498,893.066,-940.918,192.383,845.703
1742206996.502,228.516,-1000.0,-103.027,168.457
1742206996.506,-539.062,-1000.0,460.449,-590.82
1742206996.509,-681.641,-931.641,939.941,-751.465
1742206996.513,-29.297,-1000.0,981.934,-123.535
1742206996.517,526.855,-665.527,572.266,417.969
1742206996.521,-148.926,911.621,29.785,-237.305
1742206996.525,-676.27,799.316,291.992,-738.281
1742206996.482,160.645,-918.457,-635.742,91.797
1742206996.486,-288.574,943.848,-137.695,-335.449
1742206996.49,-79.102,-232.91,555.664,-140.625
1742206996.494,630.371,-1000.0,732.422,574.219
1742206996.498,893.066,-940.918,192.383,845.703
1742206996.502,228.516,-1000.0,-103.027,168.457
1742206996.506,-539.062,-1000.0,460.449,-590.82
1742206996.509,-681.641,-931.641,939.941,-751.465
1742206996.513,-29.297,-1000.0,981.934,-123.535
1742206996.517,526.855,-665.527,572.266,417.969
1742206996.521,-148.926,911.621,29.785,-237.305
1742206996.525,-676.27,799.316,291.992,-738.281
1742206996.526,-710.938,-795.41,876.953,-791.016
1742206996.53,-14.648,-1000.0,-979.98,-118.164
1742206996.534,589.355,207.52,712.891,432.129
1742206996.538,-346.191,-938.477,347.656,-463.379
1742206996.542,-672.363,921.875,608.887,-715.82
1742206996.546,-789.551,966.797,941.895,-828.125
1742206996.55,-776.855,988.77,991.211,-789.551
1742206996.553,390.625,901.367,898.438,306.641
1742206996.557,506.836,-923.828,536.621,410.156
1742206996.561,-110.352,586.914,583.496,-179.199
1742206996.565,-312.5,-785.645,926.758,-356.934
1742206996.569,-388.184,-1000.0,983.398,-422.852
1742206996.526,-710.938,-795.41,876.953,-791.016
1742206996.53,-14.648,-1000.0,-979.98,-118.164
1742206996.534,589.355,207.52,712.891,432.129
1742206996.538,-346.191,-938.477,347.656,-463.379
1742206996.542,-672.363,921.875,608.887,-715.82
1742206996.546,-789.551,966.797,941.895,-828.125
1742206996.55,-776.855,988.77,991.211,-789.551
1742206996.553,390.625,901.367,898.438,306.641
1742206996.557,506.836,-923.828,536.621,410.156
1742206996.561,-110.352,586.914,583.496,-179.199
1742206996.565,-312.5,-785.645,926.758,-356.934
1742206996.569,-388.184,-1000.0,983.398,-422.852
1742206996.526,-710.938,-795.41,876.953,-791.016
1742206996.53,-14.648,-1000.0,-979.98,-118.164
1742206996.534,589.355,207.52,712.891,432.129
1742206996.538,-346.191,-938.477,347.656,-463.379
1742206996.542,-672.363,921.875,608.887,-715.82
1742206996.546,-789.551,966.797,941.895,-828.125
1742206996.55,-776.855,988.77,991.211,-789.551
1742206996.553,390.625,901.367,898.438,306.641
1742206996.557,506.836,-923.828,536.621,410.156
1742206996.561,-110.352,586.914,583.496,-179.199
1742206996.565,-312.5,-785.645,926.758,-356.934
1742206996.569,-388.184,-1000.0,983.398,-422.852
1742206996.573,171.387,-836.426,968.262,115.723
1742206996.577,426.27,521.973,604.492,293.945
1742206996.581,-111.816,-833.496,465.332,-203.613
1742206996.585,-293.457,16.602,885.254,-333.984
1742206996.589,-92.285,-1000.0,985.84,-79.59
1742206996.593,50.293,-936.035,981.445,122.07
1742206996.597,100.586,539.551,674.316,102.051
1742206996.6,-175.293,-910.645,332.031,-217.773
1742206996.604,-676.27,-375.977,720.215,-650.391
1742206996.608,-342.285,-1000.0,-997.559,-329.59
1742206996.612,251.465,-813.477,943.848,234.863
1742206996.616,132.812,502.441,525.391,114.746
1742206996.573,171.387,-836.426,968.262,115.723
1742206996.577,426.27,521.973,604.492,293.945
1742206996.581,-111.816,-833.496,465.332,-203.613
1742206996.585,-293.457,16.602,885.254,-333.984
1742206996.589,-92.285,-1000.0,985.84,-79.59
1742206996.593,50.293,-936.035,981.445,122.07
1742206996.597,100.586,539.551,674.316,102.051
1742206996.6,-175.293,-910.645,332.031,-217.773
1742206996.604,-676.27,-375.977,720.215,-650.391
1742206996.608,-342.285,-1000.0,-997.559,-329.59
1742206996.612,251.465,-813.477,943.848,234.863
1742206996.616,132.812,502.441,525.391,114.746
1742206997.096,-960.938,971.191,971.68,-968.75
1742206997.1,-526.367,971.191,971.191,-581.055
1742206997.104,106.445,971.191,971.191,21.973
1742206997.108,-242.676,971.191,971.191,-343.262
1742206997.112,-503.906,971.191,971.191,-571.289
1742206997.116,-875.0,971.191,971.191,-884.277
1742206997.12,-724.121,983.398,971.191,-711.426
1742206997.123,338.867,929.199,971.191,258.301
1742206997.127,375.977,987.305,971.191,237.793
1742206997.131,-342.773,965.82,971.191,-402.344
1742206997.135,-141.113,-407.227,971.191,-135.254
1742206997.139,832.031,-1000.0,971.191,831.055
1742206996.573,171.387,-836.426,968.262,115.723
1742206996.577,426.27,521.973,604.492,293.945
1742206996.581,-111.816,-833.496,465.332,-203.613
1742206996.585,-293.457,16.602,885.254,-333.984
1742206996.589,-92.285,-1000.0,985.84,-79.59
1742206996.593,50.293,-936.035,981.445,122.07
1742206996.597,100.586,539.551,674.316,102.051
1742206996.6,-175.293,-910.645,332.031,-217.773
1742206996.604,-676.27,-375.977,720.215,-650.391
1742206996.608,-342.285,-1000.0,-997.559,-329.59
1742206996.612,251.465,-813.477,943.848,234.863
1742206996.616,132.812,502.441,525.391,114.746
1742206996.617,-87.402,-892.09,204.59,-90.332
1742206996.621,-238.77,905.762,630.859,-218.262
1742206996.625,-244.629,-531.738,961.914,-218.262
1742206996.629,70.801,-1000.0,999.512,88.379
1742206996.633,393.066,618.652,712.891,404.785
1742206996.637,96.68,-928.711,444.824,90.82
1742206996.641,-559.57,936.523,821.289,-564.941
1742206996.644,-258.789,-248.535,988.281,-225.098
1742206996.648,581.055,-1000.0,973.145,582.52
1742206996.652,943.848,-938.965,620.605,927.246
1742206996.656,947.266,-1000.0,29.785,951.66
1742206996.66,583.008,-953.125,229.492,597.656
1742206996.617,-87.402,-892.09,204.59,-90.332
1742206996.621,-238.77,905.762,630.859,-218.262
1742206996.625,-244.629,-531.738,961.914,-218.262
1742206996.629,70.801,-1000.0,999.512,88.379
1742206996.633,393.066,618.652,712.891,404.785
1742206996.637,96.68,-928.711,444.824,90.82
1742206996.641,-559.57,936.523,821.289,-564.941
1742206996.644,-258.789,-248.535,988.281,-225.098
1742206996.648,581.055,-1000.0,973.145,582.52
1742206996.652,943.848,-938.965,620.605,927.246
1742206996.656,947.266,-1000.0,29.785,951.66
1742206996.66,583.008,-953.125,229.492,597.656
1742206996.664,88.867,-1000.0,810.547,118.164
1742206996.668,14.16,-958.496,873.047,42.48
1742206996.672,42.48,464.844,250.977,57.617
1742206996.676,295.898,-955.566,-488.281,343.75
1742206996.68,198.73,939.453,-528.809,248.047
1742206996.684,-829.102,926.758,93.262,-750.488
1742206996.688,-517.578,-706.055,406.25,-406.25
1742206996.691,727.539,-684.57,-353.516,773.438
1742206996.695,636.719,854.98,-985.84,673.34
1742206996.699,157.227,-890.625,-1000.0,215.82
1742206996.703,-91.309,393.555,-774.902,-18.555
1742206996.707,347.656,-1000.0,-401.855,428.711
1742206996.664,88.867,-1000.0,810.547,118.164
1742206996.668,14.16,-958.496,873.047,42.48
1742206996.672,42.48,464.844,250.977,57.617
1742206996.676,295.898,-955.566,-488.281,343.75
1742206996.68,198.73,939.453,-528.809,248.047
1742206996.684,-829.102,926.758,93.262,-750.488
1742206996.688,-517.578,-706.055,406.25,-406.25
1742206996.691,727.539,-684.57,-353.516,773.438
1742206996.695,636.719,854.98,-985.84,673.34
1742206996.699,157.227,-890.625,-1000.0,215.82
1742206996.703,-91.309,393.555,-774.902,-18.555
1742206996.707,347.656,-1000.0,-401.855,428.711
1742206997.186,-591.309,-801.758,971.191,-604.98
1742206997.19,-876.953,374.023,971.191,-864.258
1742206997.194,-548.34,-1000.0,971.191,-487.305
1742206997.198,-170.41,-347.168,971.191,-111.328
1742206997.202,-543.457,-991.699,971.191,-519.043
1742206997.206,-975.586,969.238,971.68,-967.285
1742206997.21,-1000.0,934.57,971.68,-1000.0
1742206997.213,-981.445,981.934,971.191,-977.051
1742206997.217,-403.809,971.191,971.191,-416.992
1742206997.221,193.848,971.191,971.191,164.551
1742206997.225,67.871,971.191,971.191,33.691
1742206997.229,-141.602,971.191,971.191,-191.895
1742206996.664,88.867,-1000.0,810.547,118.164
1742206996.668,14.16,-958.496,873.047,42.48
1742206996.672,42.48,464.844,250.977,57.617
1742206996.676,295.898,-955.566,-488.281,343.75
1742206996.68,198.73,939.453,-528.809,248.047
1742206996.684,-829.102,926.758,93.262,-750.488
1742206996.688,-517.578,-706.055,406.25,-406.25
1742206996.691,727.539,-684.57,-353.516,773.438
1742206996.695,636.719,854.98,-985.84,673.34
1742206996.699,157.227,-890.625,-1000.0,215.82
1742206996.703,-91.309,393.555,-774.902,-18.555
1742206996.707,347.656,-1000.0,-401.855,428.711
1742206996.721,941.895,-804.199,-706.543,953.125
1742206996.725,849.121,651.367,-1000.0,852.051
1742206996.729,115.234,-915.527,-1000.0,191.406
1742206996.733,-400.391,845.703,-819.824,-272.949
1742206996.737,-28.809,-636.23,-498.047,63.477
1742206996.741,400.391,-1000.0,-832.52,431.641
1742206996.745,518.066,704.59,-1000.0,511.23
1742206996.748,374.023,-931.152,-997.559,383.301
1742206996.752,31.738,-461.914,-976.074,89.355
1742206996.756,641.113,-1000.0,-741.699,654.785
1742206996.76,-978.516,-929.688,-894.531,-983.398
1742206996.764,940.918,-1000.0,-1000.0,939.453
1742206996.721,941.895,-804.199,-706.543,953.125
1742206996.725,849.121,651.367,-1000.0,852.051
1742206996.729,115.234,-915.527,-1000.0,191.406
1742206996.733,-400.391,845.703,-819.824,-272.949
1742206996.737,-28.809,-636.23,-498.047,63.477
1742206996.741,400.391,-1000.0,-832.52,431.641
1742206996.745,518.066,704.59,-1000.0,511.23
1742206996.748,374.023,-931.152,-997.559,383.301
1742206996.752,31.738,-461.914,-976.074,89.355
1742206996.756,641.113,-1000.0,-741.699,654.785
1742206996.76,-978.516,-929.688,-894.531,-983.398
1742206996.764,940.918,-1000.0,-1000.0,939.453
1742206996.721,941.895,-804.199,-706.543,953.125
1742206996.725,849.121,651.367,-1000.0,852.051
1742206996.729,115.234,-915.527,-1000.0,191.406
1742206996.733,-400.391,845.703,-819.824,-272.949
1742206996.737,-28.809,-636.23,-498.047,63.477
1742206996.741,400.391,-1000.0,-832.52,431.641
1742206996.745,518.066,704.59,-1000.0,511.23
1742206996.748,374.023,-931.152,-997.559,383.301
1742206996.752,31.738,-461.914,-976.074,89.355
1742206996.756,641.113,-1000.0,-741.699,654.785
1742206996.76,-978.516,-929.688,-894.531,-983.398
1742206996.764,940.918,-1000.0,-1000.0,939.453
1742206996.766,775.391,-1000.0,-1000.0,726.562
1742206996.77,197.754,-1000.0,-954.102,165.527
1742206996.774,136.719,-942.871,-569.824,102.539
1742206996.778,803.223,-1000.0,-646.484,755.371
1742206996.782,799.805,-575.684,-973.145,748.047
1742206996.786,-384.277,889.648,-1000.0,-458.496
1742206996.79,-1000.0,957.031,-939.453,-1000.0
1742206996.793,-244.141,-757.812,-537.598,-235.352
1742206996.797,449.707,-536.621,-576.172,384.277
1742206996.801,618.652,-936.035,-958.496,505.371
1742206996.805,390.137,860.84,-1000.0,314.453
1742206996.809,109.863,-660.645,-982.91,103.516
1742206996.766,775.391,-1000.0,-1000.0,726.562
1742206996.77,197.754,-1000.0,-954.102,165.527
1742206996.774,136.719,-942.871,-569.824,102.539
1742206996.778,803.223,-1000.0,-646.484,755.371
1742206996.782,799.805,-575.684,-973.145,748.047
1742206996.786,-384.277,889.648,-1000.0,-458.496
1742206996.79,-1000.0,957.031,-939.453,-1000.0
1742206996.793,-244.141,-757.812,-537.598,-235.352
1742206996.797,449.707,-536.621,-576.172,384.277
1742206996.801,618.652,-936.035,-958.496,505.371
1742206996.805,390.137,860.84,-1000.0,314.453
1742206996.809,109.863,-660.645,-982.91,103.516
1742206996.766,775.391,-1000.0,-1000.0,726.562
1742206996.77,197.754,-1000.0,-954.102,165.527
1742206996.774,136.719,-942.871,-569.824,102.539
1742206996.778,803.223,-1000.0,-646.484,755.371
1742206996.782,799.805,-575.684,-973.145,748.047
1742206996.786,-384.277,889.648,-1000.0,-458.496
1742206996.79,-1000.0,957.031,-939.453,-1000.0
1742206996.793,-244.141,-757.812,-537.598,-235.352
1742206996.797,449.707,-536.621,-576.172,384.277
1742206996.801,618.652,-936.035,-958.496,505.371
1742206996.805,390.137,860.84,-1000.0,314.453
1742206996.809,109.863,-660.645,-982.91,103.516
1742206996.811,-124.512,-1000.0,-666.992,-169.434
1742206996.815,210.449,-1000.0,-687.012,161.133
1742206996.819,770.996,-814.941,-1000.0,749.512
1742206996.823,178.223,669.434,-1000.0,163.086
1742206996.827,44.434,-929.199,-991.699,48.828
1742206996.831,-241.699,900.879,-1000.0,-246.094
1742206996.835,-254.883,992.188,-1000.0,-231.445
1742206996.838,653.32,958.496,-1000.0,653.32
1742206996.842,942.383,934.082,-1000.0,914.062
1742206996.846,644.043,-935.059,-1000.0,583.008
1742206996.85,358.398,21.973,-1000.0,352.051
1742206996.854,625.488,-1000.0,-1000.0,661.621
1742206996.811,-124.512,-1000.0,-666.992,-169.434
1742206996.815,210.449,-1000.0,-687.012,161.133
1742206996.819,770.996,-814.941,-1000.0,749.512
1742206996.823,178.223,669.434,-1000.0,163.086
1742206996.827,44.434,-929.199,-991.699,48.828
1742206996.831,-241.699,900.879,-1000.0,-246.094
1742206996.835,-254.883,992.188,-1000.0,-231.445
1742206996.838,653.32,958.496,-1000.0,653.32
1742206996.842,942.383,934.082,-1000.0,914.062
1742206996.846,644.043,-935.059,-1000.0,583.008
1742206996.85,358.398,21.973,-1000.0,352.051
1742206996.854,625.488,-1000.0,-1000.0,661.621
1742206996.811,-124.512,-1000.0,-666.992,-169.434
1742206996.815,210.449,-1000.0,-687.012,161.133
1742206996.819,770.996,-814.941,-1000.0,749.512
1742206996.823,178.223,669.434,-1000.0,163.086
1742206996.827,44.434,-929.199,-991.699,48.828
1742206996.831,-241.699,900.879,-1000.0,-246.094
1742206996.835,-254.883,992.188,-1000.0,-231.445
1742206996.838,653.32,958.496,-1000.0,653.32
1742206996.842,942.383,934.082,-1000.0,914.062
1742206996.846,644.043,-935.059,-1000.0,583.008
1742206996.85,358.398,21.973,-1000.0,352.051
1742206996.854,625.488,-1000.0,-1000.0,661.621
1742206996.918,341.309,-786.621,-1000.0,315.918
1742206996.922,-166.504,453.125,-1000.0,-210.449
1742206996.926,-399.414,-845.215,-1000.0,-390.137
1742206996.93,75.684,-1000.0,-1000.0,128.418
1742206996.934,891.113,-192.871,-1000.0,857.91
1742206996.938,175.293,-939.453,-1000.0,101.074
1742206996.942,-571.777,798.34,-1000.0,-573.73
1742206996.945,426.758,-679.688,-1000.0,437.5
1742206996.949,-983.398,-1000.0,-1000.0,-991.211
1742206996.953,932.617,-913.574,-1000.0,932.129
1742206996.957,894.531,-989.746,-1000.0,852.539
1742206996.961,275.391,-930.176,-1000.0,229.492
1742206996.961,-89.355,-1000.0,-1000.0,-75.684
1742206996.965,648.926,-665.527,-1000.0,652.832
1742206996.969,684.082,720.703,-1000.0,638.184
1742206996.973,399.414,-918.457,-1000.0,374.512
1742206996.977,349.609,852.539,-1000.0,317.383
1742206996.981,-330.566,-488.281,-1000.0,-294.922
1742206996.985,0.0,-1000.0,-1000.0,62.5
1742206996.988,670.898,-926.27,-1000.0,698.73
1742206996.992,738.281,-1000.0,-1000.0,792.969
1742206996.996,-115.723,-1000.0,-1000.0,-58.594
1742206997.0,-807.617,-1000.0,-1000.0,-733.887
1742206997.004,-211.914,-1000.0,-1000.0,-152.832
1742206996.961,-89.355,-1000.0,-1000.0,-75.684
1742206996.965,648.926,-665.527,-1000.0,652.832
1742206996.969,684.082,720.703,-1000.0,638.184
1742206996.973,399.414,-918.457,-1000.0,374.512
1742206996.977,349.609,852.539,-1000.0,317.383
1742206996.981,-330.566,-488.281,-1000.0,-294.922
1742206996.985,0.0,-1000.0,-1000.0,62.5
1742206996.988,670.898,-926.27,-1000.0,698.73
1742206996.992,738.281,-1000.0,-1000.0,792.969
1742206996.996,-115.723,-1000.0,-1000.0,-58.594
1742206997.0,-807.617,-1000.0,-1000.0,-733.887
1742206997.004,-211.914,-1000.0,-1000.0,-152.832
1742206996.961,-89.355,-1000.0,-1000.0,-75.684
1742206996.965,648.926,-665.527,-1000.0,652.832
1742206996.969,684.082,720.703,-1000.0,638.184
1742206996.973,399.414,-918.457,-1000.0,374.512
1742206996.977,349.609,852.539,-1000.0,317.383
1742206996.981,-330.566,-488.281,-1000.0,-294.922
1742206996.985,0.0,-1000.0,-1000.0,62.5
1742206996.988,670.898,-926.27,-1000.0,698.73
1742206996.992,738.281,-1000.0,-1000.0,792.969
1742206996.996,-115.723,-1000.0,-1000.0,-58.594
1742206997.0,-807.617,-1000.0,-1000.0,-733.887
1742206997.004,-211.914,-1000.0,-1000.0,-152.832
1742206997.006,245.605,-1000.0,-994.629,262.207
1742206997.01,237.305,-1000.0,-991.211,227.051
1742206997.014,-502.93,-1000.0,-1000.0,-506.348
1742206997.018,-1000.0,-1000.0,-683.594,-1000.0
1742206997.022,-933.594,-1000.0,-320.312,-937.5
1742206997.026,-965.332,-1000.0,-449.219,-967.285
1742206997.03,-958.496,-1000.0,-541.504,-961.426
1742206997.033,-942.383,-1000.0,-115.234,-953.613
1742206997.037,-998.047,-1000.0,701.66,-1000.0
1742206997.041,-1000.0,-1000.0,-979.98,-1000.0
1742206997.045,-935.547,-1000.0,899.902,-939.453
1742206997.049,-703.613,-1000.0,802.734,-777.832
1742206997.006,245.605,-1000.0,-994.629,262.207
1742206997.01,237.305,-1000.0,-991.211,227.051
1742206997.014,-502.93,-1000.0,-1000.0,-506.348
1742206997.018,-1000.0,-1000.0,-683.594,-1000.0
1742206997.022,-933.594,-1000.0,-320.312,-937.5
1742206997.026,-965.332,-1000.0,-449.219,-967.285
1742206997.03,-958.496,-1000.0,-541.504,-961.426
1742206997.033,-942.383,-1000.0,-115.234,-953.613
1742206997.037,-998.047,-1000.0,701.66,-1000.0
1742206997.041,-1000.0,-1000.0,-979.98,-1000.0
1742206997.045,-935.547,-1000.0,899.902,-939.453
1742206997.049,-703.613,-1000.0,802.734,-777.832
1742206997.006,245.605,-1000.0,-994.629,262.207
1742206997.01,237.305,-1000.0,-991.211,227.051
1742206997.014,-502.93,-1000.0,-1000.0,-506.348
1742206997.018,-1000.0,-1000.0,-683.594,-1000.0
1742206997.022,-933.594,-1000.0,-320.312,-937.5
1742206997.026,-965.332,-1000.0,-449.219,-967.285
1742206997.03,-958.496,-1000.0,-541.504,-961.426
1742206997.033,-942.383,-1000.0,-115.234,-953.613
1742206997.037,-998.047,-1000.0,701.66,-1000.0
1742206997.041,-1000.0,-1000.0,-979.98,-1000.0
1742206997.045,-935.547,-1000.0,899.902,-939.453
1742206997.049,-703.613,-1000.0,802.734,-777.832
1742206997.037,-890.137,-1000.0,929.688,-935.547
1742206997.041,-1000.0,-938.965,989.258,-1000.0
1742206997.045,-985.352,-1000.0,961.914,-988.77
1742206997.049,-1000.0,-838.867,973.145,-1000.0
1742206997.053,-997.559,624.512,971.68,-998.535
1742206997.057,-1000.0,-920.41,971.191,-1000.0
1742206997.061,-983.398,899.414,971.191,-986.328
1742206997.064,-1000.0,987.793,971.68,-1000.0
1742206997.068,-918.457,971.68,971.68,-922.363
1742206997.072,-563.477,971.191,971.191,-652.344
1742206997.076,-768.555,971.68,971.191,-843.262
1742206997.08,-1000.0,971.68,971.68,-1000.0
1742206997.037,-890.137,-1000.0,929.688,-935.547
1742206997.041,-1000.0,-938.965,989.258,-1000.0
1742206997.045,-985.352,-1000.0,961.914,-988.77
1742206997.049,-1000.0,-838.867,973.145,-1000.0
1742206997.053,-997.559,624.512,971.68,-998.535
1742206997.057,-1000.0,-920.41,971.191,-1000.0
1742206997.061,-983.398,899.414,971.191,-986.328
1742206997.064,-1000.0,987.793,971.68,-1000.0
1742206997.068,-918.457,971.68,971.68,-922.363
1742206997.072,-563.477,971.191,971.191,-652.344
1742206997.076,-768.555,971.68,971.191,-843.262
1742206997.08,-1000.0,971.68,971.68,-1000.0
1742206997.142,-962.402,-954.102,971.191,-960.938
1742206997.146,736.328,-937.5,971.191,703.125
1742206997.15,437.012,-890.625,971.191,388.184
1742206997.154,87.402,-953.125,971.191,65.918
1742206997.158,12.695,-1000.0,971.191,23.926
1742206997.162,64.941,-954.102,971.191,100.098
1742206997.166,-487.305,654.785,971.191,-461.914
1742206997.169,-733.887,329.59,971.191,-680.176
1742206997.173,-594.727,-1000.0,971.191,-552.246
1742206997.177,-481.934,-1000.0,971.191,-442.383
1742206997.181,162.598,-860.352,971.191,184.082
1742206997.185,4.395,484.863,971.191,-15.625
1742206997.142,-962.402,-954.102,971.191,-960.938
1742206997.146,736.328,-937.5,971.191,703.125
1742206997.15,437.012,-890.625,971.191,388.184
1742206997.154,87.402,-953.125,971.191,65.918
1742206997.158,12.695,-1000.0,971.191,23.926
1742206997.162,64.941,-954.102,971.191,100.098
1742206997.166,-487.305,654.785,971.191,-461.914
1742206997.169,-733.887,329.59,971.191,-680.176
1742206997.173,-594.727,-1000.0,971.191,-552.246
1742206997.177,-481.934,-1000.0,971.191,-442.383
1742206997.181,162.598,-860.352,971.191,184.082
1742206997.185,4.395,484.863,971.191,-15.625
1742206997.142,-962.402,-954.102,971.191,-960.938
1742206997.146,736.328,-937.5,971.191,703.125
1742206997.15,437.012,-890.625,971.191,388.184
1742206997.154,87.402,-953.125,971.191,65.918
1742206997.158,12.695,-1000.0,971.191,23.926
1742206997.162,64.941,-954.102,971.191,100.098
1742206997.166,-487.305,654.785,971.191,-461.914
1742206997.169,-733.887,329.59,971.191,-680.176
1742206997.173,-594.727,-1000.0,971.191,-552.246
1742206997.177,-481.934,-1000.0,971.191,-442.383
1742206997.181,162.598,-860.352,971.191,184.082
1742206997.185,4.395,484.863,971.191,-15.625
1742206997.231,-133.789,971.191,971.191,-116.211
1742206997.235,479.492,987.793,971.191,524.902
1742206997.239,976.074,906.738,971.191,966.309
1742206997.243,384.277,-961.426,972.168,339.355
1742206997.247,-288.574,858.887,970.215,-281.25
1742206997.251,-6.348,-771.484,958.984,31.738
1742206997.255,782.227,-411.621,993.164,774.414
1742206997.258,679.688,965.82,803.711,669.434
1742206997.262,387.207,-961.426,486.328,409.18
1742206997.266,266.113,740.723,665.039,274.902
1742206997.27,372.07,-673.34,953.125,392.09
1742206997.274,769.531,-1000.0,986.816,780.762
1742206997.231,-133.789,971.191,971.191,-116.211
1742206997.235,479.492,987.793,971.191,524.902
1742206997.239,976.074,906.738,971.191,966.309
1742206997.243,384.277,-961.426,972.168,339.355
1742206997.247,-288.574,858.887,970.215,-281.25
1742206997.251,-6.348,-771.484,958.984,31.738
1742206997.255,782.227,-411.621,993.164,774.414
1742206997.258,679.688,965.82,803.711,669.434
1742206997.262,387.207,-961.426,486.328,409.18
1742206997.266,266.113,740.723,665.039,274.902
1742206997.27,372.07,-673.34,953.125,392.09
1742206997.274,769.531,-1000.0,986.816,780.762
1742206997.276,917.969,-930.176,590.332,917.969
1742206997.28,-984.375,-1000.0,160.645,-996.094
1742206997.284,775.391,-962.891,502.93,750.0
1742206997.288,-160.645,-1000.0,953.613,-126.953
1742206997.292,354.004,-764.648,885.742,385.254
1742206997.296,746.094,517.09,312.988,726.074
1742206997.3,126.953,-985.352,-276.367,159.668
1742206997.303,-114.746,-992.676,-271.484,17.578
1742206997.307,-226.562,319.824,85.449,-109.863
1742206997.311,265.625,-1000.0,140.625,285.645
1742206997.315,761.719,-699.219,-422.852,850.098
1742206997.319,547.363,889.648,-951.66,626.953
1742206997.276,917.969,-930.176,590.332,917.969
1742206997.28,-984.375,-1000.0,160.645,-996.094
1742206997.284,775.391,-962.891,502.93,750.0
1742206997.288,-160.645,-1000.0,953.613,-126.953
1742206997.292,354.004,-764.648,885.742,385.254
1742206997.296,746.094,517.09,312.988,726.074
1742206997.3,126.953,-985.352,-276.367,159.668
1742206997.303,-114.746,-992.676,-271.484,17.578
1742206997.307,-226.562,319.824,85.449,-109.863
1742206997.311,265.625,-1000.0,140.625,285.645
1742206997.315,761.719,-699.219,-422.852,850.098
1742206997.319,547.363,889.648,-951.66,626.953
1742206997.276,917.969,-930.176,590.332,917.969
1742206997.28,-984.375,-1000.0,160.645,-996.094
1742206997.284,775.391,-962.891,502.93,750.0
1742206997.288,-160.645,-1000.0,953.613,-126.953
1742206997.292,354.004,-764.648,885.742,385.254
1742206997.296,746.094,517.09,312.988,726.074
1742206997.3,126.953,-985.352,-276.367,159.668
1742206997.303,-114.746,-992.676,-271.484,17.578
1742206997.307,-226.562,319.824,85.449,-109.863
1742206997.311,265.625,-1000.0,140.625,285.645
1742206997.315,761.719,-699.219,-422.852,850.098
1742206997.319,547.363,889.648,-951.66,626.953
1742206997.322,-211.426,-106.934,-892.578,-197.266
1742206997.326,105.957,-1000.0,-545.41,134.766
1742206997.33,157.227,-1000.0,-308.105,195.312
1742206997.334,934.57,-609.375,-711.914,943.848
1742206997.338,593.75,465.332,-986.328,588.867
1742206997.342,-950.684,-703.613,-752.93,-948.73
1742206997.346,-1000.0,-1000.0,-876.465,-1000.0
1742206997.349,-946.777,-916.992,-1000.0,-946.777
1742206997.353,-1000.0,-1000.0,-991.211,-1000.0
1742206997.357,-1000.0,-1000.0,-1000.0,-1000.0
1742206997.361,-930.664,-935.059,-1000.0,-930.664
1742206997.365,-1000.0,-1000.0,-1000.0,-1000.0
1742206997.322,-211.426,-106.934,-892.578,-197.266
1742206997.326,105.957,-1000.0,-545.41,134.766
1742206997.33,157.227,-1000.0,-308.105,195.312
1742206997.334,934.57,-609.375,-711.914,943.848
1742206997.338,593.75,465.332,-986.328,588.867
1742206997.342,-950.684,-703.613,-752.93,-948.73
1742206997.346,-1000.0,-1000.0,-876.465,-1000.0
1742206997.349,-946.777,-916.992,-1000.0,-946.777
1742206997.353,-1000.0,-1000.0,-991.211,-1000.0
1742206997.357,-1000.0,-1000.0,-1000.0,-1000.0
1742206997.361,-930.664,-935.059,-1000.0,-930.664
1742206997.365,-1000.0,-1000.0,-1000.0,-1000.0
1742206997.322,-211.426,-106.934,-892.578,-197.266
1742206997.326,105.957,-1000.0,-545.41,134.766
1742206997.33,157.227,-1000.0,-308.105,195.312
1742206997.334,934.57,-609.375,-711.914,943.848
1742206997.338,593.75,465.332,-986.328,588.867
1742206997.342,-950.684,-703.613,-752.93,-948.73
1742206997.346,-1000.0,-1000.0,-876.465,-1000.0
1742206997.349,-946.777,-916.992,-1000.0,-946.777
1742206997.353,-1000.0,-1000.0,-991.211,-1000.0
1742206997.357,-1000.0,-1000.0,-1000.0,-1000.0
1742206997.361,-930.664,-935.059,-1000.0,-930.664
1742206997.365,-1000.0,-1000.0,-1000.0,-1000.0
1742206997.367,-723.633,-799.316,-1000.0,-748.047
1742206997.371,846.68,630.371,-1000.0,832.031
1742206997.375,928.223,-917.969,-998.535,928.711
1742206997.379,-664.551,911.621,-1000.0,-672.363
1742206997.383,-1000.0,-345.703,-993.164,-1000.0
1742206997.387,-925.781,-1000.0,-966.309,-925.781
1742206997.391,-1000.0,-930.664,-992.676,-1000.0
1742206997.394,-1000.0,-1000.0,-1000.0,-1000.0
1742206997.398,-1000.0,-1000.0,-998.535,-1000.0
1742206997.402,-934.57,-927.246,-1000.0,-934.082
1742206997.406,-1000.0,-1000.0,-1000.0,-1000.0
1742206997.41,-400.879,-569.336,-997.07,-410.156
1742206997.367,-723.633,-799.316,-1000.0,-748.047
1742206997.371,846.68,630.371,-1000.0,832.031
1742206997.375,928.223,-917.969,-998.535,928.711
1742206997.379,-664.551,911.621,-1000.0,-672.363
1742206997.383,-1000.0,-345.703,-993.164,-1000.0
1742206997.387,-925.781,-1000.0,-966.309,-925.781
1742206997.391,-1000.0,-930.664,-992.676,-1000.0
1742206997.394,-1000.0,-1000.0,-1000.0,-1000.0
1742206997.398,-1000.0,-1000.0,-998.535,-1000.0
1742206997.402,-934.57,-927.246,-1000.0,-934.082
1742206997.406,-1000.0,-1000.0,-1000.0,-1000.0
1742206997.41,-400.879,-569.336,-997.07,-410.156
1742206997.412,944.824,871.582,-968.262,941.406
1742206997.416,990.723,-979.492,-1000.0,993.164
1742206997.42,928.223,915.527,-485.352,927.734
1742206997.424,982.422,986.816,711.426,983.398
1742206997.428,970.215,971.191,-976.562,971.191
1742206997.432,970.215,971.191,927.734,971.191
1742206997.436,970.215,971.191,979.492,971.191
1742206997.439,970.215,971.191,971.191,971.191
1742206997.443,970.703,971.191,971.191,971.191
1742206997.447,970.703,971.191,971.191,971.191
1742206997.451,970.215,971.191,971.191,971.191
1742206997.455,970.215,971.191,971.191,971.191
1742206997.412,944.824,871.582,-968.262,941.406
1742206997.416,990.723,-979.492,-1000.0,993.164
1742206997.42,928.223,915.527,-485.352,927.734
1742206997.424,982.422,986.816,711.426,983.398
1742206997.428,970.215,971.191,-976.562,971.191
1742206997.432,970.215,971.191,927.734,971.191
1742206997.436,970.215,971.191,979.492,971.191
1742206997.439,970.215,971.191,971.191,971.191
1742206997.443,970.703,971.191,971.191,971.191
1742206997.447,970.703,971.191,971.191,971.191
1742206997.451,970.215,971.191,971.191,971.191
1742206997.455,970.215,971.191,971.191,971.191
1742206997.936,970.215,971.191,991.699,971.191
1742206997.94,987.305,988.77,927.246,988.281
1742206997.944,900.879,901.367,608.887,901.367
1742206997.948,-934.57,-935.059,764.648,-936.035
1742206997.952,676.758,705.078,997.07,694.824
1742206997.956,-756.836,-775.879,948.242,-743.164
1742206997.96,-1000.0,-1000.0,567.871,-1000.0
1742206997.963,-785.645,-933.105,-239.746,-781.738
1742206997.967,-277.344,-1000.0,-633.301,-271.973
1742206997.971,560.059,-1000.0,-202.148,563.965
1742206997.975,-897.461,-1000.0,392.578,-898.438
1742206997.979,807.617,-1000.0,393.555,812.5
1742206997.471,970.215,971.191,971.191,971.191
1742206997.475,970.215,971.191,971.191,971.191
1742206997.479,970.215,971.191,971.191,971.191
1742206997.483,970.215,971.191,971.191,971.191
1742206997.487,970.703,971.191,971.191,971.191
1742206997.491,970.703,971.191,971.191,971.191
1742206997.495,970.215,980.957,971.191,971.191
1742206997.498,970.703,936.035,971.191,971.191
1742206997.502,970.703,972.168,971.191,971.191
1742206997.506,970.215,-999.512,971.191,971.191
1742206997.51,970.215,-312.988,971.191,971.191
1742206997.514,970.703,-1000.0,971.191,971.191
1742206997.471,970.215,971.191,971.191,971.191
1742206997.475,970.215,971.191,971.191,971.191
1742206997.479,970.215,971.191,971.191,971.191
1742206997.483,970.215,971.191,971.191,971.191
1742206997.487,970.703,971.191,971.191,971.191
1742206997.491,970.703,971.191,971.191,971.191
1742206997.495,970.215,980.957,971.191,971.191
1742206997.498,970.703,936.035,971.191,971.191
1742206997.502,970.703,972.168,971.191,971.191
1742206997.506,970.215,-999.512,971.191,971.191
1742206997.51,970.215,-312.988,971.191,971.191
1742206997.514,970.703,-1000.0,971.191,971.191
1742206997.471,970.215,971.191,971.191,971.191
1742206997.475,970.215,971.191,971.191,971.191
1742206997.479,970.215,971.191,971.191,971.191
1742206997.483,970.215,971.191,971.191,971.191
1742206997.487,970.703,971.191,971.191,971.191
1742206997.491,970.703,971.191,971.191,971.191
1742206997.495,970.215,980.957,971.191,971.191
1742206997.498,970.703,936.035,971.191,971.191
1742206997.502,970.703,972.168,971.191,971.191
1742206997.506,970.215,-999.512,971.191,971.191
1742206997.51,970.215,-312.988,971.191,971.191
1742206997.514,970.703,-1000.0,971.191,971.191
1742206997.516,969.238,-934.082,971.191,970.215
1742206997.52,967.773,-1000.0,971.191,968.75
1742206997.524,986.816,-1000.0,971.191,984.375
1742206997.528,864.258,-1000.0,971.191,891.602
1742206997.532,883.301,-1000.0,971.191,904.785
1742206997.536,992.676,-1000.0,971.191,987.793
1742206997.54,964.844,-1000.0,971.191,966.797
1742206997.543,962.891,-1000.0,971.191,964.844
1742206997.547,984.375,-937.5,971.68,982.422
1742206997.551,936.035,-1000.0,971.191,945.312
1742206997.555,811.523,-826.172,961.914,851.562
1742206997.559,934.57,643.555,992.188,944.824
1742206997.516,969.238,-934.082,971.191,970.215
1742206997.52,967.773,-1000.0,971.191,968.75
1742206997.524,986.816,-1000.0,971.191,984.375
1742206997.528,864.258,-1000.0,971.191,891.602
1742206997.532,883.301,-1000.0,971.191,904.785
1742206997.536,992.676,-1000.0,971.191,987.793
1742206997.54,964.844,-1000.0,971.191,966.797
1742206997.543,962.891,-1000.0,971.191,964.844
1742206997.547,984.375,-937.5,971.68,982.422
1742206997.551,936.035,-1000.0,971.191,945.312
1742206997.555,811.523,-826.172,961.914,851.562
1742206997.559,934.57,643.555,992.188,944.824
1742206997.516,969.238,-934.082,971.191,970.215
1742206997.52,967.773,-1000.0,971.191,968.75
1742206997.524,986.816,-1000.0,971.191,984.375
1742206997.528,864.258,-1000.0,971.191,891.602
1742206997.532,883.301,-1000.0,971.191,904.785
1742206997.536,992.676,-1000.0,971.191,987.793
1742206997.54,964.844,-1000.0,971.191,966.797
1742206997.543,962.891,-1000.0,971.191,964.844
1742206997.547,984.375,-937.5,971.68,982.422
1742206997.551,936.035,-1000.0,971.191,945.312
1742206997.555,811.523,-826.172,961.914,851.562
1742206997.559,934.57,643.555,992.188,944.824
1742206997.561,977.051,-923.828,865.723,975.098
1742206997.565,987.793,898.926,703.613,986.328
1742206997.569,863.281,-995.605,886.719,875.977
1742206997.573,591.797,911.621,997.07,652.344
1742206997.577,982.422,-969.727,951.172,-995.605
1742206997.581,812.988,842.773,619.141,812.988
1742206997.585,-885.254,-621.582,365.723,-875.0
1742206997.588,-651.855,-1000.0,153.32,-610.84
1742206997.592,930.176,-926.27,242.676,949.219
1742206997.596,-995.605,-1000.0,375.977,997.559
1742206997.6,911.621,-1000.0,-294.434,915.527
1742206997.604,988.77,-1000.0,-787.598,988.77
1742206997.561,977.051,-923.828,865.723,975.098
1742206997.565,987.793,898.926,703.613,986.328
1742206997.569,863.281,-995.605,886.719,875.977
1742206997.573,591.797,911.621,997.07,652.344
1742206997.577,982.422,-969.727,951.172,-995.605
1742206997.581,812.988,842.773,619.141,812.988
1742206997.585,-885.254,-621.582,365.723,-875.0
1742206997.588,-651.855,-1000.0,153.32,-610.84
1742206997.592,930.176,-926.27,242.676,949.219
1742206997.596,-995.605,-1000.0,375.977,997.559
1742206997.6,911.621,-1000.0,-294.434,915.527
1742206997.604,988.77,-1000.0,-787.598,988.77
1742206997.561,977.051,-923.828,865.723,975.098
1742206997.565,987.793,898.926,703.613,986.328
1742206997.569,863.281,-995.605,886.719,875.977
1742206997.573,591.797,911.621,997.07,652.344
1742206997.577,982.422,-969.727,951.172,-995.605
1742206997.581,812.988,842.773,619.141,812.988
1742206997.585,-885.254,-621.582,365.723,-875.0
1742206997.588,-651.855,-1000.0,153.32,-610.84
1742206997.592,930.176,-926.27,242.676,949.219
1742206997.596,-995.605,-1000.0,375.977,997.559
1742206997.6,911.621,-1000.0,-294.434,915.527
1742206997.604,988.77,-1000.0,-787.598,988.77
1742206997.607,973.633,-1000.0,-465.82,973.633
1742206997.611,885.254,-1000.0,177.246,881.348
1742206997.615,928.711,-945.801,337.891,931.641
1742206997.619,914.062,-1000.0,-169.434,912.598
1742206997.623,-892.578,-960.449,-672.852,-889.16
1742206997.627,377.93,261.23,-398.438,414.551
1742206997.631,-789.551,-577.148,315.43,-779.297
1742206997.634,484.863,-476.562,191.406,471.68
1742206997.638,-827.637,990.723,-472.168,-827.637
1742206997.642,864.746,-918.945,-950.195,865.723
1742206997.646,231.445,247.559,-847.168,247.559
1742206997.65,317.871,-997.07,-219.238,311.035
1742206997.607,973.633,-1000.0,-465.82,973.633
1742206997.611,885.254,-1000.0,177.246,881.348
1742206997.615,928.711,-945.801,337.891,931.641
1742206997.619,914.062,-1000.0,-169.434,912.598
1742206997.623,-892.578,-960.449,-672.852,-889.16
1742206997.627,377.93,261.23,-398.438,414.551
1742206997.631,-789.551,-577.148,315.43,-779.297
1742206997.634,484.863,-476.562,191.406,471.68
1742206997.638,-827.637,990.723,-472.168,-827.637
1742206997.642,864.746,-918.945,-950.195,865.723
1742206997.646,231.445,247.559,-847.168,247.559
1742206997.65,317.871,-997.07,-219.238,311.035
1742206997.651,-522.949,-1000.0,235.84,-536.133
1742206997.655,-1000.0,-964.844,-317.871,-1000.0
1742206997.659,-917.969,-1000.0,-986.816,-918.945
1742206997.663,-1000.0,-1000.0,-996.094,-1000.0
1742206997.667,-1000.0,-1000.0,-984.863,-1000.0
1742206997.671,-1000.0,-1000.0,-1000.0,-1000.0
1742206997.675,-1000.0,-1000.0,-1000.0,-1000.0
1742206997.678,-1000.0,-1000.0,-1000.0,-1000.0
1742206997.682,-1000.0,-1000.0,-1000.0,-1000.0
1742206997.686,-1000.0,-1000.0,-1000.0,-1000.0
1742206997.69,-1000.0,-1000.0,-1000.0,-1000.0
1742206997.694,-1000.0,-1000.0,-1000.0,-1000.0
1742206997.651,-522.949,-1000.0,235.84,-536.133
1742206997.655,-1000.0,-964.844,-317.871,-1000.0
1742206997.659,-917.969,-1000.0,-986.816,-918.945
1742206997.663,-1000.0,-1000.0,-996.094,-1000.0
1742206997.667,-1000.0,-1000.0,-984.863,-1000.0
1742206997.671,-1000.0,-1000.0,-1000.0,-1000.0
1742206997.675,-1000.0,-1000.0,-1000.0,-1000.0
1742206997.678,-1000.0,-1000.0,-1000.0,-1000.0
1742206997.682,-1000.0,-1000.0,-1000.0,-1000.0
1742206997.686,-1000.0,-1000.0,-1000.0,-1000.0
1742206997.69,-1000.0,-1000.0,-1000.0,-1000.0
1742206997.694,-1000.0,-1000.0,-1000.0,-1000.0
1742206997.697,-1000.0,-1000.0,-1000.0,-1000.0
1742206997.701,-1000.0,-1000.0,-1000.0,-1000.0
1742206997.705,-1000.0,-965.332,-1000.0,-1000.0
1742206997.709,-1000.0,-1000.0,-1000.0,-1000.0
1742206997.713,-1000.0,-1000.0,-1000.0,-1000.0
1742206997.717,-1000.0,281.25,-1000.0,-1000.0
1742206997.721,-1000.0,-894.531,-1000.0,-1000.0
1742206997.724,-1000.0,905.273,-1000.0,-1000.0
1742206997.728,-1000.0,976.074,-1000.0,-1000.0
1742206997.732,-970.703,972.168,-1000.0,-971.191
1742206997.736,-989.258,971.68,-1000.0,-988.281
1742206997.74,-1000.0,971.191,-1000.0,-1000.0
1742206997.697,-1000.0,-1000.0,-1000.0,-1000.0
1742206997.701,-1000.0,-1000.0,-1000.0,-1000.0
1742206997.705,-1000.0,-965.332,-1000.0,-1000.0
1742206997.709,-1000.0,-1000.0,-1000.0,-1000.0
1742206997.713,-1000.0,-1000.0,-1000.0,-1000.0
1742206997.717,-1000.0,281.25,-1000.0,-1000.0
1742206997.721,-1000.0,-894.531,-1000.0,-1000.0
1742206997.724,-1000.0,905.273,-1000.0,-1000.0
1742206997.728,-1000.0,976.074,-1000.0,-1000.0
1742206997.732,-970.703,972.168,-1000.0,-971.191
1742206997.736,-989.258,971.68,-1000.0,-988.281
1742206997.74,-1000.0,971.191,-1000.0,-1000.0
1742206997.741,220.215,971.191,-1000.0,214.844
1742206997.745,-890.137,971.191,-1000.0,-889.648
1742206997.749,906.25,971.191,-1000.0,906.738
1742206997.753,973.145,971.191,-994.629,973.145
1742206997.757,970.703,971.191,-994.141,971.68
1742206997.761,970.703,971.191,-1000.0,971.191
1742206997.765,970.703,971.68,-713.867,971.191
1742206997.768,970.215,971.191,-320.312,971.191
1742206997.772,970.703,971.191,-357.422,971.191
1742206997.776,970.703,971.191,-417.969,971.191
1742206997.78,970.215,971.191,195.312,971.191
1742206997.784,970.215,971.191,886.23,971.191
1742206997.741,220.215,971.191,-1000.0,214.844
1742206997.745,-890.137,971.191,-1000.0,-889.648
1742206997.749,906.25,971.191,-1000.0,906.738
1742206997.753,973.145,971.191,-994.629,973.145
1742206997.757,970.703,971.191,-994.141,971.68
1742206997.761,970.703,971.191,-1000.0,971.191
1742206997.765,970.703,971.68,-713.867,971.191
1742206997.768,970.215,971.191,-320.312,971.191
1742206997.772,970.703,971.191,-357.422,971.191
1742206997.776,970.703,971.191,-417.969,971.191
1742206997.78,970.215,971.191,195.312,971.191
1742206997.784,970.215,971.191,886.23,971.191
1742206997.741,220.215,971.191,-1000.0,214.844
1742206997.745,-890.137,971.191,-1000.0,-889.648
1742206997.749,906.25,971.191,-1000.0,906.738
1742206997.753,973.145,971.191,-994.629,973.145
1742206997.757,970.703,971.191,-994.141,971.68
1742206997.761,970.703,971.191,-1000.0,971.191
1742206997.765,970.703,971.68,-713.867,971.191
1742206997.768,970.215,971.191,-320.312,971.191
1742206997.772,970.703,971.191,-357.422,971.191
1742206997.776,970.703,971.191,-417.969,971.191
1742206997.78,970.215,971.191,195.312,971.191
1742206997.784,970.215,971.191,886.23,971.191
1742206997.788,970.703,971.191,988.281,971.191
1742206997.792,970.703,971.191,944.336,971.191
1742206997.796,970.215,971.191,869.141,971.191
1742206997.8,970.215,971.191,928.223,971.191
1742206997.804,970.215,971.191,986.816,971.191
1742206997.808,970.215,983.398,964.355,971.191
1742206997.812,970.215,926.758,972.656,971.191
1742206997.815,970.215,991.699,971.191,971.191
1742206997.819,970.215,954.59,971.191,971.191
1742206997.823,970.215,-427.246,970.215,971.191
1742206997.827,970.703,-1000.0,970.703,971.191
1742206997.831,970.703,-928.711,976.074,971.191
1742206997.788,970.703,971.191,988.281,971.191
1742206997.792,970.703,971.191,944.336,971.191
1742206997.796,970.215,971.191,869.141,971.191
1742206997.8,970.215,971.191,928.223,971.191
1742206997.804,970.215,971.191,986.816,971.191
1742206997.808,970.215,983.398,964.355,971.191
1742206997.812,970.215,926.758,972.656,971.191
1742206997.815,970.215,991.699,971.191,971.191
1742206997.819,970.215,954.59,971.191,971.191
1742206997.823,970.215,-427.246,970.215,971.191
1742206997.827,970.703,-1000.0,970.703,971.191
1742206997.831,970.703,-928.711,976.074,971.191
1742206997.788,970.703,971.191,988.281,971.191
1742206997.792,970.703,971.191,944.336,971.191
1742206997.796,970.215,971.191,869.141,971.191
1742206997.8,970.215,971.191,928.223,971.191
1742206997.804,970.215,971.191,986.816,971.191
1742206997.808,970.215,983.398,964.355,971.191
1742206997.812,970.215,926.758,972.656,971.191
1742206997.815,970.215,991.699,971.191,971.191
1742206997.819,970.215,954.59,971.191,971.191
1742206997.823,970.215,-427.246,970.215,971.191
1742206997.827,970.703,-1000.0,970.703,971.191
1742206997.831,970.703,-928.711,976.074,971.191
1742206997.846,970.215,-1000.0,929.688,971.191
1742206997.85,970.215,-1000.0,938.477,971.191
1742206997.854,970.703,-1000.0,979.004,971.191
1742206997.858,972.168,-931.641,968.75,972.168
1742206997.862,974.121,-1000.0,971.191,977.051
1742206997.866,893.555,-722.168,972.656,892.09
1742206997.87,-856.934,913.086,967.285,-854.004
1742206997.873,269.531,614.746,968.262,304.688
1742206997.877,-853.027,-956.055,967.773,-837.402
1742206997.881,499.023,-1000.0,825.195,498.535
1742206997.885,-816.895,-944.336,533.203,-814.453
1742206997.889,755.371,-1000.0,549.805,757.812
1742206997.846,970.215,-1000.0,929.688,971.191
1742206997.85,970.215,-1000.0,938.477,971.191
1742206997.854,970.703,-1000.0,979.004,971.191
1742206997.858,972.168,-931.641,968.75,972.168
1742206997.862,974.121,-1000.0,971.191,977.051
1742206997.866,893.555,-722.168,972.656,892.09
1742206997.87,-856.934,913.086,967.285,-854.004
1742206997.873,269.531,614.746,968.262,304.688
1742206997.877,-853.027,-956.055,967.773,-837.402
1742206997.881,499.023,-1000.0,825.195,498.535
1742206997.885,-816.895,-944.336,533.203,-814.453
1742206997.889,755.371,-1000.0,549.805,757.812
1742206997.846,970.215,-1000.0,929.688,971.191
1742206997.85,970.215,-1000.0,938.477,971.191
1742206997.854,970.703,-1000.0,979.004,971.191
1742206997.858,972.168,-931.641,968.75,972.168
1742206997.862,974.121,-1000.0,971.191,977.051
1742206997.866,893.555,-722.168,972.656,892.09
1742206997.87,-856.934,913.086,967.285,-854.004
1742206997.873,269.531,614.746,968.262,304.688
1742206997.877,-853.027,-956.055,967.773,-837.402
1742206997.881,499.023,-1000.0,825.195,498.535
1742206997.885,-816.895,-944.336,533.203,-814.453
1742206997.889,755.371,-1000.0,549.805,757.812
1742206997.891,-515.137,-941.895,895.508,-514.648
1742206997.895,-1000.0,-1000.0,994.629,-1000.0
1742206997.899,-585.449,-882.324,567.871,-555.664
1742206997.903,784.668,579.102,-181.152,801.27
1742206997.907,-960.449,-911.133,-168.945,-965.332
1742206997.911,908.203,896.484,462.402,911.133
1742206997.915,987.305,987.305,921.875,987.305
1742206997.918,970.703,971.191,946.289,971.191
1742206997.922,970.703,971.191,473.145,970.703
1742206997.926,970.215,971.191,148.438,971.191
1742206997.93,970.703,971.191,537.109,971.191
1742206997.934,970.215,971.191,940.918,971.191
1742206997.891,-515.137,-941.895,895.508,-514.648
1742206997.895,-1000.0,-1000.0,994.629,-1000.0
1742206997.899,-585.449,-882.324,567.871,-555.664
1742206997.903,784.668,579.102,-181.152,801.27
1742206997.907,-960.449,-911.133,-168.945,-965.332
1742206997.911,908.203,896.484,462.402,911.133
1742206997.915,987.305,987.305,921.875,987.305
1742206997.918,970.703,971.191,946.289,971.191
1742206997.922,970.703,971.191,473.145,970.703
1742206997.926,970.215,971.191,148.438,971.191
1742206997.93,970.703,971.191,537.109,971.191
1742206997.934,970.215,971.191,940.918,971.191
1742206997.891,-515.137,-941.895,895.508,-514.648
1742206997.895,-1000.0,-1000.0,994.629,-1000.0
1742206997.899,-585.449,-882.324,567.871,-555.664
1742206997.903,784.668,579.102,-181.152,801.27
1742206997.907,-960.449,-911.133,-168.945,-965.332
1742206997.911,908.203,896.484,462.402,911.133
1742206997.915,987.305,987.305,921.875,987.305
1742206997.918,970.703,971.191,946.289,971.191
1742206997.922,970.703,971.191,473.145,970.703
1742206997.926,970.215,971.191,148.438,971.191
1742206997.93,970.703,971.191,537.109,971.191
1742206997.934,970.215,971.191,940.918,971.191
1742206997.981,-614.746,-1000.0,-45.41,-608.887
1742206997.985,-1000.0,-942.383,-494.141,-1000.0
1742206997.989,-979.98,-1000.0,-565.43,-979.98
1742206997.993,-907.227,-891.113,-558.105,-907.227
1742206997.997,574.219,569.336,-908.203,574.707
1742206998.001,-934.57,-908.203,-992.676,-934.082
1742206998.005,877.93,838.379,-736.816,878.418
1742206998.008,-950.195,-895.02,-299.316,-950.684
1742206998.012,-156.738,253.906,388.672,-156.738
1742206998.016,-1000.0,-1000.0,312.988,-1000.0
1742206998.02,-950.195,-1000.0,-636.23,-950.195
1742206998.024,-1000.0,-979.492,-1000.0,-1000.0
1742206997.981,-614.746,-1000.0,-45.41,-608.887
1742206997.985,-1000.0,-942.383,-494.141,-1000.0
1742206997.989,-979.98,-1000.0,-565.43,-979.98
1742206997.993,-907.227,-891.113,-558.105,-907.227
1742206997.997,574.219,569.336,-908.203,574.707
1742206998.001,-934.57,-908.203,-992.676,-934.082
1742206998.005,877.93,838.379,-736.816,878.418
1742206998.008,-950.195,-895.02,-299.316,-950.684
1742206998.012,-156.738,253.906,388.672,-156.738
1742206998.016,-1000.0,-1000.0,312.988,-1000.0
1742206998.02,-950.195,-1000.0,-636.23,-950.195
1742206998.024,-1000.0,-979.492,-1000.0,-1000.0
1742206998.026,-949.707,-965.332,-891.113,-949.707
1742206998.03,-1000.0,-1000.0,-560.547,-1000.0
1742206998.034,-984.863,-987.305,-694.336,-985.84
1742206998.038,565.918,404.785,-1000.0,564.941
1742206998.042,965.82,-916.016,-989.258,965.332
1742206998.046,-608.887,919.922,-443.359,-610.84
1742206998.05,-1000.0,992.188,-147.949,-1000.0
1742206998.053,-540.039,391.602,-636.719,-529.297
1742206998.057,780.762,676.27,-993.164,785.156
1742206998.061,-994.629,-994.629,-939.453,-992.676
1742206998.065,-975.586,-906.25,-472.656,-981.445
1742206998.069,-264.648,142.09,585.449,-287.598
1742206998.026,-949.707,-965.332,-891.113,-949.707
1742206998.03,-1000.0,-1000.0,-560.547,-1000.0
1742206998.034,-984.863,-987.305,-694.336,-985.84
1742206998.038,565.918,404.785,-1000.0,564.941
1742206998.042,965.82,-916.016,-989.258,965.332
1742206998.046,-608.887,919.922,-443.359,-610.84
1742206998.05,-1000.0,992.188,-147.949,-1000.0
1742206998.053,-540.039,391.602,-636.719,-529.297
1742206998.057,780.762,676.27,-993.164,785.156
1742206998.061,-994.629,-994.629,-939.453,-992.676
1742206998.065,-975.586,-906.25,-472.656,-981.445
1742206998.069,-264.648,142.09,585.449,-287.598
1742206998.026,-949.707,-965.332,-891.113,-949.707
1742206998.03,-1000.0,-1000.0,-560.547,-1000.0
1742206998.034,-984.863,-987.305,-694.336,-985.84
1742206998.038,565.918,404.785,-1000.0,564.941
1742206998.042,965.82,-916.016,-989.258,965.332
1742206998.046,-608.887,919.922,-443.359,-610.84
1742206998.05,-1000.0,992.188,-147.949,-1000.0
1742206998.053,-540.039,391.602,-636.719,-529.297
1742206998.057,780.762,676.27,-993.164,785.156
1742206998.061,-994.629,-994.629,-939.453,-992.676
1742206998.065,-975.586,-906.25,-472.656,-981.445
1742206998.069,-264.648,142.09,585.449,-287.598
1742206998.074,-1000.0,-1000.0,992.676,-1000.0
1742206998.078,769.043,489.746,539.551,780.273
1742206998.082,920.898,-785.156,682.129,915.527
1742206998.086,-299.316,-511.23,990.234,-298.34
1742206998.09,661.621,-807.129,964.355,666.992
1742206998.094,-877.441,816.406,966.309,-877.441
1742206998.098,891.113,-958.496,973.145,892.09
1742206998.101,987.793,908.691,971.191,988.77
1742206998.105,970.703,986.328,971.191,971.191
1742206998.109,970.215,971.191,971.191,971.191
1742206998.113,970.215,971.191,971.191,971.191
1742206998.117,970.703,971.191,971.191,971.191
1742206998.074,-1000.0,-1000.0,992.676,-1000.0
1742206998.078,769.043,489.746,539.551,780.273
1742206998.082,920.898,-785.156,682.129,915.527
1742206998.086,-299.316,-511.23,990.234,-298.34
1742206998.09,661.621,-807.129,964.355,666.992
1742206998.094,-877.441,816.406,966.309,-877.441
1742206998.098,891.113,-958.496,973.145,892.09
1742206998.101,987.793,908.691,971.191,988.77
1742206998.105,970.703,986.328,971.191,971.191
1742206998.109,970.215,971.191,971.191,971.191
1742206998.113,970.215,971.191,971.191,971.191
1742206998.117,970.703,971.191,971.191,971.191
1742206998.116,970.215,971.191,971.191,971.191
1742206998.12,970.215,971.191,971.191,971.191
1742206998.124,970.215,971.191,970.215,971.191
1742206998.128,970.215,987.793,968.75,971.191
1742206998.132,970.703,910.645,979.98,971.191
1742206998.136,970.215,-965.332,908.203,971.191
1742206998.14,970.215,826.172,894.531,971.191
1742206998.143,970.215,-639.648,960.449,971.191
1742206998.147,970.215,-1000.0,972.168,971.191
1742206998.151,970.703,-927.246,976.562,971.191
1742206998.155,970.703,-1000.0,528.32,971.191
1742206998.159,970.703,-1000.0,260.742,971.191
1742206998.116,970.215,971.191,971.191,971.191
1742206998.12,970.215,971.191,971.191,971.191
1742206998.124,970.215,971.191,970.215,971.191
1742206998.128,970.215,987.793,968.75,971.191
1742206998.132,970.703,910.645,979.98,971.191
1742206998.136,970.215,-965.332,908.203,971.191
1742206998.14,970.215,826.172,894.531,971.191
1742206998.143,970.215,-639.648,960.449,971.191
1742206998.147,970.215,-1000.0,972.168,971.191
1742206998.151,970.703,-927.246,976.562,971.191
1742206998.155,970.703,-1000.0,528.32,971.191
1742206998.159,970.703,-1000.0,260.742,971.191
1742206998.162,970.703,-1000.0,613.77,971.191
1742206998.166,976.074,-1000.0,948.73,975.586
1742206998.17,949.707,-1000.0,756.836,953.125
1742206998.174,993.652,-1000.0,130.371,992.676
1742206998.178,940.43,-1000.0,-194.336,942.383
1742206998.182,460.938,-1000.0,239.746,550.781
1742206998.186,598.633,-1000.0,869.629,687.988
1742206998.189,998.047,-1000.0,790.039,999.512
1742206998.193,950.684,-1000.0,80.078,951.66
1742206998.197,980.469,-1000.0,-364.258,980.957
1742206998.201,957.52,-1000.0,-53.711,959.473
1742206998.205,705.078,-924.316,503.418,759.766
1742206998.162,970.703,-1000.0,613.77,971.191
1742206998.166,976.074,-1000.0,948.73,975.586
1742206998.17,949.707,-1000.0,756.836,953.125
1742206998.174,993.652,-1000.0,130.371,992.676
1742206998.178,940.43,-1000.0,-194.336,942.383
1742206998.182,460.938,-1000.0,239.746,550.781
1742206998.186,598.633,-1000.0,869.629,687.988
1742206998.189,998.047,-1000.0,790.039,999.512
1742206998.193,950.684,-1000.0,80.078,951.66
1742206998.197,980.469,-1000.0,-364.258,980.957
1742206998.201,957.52,-1000.0,-53.711,959.473
1742206998.205,705.078,-924.316,503.418,759.766
1742206998.221,810.547,-1000.0,683.594,834.473
1742206998.225,-863.281,-786.621,150.879,-868.652
1742206998.229,237.305,287.598,-366.211,251.465
1742206998.233,-991.211,-606.934,32.715,-988.281
1742206998.237,-386.719,-1000.0,476.562,-331.543
1742206998.241,-145.996,-808.105,432.617,-56.152
1742206998.245,427.734,550.293,-215.82,446.777
1742206998.248,-982.91,-909.18,-935.547,-984.375
1742206998.252,812.012,896.484,-1000.0,822.266
1742206998.256,488.281,-1000.0,-616.211,547.363
1742206998.26,266.602,925.781,-417.48,361.816
1742206998.264,905.273,993.652,-875.488,925.781
1742206998.221,810.547,-1000.0,683.594,834.473
1742206998.225,-863.281,-786.621,150.879,-868.652
1742206998.229,237.305,287.598,-366.211,251.465
1742206998.233,-991.211,-606.934,32.715,-988.281
1742206998.237,-386.719,-1000.0,476.562,-331.543
1742206998.241,-145.996,-808.105,432.617,-56.152
1742206998.245,427.734,550.293,-215.82,446.777
1742206998.248,-982.91,-909.18,-935.547,-984.375
1742206998.252,812.012,896.484,-1000.0,822.266
1742206998.256,488.281,-1000.0,-616.211,547.363
1742206998.26,266.602,925.781,-417.48,361.816
1742206998.264,905.273,993.652,-875.488,925.781
1742206998.221,810.547,-1000.0,683.594,834.473
1742206998.225,-863.281,-786.621,150.879,-868.652
1742206998.229,237.305,287.598,-366.211,251.465
1742206998.233,-991.211,-606.934,32.715,-988.281
1742206998.237,-386.719,-1000.0,476.562,-331.543
1742206998.241,-145.996,-808.105,432.617,-56.152
1742206998.245,427.734,550.293,-215.82,446.777
1742206998.248,-982.91,-909.18,-935.547,-984.375
1742206998.252,812.012,896.484,-1000.0,822.266
1742206998.256,488.281,-1000.0,-616.211,547.363
1742206998.26,266.602,925.781,-417.48,361.816
1742206998.264,905.273,993.652,-875.488,925.781
1742206998.266,774.902,952.637,-1000.0,776.855
1742206998.27,20.02,-444.824,-983.887,136.719
1742206998.274,643.555,-1000.0,-994.141,759.766
1742206998.278,949.707,-876.953,-911.133,971.68
1742206998.282,992.676,-1000.0,-969.238,987.305
1742206998.286,875.977,-213.867,-1000.0,881.348
1742206998.29,499.023,996.582,-995.117,533.691
1742206998.293,811.523,965.82,-1000.0,828.125
1742206998.297,949.707,957.031,-1000.0,973.145
1742206998.301,900.391,928.223,-1000.0,918.457
1742206998.305,965.332,-990.234,-988.281,961.914
1742206998.309,986.328,908.691,-1000.0,986.328
1742206998.266,774.902,952.637,-1000.0,776.855
1742206998.27,20.02,-444.824,-983.887,136.719
1742206998.274,643.555,-1000.0,-994.141,759.766
1742206998.278,949.707,-876.953,-911.133,971.68
1742206998.282,992.676,-1000.0,-969.238,987.305
1742206998.286,875.977,-213.867,-1000.0,881.348
1742206998.29,499.023,996.582,-995.117,533.691
1742206998.293,811.523,965.82,-1000.0,828.125
1742206998.297,949.707,957.031,-1000.0,973.145
1742206998.301,900.391,928.223,-1000.0,918.457
1742206998.305,965.332,-990.234,-988.281,961.914
1742206998.309,986.328,908.691,-1000.0,986.328
1742206998.312,338.867,-520.02,-1000.0,391.602
1742206998.316,-435.059,-1000.0,-577.148,-329.102
1742206998.32,49.805,-925.781,-353.027,134.277
1742206998.324,216.797,-1000.0,-670.41,281.738
1742206998.328,120.605,-1000.0,-870.117,192.871
1742206998.332,-262.207,-1000.0,-589.355,-206.543
1742206998.336,-412.109,-927.246,-171.875,-377.441
1742206998.339,623.535,-1000.0,-441.406,640.137
1742206998.343,-962.402,-800.293,-936.523,-971.68
1742206998.347,278.809,674.316,-1000.0,280.273
1742206998.351,-339.844,-244.629,-863.77,-273.926
1742206998.355,-350.586,-1000.0,-129.883,-294.922
1742206998.357,-136.23,-915.527,187.5,-108.398
1742206998.361,296.875,-1000.0,-302.734,331.055
1742206998.365,355.469,-1000.0,-588.379,385.254
1742206998.369,-178.223,-1000.0,-6.836,-156.25
1742206998.373,-844.727,-996.582,799.805,-837.402
1742206998.377,-997.07,-1000.0,-969.238,-984.863
1742206998.381,-310.547,-991.211,745.605,-306.152
1742206998.384,-75.195,-940.43,293.945,-77.148
1742206998.388,-604.004,-1000.0,592.773,-605.957
1742206998.392,-689.941,-937.988,966.797,-716.309
1742206998.396,-505.371,-1000.0,979.492,-546.875
1742206998.4,-92.773,-527.344,940.43,-131.348
1742206998.357,-136.23,-915.527,187.5,-108.398
1742206998.361,296.875,-1000.0,-302.734,331.055
1742206998.365,355.469,-1000.0,-588.379,385.254
1742206998.369,-178.223,-1000.0,-6.836,-156.25
1742206998.373,-844.727,-996.582,799.805,-837.402
1742206998.377,-997.07,-1000.0,-969.238,-984.863
1742206998.381,-310.547,-991.211,745.605,-306.152
1742206998.384,-75.195,-940.43,293.945,-77.148
1742206998.388,-604.004,-1000.0,592.773,-605.957
1742206998.392,-689.941,-937.988,966.797,-716.309
1742206998.396,-505.371,-1000.0,979.492,-546.875
1742206998.4,-92.773,-527.344,940.43,-131.348
1742206998.401,89.355,806.641,549.316,22.461
1742206998.405,-509.766,-890.625,615.234,-564.453
1742206998.409,-1000.0,692.871,946.289,-1000.0
1742206998.413,-774.902,-824.219,989.746,-759.766
1742206998.417,-113.281,-176.27,939.453,-156.738
1742206998.421,-183.105,-893.555,509.766,-254.395
1742206998.425,-773.438,930.176,535.156,-797.363
1742206998.428,-990.234,952.148,918.457,-989.746
1742206998.432,-810.547,977.051,997.07,-830.078
1742206998.436,-32.227,981.445,914.062,-117.188
1742206998.44,709.473,934.082,327.148,588.379
1742206998.444,372.07,961.426,234.863,276.855
1742206998.401,89.355,806.641,549.316,22.461
1742206998.405,-509.766,-890.625,615.234,-564.453
1742206998.409,-1000.0,692.871,946.289,-1000.0
1742206998.413,-774.902,-824.219,989.746,-759.766
1742206998.417,-113.281,-176.27,939.453,-156.738
1742206998.421,-183.105,-893.555,509.766,-254.395
1742206998.425,-773.438,930.176,535.156,-797.363
1742206998.428,-990.234,952.148,918.457,-989.746
1742206998.432,-810.547,977.051,997.07,-830.078
1742206998.436,-32.227,981.445,914.062,-117.188
1742206998.44,709.473,934.082,327.148,588.379
1742206998.444,372.07,961.426,234.863,276.855
1742206998.401,89.355,806.641,549.316,22.461
1742206998.405,-509.766,-890.625,615.234,-564.453
1742206998.409,-1000.0,692.871,946.289,-1000.0
1742206998.413,-774.902,-824.219,989.746,-759.766
1742206998.417,-113.281,-176.27,939.453,-156.738
1742206998.421,-183.105,-893.555,509.766,-254.395
1742206998.425,-773.438,930.176,535.156,-797.363
1742206998.428,-990.234,952.148,918.457,-989.746
1742206998.432,-810.547,977.051,997.07,-830.078
1742206998.436,-32.227,981.445,914.062,-117.188
1742206998.44,709.473,934.082,327.148,588.379
1742206998.444,372.07,961.426,234.863,276.855
1742206998.447,-505.859,-957.52,814.453,-566.406
1742206998.451,-264.648,-390.137,-1000.0,-286.621
1742206998.455,658.203,-1000.0,947.754,586.914
1742206998.459,634.277,640.137,546.875,506.836
1742206998.463,220.703,-916.016,398.438,130.859
1742206998.467,-646.973,892.578,843.75,-675.781
1742206998.471,-991.211,985.84,995.117,-988.281
1742206998.474,118.652,988.281,967.285,64.941
1742206998.478,881.836,911.621,514.648,771.973
1742206998.482,603.516,-970.215,145.508,484.863
1742206998.486,7.324,846.191,635.254,-76.172
1742206998.49,180.664,-616.699,974.121,108.887
1742206998.447,-505.859,-957.52,814.453,-566.406
1742206998.451,-264.648,-390.137,-1000.0,-286.621
1742206998.455,658.203,-1000.0,947.754,586.914
1742206998.459,634.277,640.137,546.875,506.836
1742206998.463,220.703,-916.016,398.438,130.859
1742206998.467,-646.973,892.578,843.75,-675.781
1742206998.471,-991.211,985.84,995.117,-988.281
1742206998.474,118.652,988.281,967.285,64.941
1742206998.478,881.836,911.621,514.648,771.973
1742206998.482,603.516,-970.215,145.508,484.863
1742206998.486,7.324,846.191,635.254,-76.172
1742206998.49,180.664,-616.699,974.121,108.887
1742206998.491,410.645,-1000.0,983.398,347.656
1742206998.495,875.0,-926.27,597.656,857.422
1742206998.499,632.812,-1000.0,160.645,566.895
1742206998.503,170.898,-963.867,668.945,80.566
1742206998.507,82.031,-1000.0,994.141,19.531
1742206998.511,-161.133,-1000.0,979.004,-202.148
1742206998.515,49.316,236.816,777.344,-31.738
1742206998.518,140.625,-816.895,137.207,44.434
1742206998.522,-324.219,709.473,258.301,-377.93
1742206998.526,-443.848,-744.141,861.328,-484.863
1742206998.53,163.574,-1000.0,-982.422,109.375
1742206998.534,749.512,425.781,636.719,649.414
1742206998.491,410.645,-1000.0,983.398,347.656
1742206998.495,875.0,-926.27,597.656,857.422
1742206998.499,632.812,-1000.0,160.645,566.895
1742206998.503,170.898,-963.867,668.945,80.566
1742206998.507,82.031,-1000.0,994.141,19.531
1742206998.511,-161.133,-1000.0,979.004,-202.148
1742206998.515,49.316,236.816,777.344,-31.738
1742206998.518,140.625,-816.895,137.207,44.434
1742206998.522,-324.219,709.473,258.301,-377.93
1742206998.526,-443.848,-744.141,861.328,-484.863
1742206998.53,163.574,-1000.0,-982.422,109.375
1742206998.534,749.512,425.781,636.719,649.414
1742206998.491,410.645,-1000.0,983.398,347.656
1742206998.495,875.0,-926.27,597.656,857.422
1742206998.499,632.812,-1000.0,160.645,566.895
1742206998.503,170.898,-963.867,668.945,80.566
1742206998.507,82.031,-1000.0,994.141,19.531
1742206998.511,-161.133,-1000.0,979.004,-202.148
1742206998.515,49.316,236.816,777.344,-31.738
1742206998.518,140.625,-816.895,137.207,44.434
1742206998.522,-324.219,709.473,258.301,-377.93
1742206998.526,-443.848,-744.141,861.328,-484.863
1742206998.53,163.574,-1000.0,-982.422,109.375
1742206998.534,749.512,425.781,636.719,649.414
1742206998.551,672.852,-974.609,88.867,573.73
1742206998.555,-28.809,966.309,321.289,-77.637
1742206998.559,-212.891,815.43,840.82,-257.324
1742206998.563,199.707,-700.195,989.746,141.602
1742206998.567,511.23,-1000.0,716.309,451.172
1742206998.571,39.551,320.801,240.723,-15.137
1742206998.575,-713.379,-859.863,292.969,-736.816
1742206998.578,-478.516,795.41,731.445,-526.855
1742206998.582,-277.832,-699.707,988.281,-322.754
1742206998.586,207.52,-1000.0,869.141,159.668
1742206998.59,824.707,562.988,234.863,733.398
1742206998.594,320.312,-818.359,104.492,241.699
1742206998.551,672.852,-974.609,88.867,573.73
1742206998.555,-28.809,966.309,321.289,-77.637
1742206998.559,-212.891,815.43,840.82,-257.324
1742206998.563,199.707,-700.195,989.746,141.602
1742206998.567,511.23,-1000.0,716.309,451.172
1742206998.571,39.551,320.801,240.723,-15.137
1742206998.575,-713.379,-859.863,292.969,-736.816
1742206998.578,-478.516,795.41,731.445,-526.855
1742206998.582,-277.832,-699.707,988.281,-322.754
1742206998.586,207.52,-1000.0,869.141,159.668
1742206998.59,824.707,562.988,234.863,733.398
1742206998.594,320.312,-818.359,104.492,241.699
1742206998.596,-306.641,171.387,707.031,-354.004
1742206998.6,-349.609,-957.031,987.793,-363.281
1742206998.604,-40.039,-1000.0,960.938,-56.641
1742206998.608,-94.238,-74.219,588.379,-143.555
1742206998.612,-871.582,947.754,471.68,-886.23
1742206998.616,-1000.0,-997.07,895.02,-1000.0
1742206998.62,-1000.0,941.895,983.887,-1000.0
1742206998.623,-289.551,-593.262,983.398,-288.086
1742206998.627,857.91,-173.34,776.855,781.25
1742206998.631,367.676,-795.41,598.145,241.699
1742206998.635,-638.184,-178.711,911.621,-685.059
1742206998.639,-563.965,-1000.0,996.582,-580.078
1742206998.596,-306.641,171.387,707.031,-354.004
1742206998.6,-349.609,-957.031,987.793,-363.281
1742206998.604,-40.039,-1000.0,960.938,-56.641
1742206998.608,-94.238,-74.219,588.379,-143.555
1742206998.612,-871.582,947.754,471.68,-886.23
1742206998.616,-1000.0,-997.07,895.02,-1000.0
1742206998.62,-1000.0,941.895,983.887,-1000.0
1742206998.623,-289.551,-593.262,983.398,-288.086
1742206998.627,857.91,-173.34,776.855,781.25
1742206998.631,367.676,-795.41,598.145,241.699
1742206998.635,-638.184,-178.711,911.621,-685.059
1742206998.639,-563.965,-1000.0,996.582,-580.078
1742206998.596,-306.641,171.387,707.031,-354.004
1742206998.6,-349.609,-957.031,987.793,-363.281
1742206998.604,-40.039,-1000.0,960.938,-56.641
1742206998.608,-94.238,-74.219,588.379,-143.555
1742206998.612,-871.582,947.754,471.68,-886.23
1742206998.616,-1000.0,-997.07,895.02,-1000.0
1742206998.62,-1000.0,941.895,983.887,-1000.0
1742206998.623,-289.551,-593.262,983.398,-288.086
1742206998.627,857.91,-173.34,776.855,781.25
1742206998.631,367.676,-795.41,598.145,241.699
1742206998.635,-638.184,-178.711,911.621,-685.059
1742206998.639,-563.965,-1000.0,996.582,-580.078
1742206998.641,-91.797,-1000.0,955.078,-141.113
1742206998.645,402.344,-420.41,974.121,300.781
1742206998.649,-54.688,998.535,970.703,-145.508
1742206998.653,-674.805,815.918,971.191,-713.379
1742206998.657,-588.867,-842.285,971.191,-591.797
1742206998.661,-178.711,-881.836,971.191,-206.055
1742206998.665,-206.543,728.027,971.68,-287.598
1742206998.668,-455.078,-994.629,971.191,-504.395
1742206998.672,-679.199,994.629,971.191,-696.289
1742206998.676,-699.219,254.883,971.68,-725.586
1742206998.68,32.227,-1000.0,971.191,19.531
1742206998.684,516.113,-561.035,971.191,479.98
1742206998.641,-91.797,-1000.0,955.078,-141.113
1742206998.645,402.344,-420.41,974.121,300.781
1742206998.649,-54.688,998.535,970.703,-145.508
1742206998.653,-674.805,815.918,971.191,-713.379
1742206998.657,-588.867,-842.285,971.191,-591.797
1742206998.661,-178.711,-881.836,971.191,-206.055
1742206998.665,-206.543,728.027,971.68,-287.598
1742206998.668,-455.078,-994.629,971.191,-504.395
1742206998.672,-679.199,994.629,971.191,-696.289
1742206998.676,-699.219,254.883,971.68,-725.586
1742206998.68,32.227,-1000.0,971.191,19.531
1742206998.684,516.113,-561.035,971.191,479.98
1742206998.686,-252.441,876.953,971.191,-286.133
1742206998.69,-518.555,-298.34,972.656,-510.742
1742206998.694,-292.48,-1000.0,965.82,-310.059
1742206998.698,-446.289,-1000.0,980.957,-464.355
1742206998.702,39.062,-40.527,955.078,-0.488
1742206998.706,-283.203,980.469,877.441,-332.031
1742206998.71,-847.656,997.559,949.707,-887.207
1742206998.713,-935.547,864.746,979.98,-974.121
1742206998.717,-518.555,-829.102,967.285,-531.738
1742206998.721,185.059,-650.391,975.098,137.695
1742206998.725,-46.875,782.227,900.879,-96.68
1742206998.729,-94.727,-515.625,932.617,-98.145
1742206998.686,-252.441,876.953,971.191,-286.133
1742206998.69,-518.555,-298.34,972.656,-510.742
1742206998.694,-292.48,-1000.0,965.82,-310.059
1742206998.698,-446.289,-1000.0,980.957,-464.355
1742206998.702,39.062,-40.527,955.078,-0.488
1742206998.706,-283.203,980.469,877.441,-332.031
1742206998.71,-847.656,997.559,949.707,-887.207
1742206998.713,-935.547,864.746,979.98,-974.121
1742206998.717,-518.555,-829.102,967.285,-531.738
1742206998.721,185.059,-650.391,975.098,137.695
1742206998.725,-46.875,782.227,900.879,-96.68
1742206998.729,-94.727,-515.625,932.617,-98.145
1742206998.731,-439.941,-1000.0,977.051,-460.449
1742206998.735,-543.457,-771.973,975.098,-568.848
1742206998.739,102.051,458.984,964.844,65.918
1742206998.743,70.801,-806.152,853.027,43.945
1742206998.747,-673.34,327.148,931.641,-676.27
1742206998.751,-999.512,-968.75,985.84,-990.723
1742206998.755,-677.734,-1000.0,966.309,-660.156
1742206998.758,360.352,556.641,970.703,337.402
1742206998.762,382.324,874.023,902.344,342.285
1742206998.766,156.738,-146.484,937.988,149.414
1742206998.77,-644.043,-762.695,984.375,-650.391
1742206998.774,-500.0,-708.984,941.406,-493.164
1742206998.731,-439.941,-1000.0,977.051,-460.449
1742206998.735,-543.457,-771.973,975.098,-568.848
1742206998.739,102.051,458.984,964.844,65.918
1742206998.743,70.801,-806.152,853.027,43.945
1742206998.747,-673.34,327.148,931.641,-676.27
1742206998.751,-999.512,-968.75,985.84,-990.723
1742206998.755,-677.734,-1000.0,966.309,-660.156
1742206998.758,360.352,556.641,970.703,337.402
1742206998.762,382.324,874.023,902.344,342.285
1742206998.766,156.738,-146.484,937.988,149.414
1742206998.77,-644.043,-762.695,984.375,-650.391
1742206998.774,-500.0,-708.984,941.406,-493.164
1742206998.731,-439.941,-1000.0,977.051,-460.449
1742206998.735,-543.457,-771.973,975.098,-568.848
1742206998.739,102.051,458.984,964.844,65.918
1742206998.743,70.801,-806.152,853.027,43.945
1742206998.747,-673.34,327.148,931.641,-676.27
1742206998.751,-999.512,-968.75,985.84,-990.723
1742206998.755,-677.734,-1000.0,966.309,-660.156
1742206998.758,360.352,556.641,970.703,337.402
1742206998.762,382.324,874.023,902.344,342.285
1742206998.766,156.738,-146.484,937.988,149.414
1742206998.77,-644.043,-762.695,984.375,-650.391
1742206998.774,-500.0,-708.984,941.406,-493.164
1742206998.777,22.461,792.48,-988.77,48.34
1742206998.781,104.004,-952.148,863.281,112.793
1742206998.785,638.184,906.25,335.449,590.82
1742206998.789,-562.5,-995.605,568.848,-577.148
1742206998.793,-538.574,904.785,986.328,-538.574
1742206998.797,552.246,-923.828,681.152,532.715
1742206998.801,374.512,791.504,-135.254,371.582
1742206998.804,-290.527,-426.27,-770.508,-286.621
1742206998.808,-57.617,20.02,-863.77,-62.012
1742206998.812,-8.301,-209.961,-534.18,-3.906
1742206998.816,885.742,515.137,-744.629,888.672
1742206998.82,777.344,-799.316,-1000.0,758.789
1742206998.777,22.461,792.48,-988.77,48.34
1742206998.781,104.004,-952.148,863.281,112.793
1742206998.785,638.184,906.25,335.449,590.82
1742206998.789,-562.5,-995.605,568.848,-577.148
1742206998.793,-538.574,904.785,986.328,-538.574
1742206998.797,552.246,-923.828,681.152,532.715
1742206998.801,374.512,791.504,-135.254,371.582
1742206998.804,-290.527,-426.27,-770.508,-286.621
1742206998.808,-57.617,20.02,-863.77,-62.012
1742206998.812,-8.301,-209.961,-534.18,-3.906
1742206998.816,885.742,515.137,-744.629,888.672
1742206998.82,777.344,-799.316,-1000.0,758.789
1742206998.777,22.461,792.48,-988.77,48.34
1742206998.781,104.004,-952.148,863.281,112.793
1742206998.785,638.184,906.25,335.449,590.82
1742206998.789,-562.5,-995.605,568.848,-577.148
1742206998.793,-538.574,904.785,986.328,-538.574
1742206998.797,552.246,-923.828,681.152,532.715
1742206998.801,374.512,791.504,-135.254,371.582
1742206998.804,-290.527,-426.27,-770.508,-286.621
1742206998.808,-57.617,20.02,-863.77,-62.012
1742206998.812,-8.301,-209.961,-534.18,-3.906
1742206998.816,885.742,515.137,-744.629,888.672
1742206998.82,777.344,-799.316,-1000.0,758.789
1742206998.837,-265.137,-135.742,-990.723,-270.508
1742206998.841,219.238,-389.648,-990.723,223.633
1742206998.845,116.211,-296.387,-969.727,130.371
1742206998.849,-194.336,163.574,-995.605,-194.336
1742206998.853,433.594,767.09,-1000.0,432.129
1742206998.857,-144.531,730.957,-997.559,-145.996
1742206998.861,63.477,525.879,-1000.0,50.293
1742206998.864,687.988,-611.816,-994.629,668.945
1742206998.868,743.652,-1000.0,-990.234,736.328
1742206998.872,-900.879,-929.688,-1000.0,-899.902
1742206998.876,557.617,-1000.0,-996.582,549.316
1742206998.88,-773.438,-942.383,-1000.0,-774.414
1742206998.837,-265.137,-135.742,-990.723,-270.508
1742206998.841,219.238,-389.648,-990.723,223.633
1742206998.845,116.211,-296.387,-969.727,130.371
1742206998.849,-194.336,163.574,-995.605,-194.336
1742206998.853,433.594,767.09,-1000.0,432.129
1742206998.857,-144.531,730.957,-997.559,-145.996
1742206998.861,63.477,525.879,-1000.0,50.293
1742206998.864,687.988,-611.816,-994.629,668.945
1742206998.868,743.652,-1000.0,-990.234,736.328
1742206998.872,-900.879,-929.688,-1000.0,-899.902
1742206998.876,557.617,-1000.0,-996.582,549.316
1742206998.88,-773.438,-942.383,-1000.0,-774.414
1742206998.837,-265.137,-135.742,-990.723,-270.508
1742206998.841,219.238,-389.648,-990.723,223.633
1742206998.845,116.211,-296.387,-969.727,130.371
1742206998.849,-194.336,163.574,-995.605,-194.336
1742206998.853,433.594,767.09,-1000.0,432.129
1742206998.857,-144.531,730.957,-997.559,-145.996
1742206998.861,63.477,525.879,-1000.0,50.293
1742206998.864,687.988,-611.816,-994.629,668.945
1742206998.868,743.652,-1000.0,-990.234,736.328
1742206998.872,-900.879,-929.688,-1000.0,-899.902
1742206998.876,557.617,-1000.0,-996.582,549.316
1742206998.88,-773.438,-942.383,-1000.0,-774.414
1742206998.866,-1000.0,-1000.0,-977.539,-1000.0
1742206998.87,-787.598,-892.09,-929.199,-782.227
1742206998.874,515.137,536.133,-991.211,520.996
1742206998.878,-604.004,-791.016,-994.141,-608.398
1742206998.882,-945.801,301.27,-1000.0,-939.453
1742206998.886,26.367,272.949,-964.355,20.508
1742206998.89,-541.016,-841.309,-763.672,-545.41
1742206998.893,213.379,852.051,-924.805,204.59
1742206998.897,-124.023,-281.738,-1000.0,-127.441
1742206998.901,-57.129,75.684,-1000.0,-50.781
1742206998.905,-181.641,-308.594,-993.652,-147.461
1742206998.909,-260.254,-631.348,-768.066,-230.469
1742206998.866,-1000.0,-1000.0,-977.539,-1000.0
1742206998.87,-787.598,-892.09,-929.199,-782.227
1742206998.874,515.137,536.133,-991.211,520.996
1742206998.878,-604.004,-791.016,-994.141,-608.398
1742206998.882,-945.801,301.27,-1000.0,-939.453
1742206998.886,26.367,272.949,-964.355,20.508
1742206998.89,-541.016,-841.309,-763.672,-545.41
1742206998.893,213.379,852.051,-924.805,204.59
1742206998.897,-124.023,-281.738,-1000.0,-127.441
1742206998.901,-57.129,75.684,-1000.0,-50.781
1742206998.905,-181.641,-308.594,-993.652,-147.461
1742206998.909,-260.254,-631.348,-768.066,-230.469
1742206998.866,-1000.0,-1000.0,-977.539,-1000.0
1742206998.87,-787.598,-892.09,-929.199,-782.227
1742206998.874,515.137,536.133,-991.211,520.996
1742206998.878,-604.004,-791.016,-994.141,-608.398
1742206998.882,-945.801,301.27,-1000.0,-939.453
1742206998.886,26.367,272.949,-964.355,20.508
1742206998.89,-541.016,-841.309,-763.672,-545.41
1742206998.893,213.379,852.051,-924.805,204.59
1742206998.897,-124.023,-281.738,-1000.0,-127.441
1742206998.901,-57.129,75.684,-1000.0,-50.781
1742206998.905,-181.641,-308.594,-993.652,-147.461
1742206998.909,-260.254,-631.348,-768.066,-230.469
1742206998.912,761.719,641.602,-903.809,747.559
1742206998.916,-924.805,979.98,-1000.0,-938.477
1742206998.92,811.523,-915.527,-995.605,812.012
1742206998.924,44.434,416.504,-979.004,59.57
1742206998.928,-101.074,-881.836,-538.574,-125.977
1742206998.932,147.461,419.434,-477.539,124.023
1742206998.936,343.75,-759.766,-914.551,345.703
1742206998.939,-24.414,113.281,-1000.0,-32.227
1742206998.943,69.336,-1000.0,-983.398,62.5
1742206998.947,-173.828,-887.695,-673.828,-162.598
1742206998.951,216.797,618.164,-697.266,199.707
1742206998.955,746.582,-895.508,-997.07,743.164
1742206998.912,761.719,641.602,-903.809,747.559
1742206998.916,-924.805,979.98,-1000.0,-938.477
1742206998.92,811.523,-915.527,-995.605,812.012
1742206998.924,44.434,416.504,-979.004,59.57
1742206998.928,-101.074,-881.836,-538.574,-125.977
1742206998.932,147.461,419.434,-477.539,124.023
1742206998.936,343.75,-759.766,-914.551,345.703
1742206998.939,-24.414,113.281,-1000.0,-32.227
1742206998.943,69.336,-1000.0,-983.398,62.5
1742206998.947,-173.828,-887.695,-673.828,-162.598
1742206998.951,216.797,618.164,-697.266,199.707
1742206998.955,746.582,-895.508,-997.07,743.164
1742206998.912,761.719,641.602,-903.809,747.559
1742206998.916,-924.805,979.98,-1000.0,-938.477
1742206998.92,811.523,-915.527,-995.605,812.012
1742206998.924,44.434,416.504,-979.004,59.57
1742206998.928,-101.074,-881.836,-538.574,-125.977
1742206998.932,147.461,419.434,-477.539,124.023
1742206998.936,343.75,-759.766,-914.551,345.703
