timestamps,TP9,AF7,AF8,TP10
1742375340.38,-931.641,-386.23,-639.16,-932.129
1742375340.384,-1000.0,-560.059,-834.961,-1000.0
1742375340.388,-677.734,-659.668,-473.633,-652.344
1742375340.38,-931.641,-386.23,-639.16,-932.129
1742375340.384,-1000.0,-560.059,-834.961,-1000.0
1742375340.388,-677.734,-659.668,-473.633,-652.344
1742375340.405,681.641,805.176,-64.941,700.195
1742375340.409,999.512,999.512,-213.379,999.512
1742375340.413,397.461,-22.461,-717.773,324.219
1742375340.417,-879.395,-1000.0,-956.543,-915.527
1742375340.421,-1000.0,-1000.0,-537.598,-1000.0
1742375340.425,-174.805,104.492,29.297,-171.875
1742375340.429,999.512,999.512,-18.066,999.512
1742375340.432,994.141,-171.875,-453.125,868.652
1742375340.436,-186.035,-1000.0,-679.688,-372.07
1742375340.44,-1000.0,-1000.0,-299.805,-1000.0
1742375340.444,-707.52,-501.953,222.168,-687.5
1742375340.448,598.145,866.211,330.566,610.352
1742375340.405,681.641,805.176,-64.941,700.195
1742375340.409,999.512,999.512,-213.379,999.512
1742375340.413,397.461,-22.461,-717.773,324.219
1742375340.417,-879.395,-1000.0,-956.543,-915.527
1742375340.421,-1000.0,-1000.0,-537.598,-1000.0
1742375340.425,-174.805,104.492,29.297,-171.875
1742375340.429,999.512,999.512,-18.066,999.512
1742375340.432,994.141,-171.875,-453.125,868.652
1742375340.436,-186.035,-1000.0,-679.688,-372.07
1742375340.44,-1000.0,-1000.0,-299.805,-1000.0
1742375340.444,-707.52,-501.953,222.168,-687.5
1742375340.448,598.145,866.211,330.566,610.352
1742375340.405,681.641,805.176,-64.941,700.195
1742375340.409,999.512,999.512,-213.379,999.512
1742375340.413,397.461,-22.461,-717.773,324.219
1742375340.417,-879.395,-1000.0,-956.543,-915.527
1742375340.421,-1000.0,-1000.0,-537.598,-1000.0
1742375340.425,-174.805,104.492,29.297,-171.875
1742375340.429,999.512,999.512,-18.066,999.512
1742375340.432,994.141,-171.875,-453.125,868.652
1742375340.436,-186.035,-1000.0,-679.688,-372.07
1742375340.44,-1000.0,-1000.0,-299.805,-1000.0
1742375340.444,-707.52,-501.953,222.168,-687.5
1742375340.448,598.145,866.211,330.566,610.352
1742375340.45,999.512,993.164,-17.578,999.512
1742375340.454,185.059,-294.434,-514.16,176.27
1742375340.458,-1000.0,-1000.0,-301.27,-1000.0
1742375340.462,-204.102,14.648,322.754,-205.566
1742375340.466,999.512,999.512,434.082,999.512
1742375340.47,999.512,999.512,109.863,999.512
1742375340.474,158.691,29.297,-480.957,158.691
1742375340.477,-1000.0,-1000.0,-499.023,-1000.0
1742375340.481,-1000.0,-1000.0,88.379,-1000.0
1742375340.485,-240.234,-238.77,263.184,-247.07
1742375340.489,999.512,999.512,59.57,999.512
1742375340.493,888.672,747.559,-374.512,810.059
1742375340.45,999.512,993.164,-17.578,999.512
1742375340.454,185.059,-294.434,-514.16,176.27
1742375340.458,-1000.0,-1000.0,-301.27,-1000.0
1742375340.462,-204.102,14.648,322.754,-205.566
1742375340.466,999.512,999.512,434.082,999.512
1742375340.47,999.512,999.512,109.863,999.512
1742375340.474,158.691,29.297,-480.957,158.691
1742375340.477,-1000.0,-1000.0,-499.023,-1000.0
1742375340.481,-1000.0,-1000.0,88.379,-1000.0
1742375340.485,-240.234,-238.77,263.184,-247.07
1742375340.489,999.512,999.512,59.57,999.512
1742375340.493,888.672,747.559,-374.512,810.059
1742375340.496,-447.266,-755.859,-370.117,-554.688
1742375340.5,-1000.0,-940.918,118.652,-1000.0
1742375340.504,-74.219,528.809,391.113,-57.129
1742375340.508,999.512,999.512,80.078,999.512
1742375340.512,145.996,-106.445,-541.992,145.02
1742375340.516,-1000.0,-1000.0,-464.355,-1000.0
1742375340.52,-1000.0,-1000.0,47.852,-1000.0
1742375340.523,-298.828,-281.738,299.316,-299.316
1742375340.527,974.121,999.512,222.656,987.305
1742375340.531,999.512,852.539,-292.48,999.512
1742375340.535,-114.258,-528.809,-465.82,-180.664
1742375340.539,-1000.0,-1000.0,8.789,-1000.0
1742375340.496,-447.266,-755.859,-370.117,-554.688
1742375340.5,-1000.0,-940.918,118.652,-1000.0
1742375340.504,-74.219,528.809,391.113,-57.129
1742375340.508,999.512,999.512,80.078,999.512
1742375340.512,145.996,-106.445,-541.992,145.02
1742375340.516,-1000.0,-1000.0,-464.355,-1000.0
1742375340.52,-1000.0,-1000.0,47.852,-1000.0
1742375340.523,-298.828,-281.738,299.316,-299.316
1742375340.527,974.121,999.512,222.656,987.305
1742375340.531,999.512,852.539,-292.48,999.512
1742375340.535,-114.258,-528.809,-465.82,-180.664
1742375340.539,-1000.0,-1000.0,8.789,-1000.0
1742375340.496,-447.266,-755.859,-370.117,-554.688
1742375340.5,-1000.0,-940.918,118.652,-1000.0
1742375340.504,-74.219,528.809,391.113,-57.129
1742375340.508,999.512,999.512,80.078,999.512
1742375340.512,145.996,-106.445,-541.992,145.02
1742375340.516,-1000.0,-1000.0,-464.355,-1000.0
1742375340.52,-1000.0,-1000.0,47.852,-1000.0
1742375340.523,-298.828,-281.738,299.316,-299.316
1742375340.527,974.121,999.512,222.656,987.305
1742375340.531,999.512,852.539,-292.48,999.512
1742375340.535,-114.258,-528.809,-465.82,-180.664
1742375340.539,-1000.0,-1000.0,8.789,-1000.0
1742375340.54,-187.5,155.273,433.594,-189.941
1742375340.544,999.512,999.512,264.16,999.512
1742375340.548,999.512,361.816,-233.887,984.863
1742375340.552,-127.441,-883.301,-429.688,-220.703
1742375340.556,-1000.0,-1000.0,-105.469,-1000.0
1742375340.56,-197.754,-98.145,400.391,-203.125
1742375340.564,999.512,999.512,359.863,999.512
1742375340.567,973.633,262.207,-145.508,904.297
1742375340.571,-292.48,-1000.0,-373.047,-398.926
1742375340.575,-1000.0,-865.234,37.598,-1000.0
1742375340.579,-37.109,479.492,597.656,-22.949
1742375340.583,993.164,996.582,647.461,992.188
1742375340.54,-187.5,155.273,433.594,-189.941
1742375340.544,999.512,999.512,264.16,999.512
1742375340.548,999.512,361.816,-233.887,984.863
1742375340.552,-127.441,-883.301,-429.688,-220.703
1742375340.556,-1000.0,-1000.0,-105.469,-1000.0
1742375340.56,-197.754,-98.145,400.391,-203.125
1742375340.564,999.512,999.512,359.863,999.512
1742375340.567,973.633,262.207,-145.508,904.297
1742375340.571,-292.48,-1000.0,-373.047,-398.926
1742375340.575,-1000.0,-865.234,37.598,-1000.0
1742375340.579,-37.109,479.492,597.656,-22.949
1742375340.583,993.164,996.582,647.461,992.188
1742375341.053,-1000.0,-1000.0,-229.98,-1000.0
1742375341.057,-469.727,-223.633,284.18,-458.008
1742375341.061,879.883,999.512,365.723,882.812
1742375341.065,999.512,792.969,-41.992,999.512
1742375341.069,68.359,-659.18,-597.168,28.32
1742375341.073,-1000.0,-977.051,-338.867,-1000.0
1742375341.077,-201.172,395.02,275.879,-184.57
1742375341.08,999.512,999.512,278.32,999.512
1742375341.084,999.512,362.305,-89.844,999.512
1742375341.088,-13.672,-900.879,-530.762,-99.609
1742375341.092,-1000.0,-1000.0,-354.98,-1000.0
1742375341.096,-222.168,-86.426,278.809,-222.168
1742375341.099,999.512,955.566,64.453,999.512
1742375341.103,140.625,-72.266,-440.918,139.648
1742375341.107,-1000.0,-1000.0,-244.629,-1000.0
1742375341.111,-594.727,-323.73,360.84,-584.473
1742375341.115,788.574,965.332,605.957,786.621
1742375341.119,999.512,999.512,399.902,999.512
1742375341.122,249.512,-73.73,-216.797,244.141
1742375341.126,-1000.0,-1000.0,-289.062,-1000.0
1742375341.13,-1000.0,-707.52,301.27,-1000.0
1742375341.134,187.012,565.43,611.816,251.465
1742375341.138,999.512,999.512,432.617,999.512
1742375341.141,994.629,731.445,-60.547,964.355
1742375341.145,-88.379,-534.668,-212.891,-145.996
1742375341.149,-1000.0,-1000.0,169.434,-1000.0
1742375341.153,-163.086,46.875,594.238,-137.207
1742375341.157,978.027,999.512,512.207,988.77
1742375341.161,999.512,999.512,37.598,999.512
1742375341.165,215.332,99.121,-262.695,170.41
1742375341.168,-1000.0,-1000.0,20.996,-1000.0
1742375341.172,-842.285,-755.371,442.383,-755.859
1742375341.176,563.477,839.355,359.863,664.062
1742375341.18,999.512,446.777,-122.559,999.512
1742375341.184,-101.074,-1000.0,-396.484,-170.41
1742375341.141,994.629,731.445,-60.547,964.355
1742375341.145,-88.379,-534.668,-212.891,-145.996
1742375341.149,-1000.0,-1000.0,169.434,-1000.0
1742375341.153,-163.086,46.875,594.238,-137.207
1742375341.157,978.027,999.512,512.207,988.77
1742375341.161,999.512,999.512,37.598,999.512
1742375341.165,215.332,99.121,-262.695,170.41
1742375341.168,-1000.0,-1000.0,20.996,-1000.0
1742375341.172,-842.285,-755.371,442.383,-755.859
1742375341.176,563.477,839.355,359.863,664.062
1742375341.18,999.512,446.777,-122.559,999.512
1742375341.184,-101.074,-1000.0,-396.484,-170.41
1742375341.141,994.629,731.445,-60.547,964.355
1742375341.145,-88.379,-534.668,-212.891,-145.996
1742375341.149,-1000.0,-1000.0,169.434,-1000.0
1742375341.153,-163.086,46.875,594.238,-137.207
1742375341.157,978.027,999.512,512.207,988.77
1742375341.161,999.512,999.512,37.598,999.512
1742375341.165,215.332,99.121,-262.695,170.41
1742375341.168,-1000.0,-1000.0,20.996,-1000.0
1742375341.172,-842.285,-755.371,442.383,-755.859
1742375341.176,563.477,839.355,359.863,664.062
1742375341.18,999.512,446.777,-122.559,999.512
1742375341.184,-101.074,-1000.0,-396.484,-170.41
1742375341.2,-1000.0,-945.312,-5.859,-1000.0
1742375341.204,-165.527,313.965,442.383,-126.953
1742375341.208,995.605,999.512,384.277,999.512
1742375341.212,999.512,920.898,-32.715,999.512
1742375341.216,100.586,-224.609,-446.777,80.566
1742375341.22,-1000.0,-1000.0,-180.664,-1000.0
1742375341.224,-652.832,-145.02,313.965,-587.402
1742375341.227,770.02,999.512,267.09,820.312
1742375341.231,999.512,632.324,-151.855,999.512
1742375341.235,-188.477,-696.289,-590.82,-208.496
1742375341.239,-1000.0,-1000.0,-351.074,-1000.0
1742375341.243,-1000.0,-883.301,125.488,-1000.0
1742375341.2,-1000.0,-945.312,-5.859,-1000.0
1742375341.204,-165.527,313.965,442.383,-126.953
1742375341.208,995.605,999.512,384.277,999.512
1742375341.212,999.512,920.898,-32.715,999.512
1742375341.216,100.586,-224.609,-446.777,80.566
1742375341.22,-1000.0,-1000.0,-180.664,-1000.0
1742375341.224,-652.832,-145.02,313.965,-587.402
1742375341.227,770.02,999.512,267.09,820.312
1742375341.231,999.512,632.324,-151.855,999.512
1742375341.235,-188.477,-696.289,-590.82,-208.496
1742375341.239,-1000.0,-1000.0,-351.074,-1000.0
1742375341.243,-1000.0,-883.301,125.488,-1000.0
1742375341.246,-57.617,285.156,239.258,-21.973
1742375341.25,999.512,999.512,-2.93,999.512
1742375341.254,159.668,162.598,-536.133,160.156
1742375341.258,-1000.0,-1000.0,-458.984,-1000.0
1742375341.262,-1000.0,-843.75,89.844,-1000.0
1742375341.266,36.133,549.805,339.355,59.57
1742375341.27,999.512,999.512,53.711,999.512
1742375341.273,147.949,-204.59,-566.406,144.043
1742375341.277,-1000.0,-1000.0,-479.98,-1000.0
1742375341.281,-1000.0,-690.43,88.379,-1000.0
1742375341.285,-25.391,542.48,312.988,-10.254
1742375341.289,999.512,999.512,71.289,999.512
1742375341.246,-57.617,285.156,239.258,-21.973
1742375341.25,999.512,999.512,-2.93,999.512
1742375341.254,159.668,162.598,-536.133,160.156
1742375341.258,-1000.0,-1000.0,-458.984,-1000.0
1742375341.262,-1000.0,-843.75,89.844,-1000.0
1742375341.266,36.133,549.805,339.355,59.57
1742375341.27,999.512,999.512,53.711,999.512
1742375341.273,147.949,-204.59,-566.406,144.043
1742375341.277,-1000.0,-1000.0,-479.98,-1000.0
1742375341.281,-1000.0,-690.43,88.379,-1000.0
1742375341.285,-25.391,542.48,312.988,-10.254
1742375341.289,999.512,999.512,71.289,999.512
1742375341.29,742.188,568.848,-403.809,684.082
1742375341.294,-576.172,-815.918,-481.934,-645.02
1742375341.298,-1000.0,-1000.0,-25.879,-1000.0
1742375341.302,-170.898,257.324,352.539,-148.926
1742375341.306,999.023,999.512,104.004,999.512
1742375341.31,999.512,900.391,-354.492,984.863
1742375341.314,-121.582,-245.117,-481.934,-189.941
1742375341.317,-1000.0,-1000.0,-156.738,-1000.0
1742375341.321,-825.684,-637.207,226.562,-751.953
1742375341.325,469.238,759.766,190.918,557.129
1742375341.329,999.512,934.57,-215.332,999.512
1742375341.333,68.848,-370.117,-474.609,31.25
1742375341.29,742.188,568.848,-403.809,684.082
1742375341.294,-576.172,-815.918,-481.934,-645.02
1742375341.298,-1000.0,-1000.0,-25.879,-1000.0
1742375341.302,-170.898,257.324,352.539,-148.926
1742375341.306,999.023,999.512,104.004,999.512
1742375341.31,999.512,900.391,-354.492,984.863
1742375341.314,-121.582,-245.117,-481.934,-189.941
1742375341.317,-1000.0,-1000.0,-156.738,-1000.0
1742375341.321,-825.684,-637.207,226.562,-751.953
1742375341.325,469.238,759.766,190.918,557.129
1742375341.329,999.512,934.57,-215.332,999.512
1742375341.333,68.848,-370.117,-474.609,31.25
1742375341.353,-1000.0,-1000.0,-132.812,-1000.0
1742375341.357,-326.172,-190.918,350.586,-312.5
1742375341.361,969.727,999.512,304.688,977.539
1742375341.365,999.512,940.918,-175.293,999.512
1742375341.369,-20.02,-540.039,-533.691,-71.777
1742375341.373,-1000.0,-738.281,-150.879,-1000.0
1742375341.377,-218.262,774.414,367.188,-158.203
1742375341.38,999.512,999.512,223.145,999.512
1742375341.384,394.531,52.734,-251.953,339.844
1742375341.388,-924.805,-1000.0,-568.359,-943.359
1742375341.392,-1000.0,-1000.0,-286.621,-1000.0
1742375341.396,-368.652,-66.406,178.711,-356.934
1742375341.353,-1000.0,-1000.0,-132.812,-1000.0
1742375341.357,-326.172,-190.918,350.586,-312.5
1742375341.361,969.727,999.512,304.688,977.539
1742375341.365,999.512,940.918,-175.293,999.512
1742375341.369,-20.02,-540.039,-533.691,-71.777
1742375341.373,-1000.0,-738.281,-150.879,-1000.0
1742375341.377,-218.262,774.414,367.188,-158.203
1742375341.38,999.512,999.512,223.145,999.512
1742375341.384,394.531,52.734,-251.953,339.844
1742375341.388,-924.805,-1000.0,-568.359,-943.359
1742375341.392,-1000.0,-1000.0,-286.621,-1000.0
1742375341.396,-368.652,-66.406,178.711,-356.934
1742375341.38,890.137,999.512,229.98,901.855
1742375341.384,999.512,886.23,-127.441,999.512
1742375341.388,101.562,-340.82,-564.453,57.617
1742375341.392,-1000.0,-1000.0,-333.984,-1000.0
1742375341.396,-1000.0,-1000.0,136.719,-1000.0
1742375341.4,-145.02,34.668,312.988,-141.113
1742375341.404,999.512,999.512,73.73,999.512
1742375341.407,235.352,160.645,-548.34,218.262
1742375341.411,-998.535,-1000.0,-502.441,-1000.0
1742375341.415,-1000.0,-1000.0,45.41,-1000.0
1742375341.419,-261.719,-34.668,244.141,-250.0
1742375341.423,999.512,999.512,-0.488,999.512
1742375341.441,475.098,331.543,-557.129,423.34
1742375341.445,-900.879,-970.215,-587.891,-924.805
1742375341.449,-1000.0,-1000.0,-105.469,-1000.0
1742375341.453,-223.145,-78.613,215.332,-229.98
1742375341.457,999.512,999.512,92.773,999.512
1742375341.461,803.223,714.355,-479.492,747.559
1742375341.465,-532.715,-708.984,-738.281,-599.121
1742375341.468,-1000.0,-1000.0,-337.891,-1000.0
1742375341.472,-343.75,177.246,99.121,-320.801
1742375341.476,999.512,999.512,18.555,999.512
1742375341.48,260.254,148.438,-559.082,271.973
1742375341.484,-1000.0,-1000.0,-750.977,-1000.0
1742375341.441,475.098,331.543,-557.129,423.34
1742375341.445,-900.879,-970.215,-587.891,-924.805
1742375341.449,-1000.0,-1000.0,-105.469,-1000.0
1742375341.453,-223.145,-78.613,215.332,-229.98
1742375341.457,999.512,999.512,92.773,999.512
1742375341.461,803.223,714.355,-479.492,747.559
1742375341.465,-532.715,-708.984,-738.281,-599.121
1742375341.468,-1000.0,-1000.0,-337.891,-1000.0
1742375341.472,-343.75,177.246,99.121,-320.801
1742375341.476,999.512,999.512,18.555,999.512
1742375341.48,260.254,148.438,-559.082,271.973
1742375341.484,-1000.0,-1000.0,-750.977,-1000.0
1742375341.95,999.512,999.512,81.055,999.512
1742375341.954,861.816,460.449,-437.5,803.711
1742375341.958,-471.68,-1000.0,-522.949,-561.523
1742375341.962,-1000.0,-424.316,22.949,-1000.0
1742375341.966,-38.086,942.871,349.121,31.738
1742375341.97,999.512,999.512,196.777,999.512
1742375341.974,328.613,151.367,-328.613,303.223
1742375341.977,-950.684,-987.793,-645.508,-953.613
1742375341.981,-1000.0,-1000.0,-291.016,-1000.0
1742375341.985,-792.48,-528.809,136.719,-762.207
1742375341.989,500.977,774.902,180.664,531.25
1742375341.993,999.512,999.512,-148.438,999.512
1742375341.441,475.098,331.543,-557.129,423.34
1742375341.445,-900.879,-970.215,-587.891,-924.805
1742375341.449,-1000.0,-1000.0,-105.469,-1000.0
1742375341.453,-223.145,-78.613,215.332,-229.98
1742375341.457,999.512,999.512,92.773,999.512
1742375341.461,803.223,714.355,-479.492,747.559
1742375341.465,-532.715,-708.984,-738.281,-599.121
1742375341.468,-1000.0,-1000.0,-337.891,-1000.0
1742375341.472,-343.75,177.246,99.121,-320.801
1742375341.476,999.512,999.512,18.555,999.512
1742375341.48,260.254,148.438,-559.082,271.973
1742375341.484,-1000.0,-1000.0,-750.977,-1000.0
1742375341.47,-1000.0,-997.559,-260.742,-1000.0
1742375341.474,-235.84,79.59,103.516,-236.328
1742375341.478,999.512,999.512,-14.16,999.512
1742375341.482,851.074,627.93,-598.633,826.66
1742375341.486,-444.336,-842.773,-874.512,-482.91
1742375341.49,-1000.0,-865.234,-418.945,-1000.0
1742375341.494,-545.898,483.398,-75.195,-440.43
1742375341.497,912.598,999.512,-176.758,963.379
1742375341.501,891.113,250.0,-509.277,872.07
1742375341.505,-522.461,-945.801,-772.461,-494.141
1742375341.509,-1000.0,-1000.0,-388.184,-1000.0
1742375341.513,-755.371,-623.535,94.238,-665.527
1742375341.517,520.508,721.191,165.039,623.535
1742375341.521,999.512,999.512,-222.168,999.512
1742375341.525,167.969,-14.648,-673.34,168.945
1742375341.529,-1000.0,-1000.0,-405.273,-1000.0
1742375341.533,-912.109,-640.137,118.652,-858.887
1742375341.537,424.316,883.789,239.258,500.0
1742375341.541,999.512,734.863,-98.633,999.512
1742375341.544,30.762,-716.309,-672.852,5.371
1742375341.548,-1000.0,-1000.0,-489.258,-1000.0
1742375341.552,-1000.0,-765.625,82.031,-983.398
1742375341.556,146.973,447.266,237.305,194.336
1742375341.56,999.512,999.512,114.746,999.512
1742375341.517,520.508,721.191,165.039,623.535
1742375341.521,999.512,999.512,-222.168,999.512
1742375341.525,167.969,-14.648,-673.34,168.945
1742375341.529,-1000.0,-1000.0,-405.273,-1000.0
1742375341.533,-912.109,-640.137,118.652,-858.887
1742375341.537,424.316,883.789,239.258,500.0
1742375341.541,999.512,734.863,-98.633,999.512
1742375341.544,30.762,-716.309,-672.852,5.371
1742375341.548,-1000.0,-1000.0,-489.258,-1000.0
1742375341.552,-1000.0,-765.625,82.031,-983.398
1742375341.556,146.973,447.266,237.305,194.336
1742375341.56,999.512,999.512,114.746,999.512
1742375341.517,520.508,721.191,165.039,623.535
1742375341.521,999.512,999.512,-222.168,999.512
1742375341.525,167.969,-14.648,-673.34,168.945
1742375341.529,-1000.0,-1000.0,-405.273,-1000.0
1742375341.533,-912.109,-640.137,118.652,-858.887
1742375341.537,424.316,883.789,239.258,500.0
1742375341.541,999.512,734.863,-98.633,999.512
1742375341.544,30.762,-716.309,-672.852,5.371
1742375341.548,-1000.0,-1000.0,-489.258,-1000.0
1742375341.552,-1000.0,-765.625,82.031,-983.398
1742375341.556,146.973,447.266,237.305,194.336
1742375341.56,999.512,999.512,114.746,999.512
1742375341.576,753.418,609.375,-306.152,671.387
1742375341.58,-527.832,-720.215,-479.492,-622.07
1742375341.584,-1000.0,-1000.0,-114.258,-1000.0
1742375341.588,-212.402,84.961,205.566,-192.383
1742375341.592,999.512,999.512,-39.551,999.512
1742375341.596,753.906,615.234,-549.805,675.293
1742375341.6,-588.867,-693.359,-589.844,-673.828
1742375341.603,-1000.0,-1000.0,-152.832,-1000.0
1742375341.607,-466.797,-349.609,129.883,-414.062
1742375341.611,983.887,999.512,-39.551,999.512
1742375341.615,809.57,414.062,-570.801,747.07
1742375341.619,-622.07,-957.52,-698.242,-672.852
1742375341.576,753.418,609.375,-306.152,671.387
1742375341.58,-527.832,-720.215,-479.492,-622.07
1742375341.584,-1000.0,-1000.0,-114.258,-1000.0
1742375341.588,-212.402,84.961,205.566,-192.383
1742375341.592,999.512,999.512,-39.551,999.512
1742375341.596,753.906,615.234,-549.805,675.293
1742375341.6,-588.867,-693.359,-589.844,-673.828
1742375341.603,-1000.0,-1000.0,-152.832,-1000.0
1742375341.607,-466.797,-349.609,129.883,-414.062
1742375341.611,983.887,999.512,-39.551,999.512
1742375341.615,809.57,414.062,-570.801,747.07
1742375341.619,-622.07,-957.52,-698.242,-672.852
1742375341.62,-1000.0,-1000.0,-212.402,-1000.0
1742375341.624,-179.688,-69.336,120.117,-187.5
1742375341.628,999.512,999.512,-77.637,999.512
1742375341.632,999.512,874.512,-485.352,992.188
1742375341.636,-158.203,-601.074,-687.012,-242.188
1742375341.64,-1000.0,-829.59,-262.695,-1000.0
1742375341.644,-153.32,670.898,212.891,-118.652
1742375341.647,999.512,999.512,68.848,999.512
1742375341.651,232.422,-10.254,-505.859,220.215
1742375341.655,-993.164,-1000.0,-756.348,-993.652
1742375341.659,-1000.0,-1000.0,-295.41,-1000.0
1742375341.663,-360.352,-241.699,139.648,-360.84
1742375341.62,-1000.0,-1000.0,-212.402,-1000.0
1742375341.624,-179.688,-69.336,120.117,-187.5
1742375341.628,999.512,999.512,-77.637,999.512
1742375341.632,999.512,874.512,-485.352,992.188
1742375341.636,-158.203,-601.074,-687.012,-242.188
1742375341.64,-1000.0,-829.59,-262.695,-1000.0
1742375341.644,-153.32,670.898,212.891,-118.652
1742375341.647,999.512,999.512,68.848,999.512
1742375341.651,232.422,-10.254,-505.859,220.215
1742375341.655,-993.164,-1000.0,-756.348,-993.652
1742375341.659,-1000.0,-1000.0,-295.41,-1000.0
1742375341.663,-360.352,-241.699,139.648,-360.84
1742375341.62,-1000.0,-1000.0,-212.402,-1000.0
1742375341.624,-179.688,-69.336,120.117,-187.5
1742375341.628,999.512,999.512,-77.637,999.512
1742375341.632,999.512,874.512,-485.352,992.188
1742375341.636,-158.203,-601.074,-687.012,-242.188
1742375341.64,-1000.0,-829.59,-262.695,-1000.0
1742375341.644,-153.32,670.898,212.891,-118.652
1742375341.647,999.512,999.512,68.848,999.512
1742375341.651,232.422,-10.254,-505.859,220.215
1742375341.655,-993.164,-1000.0,-756.348,-993.652
1742375341.659,-1000.0,-1000.0,-295.41,-1000.0
1742375341.663,-360.352,-241.699,139.648,-360.84
1742375341.666,914.062,999.512,112.305,918.945
1742375341.67,999.512,857.422,-323.73,999.512
1742375341.674,67.871,-380.371,-735.352,26.367
1742375341.678,-1000.0,-1000.0,-384.277,-1000.0
1742375341.682,-870.117,-684.57,186.035,-814.453
1742375341.686,422.852,587.891,237.793,483.887
1742375341.69,999.512,999.512,-73.242,999.512
1742375341.693,174.805,136.23,-562.5,168.457
1742375341.697,-988.281,-1000.0,-414.551,-1000.0
1742375341.701,-1000.0,-1000.0,140.625,-1000.0
1742375341.705,-184.082,-106.445,231.934,-112.793
1742375341.709,999.512,999.512,-62.012,999.512
1742375341.666,914.062,999.512,112.305,918.945
1742375341.67,999.512,857.422,-323.73,999.512
1742375341.674,67.871,-380.371,-735.352,26.367
1742375341.678,-1000.0,-1000.0,-384.277,-1000.0
1742375341.682,-870.117,-684.57,186.035,-814.453
1742375341.686,422.852,587.891,237.793,483.887
1742375341.69,999.512,999.512,-73.242,999.512
1742375341.693,174.805,136.23,-562.5,168.457
1742375341.697,-988.281,-1000.0,-414.551,-1000.0
1742375341.701,-1000.0,-1000.0,140.625,-1000.0
1742375341.705,-184.082,-106.445,231.934,-112.793
1742375341.709,999.512,999.512,-62.012,999.512
1742375341.712,490.234,314.941,-532.715,429.199
1742375341.716,-878.418,-974.121,-437.988,-906.738
1742375341.72,-1000.0,-1000.0,-24.414,-1000.0
1742375341.724,-166.992,-59.082,175.781,-125.488
1742375341.728,999.512,999.512,10.742,999.512
1742375341.732,950.195,942.383,-393.555,944.336
1742375341.736,939.453,883.789,-150.879,945.801
1742375341.739,910.156,640.137,348.633,907.715
1742375341.743,999.512,683.105,469.727,999.512
1742375341.747,176.758,-230.957,153.32,211.914
1742375341.751,-999.023,-1000.0,-397.461,-990.723
1742375341.755,-1000.0,-1000.0,-314.453,-1000.0
1742375341.755,-387.695,-5.859,314.453,-325.195
1742375341.759,931.641,999.512,548.828,948.242
1742375341.763,955.078,29.297,181.641,959.473
1742375341.767,999.512,-3.418,-148.438,985.352
1742375341.771,-56.152,-68.359,-170.898,-136.23
1742375341.775,-1000.0,-845.703,218.262,-1000.0
1742375341.779,-236.816,604.492,534.18,-199.707
1742375341.782,999.512,999.512,308.105,999.512
1742375341.786,582.52,250.488,-177.734,569.824
1742375341.79,-789.062,-949.219,-421.387,-790.527
1742375341.794,-1000.0,-1000.0,-39.062,-1000.0
1742375341.798,-436.035,-206.543,327.637,-388.672
1742375341.755,-387.695,-5.859,314.453,-325.195
1742375341.759,931.641,999.512,548.828,948.242
1742375341.763,955.078,29.297,181.641,959.473
1742375341.767,999.512,-3.418,-148.438,985.352
1742375341.771,-56.152,-68.359,-170.898,-136.23
1742375341.775,-1000.0,-845.703,218.262,-1000.0
1742375341.779,-236.816,604.492,534.18,-199.707
1742375341.782,999.512,999.512,308.105,999.512
1742375341.786,582.52,250.488,-177.734,569.824
1742375341.79,-789.062,-949.219,-421.387,-790.527
1742375341.794,-1000.0,-1000.0,-39.062,-1000.0
1742375341.798,-436.035,-206.543,327.637,-388.672
1742375341.755,-387.695,-5.859,314.453,-325.195
1742375341.759,931.641,999.512,548.828,948.242
1742375341.763,955.078,29.297,181.641,959.473
1742375341.767,999.512,-3.418,-148.438,985.352
1742375341.771,-56.152,-68.359,-170.898,-136.23
1742375341.775,-1000.0,-845.703,218.262,-1000.0
1742375341.779,-236.816,604.492,534.18,-199.707
1742375341.782,999.512,999.512,308.105,999.512
1742375341.786,582.52,250.488,-177.734,569.824
1742375341.79,-789.062,-949.219,-421.387,-790.527
1742375341.794,-1000.0,-1000.0,-39.062,-1000.0
1742375341.798,-436.035,-206.543,327.637,-388.672
1742375342.28,59.57,-347.168,-368.652,-4.883
1742375342.284,-1000.0,-1000.0,-44.922,-1000.0
1742375342.288,-732.422,-632.812,338.379,-686.035
1742375342.292,674.316,738.77,361.816,707.031
1742375342.296,999.512,969.238,-31.738,999.512
1742375342.3,901.367,999.512,-270.508,904.785
1742375342.304,986.816,369.629,62.012,986.328
1742375342.307,896.484,-1000.0,391.602,898.926
1742375342.311,999.512,72.754,433.105,999.512
1742375342.315,298.34,385.742,-17.578,276.367
1742375342.319,-960.449,-1000.0,-536.621,-968.75
1742375342.323,-1000.0,-997.07,-199.219,-1000.0
1742375341.801,889.648,999.512,172.363,921.387
1742375341.805,999.512,872.07,-365.234,999.512
1742375341.809,-125.977,-389.648,-735.84,-162.598
1742375341.813,-1000.0,-1000.0,-384.277,-1000.0
1742375341.817,-640.137,-354.004,117.676,-591.797
1742375341.821,795.41,999.512,155.273,838.867
1742375341.825,999.512,562.988,-352.539,992.188
1742375341.828,-315.918,-817.383,-883.789,-355.957
1742375341.832,-1000.0,-1000.0,-493.164,-1000.0
1742375341.836,-564.941,-309.082,68.359,-542.48
1742375341.84,750.977,916.992,34.668,759.277
1742375341.844,999.512,999.512,-317.871,999.512
1742375341.801,889.648,999.512,172.363,921.387
1742375341.805,999.512,872.07,-365.234,999.512
1742375341.809,-125.977,-389.648,-735.84,-162.598
1742375341.813,-1000.0,-1000.0,-384.277,-1000.0
1742375341.817,-640.137,-354.004,117.676,-591.797
1742375341.821,795.41,999.512,155.273,838.867
1742375341.825,999.512,562.988,-352.539,992.188
1742375341.828,-315.918,-817.383,-883.789,-355.957
1742375341.832,-1000.0,-1000.0,-493.164,-1000.0
1742375341.836,-564.941,-309.082,68.359,-542.48
1742375341.84,750.977,916.992,34.668,759.277
1742375341.844,999.512,999.512,-317.871,999.512
1742375341.861,169.434,98.145,-650.879,172.852
1742375341.865,-1000.0,-1000.0,-391.113,-1000.0
1742375341.869,-954.102,-699.707,131.348,-936.035
1742375341.873,334.473,772.461,249.512,355.469
1742375341.877,999.512,918.457,-146.973,999.512
1742375341.881,119.629,-451.172,-695.801,105.957
1742375341.885,-1000.0,-1000.0,-566.895,-1000.0
1742375341.888,-1000.0,-1000.0,-103.027,-1000.0
1742375341.892,-260.254,-180.664,78.125,-229.004
1742375341.896,999.512,999.512,-175.781,999.512
1742375341.9,254.883,192.871,-802.246,240.234
1742375341.904,-1000.0,-1000.0,-748.047,-1000.0
1742375341.861,169.434,98.145,-650.879,172.852
1742375341.865,-1000.0,-1000.0,-391.113,-1000.0
1742375341.869,-954.102,-699.707,131.348,-936.035
1742375341.873,334.473,772.461,249.512,355.469
1742375341.877,999.512,918.457,-146.973,999.512
1742375341.881,119.629,-451.172,-695.801,105.957
1742375341.885,-1000.0,-1000.0,-566.895,-1000.0
1742375341.888,-1000.0,-1000.0,-103.027,-1000.0
1742375341.892,-260.254,-180.664,78.125,-229.004
1742375341.896,999.512,999.512,-175.781,999.512
1742375341.9,254.883,192.871,-802.246,240.234
1742375341.904,-1000.0,-1000.0,-748.047,-1000.0
1742375341.861,169.434,98.145,-650.879,172.852
1742375341.865,-1000.0,-1000.0,-391.113,-1000.0
1742375341.869,-954.102,-699.707,131.348,-936.035
1742375341.873,334.473,772.461,249.512,355.469
1742375341.877,999.512,918.457,-146.973,999.512
1742375341.881,119.629,-451.172,-695.801,105.957
1742375341.885,-1000.0,-1000.0,-566.895,-1000.0
1742375341.888,-1000.0,-1000.0,-103.027,-1000.0
1742375341.892,-260.254,-180.664,78.125,-229.004
1742375341.896,999.512,999.512,-175.781,999.512
1742375341.9,254.883,192.871,-802.246,240.234
1742375341.904,-1000.0,-1000.0,-748.047,-1000.0
1742375341.892,-1000.0,-680.664,-163.574,-1000.0
1742375341.896,89.844,661.133,117.188,103.516
1742375341.9,999.512,960.449,-61.035,999.512
1742375341.904,819.824,391.602,-594.727,755.859
1742375341.908,-570.312,-871.094,-642.09,-664.062
1742375341.912,-1000.0,-494.629,-24.902,-1000.0
1742375341.916,328.125,999.512,270.508,387.695
1742375341.919,999.512,829.102,-63.965,999.512
1742375341.923,126.465,-477.051,-608.887,93.262
1742375341.927,-1000.0,-1000.0,-695.312,-1000.0
1742375341.931,-1000.0,-814.941,-155.762,-1000.0
1742375341.935,-149.414,356.934,235.352,-137.207
1742375341.892,-1000.0,-680.664,-163.574,-1000.0
1742375341.896,89.844,661.133,117.188,103.516
1742375341.9,999.512,960.449,-61.035,999.512
1742375341.904,819.824,391.602,-594.727,755.859
1742375341.908,-570.312,-871.094,-642.09,-664.062
1742375341.912,-1000.0,-494.629,-24.902,-1000.0
1742375341.916,328.125,999.512,270.508,387.695
1742375341.919,999.512,829.102,-63.965,999.512
1742375341.923,126.465,-477.051,-608.887,93.262
1742375341.927,-1000.0,-1000.0,-695.312,-1000.0
1742375341.931,-1000.0,-814.941,-155.762,-1000.0
1742375341.935,-149.414,356.934,235.352,-137.207
1742375341.995,132.812,91.797,-500.977,131.348
1742375341.999,-1000.0,-1000.0,-235.352,-1000.0
1742375342.003,-1000.0,-1000.0,202.637,-1000.0
1742375342.007,-58.105,137.207,269.531,-26.855
1742375342.011,999.512,999.512,-38.086,999.512
1742375342.015,512.207,553.711,-472.168,413.086
1742375342.019,-878.906,-854.98,-343.262,-934.082
1742375342.022,-1000.0,-1000.0,173.34,-1000.0
1742375342.026,20.996,293.945,442.383,50.781
1742375342.03,999.512,999.512,115.234,999.512
1742375342.034,162.109,-115.723,-474.609,152.832
1742375342.038,-1000.0,-1000.0,-312.5,-1000.0
1742375342.041,-1000.0,-623.535,279.297,-1000.0
1742375342.045,120.117,716.309,464.844,172.363
1742375342.049,999.512,674.805,205.078,999.512
1742375342.053,857.91,488.281,-232.422,776.855
1742375342.057,-377.93,-361.328,-268.555,-482.422
1742375342.061,-1000.0,-1000.0,170.41,-1000.0
1742375342.065,-216.797,107.91,407.227,-206.055
1742375342.068,999.512,999.512,153.809,999.512
1742375342.072,178.223,57.617,-434.082,190.43
1742375342.076,-1000.0,-1000.0,-461.426,-1000.0
1742375342.08,-1000.0,-797.852,142.09,-1000.0
1742375342.084,-132.812,491.699,443.359,-70.312
1742375342.041,-1000.0,-623.535,279.297,-1000.0
1742375342.045,120.117,716.309,464.844,172.363
1742375342.049,999.512,674.805,205.078,999.512
1742375342.053,857.91,488.281,-232.422,776.855
1742375342.057,-377.93,-361.328,-268.555,-482.422
1742375342.061,-1000.0,-1000.0,170.41,-1000.0
1742375342.065,-216.797,107.91,407.227,-206.055
1742375342.068,999.512,999.512,153.809,999.512
1742375342.072,178.223,57.617,-434.082,190.43
1742375342.076,-1000.0,-1000.0,-461.426,-1000.0
1742375342.08,-1000.0,-797.852,142.09,-1000.0
1742375342.084,-132.812,491.699,443.359,-70.312
1742375342.085,999.512,999.512,210.938,999.512
1742375342.089,417.48,165.039,-322.754,416.016
1742375342.093,-913.574,-1000.0,-422.852,-902.832
1742375342.097,-1000.0,-1000.0,72.266,-1000.0
1742375342.101,-237.305,-5.371,418.457,-234.375
1742375342.105,999.512,999.512,335.938,999.512
1742375342.109,671.875,297.852,-190.918,690.918
1742375342.112,-696.289,-961.914,-507.324,-670.898
1742375342.116,-1000.0,-1000.0,-67.871,-1000.0
1742375342.12,-334.961,-173.828,413.574,-287.109
1742375342.124,902.344,999.512,333.496,924.316
1742375342.128,999.512,988.77,-122.559,999.512
1742375342.131,105.957,-92.285,-387.695,104.492
1742375342.135,-1000.0,-1000.0,-61.523,-1000.0
1742375342.139,-849.609,-595.215,396.484,-790.039
1742375342.143,486.816,886.719,411.621,563.477
1742375342.147,999.512,783.691,-69.336,999.512
1742375342.151,41.992,-588.867,-425.293,21.484
1742375342.155,-1000.0,-1000.0,-123.047,-1000.0
1742375342.158,-1000.0,-961.426,289.551,-1000.0
1742375342.162,1.465,193.359,363.281,70.312
1742375342.166,999.512,999.512,43.457,999.512
1742375342.17,203.125,133.789,-455.566,198.73
1742375342.174,-1000.0,-1000.0,-243.164,-1000.0
1742375342.131,105.957,-92.285,-387.695,104.492
1742375342.135,-1000.0,-1000.0,-61.523,-1000.0
1742375342.139,-849.609,-595.215,396.484,-790.039
1742375342.143,486.816,886.719,411.621,563.477
1742375342.147,999.512,783.691,-69.336,999.512
1742375342.151,41.992,-588.867,-425.293,21.484
1742375342.155,-1000.0,-1000.0,-123.047,-1000.0
1742375342.158,-1000.0,-961.426,289.551,-1000.0
1742375342.162,1.465,193.359,363.281,70.312
1742375342.166,999.512,999.512,43.457,999.512
1742375342.17,203.125,133.789,-455.566,198.73
1742375342.174,-1000.0,-1000.0,-243.164,-1000.0
1742375342.177,-703.613,-373.535,341.309,-692.871
1742375342.181,686.035,999.512,434.082,697.754
1742375342.185,999.512,513.672,42.969,999.512
1742375342.189,171.875,-828.613,-437.5,104.492
1742375342.193,-1000.0,-1000.0,-301.27,-1000.0
1742375342.197,-218.262,-123.047,327.637,-225.586
1742375342.201,999.512,999.512,483.887,999.512
1742375342.204,999.512,425.781,68.848,999.512
1742375342.208,-74.707,-865.723,-476.074,-149.902
1742375342.212,-1000.0,-1000.0,-451.66,-1000.0
1742375342.216,-1000.0,-622.559,21.973,-998.535
1742375342.22,78.125,633.301,222.168,112.793
1742375342.177,-703.613,-373.535,341.309,-692.871
1742375342.181,686.035,999.512,434.082,697.754
1742375342.185,999.512,513.672,42.969,999.512
1742375342.189,171.875,-828.613,-437.5,104.492
1742375342.193,-1000.0,-1000.0,-301.27,-1000.0
1742375342.197,-218.262,-123.047,327.637,-225.586
1742375342.201,999.512,999.512,483.887,999.512
1742375342.204,999.512,425.781,68.848,999.512
1742375342.208,-74.707,-865.723,-476.074,-149.902
1742375342.212,-1000.0,-1000.0,-451.66,-1000.0
1742375342.216,-1000.0,-622.559,21.973,-998.535
1742375342.22,78.125,633.301,222.168,112.793
1742375342.22,999.512,999.512,57.129,999.512
1742375342.224,883.789,644.531,-468.75,828.613
1742375342.228,-576.66,-902.832,-541.992,-657.227
1742375342.232,-878.418,-376.953,64.941,-823.242
1742375342.236,647.949,997.07,340.332,689.453
1742375342.24,999.512,999.512,106.934,999.512
1742375342.244,338.867,179.199,-432.617,307.129
1742375342.247,-907.227,-1000.0,-606.445,-921.387
1742375342.251,-1000.0,-1000.0,-51.758,-1000.0
1742375342.255,-185.547,-34.18,310.059,-188.477
1742375342.259,976.562,999.512,161.621,988.281
1742375342.263,999.512,855.469,-194.336,999.512
1742375342.325,-343.75,248.047,373.535,-324.707
1742375342.329,999.512,999.512,354.492,999.512
1742375342.333,735.352,88.379,-109.375,644.531
1742375342.337,-651.367,-1000.0,-505.371,-705.566
1742375342.341,-1000.0,-1000.0,-303.711,-1000.0
1742375342.345,-187.988,59.57,309.082,-190.43
1742375342.349,999.512,999.512,344.238,999.512
1742375342.352,983.398,383.789,-185.547,938.477
1742375342.356,-280.273,-893.555,-639.648,-334.473
1742375342.36,-1000.0,-1000.0,-423.828,-1000.0
1742375342.364,-994.629,-806.641,121.582,-972.168
1742375342.368,95.703,430.176,386.719,135.254
1742375342.325,-343.75,248.047,373.535,-324.707
1742375342.329,999.512,999.512,354.492,999.512
1742375342.333,735.352,88.379,-109.375,644.531
1742375342.337,-651.367,-1000.0,-505.371,-705.566
1742375342.341,-1000.0,-1000.0,-303.711,-1000.0
1742375342.345,-187.988,59.57,309.082,-190.43
1742375342.349,999.512,999.512,344.238,999.512
1742375342.352,983.398,383.789,-185.547,938.477
1742375342.356,-280.273,-893.555,-639.648,-334.473
1742375342.36,-1000.0,-1000.0,-423.828,-1000.0
1742375342.364,-994.629,-806.641,121.582,-972.168
1742375342.368,95.703,430.176,386.719,135.254
1742375342.37,999.512,999.512,136.719,999.512
1742375342.374,427.734,256.348,-481.445,399.902
1742375342.378,-923.828,-1000.0,-452.637,-939.453
1742375342.382,-1000.0,-680.664,160.156,-1000.0
1742375342.386,89.844,660.156,469.727,107.422
1742375342.39,999.512,999.512,298.828,999.512
1742375342.394,228.027,166.992,-367.188,219.727
1742375342.397,-978.027,-1000.0,-580.566,-983.398
1742375342.401,-1000.0,-830.078,-100.586,-1000.0
1742375342.405,-202.637,436.035,231.445,-178.711
1742375342.409,992.676,999.512,140.137,999.512
1742375342.413,999.512,925.781,-270.508,999.512
1742375342.37,999.512,999.512,136.719,999.512
1742375342.374,427.734,256.348,-481.445,399.902
1742375342.378,-923.828,-1000.0,-452.637,-939.453
1742375342.382,-1000.0,-680.664,160.156,-1000.0
1742375342.386,89.844,660.156,469.727,107.422
1742375342.39,999.512,999.512,298.828,999.512
1742375342.394,228.027,166.992,-367.188,219.727
1742375342.397,-978.027,-1000.0,-580.566,-983.398
1742375342.401,-1000.0,-830.078,-100.586,-1000.0
1742375342.405,-202.637,436.035,231.445,-178.711
1742375342.409,992.676,999.512,140.137,999.512
1742375342.413,999.512,925.781,-270.508,999.512
1742375342.43,-41.016,-383.789,-457.031,-125.977
1742375342.434,-1000.0,-937.012,-122.559,-1000.0
1742375342.438,-361.816,429.199,265.137,-343.75
1742375342.442,999.512,999.512,147.461,999.512
1742375342.446,640.625,127.441,-338.867,566.895
1742375342.45,-755.859,-999.023,-478.027,-811.035
1742375342.454,-1000.0,-1000.0,-166.504,-1000.0
1742375342.457,-515.625,-413.086,103.027,-510.742
1742375342.461,794.922,916.016,208.984,796.875
1742375342.465,999.512,999.512,-176.758,999.512
1742375342.469,165.039,-113.281,-634.766,119.141
1742375342.473,-1000.0,-1000.0,-251.465,-1000.0
1742375342.475,-267.09,-71.289,406.25,-261.719
1742375342.479,999.512,999.512,409.668,999.512
1742375342.483,666.016,188.477,-180.176,599.121
1742375342.487,-721.191,-1000.0,-658.203,-777.344
1742375342.491,-1000.0,-887.207,-322.266,-1000.0
1742375342.495,-191.406,375.977,157.715,-159.668
1742375342.499,999.512,999.512,110.84,999.512
1742375342.502,708.008,150.879,-300.293,641.113
1742375342.506,-663.574,-1000.0,-682.129,-716.309
1742375342.51,-1000.0,-1000.0,-444.824,-1000.0
1742375342.514,-160.645,-83.496,218.262,-167.969
1742375342.518,967.285,999.512,426.27,975.098
1742375342.505,999.512,684.082,84.961,999.512
1742375342.509,141.113,-705.078,-451.172,86.914
1742375342.513,-1000.0,-1000.0,-378.418,-1000.0
1742375342.517,-200.195,300.293,168.945,-208.008
1742375342.521,993.164,999.512,297.852,984.863
1742375342.525,999.512,999.512,114.258,999.512
1742375342.529,150.879,62.012,-440.43,152.344
1742375342.532,-993.652,-1000.0,-594.238,-995.605
1742375342.536,-1000.0,-1000.0,-157.227,-1000.0
1742375342.54,-395.508,-294.434,145.02,-355.957
1742375342.544,999.512,999.512,21.484,999.512
1742375342.548,847.168,583.008,-482.422,794.922
1742375342.552,-505.371,-769.531,-504.395,-557.617
1742375342.556,-1000.0,-1000.0,-3.906,-1000.0
1742375342.56,-642.09,-494.141,237.793,-592.773
1742375342.564,686.035,830.566,150.391,741.211
1742375342.568,999.512,999.512,-328.125,999.512
1742375342.572,-16.602,-186.035,-515.137,-89.355
1742375342.576,-1000.0,-1000.0,-112.793,-1000.0
1742375342.579,-1000.0,-1000.0,122.07,-1000.0
1742375342.583,-23.926,178.711,66.406,80.078
1742375342.587,999.512,999.512,-302.246,999.512
1742375342.591,146.484,-137.207,-678.223,98.145
1742375342.595,-1000.0,-1000.0,-314.453,-1000.0
1742375342.595,-390.625,-187.5,285.645,-370.605
1742375342.599,999.512,999.512,244.629,999.512
1742375342.603,659.18,165.039,-288.574,591.797
1742375342.607,-761.23,-1000.0,-519.043,-797.363
1742375342.611,-1000.0,-1000.0,-251.953,-1000.0
1742375342.615,-223.145,-122.07,216.797,-229.492
1742375342.619,999.512,999.512,279.297,999.512
1742375342.622,682.617,139.648,-304.688,631.348
1742375342.626,-698.242,-1000.0,-691.406,-734.863
1742375342.63,-1000.0,-1000.0,-367.676,-1000.0
1742375342.634,-816.895,-442.383,127.93,-775.879
1742375342.638,433.105,830.566,338.867,488.77
1742375342.595,-390.625,-187.5,285.645,-370.605
1742375342.599,999.512,999.512,244.629,999.512
1742375342.603,659.18,165.039,-288.574,591.797
1742375342.607,-761.23,-1000.0,-519.043,-797.363
1742375342.611,-1000.0,-1000.0,-251.953,-1000.0
1742375342.615,-223.145,-122.07,216.797,-229.492
1742375342.619,999.512,999.512,279.297,999.512
1742375342.622,682.617,139.648,-304.688,631.348
1742375342.626,-698.242,-1000.0,-691.406,-734.863
1742375342.63,-1000.0,-1000.0,-367.676,-1000.0
1742375342.634,-816.895,-442.383,127.93,-775.879
1742375342.638,433.105,830.566,338.867,488.77
1742375342.595,-390.625,-187.5,285.645,-370.605
1742375342.599,999.512,999.512,244.629,999.512
1742375342.603,659.18,165.039,-288.574,591.797
1742375342.607,-761.23,-1000.0,-519.043,-797.363
1742375342.611,-1000.0,-1000.0,-251.953,-1000.0
1742375342.615,-223.145,-122.07,216.797,-229.492
1742375342.619,999.512,999.512,279.297,999.512
1742375342.622,682.617,139.648,-304.688,631.348
1742375342.626,-698.242,-1000.0,-691.406,-734.863
1742375342.63,-1000.0,-1000.0,-367.676,-1000.0
1742375342.634,-816.895,-442.383,127.93,-775.879
1742375342.638,433.105,830.566,338.867,488.77
1742375342.643,999.512,990.234,12.695,999.512
1742375342.647,188.477,-263.184,-561.035,168.945
1742375342.651,-1000.0,-1000.0,-362.305,-1000.0
1742375342.655,-671.387,-210.938,179.688,-633.789
1742375342.659,723.145,960.449,321.777,738.281
1742375342.663,999.512,999.512,26.367,999.512
1742375342.667,124.512,154.297,-577.637,130.371
1742375342.67,-993.652,-1000.0,-524.902,-998.535
1742375342.674,-1000.0,-1000.0,100.586,-1000.0
1742375342.678,-260.742,35.156,324.219,-219.238
1742375342.682,999.512,999.512,90.332,999.512
1742375342.686,400.391,220.215,-514.648,389.648
1742375342.643,999.512,990.234,12.695,999.512
1742375342.647,188.477,-263.184,-561.035,168.945
1742375342.651,-1000.0,-1000.0,-362.305,-1000.0
1742375342.655,-671.387,-210.938,179.688,-633.789
1742375342.659,723.145,960.449,321.777,738.281
1742375342.663,999.512,999.512,26.367,999.512
1742375342.667,124.512,154.297,-577.637,130.371
1742375342.67,-993.652,-1000.0,-524.902,-998.535
1742375342.674,-1000.0,-1000.0,100.586,-1000.0
1742375342.678,-260.742,35.156,324.219,-219.238
1742375342.682,999.512,999.512,90.332,999.512
1742375342.686,400.391,220.215,-514.648,389.648
1742375342.643,999.512,990.234,12.695,999.512
1742375342.647,188.477,-263.184,-561.035,168.945
1742375342.651,-1000.0,-1000.0,-362.305,-1000.0
1742375342.655,-671.387,-210.938,179.688,-633.789
1742375342.659,723.145,960.449,321.777,738.281
1742375342.663,999.512,999.512,26.367,999.512
1742375342.667,124.512,154.297,-577.637,130.371
1742375342.67,-993.652,-1000.0,-524.902,-998.535
1742375342.674,-1000.0,-1000.0,100.586,-1000.0
1742375342.678,-260.742,35.156,324.219,-219.238
1742375342.682,999.512,999.512,90.332,999.512
1742375342.686,400.391,220.215,-514.648,389.648
1742375342.7,-1000.0,-1000.0,-546.875,-1000.0
1742375342.704,-940.43,-439.453,186.035,-877.441
1742375342.708,396.973,890.625,442.871,476.074
1742375342.712,999.512,999.512,130.371,999.512
1742375342.716,222.656,124.512,-381.836,229.98
1742375342.72,-950.195,-988.77,-483.887,-944.336
1742375342.724,-1000.0,-1000.0,7.812,-1000.0
1742375342.727,-667.969,-584.961,341.797,-562.012
1742375342.731,742.188,895.508,253.906,832.52
1742375342.735,999.512,876.465,-265.625,999.512
1742375342.739,-209.473,-560.547,-578.613,-230.957
1742375342.743,-1000.0,-1000.0,-117.676,-1000.0
1742375342.7,-1000.0,-1000.0,-546.875,-1000.0
1742375342.704,-940.43,-439.453,186.035,-877.441
1742375342.708,396.973,890.625,442.871,476.074
1742375342.712,999.512,999.512,130.371,999.512
1742375342.716,222.656,124.512,-381.836,229.98
1742375342.72,-950.195,-988.77,-483.887,-944.336
1742375342.724,-1000.0,-1000.0,7.812,-1000.0
1742375342.727,-667.969,-584.961,341.797,-562.012
1742375342.731,742.188,895.508,253.906,832.52
1742375342.735,999.512,876.465,-265.625,999.512
1742375342.739,-209.473,-560.547,-578.613,-230.957
1742375342.743,-1000.0,-1000.0,-117.676,-1000.0
1742375342.745,-216.309,-27.832,471.68,-216.797
1742375342.749,999.512,999.512,372.559,999.512
1742375342.753,805.176,273.926,-156.25,791.504
1742375342.757,-596.191,-1000.0,-414.062,-624.512
1742375342.761,-1000.0,-356.445,-22.949,-1000.0
1742375342.765,50.781,999.512,491.211,145.996
1742375342.769,999.512,897.949,358.398,999.512
1742375342.772,160.645,-355.469,-210.449,171.875
1742375342.776,-1000.0,-1000.0,-514.16,-1000.0
1742375342.78,-1000.0,-747.07,-163.086,-1000.0
1742375342.784,-187.012,487.793,301.758,-124.023
1742375342.788,976.562,999.512,347.168,993.652
1742375342.745,-216.309,-27.832,471.68,-216.797
1742375342.749,999.512,999.512,372.559,999.512
1742375342.753,805.176,273.926,-156.25,791.504
1742375342.757,-596.191,-1000.0,-414.062,-624.512
1742375342.761,-1000.0,-356.445,-22.949,-1000.0
1742375342.765,50.781,999.512,491.211,145.996
1742375342.769,999.512,897.949,358.398,999.512
1742375342.772,160.645,-355.469,-210.449,171.875
1742375342.776,-1000.0,-1000.0,-514.16,-1000.0
1742375342.78,-1000.0,-747.07,-163.086,-1000.0
1742375342.784,-187.012,487.793,301.758,-124.023
1742375342.788,976.562,999.512,347.168,993.652
1742375342.745,-216.309,-27.832,471.68,-216.797
1742375342.749,999.512,999.512,372.559,999.512
1742375342.753,805.176,273.926,-156.25,791.504
1742375342.757,-596.191,-1000.0,-414.062,-624.512
1742375342.761,-1000.0,-356.445,-22.949,-1000.0
1742375342.765,50.781,999.512,491.211,145.996
1742375342.769,999.512,897.949,358.398,999.512
1742375342.772,160.645,-355.469,-210.449,171.875
1742375342.776,-1000.0,-1000.0,-514.16,-1000.0
1742375342.78,-1000.0,-747.07,-163.086,-1000.0
1742375342.784,-187.012,487.793,301.758,-124.023
1742375342.788,976.562,999.512,347.168,993.652
1742375342.79,999.512,882.324,-1.465,999.512
1742375342.794,139.16,-389.648,-462.891,113.77
1742375342.798,-1000.0,-1000.0,-177.734,-1000.0
1742375342.802,-192.871,369.141,449.219,-162.109
1742375342.806,996.582,999.512,395.02,999.512
1742375342.81,999.512,936.523,38.086,999.512
1742375342.814,143.066,-160.156,-407.715,106.934
1742375342.817,-1000.0,-1000.0,-290.039,-1000.0
1742375342.821,-1000.0,-1000.0,218.75,-1000.0
1742375342.825,-250.0,-135.742,377.93,-232.422
1742375342.829,999.512,999.512,140.625,999.512
1742375342.833,787.598,682.617,-350.098,715.332
1742375342.79,999.512,882.324,-1.465,999.512
1742375342.794,139.16,-389.648,-462.891,113.77
1742375342.798,-1000.0,-1000.0,-177.734,-1000.0
1742375342.802,-192.871,369.141,449.219,-162.109
1742375342.806,996.582,999.512,395.02,999.512
1742375342.81,999.512,936.523,38.086,999.512
1742375342.814,143.066,-160.156,-407.715,106.934
1742375342.817,-1000.0,-1000.0,-290.039,-1000.0
1742375342.821,-1000.0,-1000.0,218.75,-1000.0
1742375342.825,-250.0,-135.742,377.93,-232.422
1742375342.829,999.512,999.512,140.625,999.512
1742375342.833,787.598,682.617,-350.098,715.332
1742375342.836,-539.551,-643.555,-294.922,-619.629
1742375342.84,-1000.0,-1000.0,175.293,-1000.0
1742375342.844,-489.258,-341.309,383.789,-446.777
1742375342.848,865.723,984.375,218.262,917.969
1742375342.852,999.512,890.137,-270.508,985.84
1742375342.856,-210.938,-417.969,-340.82,-333.984
1742375342.86,-1000.0,-1000.0,2.93,-1000.0
1742375342.863,-1000.0,-831.543,151.855,-912.109
1742375342.867,137.207,431.641,35.645,285.156
1742375342.871,999.512,999.512,-315.43,999.512
1742375342.875,128.418,-83.984,-477.051,64.453
1742375342.879,-1000.0,-1000.0,-63.477,-1000.0
1742375342.88,-321.777,-229.004,369.141,-319.824
1742375342.884,999.512,999.512,144.043,999.512
1742375342.888,768.555,178.711,-401.855,644.043
1742375342.892,-609.375,-1000.0,-457.031,-732.422
1742375342.896,-1000.0,-1000.0,-70.312,-1000.0
1742375342.9,-225.098,-78.125,282.227,-228.027
1742375342.904,999.512,999.512,142.09,999.512
1742375342.907,612.305,99.121,-429.688,535.156
1742375342.911,-782.227,-1000.0,-637.695,-837.402
1742375342.915,-1000.0,-1000.0,-175.781,-1000.0
1742375342.919,-192.383,1.465,363.77,-188.965
1742375342.923,999.512,999.512,422.363,999.512
1742375342.88,-321.777,-229.004,369.141,-319.824
1742375342.884,999.512,999.512,144.043,999.512
1742375342.888,768.555,178.711,-401.855,644.043
1742375342.892,-609.375,-1000.0,-457.031,-732.422
1742375342.896,-1000.0,-1000.0,-70.312,-1000.0
1742375342.9,-225.098,-78.125,282.227,-228.027
1742375342.904,999.512,999.512,142.09,999.512
1742375342.907,612.305,99.121,-429.688,535.156
1742375342.911,-782.227,-1000.0,-637.695,-837.402
1742375342.915,-1000.0,-1000.0,-175.781,-1000.0
1742375342.919,-192.383,1.465,363.77,-188.965
1742375342.923,999.512,999.512,422.363,999.512
1742375342.88,-321.777,-229.004,369.141,-319.824
1742375342.884,999.512,999.512,144.043,999.512
1742375342.888,768.555,178.711,-401.855,644.043
1742375342.892,-609.375,-1000.0,-457.031,-732.422
1742375342.896,-1000.0,-1000.0,-70.312,-1000.0
1742375342.9,-225.098,-78.125,282.227,-228.027
1742375342.904,999.512,999.512,142.09,999.512
1742375342.907,612.305,99.121,-429.688,535.156
1742375342.911,-782.227,-1000.0,-637.695,-837.402
1742375342.915,-1000.0,-1000.0,-175.781,-1000.0
1742375342.919,-192.383,1.465,363.77,-188.965
1742375342.923,999.512,999.512,422.363,999.512
1742375342.929,982.91,311.523,-31.738,896.484
1742375342.933,-245.117,-955.078,-429.199,-370.117
1742375342.937,-1000.0,-1000.0,-138.672,-1000.0
1742375342.941,-218.262,-110.352,406.738,-222.168
1742375342.945,950.195,978.516,403.809,945.312
1742375342.949,999.512,999.512,-23.438,999.512
1742375342.953,173.828,208.496,-527.344,177.734
1742375342.956,-1000.0,-1000.0,-367.188,-1000.0
1742375342.96,-1000.0,-913.086,259.766,-1000.0
1742375342.964,43.945,478.516,406.738,95.215
1742375342.968,999.512,901.855,69.824,999.512
1742375342.972,174.316,-371.094,-489.746,177.246
1742375342.929,982.91,311.523,-31.738,896.484
1742375342.933,-245.117,-955.078,-429.199,-370.117
1742375342.937,-1000.0,-1000.0,-138.672,-1000.0
1742375342.941,-218.262,-110.352,406.738,-222.168
1742375342.945,950.195,978.516,403.809,945.312
1742375342.949,999.512,999.512,-23.438,999.512
1742375342.953,173.828,208.496,-527.344,177.734
1742375342.956,-1000.0,-1000.0,-367.188,-1000.0
1742375342.96,-1000.0,-913.086,259.766,-1000.0
1742375342.964,43.945,478.516,406.738,95.215
1742375342.968,999.512,901.855,69.824,999.512
1742375342.972,174.316,-371.094,-489.746,177.246
1742375342.971,-1000.0,-1000.0,-354.004,-1000.0
1742375342.975,-945.801,-599.121,230.957,-910.645
1742375342.979,322.754,723.145,386.23,378.418
1742375342.983,999.512,999.512,122.07,999.512
1742375342.987,186.035,86.914,-493.164,187.988
1742375342.991,-980.957,-1000.0,-506.836,-971.191
1742375342.995,-1000.0,-998.535,22.949,-1000.0
1742375342.998,-814.941,-778.809,100.586,-664.062
1742375343.002,554.199,660.156,-82.52,722.656
1742375343.006,999.512,956.055,-469.727,999.512
1742375343.01,-163.086,-617.676,-553.711,-254.883
1742375343.014,-1000.0,-1000.0,-75.195,-1000.0
1742375342.971,-1000.0,-1000.0,-354.004,-1000.0
1742375342.975,-945.801,-599.121,230.957,-910.645
1742375342.979,322.754,723.145,386.23,378.418
1742375342.983,999.512,999.512,122.07,999.512
1742375342.987,186.035,86.914,-493.164,187.988
1742375342.991,-980.957,-1000.0,-506.836,-971.191
1742375342.995,-1000.0,-998.535,22.949,-1000.0
1742375342.998,-814.941,-778.809,100.586,-664.062
1742375343.002,554.199,660.156,-82.52,722.656
1742375343.006,999.512,956.055,-469.727,999.512
1742375343.01,-163.086,-617.676,-553.711,-254.883
1742375343.014,-1000.0,-1000.0,-75.195,-1000.0
1742375343.497,780.273,633.789,-316.406,728.516
1742375343.501,-478.516,-689.941,-407.227,-541.016
1742375343.505,-1000.0,-1000.0,2.441,-1000.0
1742375343.509,-157.715,-96.191,355.957,-178.711
1742375343.513,961.914,977.051,199.707,956.055
1742375343.517,999.512,999.512,-129.883,999.512
1742375343.521,176.27,179.199,-208.496,174.805
1742375343.524,-1000.0,-1000.0,116.211,-1000.0
1742375343.528,-1000.0,-893.066,416.016,-1000.0
1742375343.532,15.137,395.996,267.09,122.07
1742375343.536,999.512,999.512,-195.312,999.512
1742375343.54,207.52,11.719,-434.57,171.875
1742375342.971,-1000.0,-1000.0,-354.004,-1000.0
1742375342.975,-945.801,-599.121,230.957,-910.645
1742375342.979,322.754,723.145,386.23,378.418
1742375342.983,999.512,999.512,122.07,999.512
1742375342.987,186.035,86.914,-493.164,187.988
1742375342.991,-980.957,-1000.0,-506.836,-971.191
1742375342.995,-1000.0,-998.535,22.949,-1000.0
1742375342.998,-814.941,-778.809,100.586,-664.062
1742375343.002,554.199,660.156,-82.52,722.656
1742375343.006,999.512,956.055,-469.727,999.512
1742375343.01,-163.086,-617.676,-553.711,-254.883
1742375343.014,-1000.0,-1000.0,-75.195,-1000.0
1742375343.017,-190.43,339.355,287.109,-151.367
1742375343.021,999.512,999.512,85.938,999.512
1742375343.025,756.836,363.281,-408.203,709.961
1742375343.029,-806.152,-1000.0,-552.246,-848.633
1742375343.033,-888.672,-372.07,-61.523,-847.168
1742375343.037,625.0,999.512,359.863,657.227
1742375343.041,999.512,731.934,56.641,999.512
1742375343.044,48.828,-613.281,-572.754,13.184
1742375343.048,-1000.0,-1000.0,-671.387,-1000.0
1742375343.052,-1000.0,-762.207,-190.43,-1000.0
1742375343.056,-57.129,429.199,187.988,-30.273
1742375343.06,999.512,999.512,110.84,999.512
1742375343.017,-190.43,339.355,287.109,-151.367
1742375343.021,999.512,999.512,85.938,999.512
1742375343.025,756.836,363.281,-408.203,709.961
1742375343.029,-806.152,-1000.0,-552.246,-848.633
1742375343.033,-888.672,-372.07,-61.523,-847.168
1742375343.037,625.0,999.512,359.863,657.227
1742375343.041,999.512,731.934,56.641,999.512
1742375343.044,48.828,-613.281,-572.754,13.184
1742375343.048,-1000.0,-1000.0,-671.387,-1000.0
1742375343.052,-1000.0,-762.207,-190.43,-1000.0
1742375343.056,-57.129,429.199,187.988,-30.273
1742375343.06,999.512,999.512,110.84,999.512
1742375343.075,968.75,500.0,-354.492,920.41
1742375343.079,-267.578,-929.199,-654.785,-343.262
1742375343.083,-1000.0,-833.496,-233.887,-1000.0
1742375343.087,36.621,614.258,324.707,61.523
1742375343.091,999.512,999.512,204.59,999.512
1742375343.095,999.512,916.504,-211.426,999.512
1742375343.099,62.012,-209.961,-506.836,32.227
1742375343.102,-1000.0,-1000.0,-282.715,-1000.0
1742375343.106,-1000.0,-1000.0,139.648,-1000.0
1742375343.11,-233.887,23.926,231.934,-160.156
1742375343.114,999.512,698.73,-123.047,999.512
1742375343.118,240.234,-707.52,-530.273,210.449
1742375343.075,968.75,500.0,-354.492,920.41
1742375343.079,-267.578,-929.199,-654.785,-343.262
1742375343.083,-1000.0,-833.496,-233.887,-1000.0
1742375343.087,36.621,614.258,324.707,61.523
1742375343.091,999.512,999.512,204.59,999.512
1742375343.095,999.512,916.504,-211.426,999.512
1742375343.099,62.012,-209.961,-506.836,32.227
1742375343.102,-1000.0,-1000.0,-282.715,-1000.0
1742375343.106,-1000.0,-1000.0,139.648,-1000.0
1742375343.11,-233.887,23.926,231.934,-160.156
1742375343.114,999.512,698.73,-123.047,999.512
1742375343.118,240.234,-707.52,-530.273,210.449
1742375343.121,-1000.0,-1000.0,-241.699,-1000.0
1742375343.125,-457.031,-169.434,265.137,-438.965
1742375343.129,875.0,952.148,307.617,880.859
1742375343.133,999.512,999.512,-10.742,999.512
1742375343.137,401.367,300.293,-402.832,350.586
1742375343.141,-883.301,-947.266,-226.562,-906.738
1742375343.145,-1000.0,-1000.0,237.793,-1000.0
1742375343.148,-193.359,-193.848,325.195,-218.75
1742375343.152,995.605,999.512,80.566,999.512
1742375343.156,999.512,960.449,-343.262,975.586
1742375343.16,-98.633,-255.371,-331.543,-222.656
1742375343.164,-1000.0,-1000.0,68.359,-1000.0
1742375343.121,-1000.0,-1000.0,-241.699,-1000.0
1742375343.125,-457.031,-169.434,265.137,-438.965
1742375343.129,875.0,952.148,307.617,880.859
1742375343.133,999.512,999.512,-10.742,999.512
1742375343.137,401.367,300.293,-402.832,350.586
1742375343.141,-883.301,-947.266,-226.562,-906.738
1742375343.145,-1000.0,-1000.0,237.793,-1000.0
1742375343.148,-193.359,-193.848,325.195,-218.75
1742375343.152,995.605,999.512,80.566,999.512
1742375343.156,999.512,960.449,-343.262,975.586
1742375343.16,-98.633,-255.371,-331.543,-222.656
1742375343.164,-1000.0,-1000.0,68.359,-1000.0
1742375343.165,-383.301,-239.746,312.012,-341.309
1742375343.169,999.512,999.512,128.418,999.512
1742375343.173,543.945,235.352,-350.586,510.254
1742375343.177,-883.789,-1000.0,-352.539,-886.719
1742375343.181,-1000.0,-1000.0,46.875,-1000.0
1742375343.185,-230.957,62.988,344.238,-222.168
1742375343.189,999.512,999.512,150.879,999.512
1742375343.192,262.207,-259.277,-477.051,251.953
1742375343.196,-1000.0,-1000.0,-507.812,-1000.0
1742375343.2,-933.105,-431.641,59.57,-906.738
1742375343.204,343.75,820.312,341.797,369.141
1742375343.208,999.512,999.512,125.0,999.512
1742375343.165,-383.301,-239.746,312.012,-341.309
1742375343.169,999.512,999.512,128.418,999.512
1742375343.173,543.945,235.352,-350.586,510.254
1742375343.177,-883.789,-1000.0,-352.539,-886.719
1742375343.181,-1000.0,-1000.0,46.875,-1000.0
1742375343.185,-230.957,62.988,344.238,-222.168
1742375343.189,999.512,999.512,150.879,999.512
1742375343.192,262.207,-259.277,-477.051,251.953
1742375343.196,-1000.0,-1000.0,-507.812,-1000.0
1742375343.2,-933.105,-431.641,59.57,-906.738
1742375343.204,343.75,820.312,341.797,369.141
1742375343.208,999.512,999.512,125.0,999.512
1742375343.212,585.938,366.699,-347.168,546.875
1742375343.216,-710.938,-907.715,-558.594,-743.652
1742375343.22,-1000.0,-1000.0,-125.0,-1000.0
1742375343.224,-265.137,-94.238,314.453,-262.695
1742375343.228,920.898,980.957,217.773,924.805
1742375343.232,999.512,999.512,-178.223,999.512
1742375343.236,161.133,160.156,-469.238,147.461
1742375343.239,-1000.0,-1000.0,-216.309,-1000.0
1742375343.243,-1000.0,-960.938,221.191,-1000.0
1742375343.247,-83.496,319.336,163.086,-24.414
1742375343.251,999.512,998.047,-227.539,999.512
1742375343.255,220.215,-194.824,-580.566,207.52
1742375343.212,585.938,366.699,-347.168,546.875
1742375343.216,-710.938,-907.715,-558.594,-743.652
1742375343.22,-1000.0,-1000.0,-125.0,-1000.0
1742375343.224,-265.137,-94.238,314.453,-262.695
1742375343.228,920.898,980.957,217.773,924.805
1742375343.232,999.512,999.512,-178.223,999.512
1742375343.236,161.133,160.156,-469.238,147.461
1742375343.239,-1000.0,-1000.0,-216.309,-1000.0
1742375343.243,-1000.0,-960.938,221.191,-1000.0
1742375343.247,-83.496,319.336,163.086,-24.414
1742375343.251,999.512,998.047,-227.539,999.512
1742375343.255,220.215,-194.824,-580.566,207.52
1742375343.256,-1000.0,-1000.0,-290.527,-1000.0
1742375343.26,-593.262,-300.293,181.152,-574.219
1742375343.264,803.223,999.512,233.398,811.035
1742375343.268,999.512,957.031,-116.211,999.512
1742375343.272,163.086,-349.609,-601.562,125.0
1742375343.276,-1000.0,-1000.0,-270.996,-1000.0
1742375343.28,-246.582,119.629,306.152,-240.234
1742375343.283,999.512,999.512,223.145,999.512
1742375343.287,875.488,267.578,-84.961,818.359
1742375343.291,-430.176,-977.539,-469.238,-492.676
1742375343.295,-1000.0,-1000.0,-287.109,-1000.0
1742375343.299,-163.574,-70.801,286.133,-186.035
1742375343.256,-1000.0,-1000.0,-290.527,-1000.0
1742375343.26,-593.262,-300.293,181.152,-574.219
1742375343.264,803.223,999.512,233.398,811.035
1742375343.268,999.512,957.031,-116.211,999.512
1742375343.272,163.086,-349.609,-601.562,125.0
1742375343.276,-1000.0,-1000.0,-270.996,-1000.0
1742375343.28,-246.582,119.629,306.152,-240.234
1742375343.283,999.512,999.512,223.145,999.512
1742375343.287,875.488,267.578,-84.961,818.359
1742375343.291,-430.176,-977.539,-469.238,-492.676
1742375343.295,-1000.0,-1000.0,-287.109,-1000.0
1742375343.299,-163.574,-70.801,286.133,-186.035
1742375343.302,961.914,999.512,365.234,956.055
1742375343.306,999.512,999.512,29.297,999.512
1742375343.31,233.398,51.758,-501.465,218.262
1742375343.314,-1000.0,-1000.0,-418.457,-1000.0
1742375343.318,-581.055,-282.715,212.402,-573.73
1742375343.322,868.164,999.512,422.363,864.746
1742375343.326,999.512,559.082,59.57,999.512
1742375343.329,-118.164,-791.992,-534.668,-161.621
1742375343.333,-1000.0,-1000.0,-507.812,-1000.0
1742375343.337,-580.566,-258.789,139.648,-559.57
1742375343.341,752.441,959.473,416.016,758.789
1742375343.345,999.512,999.512,127.93,999.512
1742375343.302,961.914,999.512,365.234,956.055
1742375343.306,999.512,999.512,29.297,999.512
1742375343.31,233.398,51.758,-501.465,218.262
1742375343.314,-1000.0,-1000.0,-418.457,-1000.0
1742375343.318,-581.055,-282.715,212.402,-573.73
1742375343.322,868.164,999.512,422.363,864.746
1742375343.326,999.512,559.082,59.57,999.512
1742375343.329,-118.164,-791.992,-534.668,-161.621
1742375343.333,-1000.0,-1000.0,-507.812,-1000.0
1742375343.337,-580.566,-258.789,139.648,-559.57
1742375343.341,752.441,959.473,416.016,758.789
1742375343.345,999.512,999.512,127.93,999.512
1742375343.346,159.18,6.348,-358.398,168.457
1742375343.35,-1000.0,-1000.0,-475.098,-1000.0
1742375343.354,-1000.0,-497.07,66.895,-978.516
1742375343.358,251.465,861.328,440.43,304.199
1742375343.362,999.512,983.887,167.969,999.512
1742375343.366,999.512,979.492,-205.566,979.492
1742375343.37,-80.566,-134.277,-352.539,-154.297
1742375343.373,-1000.0,-1000.0,-56.641,-1000.0
1742375343.377,-1000.0,-1000.0,287.598,-1000.0
1742375343.381,-440.43,-20.508,191.895,-343.262
1742375343.385,942.383,999.512,-192.383,985.84
1742375343.389,999.512,933.594,-388.672,981.934
1742375343.346,159.18,6.348,-358.398,168.457
1742375343.35,-1000.0,-1000.0,-475.098,-1000.0
1742375343.354,-1000.0,-497.07,66.895,-978.516
1742375343.358,251.465,861.328,440.43,304.199
1742375343.362,999.512,983.887,167.969,999.512
1742375343.366,999.512,979.492,-205.566,979.492
1742375343.37,-80.566,-134.277,-352.539,-154.297
1742375343.373,-1000.0,-1000.0,-56.641,-1000.0
1742375343.377,-1000.0,-1000.0,287.598,-1000.0
1742375343.381,-440.43,-20.508,191.895,-343.262
1742375343.385,942.383,999.512,-192.383,985.84
1742375343.389,999.512,933.594,-388.672,981.934
1742375343.406,858.398,890.625,21.973,870.605
1742375343.41,999.512,999.512,363.77,999.512
1742375343.414,730.469,166.016,209.961,763.672
1742375343.418,-671.387,-1000.0,-228.516,-595.215
1742375343.422,-1000.0,-1000.0,-474.609,-1000.0
1742375343.426,-1000.0,-88.379,-22.949,-919.434
1742375343.43,25.391,995.117,410.156,204.59
1742375343.433,999.512,999.512,293.457,999.512
1742375343.437,349.121,131.836,-118.164,364.258
1742375343.441,-912.598,-1000.0,-441.895,-895.996
1742375343.445,-1000.0,-1000.0,-129.395,-1000.0
1742375343.449,-308.594,-152.832,310.547,-270.996
1742375343.406,858.398,890.625,21.973,870.605
1742375343.41,999.512,999.512,363.77,999.512
1742375343.414,730.469,166.016,209.961,763.672
1742375343.418,-671.387,-1000.0,-228.516,-595.215
1742375343.422,-1000.0,-1000.0,-474.609,-1000.0
1742375343.426,-1000.0,-88.379,-22.949,-919.434
1742375343.43,25.391,995.117,410.156,204.59
1742375343.433,999.512,999.512,293.457,999.512
1742375343.437,349.121,131.836,-118.164,364.258
1742375343.441,-912.598,-1000.0,-441.895,-895.996
1742375343.445,-1000.0,-1000.0,-129.395,-1000.0
1742375343.449,-308.594,-152.832,310.547,-270.996
1742375343.45,913.086,999.512,355.469,929.688
1742375343.454,999.512,892.578,20.508,999.512
1742375343.458,177.734,-291.504,-396.973,158.691
1742375343.462,-1000.0,-1000.0,-151.367,-1000.0
1742375343.466,-984.863,-475.098,319.336,-940.918
1742375343.47,283.203,915.039,448.242,348.633
1742375343.474,999.512,802.246,111.328,999.512
1742375343.477,160.645,-554.688,-550.781,107.91
1742375343.481,-1000.0,-1000.0,-419.922,-1000.0
1742375343.485,-561.035,-261.23,215.82,-541.504
1742375343.489,824.219,918.457,452.148,810.059
1742375343.493,999.512,999.512,159.668,999.512
1742375343.45,913.086,999.512,355.469,929.688
1742375343.454,999.512,892.578,20.508,999.512
1742375343.458,177.734,-291.504,-396.973,158.691
1742375343.462,-1000.0,-1000.0,-151.367,-1000.0
1742375343.466,-984.863,-475.098,319.336,-940.918
1742375343.47,283.203,915.039,448.242,348.633
1742375343.474,999.512,802.246,111.328,999.512
1742375343.477,160.645,-554.688,-550.781,107.91
1742375343.481,-1000.0,-1000.0,-419.922,-1000.0
1742375343.485,-561.035,-261.23,215.82,-541.504
1742375343.489,824.219,918.457,452.148,810.059
1742375343.493,999.512,999.512,159.668,999.512
1742375343.54,-1000.0,-1000.0,-53.223,-1000.0
1742375343.544,-627.441,-381.836,335.449,-587.402
1742375343.548,767.578,910.645,326.66,787.109
1742375343.552,999.512,999.512,6.348,999.512
1742375343.556,125.977,108.887,-391.602,132.812
1742375343.56,-993.164,-1000.0,-71.289,-998.535
1742375343.564,-1000.0,-1000.0,403.32,-1000.0
1742375343.567,-266.113,-216.797,299.805,-213.867
1742375343.571,999.512,999.512,26.855,999.512
1742375343.575,420.41,279.297,-321.289,366.211
1742375343.579,-1000.0,-1000.0,-108.887,-1000.0
1742375343.583,-701.172,-392.09,402.832,-678.711
1742375343.54,-1000.0,-1000.0,-53.223,-1000.0
1742375343.544,-627.441,-381.836,335.449,-587.402
1742375343.548,767.578,910.645,326.66,787.109
1742375343.552,999.512,999.512,6.348,999.512
1742375343.556,125.977,108.887,-391.602,132.812
1742375343.56,-993.164,-1000.0,-71.289,-998.535
1742375343.564,-1000.0,-1000.0,403.32,-1000.0
1742375343.567,-266.113,-216.797,299.805,-213.867
1742375343.571,999.512,999.512,26.855,999.512
1742375343.575,420.41,279.297,-321.289,366.211
1742375343.579,-1000.0,-1000.0,-108.887,-1000.0
1742375343.583,-701.172,-392.09,402.832,-678.711
1742375343.586,731.934,942.383,435.059,730.469
1742375343.59,999.512,999.512,41.504,999.512
1742375343.594,155.273,73.242,-467.773,160.645
1742375343.598,-1000.0,-1000.0,-282.227,-1000.0
1742375343.602,-1000.0,-607.422,249.023,-992.188
1742375343.606,186.035,688.477,358.887,227.051
1742375343.61,999.512,999.512,88.867,999.512
1742375343.613,322.266,196.289,-478.027,299.805
1742375343.617,-927.734,-994.629,-414.551,-937.988
1742375343.621,-1000.0,-1000.0,165.039,-1000.0
1742375343.625,-217.285,-109.375,353.516,-203.613
1742375343.629,999.512,999.512,139.648,999.512
1742375343.63,951.66,720.215,-296.875,895.996
1742375343.634,-378.906,-777.344,-301.758,-458.984
1742375343.638,-1000.0,-875.488,228.516,-1000.0
1742375343.642,124.512,623.535,499.512,146.973
1742375343.646,999.512,996.094,137.207,999.512
1742375343.65,999.512,842.773,-270.02,961.426
1742375343.654,-149.902,-268.066,-346.68,-229.98
1742375343.657,-1000.0,-1000.0,-10.742,-1000.0
1742375343.661,-955.566,-948.242,224.121,-953.125
1742375343.665,-951.66,-933.594,-7.812,-954.59
1742375343.669,-1000.0,-1000.0,-400.879,-1000.0
1742375343.673,-944.336,-317.871,-394.531,-926.758
1742375343.63,951.66,720.215,-296.875,895.996
1742375343.634,-378.906,-777.344,-301.758,-458.984
1742375343.638,-1000.0,-875.488,228.516,-1000.0
1742375343.642,124.512,623.535,499.512,146.973
1742375343.646,999.512,996.094,137.207,999.512
1742375343.65,999.512,842.773,-270.02,961.426
1742375343.654,-149.902,-268.066,-346.68,-229.98
1742375343.657,-1000.0,-1000.0,-10.742,-1000.0
1742375343.661,-955.566,-948.242,224.121,-953.125
1742375343.665,-951.66,-933.594,-7.812,-954.59
1742375343.669,-1000.0,-1000.0,-400.879,-1000.0
1742375343.673,-944.336,-317.871,-394.531,-926.758
1742375343.677,420.898,929.199,163.574,429.199
1742375343.681,999.512,999.512,378.906,999.512
1742375343.685,999.512,423.828,110.352,999.512
1742375343.689,370.117,-842.285,-312.012,343.75
1742375343.693,-1000.0,-1000.0,-503.906,-1000.0
1742375343.697,-358.887,-129.883,62.5,-344.238
1742375343.701,953.613,999.512,427.734,955.078
1742375343.704,999.512,999.512,116.211,999.512
1742375343.708,225.098,-31.738,-197.266,227.051
1742375343.712,-996.094,-1000.0,-211.426,-1000.0
1742375343.716,-1000.0,-420.41,219.727,-1000.0
1742375343.72,21.973,791.504,606.934,46.875
1742375343.677,420.898,929.199,163.574,429.199
1742375343.681,999.512,999.512,378.906,999.512
1742375343.685,999.512,423.828,110.352,999.512
1742375343.689,370.117,-842.285,-312.012,343.75
1742375343.693,-1000.0,-1000.0,-503.906,-1000.0
1742375343.697,-358.887,-129.883,62.5,-344.238
1742375343.701,953.613,999.512,427.734,955.078
1742375343.704,999.512,999.512,116.211,999.512
1742375343.708,225.098,-31.738,-197.266,227.051
1742375343.712,-996.094,-1000.0,-211.426,-1000.0
1742375343.716,-1000.0,-420.41,219.727,-1000.0
1742375343.72,21.973,791.504,606.934,46.875
1742375343.677,420.898,929.199,163.574,429.199
1742375343.681,999.512,999.512,378.906,999.512
1742375343.685,999.512,423.828,110.352,999.512
1742375343.689,370.117,-842.285,-312.012,343.75
1742375343.693,-1000.0,-1000.0,-503.906,-1000.0
1742375343.697,-358.887,-129.883,62.5,-344.238
1742375343.701,953.613,999.512,427.734,955.078
1742375343.704,999.512,999.512,116.211,999.512
1742375343.708,225.098,-31.738,-197.266,227.051
1742375343.712,-996.094,-1000.0,-211.426,-1000.0
1742375343.716,-1000.0,-420.41,219.727,-1000.0
1742375343.72,21.973,791.504,606.934,46.875
1742375343.75,999.512,958.984,604.492,999.512
1742375343.754,999.512,999.512,303.711,999.512
1742375343.758,177.734,25.879,-31.738,165.527
1742375343.762,-1000.0,-1000.0,166.504,-1000.0
1742375343.766,-1000.0,-1000.0,471.68,-1000.0
1742375343.77,-196.777,118.164,472.168,-161.133
1742375343.774,999.512,999.512,192.383,999.512
1742375343.777,214.844,-68.359,-402.344,205.566
1742375343.781,-1000.0,-1000.0,-217.773,-1000.0
1742375343.785,-830.566,-357.91,381.348,-804.688
1742375343.789,486.328,896.973,504.883,510.742
1742375343.793,999.512,999.512,195.312,999.512
1742375343.783,572.754,348.145,-255.859,492.188
1742375343.787,-732.91,-873.535,-208.984,-793.457
1742375343.791,-1000.0,-1000.0,185.547,-1000.0
1742375343.795,-201.66,-148.926,339.355,-231.445
1742375343.799,999.512,999.512,62.5,999.512
1742375343.803,987.305,886.23,-397.461,906.25
1742375343.807,-294.434,-392.09,-422.363,-413.574
1742375343.81,-1000.0,-1000.0,7.324,-1000.0
1742375343.814,-1000.0,-815.918,238.77,-995.117
1742375343.818,-40.527,394.043,72.266,82.52
1742375343.822,999.512,999.512,-305.176,999.512
1742375343.826,208.984,25.879,-380.371,145.02
1742375343.783,572.754,348.145,-255.859,492.188
1742375343.787,-732.91,-873.535,-208.984,-793.457
1742375343.791,-1000.0,-1000.0,185.547,-1000.0
1742375343.795,-201.66,-148.926,339.355,-231.445
1742375343.799,999.512,999.512,62.5,999.512
1742375343.803,987.305,886.23,-397.461,906.25
1742375343.807,-294.434,-392.09,-422.363,-413.574
1742375343.81,-1000.0,-1000.0,7.324,-1000.0
1742375343.814,-1000.0,-815.918,238.77,-995.117
1742375343.818,-40.527,394.043,72.266,82.52
1742375343.822,999.512,999.512,-305.176,999.512
1742375343.826,208.984,25.879,-380.371,145.02
1742375343.825,-1000.0,-1000.0,27.832,-1000.0
1742375343.829,-634.277,-392.578,318.359,-579.59
1742375343.833,736.328,886.719,154.297,772.949
1742375343.837,999.512,999.512,-206.055,999.512
1742375343.841,407.227,336.426,-337.402,294.922
1742375343.845,-934.57,-979.004,27.344,-987.793
1742375343.849,-1000.0,-1000.0,338.379,-1000.0
1742375343.852,-947.266,-908.691,149.414,-956.055
1742375343.856,-957.031,-1000.0,-160.156,-955.566
1742375343.86,-1000.0,-845.703,-277.832,-1000.0
1742375343.864,-145.02,494.629,142.578,-134.766
1742375343.868,982.91,999.512,519.043,983.887
1742375343.825,-1000.0,-1000.0,27.832,-1000.0
1742375343.829,-634.277,-392.578,318.359,-579.59
1742375343.833,736.328,886.719,154.297,772.949
1742375343.837,999.512,999.512,-206.055,999.512
1742375343.841,407.227,336.426,-337.402,294.922
1742375343.845,-934.57,-979.004,27.344,-987.793
1742375343.849,-1000.0,-1000.0,338.379,-1000.0
1742375343.852,-947.266,-908.691,149.414,-956.055
1742375343.856,-957.031,-1000.0,-160.156,-955.566
1742375343.86,-1000.0,-845.703,-277.832,-1000.0
1742375343.864,-145.02,494.629,142.578,-134.766
1742375343.868,982.91,999.512,519.043,983.887
1742375343.825,-1000.0,-1000.0,27.832,-1000.0
1742375343.829,-634.277,-392.578,318.359,-579.59
1742375343.833,736.328,886.719,154.297,772.949
1742375343.837,999.512,999.512,-206.055,999.512
1742375343.841,407.227,336.426,-337.402,294.922
1742375343.845,-934.57,-979.004,27.344,-987.793
1742375343.849,-1000.0,-1000.0,338.379,-1000.0
1742375343.852,-947.266,-908.691,149.414,-956.055
1742375343.856,-957.031,-1000.0,-160.156,-955.566
1742375343.86,-1000.0,-845.703,-277.832,-1000.0
1742375343.864,-145.02,494.629,142.578,-134.766
1742375343.868,982.91,999.512,519.043,983.887
1742375343.87,999.512,999.512,334.961,999.512
1742375343.874,626.465,172.363,-106.445,545.898
1742375343.878,-767.578,-1000.0,-405.273,-828.613
1742375343.882,-1000.0,-730.957,12.207,-1000.0
1742375343.886,11.719,566.895,474.609,8.789
1742375343.89,999.512,999.512,377.441,999.512
1742375343.894,619.141,164.062,-55.664,566.406
1742375343.897,-697.266,-978.027,-457.52,-736.328
1742375343.901,-1000.0,-1000.0,-188.965,-1000.0
1742375343.905,-563.477,-324.707,300.781,-534.18
1742375343.909,734.863,913.086,316.406,751.953
1742375343.913,999.512,999.512,16.113,999.512
1742375343.87,999.512,999.512,334.961,999.512
1742375343.874,626.465,172.363,-106.445,545.898
1742375343.878,-767.578,-1000.0,-405.273,-828.613
1742375343.882,-1000.0,-730.957,12.207,-1000.0
1742375343.886,11.719,566.895,474.609,8.789
1742375343.89,999.512,999.512,377.441,999.512
1742375343.894,619.141,164.062,-55.664,566.406
1742375343.897,-697.266,-978.027,-457.52,-736.328
1742375343.901,-1000.0,-1000.0,-188.965,-1000.0
1742375343.905,-563.477,-324.707,300.781,-534.18
1742375343.909,734.863,913.086,316.406,751.953
1742375343.913,999.512,999.512,16.113,999.512
1742375343.87,999.512,999.512,334.961,999.512
1742375343.874,626.465,172.363,-106.445,545.898
1742375343.878,-767.578,-1000.0,-405.273,-828.613
1742375343.882,-1000.0,-730.957,12.207,-1000.0
1742375343.886,11.719,566.895,474.609,8.789
1742375343.89,999.512,999.512,377.441,999.512
1742375343.894,619.141,164.062,-55.664,566.406
1742375343.897,-697.266,-978.027,-457.52,-736.328
1742375343.901,-1000.0,-1000.0,-188.965,-1000.0
1742375343.905,-563.477,-324.707,300.781,-534.18
1742375343.909,734.863,913.086,316.406,751.953
1742375343.913,999.512,999.512,16.113,999.512
1742375343.915,210.449,136.23,-405.762,203.125
1742375343.919,-980.469,-1000.0,-227.051,-988.77
1742375343.923,-1000.0,-1000.0,232.91,-1000.0
1742375343.927,-84.961,145.996,374.023,-64.453
1742375343.931,999.512,999.512,110.352,999.512
1742375343.935,916.504,854.004,-395.508,837.891
1742375343.939,-388.672,-640.137,-337.891,-509.277
1742375343.942,-1000.0,-679.688,157.227,-1000.0
1742375343.946,61.035,886.23,394.043,128.418
1742375343.95,999.512,999.512,80.566,999.512
1742375343.954,210.449,-130.371,-438.477,199.219
1742375343.958,-1000.0,-1000.0,-295.41,-1000.0
1742375343.915,210.449,136.23,-405.762,203.125
1742375343.919,-980.469,-1000.0,-227.051,-988.77
1742375343.923,-1000.0,-1000.0,232.91,-1000.0
1742375343.927,-84.961,145.996,374.023,-64.453
1742375343.931,999.512,999.512,110.352,999.512
1742375343.935,916.504,854.004,-395.508,837.891
1742375343.939,-388.672,-640.137,-337.891,-509.277
1742375343.942,-1000.0,-679.688,157.227,-1000.0
1742375343.946,61.035,886.23,394.043,128.418
1742375343.95,999.512,999.512,80.566,999.512
1742375343.954,210.449,-130.371,-438.477,199.219
1742375343.958,-1000.0,-1000.0,-295.41,-1000.0
1742375343.961,-534.668,-203.125,312.5,-520.508
1742375343.965,833.008,962.402,512.207,827.148
1742375343.969,999.512,999.512,253.418,999.512
1742375343.973,605.469,398.926,-225.586,569.336
1742375343.977,-797.852,-1000.0,-304.199,-845.703
1742375343.981,-1000.0,-458.496,197.266,-1000.0
1742375343.985,238.281,999.512,520.508,316.406
1742375343.988,999.512,933.594,233.398,999.512
1742375343.992,169.922,-313.965,-324.707,156.738
1742375343.996,-1000.0,-1000.0,-474.121,-1000.0
1742375344.0,-897.461,-230.469,-13.672,-833.008
1742375344.004,398.926,948.242,315.918,472.656
1742375344.005,999.512,999.512,116.699,999.512
1742375344.009,358.887,188.477,-351.562,347.656
1742375344.013,-961.914,-1000.0,-578.613,-993.164
1742375344.017,-1000.0,-280.762,-132.324,-988.281
1742375344.021,166.992,955.078,262.695,287.598
1742375344.025,999.512,999.512,182.617,999.512
1742375344.029,655.273,363.77,-226.074,634.766
1742375344.032,-641.113,-896.484,-610.352,-649.902
1742375344.036,-1000.0,-1000.0,-248.535,-1000.0
1742375344.04,-741.699,-403.809,254.395,-676.27
1742375344.044,530.762,852.051,283.691,603.516
1742375344.048,999.512,999.512,-39.551,999.512
1742375344.005,999.512,999.512,116.699,999.512
1742375344.009,358.887,188.477,-351.562,347.656
1742375344.013,-961.914,-1000.0,-578.613,-993.164
1742375344.017,-1000.0,-280.762,-132.324,-988.281
1742375344.021,166.992,955.078,262.695,287.598
1742375344.025,999.512,999.512,182.617,999.512
1742375344.029,655.273,363.77,-226.074,634.766
1742375344.032,-641.113,-896.484,-610.352,-649.902
1742375344.036,-1000.0,-1000.0,-248.535,-1000.0
1742375344.04,-741.699,-403.809,254.395,-676.27
1742375344.044,530.762,852.051,283.691,603.516
1742375344.048,999.512,999.512,-39.551,999.512
1742375344.053,171.387,102.051,-436.523,167.969
1742375344.057,-978.027,-1000.0,-228.027,-981.934
1742375344.061,-1000.0,-1000.0,155.762,-1000.0
1742375344.065,-188.965,-95.215,193.848,-184.57
1742375344.069,966.309,992.676,-88.379,998.535
1742375344.073,999.512,999.512,-443.359,999.512
1742375344.077,159.668,130.371,-360.352,-33.691
1742375344.08,-1000.0,-1000.0,-33.691,-1000.0
1742375344.084,-996.094,-987.305,107.91,-980.469
1742375344.088,-925.781,-906.25,-110.84,-932.617
1742375344.092,-1000.0,-1000.0,-491.699,-1000.0
1742375344.096,-922.363,-405.273,-356.445,-873.535
1742375344.053,171.387,102.051,-436.523,167.969
1742375344.057,-978.027,-1000.0,-228.027,-981.934
1742375344.061,-1000.0,-1000.0,155.762,-1000.0
1742375344.065,-188.965,-95.215,193.848,-184.57
1742375344.069,966.309,992.676,-88.379,998.535
1742375344.073,999.512,999.512,-443.359,999.512
1742375344.077,159.668,130.371,-360.352,-33.691
1742375344.08,-1000.0,-1000.0,-33.691,-1000.0
1742375344.084,-996.094,-987.305,107.91,-980.469
1742375344.088,-925.781,-906.25,-110.84,-932.617
1742375344.092,-1000.0,-1000.0,-491.699,-1000.0
1742375344.096,-922.363,-405.273,-356.445,-873.535
1742375344.053,171.387,102.051,-436.523,167.969
1742375344.057,-978.027,-1000.0,-228.027,-981.934
1742375344.061,-1000.0,-1000.0,155.762,-1000.0
1742375344.065,-188.965,-95.215,193.848,-184.57
1742375344.069,966.309,992.676,-88.379,998.535
1742375344.073,999.512,999.512,-443.359,999.512
1742375344.077,159.668,130.371,-360.352,-33.691
1742375344.08,-1000.0,-1000.0,-33.691,-1000.0
1742375344.084,-996.094,-987.305,107.91,-980.469
1742375344.088,-925.781,-906.25,-110.84,-932.617
1742375344.092,-1000.0,-1000.0,-491.699,-1000.0
1742375344.096,-922.363,-405.273,-356.445,-873.535
1742375344.095,456.055,891.113,178.711,518.555
1742375344.099,999.512,999.512,269.531,999.512
1742375344.103,999.512,143.555,-13.672,999.512
1742375344.107,401.367,-1000.0,-406.738,374.023
1742375344.111,-1000.0,-1000.0,-405.762,-1000.0
1742375344.115,-507.812,-176.758,147.949,-461.426
1742375344.119,940.43,999.512,361.816,971.68
1742375344.122,999.512,270.02,-15.137,999.512
1742375344.126,-177.734,-985.84,-473.633,-234.863
1742375344.13,-1000.0,-1000.0,-459.961,-1000.0
1742375344.134,-1000.0,-732.91,-13.184,-981.934
1742375344.138,62.012,537.109,343.262,125.977
1742375344.095,456.055,891.113,178.711,518.555
1742375344.099,999.512,999.512,269.531,999.512
1742375344.103,999.512,143.555,-13.672,999.512
1742375344.107,401.367,-1000.0,-406.738,374.023
1742375344.111,-1000.0,-1000.0,-405.762,-1000.0
1742375344.115,-507.812,-176.758,147.949,-461.426
1742375344.119,940.43,999.512,361.816,971.68
1742375344.122,999.512,270.02,-15.137,999.512
1742375344.126,-177.734,-985.84,-473.633,-234.863
1742375344.13,-1000.0,-1000.0,-459.961,-1000.0
1742375344.134,-1000.0,-732.91,-13.184,-981.934
1742375344.138,62.012,537.109,343.262,125.977
1742375344.141,999.512,999.512,197.754,999.512
1742375344.145,518.555,228.516,-363.77,499.023
1742375344.149,-875.488,-1000.0,-573.73,-880.371
1742375344.153,-1000.0,-654.785,-27.832,-1000.0
1742375344.157,128.906,687.5,476.562,164.551
1742375344.161,999.512,999.512,328.613,999.512
1742375344.165,441.406,193.359,-232.422,409.18
1742375344.168,-866.211,-993.164,-542.48,-880.859
1742375344.172,-1000.0,-1000.0,-150.879,-1000.0
1742375344.176,-212.891,-99.121,327.637,-224.121
1742375344.18,957.52,999.512,242.676,961.914
1742375344.184,999.512,749.512,-145.02,999.512
1742375344.141,999.512,999.512,197.754,999.512
1742375344.145,518.555,228.516,-363.77,499.023
1742375344.149,-875.488,-1000.0,-573.73,-880.371
1742375344.153,-1000.0,-654.785,-27.832,-1000.0
1742375344.157,128.906,687.5,476.562,164.551
1742375344.161,999.512,999.512,328.613,999.512
1742375344.165,441.406,193.359,-232.422,409.18
1742375344.168,-866.211,-993.164,-542.48,-880.859
1742375344.172,-1000.0,-1000.0,-150.879,-1000.0
1742375344.176,-212.891,-99.121,327.637,-224.121
1742375344.18,957.52,999.512,242.676,961.914
1742375344.184,999.512,749.512,-145.02,999.512
1742375344.2,81.543,-499.023,-410.156,44.922
1742375344.204,-1000.0,-1000.0,-134.277,-1000.0
1742375344.208,-882.812,-645.508,368.652,-846.68
1742375344.212,397.949,615.234,453.613,429.688
1742375344.216,999.512,999.512,72.754,999.512
1742375344.22,731.445,693.848,-329.102,595.703
1742375344.224,-541.504,-597.656,-113.281,-685.547
1742375344.227,-1000.0,-1000.0,341.797,-1000.0
1742375344.231,-217.285,-77.637,526.367,-201.172
1742375344.235,999.512,999.512,235.84,999.512
1742375344.239,214.355,115.723,-388.184,213.379
1742375344.243,-1000.0,-1000.0,-283.203,-1000.0
1742375344.2,81.543,-499.023,-410.156,44.922
1742375344.204,-1000.0,-1000.0,-134.277,-1000.0
1742375344.208,-882.812,-645.508,368.652,-846.68
1742375344.212,397.949,615.234,453.613,429.688
1742375344.216,999.512,999.512,72.754,999.512
1742375344.22,731.445,693.848,-329.102,595.703
1742375344.224,-541.504,-597.656,-113.281,-685.547
1742375344.227,-1000.0,-1000.0,341.797,-1000.0
1742375344.231,-217.285,-77.637,526.367,-201.172
1742375344.235,999.512,999.512,235.84,999.512
1742375344.239,214.355,115.723,-388.184,213.379
1742375344.243,-1000.0,-1000.0,-283.203,-1000.0
1742375344.245,-927.246,-399.902,248.047,-898.926
1742375344.249,368.652,911.133,337.891,395.996
1742375344.253,999.512,999.512,24.414,999.512
1742375344.257,191.895,45.41,-485.352,194.336
1742375344.261,-1000.0,-1000.0,-436.523,-1000.0
1742375344.265,-394.531,-108.887,154.785,-380.859
1742375344.269,944.336,999.512,305.176,956.055
1742375344.272,999.512,679.688,-49.805,999.512
1742375344.276,52.734,-579.102,-504.883,1.465
1742375344.28,-1000.0,-1000.0,-486.328,-1000.0
1742375344.284,-862.305,-498.047,120.117,-839.844
1742375344.288,437.5,842.773,410.156,451.172
1742375344.245,-927.246,-399.902,248.047,-898.926
1742375344.249,368.652,911.133,337.891,395.996
1742375344.253,999.512,999.512,24.414,999.512
1742375344.257,191.895,45.41,-485.352,194.336
1742375344.261,-1000.0,-1000.0,-436.523,-1000.0
1742375344.265,-394.531,-108.887,154.785,-380.859
1742375344.269,944.336,999.512,305.176,956.055
1742375344.272,999.512,679.688,-49.805,999.512
1742375344.276,52.734,-579.102,-504.883,1.465
1742375344.28,-1000.0,-1000.0,-486.328,-1000.0
1742375344.284,-862.305,-498.047,120.117,-839.844
1742375344.288,437.5,842.773,410.156,451.172
1742375344.245,-927.246,-399.902,248.047,-898.926
1742375344.249,368.652,911.133,337.891,395.996
1742375344.253,999.512,999.512,24.414,999.512
1742375344.257,191.895,45.41,-485.352,194.336
1742375344.261,-1000.0,-1000.0,-436.523,-1000.0
1742375344.265,-394.531,-108.887,154.785,-380.859
1742375344.269,944.336,999.512,305.176,956.055
1742375344.272,999.512,679.688,-49.805,999.512
1742375344.276,52.734,-579.102,-504.883,1.465
1742375344.28,-1000.0,-1000.0,-486.328,-1000.0
1742375344.284,-862.305,-498.047,120.117,-839.844
1742375344.288,437.5,842.773,410.156,451.172
1742375344.29,999.512,999.512,47.852,999.512
1742375344.294,194.336,-111.816,-483.887,191.406
1742375344.298,-1000.0,-1000.0,-500.0,-1000.0
1742375344.302,-517.578,-126.465,75.684,-484.863
1742375344.306,860.84,999.512,349.609,871.582
1742375344.31,999.512,999.512,143.066,999.512
1742375344.314,133.301,58.105,-353.516,138.184
1742375344.317,-993.652,-1000.0,-526.367,-997.07
1742375344.321,-1000.0,-899.414,-29.297,-1000.0
1742375344.325,-230.957,279.297,401.367,-209.961
1742375344.329,999.512,999.512,264.16,999.512
1742375344.333,941.406,617.188,-219.238,881.836
1742375344.29,999.512,999.512,47.852,999.512
1742375344.294,194.336,-111.816,-483.887,191.406
1742375344.298,-1000.0,-1000.0,-500.0,-1000.0
1742375344.302,-517.578,-126.465,75.684,-484.863
1742375344.306,860.84,999.512,349.609,871.582
1742375344.31,999.512,999.512,143.066,999.512
1742375344.314,133.301,58.105,-353.516,138.184
1742375344.317,-993.652,-1000.0,-526.367,-997.07
1742375344.321,-1000.0,-899.414,-29.297,-1000.0
1742375344.325,-230.957,279.297,401.367,-209.961
1742375344.329,999.512,999.512,264.16,999.512
1742375344.333,941.406,617.188,-219.238,881.836
1742375344.337,-309.57,-879.883,-468.262,-396.484
1742375344.341,-1000.0,-617.676,-71.777,-1000.0
1742375344.345,-321.289,803.223,362.305,-260.742
1742375344.349,959.473,999.512,278.32,993.652
1742375344.353,999.512,656.25,-114.258,984.375
1742375344.357,-194.824,-647.949,-469.727,-266.602
1742375344.361,-1000.0,-1000.0,-160.156,-1000.0
1742375344.364,-1000.0,-1000.0,217.773,-1000.0
1742375344.368,-286.621,-264.648,196.777,-280.762
1742375344.372,999.512,999.512,-7.812,999.512
1742375344.376,348.633,219.238,-458.984,313.965
1742375344.38,-982.422,-1000.0,-325.684,-999.023
1742375344.337,-309.57,-879.883,-468.262,-396.484
1742375344.341,-1000.0,-617.676,-71.777,-1000.0
1742375344.345,-321.289,803.223,362.305,-260.742
1742375344.349,959.473,999.512,278.32,993.652
1742375344.353,999.512,656.25,-114.258,984.375
1742375344.357,-194.824,-647.949,-469.727,-266.602
1742375344.361,-1000.0,-1000.0,-160.156,-1000.0
1742375344.364,-1000.0,-1000.0,217.773,-1000.0
1742375344.368,-286.621,-264.648,196.777,-280.762
1742375344.372,999.512,999.512,-7.812,999.512
1742375344.376,348.633,219.238,-458.984,313.965
1742375344.38,-982.422,-1000.0,-325.684,-999.023
1742375344.38,-1000.0,-971.191,179.688,-1000.0
1742375344.384,-99.609,214.355,225.098,-78.125
1742375344.388,999.512,999.512,-96.68,999.512
1742375344.392,855.957,740.723,-477.051,745.117
1742375344.396,-434.082,-543.945,-370.605,-568.848
1742375344.4,-1000.0,-1000.0,78.125,-1000.0
1742375344.404,-218.75,-112.793,256.836,-218.75
1742375344.407,999.512,999.512,3.906,999.512
1742375344.411,215.332,-4.883,-496.582,215.332
1742375344.415,-1000.0,-1000.0,-397.949,-1000.0
1742375344.419,-1000.0,-926.758,137.207,-1000.0
1742375344.423,-121.094,233.398,362.305,-93.75
1742375344.38,-1000.0,-971.191,179.688,-1000.0
1742375344.384,-99.609,214.355,225.098,-78.125
1742375344.388,999.512,999.512,-96.68,999.512
1742375344.392,855.957,740.723,-477.051,745.117
1742375344.396,-434.082,-543.945,-370.605,-568.848
1742375344.4,-1000.0,-1000.0,78.125,-1000.0
1742375344.404,-218.75,-112.793,256.836,-218.75
1742375344.407,999.512,999.512,3.906,999.512
1742375344.411,215.332,-4.883,-496.582,215.332
1742375344.415,-1000.0,-1000.0,-397.949,-1000.0
1742375344.419,-1000.0,-926.758,137.207,-1000.0
1742375344.423,-121.094,233.398,362.305,-93.75
1742375344.38,-1000.0,-971.191,179.688,-1000.0
1742375344.384,-99.609,214.355,225.098,-78.125
1742375344.388,999.512,999.512,-96.68,999.512
1742375344.392,855.957,740.723,-477.051,745.117
1742375344.396,-434.082,-543.945,-370.605,-568.848
1742375344.4,-1000.0,-1000.0,78.125,-1000.0
1742375344.404,-218.75,-112.793,256.836,-218.75
1742375344.407,999.512,999.512,3.906,999.512
1742375344.411,215.332,-4.883,-496.582,215.332
1742375344.415,-1000.0,-1000.0,-397.949,-1000.0
1742375344.419,-1000.0,-926.758,137.207,-1000.0
1742375344.423,-121.094,233.398,362.305,-93.75
1742375344.427,999.512,999.512,149.902,999.512
1742375344.431,674.316,351.074,-364.258,631.836
1742375344.435,-681.152,-968.262,-455.078,-714.844
1742375344.439,-1000.0,-1000.0,24.414,-1000.0
1742375344.443,-224.121,101.562,371.094,-219.727
1742375344.447,999.512,999.512,197.754,999.512
1742375344.451,647.949,258.301,-361.328,624.023
1742375344.454,-723.145,-965.332,-551.758,-735.84
1742375344.458,-1000.0,-1000.0,-115.723,-1000.0
1742375344.462,-380.371,-279.785,270.02,-345.703
1742375344.466,881.836,996.582,162.109,903.32
1742375344.47,999.512,963.379,-271.484,999.512
1742375344.427,999.512,999.512,149.902,999.512
1742375344.431,674.316,351.074,-364.258,631.836
1742375344.435,-681.152,-968.262,-455.078,-714.844
1742375344.439,-1000.0,-1000.0,24.414,-1000.0
1742375344.443,-224.121,101.562,371.094,-219.727
1742375344.447,999.512,999.512,197.754,999.512
1742375344.451,647.949,258.301,-361.328,624.023
1742375344.454,-723.145,-965.332,-551.758,-735.84
1742375344.458,-1000.0,-1000.0,-115.723,-1000.0
1742375344.462,-380.371,-279.785,270.02,-345.703
1742375344.466,881.836,996.582,162.109,903.32
1742375344.47,999.512,963.379,-271.484,999.512
1742375344.427,999.512,999.512,149.902,999.512
1742375344.431,674.316,351.074,-364.258,631.836
1742375344.435,-681.152,-968.262,-455.078,-714.844
1742375344.439,-1000.0,-1000.0,24.414,-1000.0
1742375344.443,-224.121,101.562,371.094,-219.727
1742375344.447,999.512,999.512,197.754,999.512
1742375344.451,647.949,258.301,-361.328,624.023
1742375344.454,-723.145,-965.332,-551.758,-735.84
1742375344.458,-1000.0,-1000.0,-115.723,-1000.0
1742375344.462,-380.371,-279.785,270.02,-345.703
1742375344.466,881.836,996.582,162.109,903.32
1742375344.47,999.512,963.379,-271.484,999.512
1742375344.47,81.543,-215.332,-451.172,51.758
1742375344.474,-1000.0,-1000.0,-109.863,-1000.0
1742375344.478,-911.621,-713.867,225.586,-875.488
1742375344.482,357.91,615.234,233.398,401.367
1742375344.486,999.512,999.512,-147.949,999.512
1742375344.49,245.605,47.852,-433.594,209.961
1742375344.494,-981.445,-1000.0,-157.227,-1000.0
1742375344.497,-1000.0,-1000.0,208.984,-1000.0
1742375344.501,-22.949,174.805,321.289,32.715
1742375344.505,999.512,999.512,-24.414,999.512
1742375344.509,215.332,-131.836,-473.145,195.801
1742375344.513,-1000.0,-1000.0,-178.223,-1000.0
1742375344.47,81.543,-215.332,-451.172,51.758
1742375344.474,-1000.0,-1000.0,-109.863,-1000.0
1742375344.478,-911.621,-713.867,225.586,-875.488
1742375344.482,357.91,615.234,233.398,401.367
1742375344.486,999.512,999.512,-147.949,999.512
1742375344.49,245.605,47.852,-433.594,209.961
1742375344.494,-981.445,-1000.0,-157.227,-1000.0
1742375344.497,-1000.0,-1000.0,208.984,-1000.0
1742375344.501,-22.949,174.805,321.289,32.715
1742375344.505,999.512,999.512,-24.414,999.512
1742375344.509,215.332,-131.836,-473.145,195.801
1742375344.513,-1000.0,-1000.0,-178.223,-1000.0
1742375344.517,-568.848,-327.148,357.91,-562.012
1742375344.521,825.195,999.512,417.969,825.195
1742375344.525,999.512,368.164,52.734,999.512
1742375344.529,185.059,-1000.0,-367.676,97.656
1742375344.533,-1000.0,-1000.0,-155.273,-1000.0
1742375344.537,-240.723,179.199,422.852,-202.148
1742375344.541,999.512,999.512,415.039,999.512
1742375344.544,857.422,291.992,-14.648,812.5
1742375344.548,-423.34,-939.941,-419.922,-471.191
1742375344.552,-1000.0,-1000.0,-271.484,-1000.0
1742375344.556,-472.656,-248.535,313.477,-450.684
1742375344.56,835.449,999.512,467.285,851.562
1742375344.517,-568.848,-327.148,357.91,-562.012
1742375344.521,825.195,999.512,417.969,825.195
1742375344.525,999.512,368.164,52.734,999.512
1742375344.529,185.059,-1000.0,-367.676,97.656
1742375344.533,-1000.0,-1000.0,-155.273,-1000.0
1742375344.537,-240.723,179.199,422.852,-202.148
1742375344.541,999.512,999.512,415.039,999.512
1742375344.544,857.422,291.992,-14.648,812.5
1742375344.548,-423.34,-939.941,-419.922,-471.191
1742375344.552,-1000.0,-1000.0,-271.484,-1000.0
1742375344.556,-472.656,-248.535,313.477,-450.684
1742375344.56,835.449,999.512,467.285,851.562
1742375344.517,-568.848,-327.148,357.91,-562.012
1742375344.521,825.195,999.512,417.969,825.195
1742375344.525,999.512,368.164,52.734,999.512
1742375344.529,185.059,-1000.0,-367.676,97.656
1742375344.533,-1000.0,-1000.0,-155.273,-1000.0
1742375344.537,-240.723,179.199,422.852,-202.148
1742375344.541,999.512,999.512,415.039,999.512
1742375344.544,857.422,291.992,-14.648,812.5
1742375344.548,-423.34,-939.941,-419.922,-471.191
1742375344.552,-1000.0,-1000.0,-271.484,-1000.0
1742375344.556,-472.656,-248.535,313.477,-450.684
1742375344.56,835.449,999.512,467.285,851.562
1742375344.575,999.512,767.578,39.062,999.512
1742375344.579,81.055,-636.719,-487.793,59.082
1742375344.583,-1000.0,-1000.0,-353.516,-1000.0
1742375344.587,-187.5,276.367,269.531,-183.594
1742375344.591,993.164,999.512,411.133,992.676
1742375344.595,999.512,999.512,151.855,999.512
1742375344.599,158.691,125.0,-376.465,159.18
1742375344.602,-1000.0,-1000.0,-463.379,-1000.0
1742375344.606,-1000.0,-1000.0,52.246,-1000.0
1742375344.61,-224.121,-66.406,367.676,-228.516
1742375344.614,999.512,999.512,201.172,999.512
1742375344.618,999.512,761.23,-341.797,974.121
1742375344.575,999.512,767.578,39.062,999.512
1742375344.579,81.055,-636.719,-487.793,59.082
1742375344.583,-1000.0,-1000.0,-353.516,-1000.0
1742375344.587,-187.5,276.367,269.531,-183.594
1742375344.591,993.164,999.512,411.133,992.676
1742375344.595,999.512,999.512,151.855,999.512
1742375344.599,158.691,125.0,-376.465,159.18
1742375344.602,-1000.0,-1000.0,-463.379,-1000.0
1742375344.606,-1000.0,-1000.0,52.246,-1000.0
1742375344.61,-224.121,-66.406,367.676,-228.516
1742375344.614,999.512,999.512,201.172,999.512
1742375344.618,999.512,761.23,-341.797,974.121
1742375344.62,-245.117,-786.621,-494.629,-320.312
1742375344.624,-1000.0,-554.199,-47.363,-1000.0
1742375344.628,-48.828,880.859,329.102,45.898
1742375344.632,999.512,999.512,181.641,999.512
1742375344.636,488.281,204.102,-269.043,481.934
1742375344.64,-854.004,-958.984,-412.109,-828.613
1742375344.644,-1000.0,-1000.0,-53.711,-1000.0
1742375344.647,-709.961,-505.859,295.898,-657.227
1742375344.651,586.426,829.102,286.133,644.531
1742375344.655,999.512,999.512,-123.535,999.512
1742375344.659,167.969,-20.02,-483.398,142.578
1742375344.663,-1000.0,-1000.0,-167.48,-1000.0
1742375344.62,-245.117,-786.621,-494.629,-320.312
1742375344.624,-1000.0,-554.199,-47.363,-1000.0
1742375344.628,-48.828,880.859,329.102,45.898
1742375344.632,999.512,999.512,181.641,999.512
1742375344.636,488.281,204.102,-269.043,481.934
1742375344.64,-854.004,-958.984,-412.109,-828.613
1742375344.644,-1000.0,-1000.0,-53.711,-1000.0
1742375344.647,-709.961,-505.859,295.898,-657.227
1742375344.651,586.426,829.102,286.133,644.531
1742375344.655,999.512,999.512,-123.535,999.512
1742375344.659,167.969,-20.02,-483.398,142.578
1742375344.663,-1000.0,-1000.0,-167.48,-1000.0
1742375344.665,-916.992,-443.359,236.816,-862.793
1742375344.669,395.996,997.559,216.797,456.543
1742375344.673,999.512,596.191,-103.516,999.512
1742375344.677,194.336,-603.027,-479.004,184.57
1742375344.681,-1000.0,-1000.0,-221.191,-1000.0
1742375344.685,-567.383,-239.746,247.07,-557.617
1742375344.689,864.258,999.512,264.16,866.699
1742375344.692,999.512,549.805,-91.309,999.512
1742375344.696,-65.43,-762.207,-518.555,-125.0
1742375344.7,-1000.0,-1000.0,-307.617,-1000.0
1742375344.704,-886.23,-459.961,202.148,-840.332
1742375344.708,376.953,856.934,291.504,424.805
1742375344.665,-916.992,-443.359,236.816,-862.793
1742375344.669,395.996,997.559,216.797,456.543
1742375344.673,999.512,596.191,-103.516,999.512
1742375344.677,194.336,-603.027,-479.004,184.57
1742375344.681,-1000.0,-1000.0,-221.191,-1000.0
1742375344.685,-567.383,-239.746,247.07,-557.617
1742375344.689,864.258,999.512,264.16,866.699
1742375344.692,999.512,549.805,-91.309,999.512
1742375344.696,-65.43,-762.207,-518.555,-125.0
1742375344.7,-1000.0,-1000.0,-307.617,-1000.0
1742375344.704,-886.23,-459.961,202.148,-840.332
1742375344.708,376.953,856.934,291.504,424.805
1742375344.711,999.512,999.512,-6.836,999.512
1742375344.715,179.199,-144.043,-576.66,169.922
1742375344.719,-1000.0,-1000.0,-503.418,-1000.0
1742375344.723,-773.926,-287.598,111.328,-732.422
1742375344.727,570.801,922.852,321.289,605.957
1742375344.731,999.512,999.512,64.453,999.512
1742375344.735,553.223,379.395,-375.977,500.0
1742375344.738,-737.793,-888.672,-383.301,-781.25
1742375344.742,-1000.0,-1000.0,77.637,-1000.0
1742375344.746,-335.449,-264.16,431.641,-309.57
1742375344.75,948.242,999.512,264.16,979.492
1742375344.754,999.512,797.363,-207.52,976.562
1742375344.711,999.512,999.512,-6.836,999.512
1742375344.715,179.199,-144.043,-576.66,169.922
1742375344.719,-1000.0,-1000.0,-503.418,-1000.0
1742375344.723,-773.926,-287.598,111.328,-732.422
1742375344.727,570.801,922.852,321.289,605.957
1742375344.731,999.512,999.512,64.453,999.512
1742375344.735,553.223,379.395,-375.977,500.0
1742375344.738,-737.793,-888.672,-383.301,-781.25
1742375344.742,-1000.0,-1000.0,77.637,-1000.0
1742375344.746,-335.449,-264.16,431.641,-309.57
1742375344.75,948.242,999.512,264.16,979.492
1742375344.754,999.512,797.363,-207.52,976.562
1742375344.711,999.512,999.512,-6.836,999.512
1742375344.715,179.199,-144.043,-576.66,169.922
1742375344.719,-1000.0,-1000.0,-503.418,-1000.0
1742375344.723,-773.926,-287.598,111.328,-732.422
1742375344.727,570.801,922.852,321.289,605.957
1742375344.731,999.512,999.512,64.453,999.512
1742375344.735,553.223,379.395,-375.977,500.0
1742375344.738,-737.793,-888.672,-383.301,-781.25
1742375344.742,-1000.0,-1000.0,77.637,-1000.0
1742375344.746,-335.449,-264.16,431.641,-309.57
1742375344.75,948.242,999.512,264.16,979.492
1742375344.754,999.512,797.363,-207.52,976.562
1742375344.755,-184.082,-502.93,-356.445,-261.719
1742375344.759,-1000.0,-1000.0,-123.535,-1000.0
1742375344.763,-744.141,-470.215,163.086,-682.129
1742375344.767,568.359,847.656,83.496,640.625
1742375344.771,999.512,999.512,-432.617,999.512
1742375344.775,83.984,-137.207,-585.449,51.27
1742375344.779,-1000.0,-1000.0,-204.102,-1000.0
1742375344.782,-895.02,-795.41,214.844,-779.297
1742375344.786,452.148,703.613,335.449,591.309
1742375344.79,999.512,796.387,-81.543,999.512
1742375344.794,-60.547,-711.914,-448.242,-68.848
1742375344.798,-1000.0,-1000.0,-48.828,-1000.0
1742375344.755,-184.082,-502.93,-356.445,-261.719
1742375344.759,-1000.0,-1000.0,-123.535,-1000.0
1742375344.763,-744.141,-470.215,163.086,-682.129
1742375344.767,568.359,847.656,83.496,640.625
1742375344.771,999.512,999.512,-432.617,999.512
1742375344.775,83.984,-137.207,-585.449,51.27
1742375344.779,-1000.0,-1000.0,-204.102,-1000.0
1742375344.782,-895.02,-795.41,214.844,-779.297
1742375344.786,452.148,703.613,335.449,591.309
1742375344.79,999.512,796.387,-81.543,999.512
1742375344.794,-60.547,-711.914,-448.242,-68.848
1742375344.798,-1000.0,-1000.0,-48.828,-1000.0
1742375345.267,999.512,967.285,49.316,999.512
1742375345.271,262.207,-64.453,-261.719,229.004
1742375345.275,-1000.0,-1000.0,17.578,-1000.0
1742375345.279,-319.824,-112.305,556.641,-295.41
1742375345.283,958.984,998.047,567.383,983.887
1742375345.287,999.512,999.512,197.266,999.512
1742375345.291,150.391,179.199,-143.066,83.496
1742375345.294,-1000.0,-1000.0,4.395,-991.211
1742375345.298,-1000.0,-1000.0,291.016,-1000.0
1742375345.302,-241.699,-36.133,344.238,-179.199
1742375345.306,999.512,999.512,125.488,999.512
1742375345.31,709.961,466.309,-290.039,644.043
1742375344.816,-245.117,-12.207,446.289,-243.652
1742375344.82,999.512,999.512,358.887,999.512
1742375344.824,368.164,197.754,-178.223,389.648
1742375344.828,-1000.0,-1000.0,-470.215,-1000.0
1742375344.832,-1000.0,-461.914,-34.18,-1000.0
1742375344.836,122.07,880.859,474.121,218.262
1742375344.84,999.512,999.512,356.445,999.512
1742375344.843,276.367,-55.664,-169.922,279.785
1742375344.847,-942.383,-1000.0,-485.352,-936.523
1742375344.851,-1000.0,-1000.0,-157.227,-1000.0
1742375344.855,-354.98,-49.805,319.336,-311.523
1742375344.859,927.246,999.512,377.441,955.078
1742375344.816,-245.117,-12.207,446.289,-243.652
1742375344.82,999.512,999.512,358.887,999.512
1742375344.824,368.164,197.754,-178.223,389.648
1742375344.828,-1000.0,-1000.0,-470.215,-1000.0
1742375344.832,-1000.0,-461.914,-34.18,-1000.0
1742375344.836,122.07,880.859,474.121,218.262
1742375344.84,999.512,999.512,356.445,999.512
1742375344.843,276.367,-55.664,-169.922,279.785
1742375344.847,-942.383,-1000.0,-485.352,-936.523
1742375344.851,-1000.0,-1000.0,-157.227,-1000.0
1742375344.855,-354.98,-49.805,319.336,-311.523
1742375344.859,927.246,999.512,377.441,955.078
1742375344.816,-245.117,-12.207,446.289,-243.652
1742375344.82,999.512,999.512,358.887,999.512
1742375344.824,368.164,197.754,-178.223,389.648
1742375344.828,-1000.0,-1000.0,-470.215,-1000.0
1742375344.832,-1000.0,-461.914,-34.18,-1000.0
1742375344.836,122.07,880.859,474.121,218.262
1742375344.84,999.512,999.512,356.445,999.512
1742375344.843,276.367,-55.664,-169.922,279.785
1742375344.847,-942.383,-1000.0,-485.352,-936.523
1742375344.851,-1000.0,-1000.0,-157.227,-1000.0
1742375344.855,-354.98,-49.805,319.336,-311.523
1742375344.859,927.246,999.512,377.441,955.078
1742375344.846,999.512,520.508,-36.621,999.512
1742375344.85,-30.273,-846.191,-508.301,-83.496
1742375344.854,-1000.0,-1000.0,-312.012,-1000.0
1742375344.858,-166.016,200.195,334.961,-139.16
1742375344.862,976.562,999.512,391.602,983.398
1742375344.866,999.512,999.512,14.16,999.512
1742375344.87,299.316,198.73,-444.336,268.555
1742375344.873,-950.684,-1000.0,-432.129,-963.379
1742375344.877,-1000.0,-1000.0,132.324,-1000.0
1742375344.881,-198.73,-117.188,365.723,-203.125
1742375344.885,978.027,999.512,97.656,996.582
1742375344.889,999.512,999.512,-313.477,999.512
1742375344.846,999.512,520.508,-36.621,999.512
1742375344.85,-30.273,-846.191,-508.301,-83.496
1742375344.854,-1000.0,-1000.0,-312.012,-1000.0
1742375344.858,-166.016,200.195,334.961,-139.16
1742375344.862,976.562,999.512,391.602,983.398
1742375344.866,999.512,999.512,14.16,999.512
1742375344.87,299.316,198.73,-444.336,268.555
1742375344.873,-950.684,-1000.0,-432.129,-963.379
1742375344.877,-1000.0,-1000.0,132.324,-1000.0
1742375344.881,-198.73,-117.188,365.723,-203.125
1742375344.885,978.027,999.512,97.656,996.582
1742375344.889,999.512,999.512,-313.477,999.512
1742375344.846,999.512,520.508,-36.621,999.512
1742375344.85,-30.273,-846.191,-508.301,-83.496
1742375344.854,-1000.0,-1000.0,-312.012,-1000.0
1742375344.858,-166.016,200.195,334.961,-139.16
1742375344.862,976.562,999.512,391.602,983.398
1742375344.866,999.512,999.512,14.16,999.512
1742375344.87,299.316,198.73,-444.336,268.555
1742375344.873,-950.684,-1000.0,-432.129,-963.379
1742375344.877,-1000.0,-1000.0,132.324,-1000.0
1742375344.881,-198.73,-117.188,365.723,-203.125
1742375344.885,978.027,999.512,97.656,996.582
1742375344.889,999.512,999.512,-313.477,999.512
1742375344.906,-142.09,-467.773,-283.203,-249.023
1742375344.91,-1000.0,-537.598,207.52,-963.867
1742375344.914,452.148,970.215,482.91,519.531
1742375344.918,999.512,999.512,181.152,999.512
1742375344.922,303.223,0.488,-292.969,284.18
1742375344.926,-926.758,-1000.0,-293.945,-932.129
1742375344.93,-1000.0,-1000.0,126.465,-1000.0
1742375344.933,-192.871,-197.266,426.27,-196.777
1742375344.937,983.398,999.512,285.156,989.746
1742375344.941,999.512,809.57,-226.562,999.512
1742375344.945,-21.484,-602.539,-412.598,-62.012
1742375344.949,-1000.0,-990.723,48.34,-1000.0
1742375344.965,-83.008,412.598,503.906,-38.574
1742375344.969,999.512,999.512,321.777,999.512
1742375344.973,657.227,179.199,-123.535,579.102
1742375344.977,-766.602,-1000.0,-302.246,-819.336
1742375344.981,-1000.0,-588.379,55.664,-1000.0
1742375344.985,148.438,835.938,495.605,181.152
1742375344.989,999.512,983.887,369.141,999.512
1742375344.992,217.773,-360.352,-186.035,201.66
1742375344.996,-978.516,-1000.0,-458.984,-986.328
1742375345.0,-1000.0,-997.559,-89.355,-1000.0
1742375345.004,-203.125,0.977,396.484,-179.688
1742375345.008,999.512,999.512,380.371,999.512
1742375344.965,-83.008,412.598,503.906,-38.574
1742375344.969,999.512,999.512,321.777,999.512
1742375344.973,657.227,179.199,-123.535,579.102
1742375344.977,-766.602,-1000.0,-302.246,-819.336
1742375344.981,-1000.0,-588.379,55.664,-1000.0
1742375344.985,148.438,835.938,495.605,181.152
1742375344.989,999.512,983.887,369.141,999.512
1742375344.992,217.773,-360.352,-186.035,201.66
1742375344.996,-978.516,-1000.0,-458.984,-986.328
1742375345.0,-1000.0,-997.559,-89.355,-1000.0
1742375345.004,-203.125,0.977,396.484,-179.688
1742375345.008,999.512,999.512,380.371,999.512
1742375344.965,-83.008,412.598,503.906,-38.574
1742375344.969,999.512,999.512,321.777,999.512
1742375344.973,657.227,179.199,-123.535,579.102
1742375344.977,-766.602,-1000.0,-302.246,-819.336
1742375344.981,-1000.0,-588.379,55.664,-1000.0
1742375344.985,148.438,835.938,495.605,181.152
1742375344.989,999.512,983.887,369.141,999.512
1742375344.992,217.773,-360.352,-186.035,201.66
1742375344.996,-978.516,-1000.0,-458.984,-986.328
1742375345.0,-1000.0,-997.559,-89.355,-1000.0
1742375345.004,-203.125,0.977,396.484,-179.688
1742375345.008,999.512,999.512,380.371,999.512
1742375345.469,-919.922,-1000.0,-98.633,-932.617
1742375345.473,-1000.0,-931.641,343.262,-1000.0
1742375345.477,23.438,382.324,392.09,106.445
1742375345.481,999.512,999.512,60.059,999.512
1742375345.485,133.301,-10.742,-438.477,145.996
1742375345.489,-1000.0,-1000.0,-238.281,-1000.0
1742375345.493,-1000.0,-1000.0,189.453,-1000.0
1742375345.496,-306.641,-283.203,159.668,-272.949
1742375345.5,999.512,999.512,1.465,999.512
1742375345.504,957.031,650.879,-340.332,906.25
1742375345.508,-357.91,-816.406,-289.551,-425.293
1742375345.512,-1000.0,-1000.0,224.609,-1000.0
1742375344.995,999.512,364.258,-63.477,966.797
1742375344.999,-116.699,-925.293,-435.059,-232.422
1742375345.003,-1000.0,-1000.0,-193.848,-1000.0
1742375345.007,-163.086,-53.223,337.891,-160.645
1742375345.011,978.027,985.84,385.742,974.121
1742375345.015,999.512,999.512,82.031,999.512
1742375345.019,144.531,161.621,-440.43,152.344
1742375345.022,-1000.0,-998.535,-377.93,-998.047
1742375345.026,-1000.0,-1000.0,194.824,-1000.0
1742375345.03,-788.086,-398.438,208.496,-720.703
1742375345.034,687.012,999.512,-45.898,775.879
1742375345.038,981.445,750.0,-436.035,875.977
1742375344.995,999.512,364.258,-63.477,966.797
1742375344.999,-116.699,-925.293,-435.059,-232.422
1742375345.003,-1000.0,-1000.0,-193.848,-1000.0
1742375345.007,-163.086,-53.223,337.891,-160.645
1742375345.011,978.027,985.84,385.742,974.121
1742375345.015,999.512,999.512,82.031,999.512
1742375345.019,144.531,161.621,-440.43,152.344
1742375345.022,-1000.0,-998.535,-377.93,-998.047
1742375345.026,-1000.0,-1000.0,194.824,-1000.0
1742375345.03,-788.086,-398.438,208.496,-720.703
1742375345.034,687.012,999.512,-45.898,775.879
1742375345.038,981.445,750.0,-436.035,875.977
1742375345.041,-541.016,-637.695,-440.43,-653.32
1742375345.045,-1000.0,-1000.0,10.742,-1000.0
1742375345.049,-933.594,-863.77,132.812,-935.547
1742375345.053,-1000.0,658.203,-94.238,-1000.0
1742375345.057,-937.5,53.711,-494.629,-937.5
1742375345.061,-1000.0,-792.48,-423.34,-1000.0
1742375345.065,-264.648,712.402,78.125,-257.812
1742375345.068,999.512,999.512,108.887,999.512
1742375345.072,902.832,361.816,-190.43,844.727
1742375345.076,-469.238,-887.207,-645.996,-540.039
1742375345.08,-1000.0,-1000.0,-748.047,-1000.0
1742375345.084,-1000.0,-831.055,-276.367,-1000.0
1742375345.041,-541.016,-637.695,-440.43,-653.32
1742375345.045,-1000.0,-1000.0,10.742,-1000.0
1742375345.049,-933.594,-863.77,132.812,-935.547
1742375345.053,-1000.0,658.203,-94.238,-1000.0
1742375345.057,-937.5,53.711,-494.629,-937.5
1742375345.061,-1000.0,-792.48,-423.34,-1000.0
1742375345.065,-264.648,712.402,78.125,-257.812
1742375345.068,999.512,999.512,108.887,999.512
1742375345.072,902.832,361.816,-190.43,844.727
1742375345.076,-469.238,-887.207,-645.996,-540.039
1742375345.08,-1000.0,-1000.0,-748.047,-1000.0
1742375345.084,-1000.0,-831.055,-276.367,-1000.0
1742375345.041,-541.016,-637.695,-440.43,-653.32
1742375345.045,-1000.0,-1000.0,10.742,-1000.0
1742375345.049,-933.594,-863.77,132.812,-935.547
1742375345.053,-1000.0,658.203,-94.238,-1000.0
1742375345.057,-937.5,53.711,-494.629,-937.5
1742375345.061,-1000.0,-792.48,-423.34,-1000.0
1742375345.065,-264.648,712.402,78.125,-257.812
1742375345.068,999.512,999.512,108.887,999.512
1742375345.072,902.832,361.816,-190.43,844.727
1742375345.076,-469.238,-887.207,-645.996,-540.039
1742375345.08,-1000.0,-1000.0,-748.047,-1000.0
1742375345.084,-1000.0,-831.055,-276.367,-1000.0
1742375345.085,-427.246,330.078,69.336,-414.551
1742375345.089,999.512,999.512,-47.363,999.512
1742375345.093,195.801,156.738,-597.656,201.66
1742375345.097,-1000.0,-1000.0,-731.934,-1000.0
1742375345.101,-1000.0,-876.953,-206.543,-1000.0
1742375345.105,-205.078,417.969,256.348,-178.711
1742375345.109,999.512,999.512,162.109,999.512
1742375345.112,162.598,1.953,-454.102,162.598
1742375345.116,-1000.0,-1000.0,-693.359,-1000.0
1742375345.12,-1000.0,-887.207,-199.707,-1000.0
1742375345.124,-255.371,291.016,231.934,-215.82
1742375345.128,999.512,999.512,228.516,999.512
1742375345.13,734.375,280.273,-195.312,692.871
1742375345.134,-653.32,-1000.0,-607.422,-690.43
1742375345.138,-1000.0,-928.711,-226.074,-1000.0
1742375345.142,-61.035,440.43,380.371,-39.551
1742375345.146,984.863,999.512,343.262,986.816
1742375345.15,999.512,999.512,34.18,999.512
1742375345.154,166.016,198.242,-333.008,186.035
1742375345.157,-1000.0,-1000.0,-188.477,-1000.0
1742375345.161,-1000.0,-1000.0,352.539,-1000.0
1742375345.165,-248.047,-51.27,437.988,-217.285
1742375345.169,999.512,999.512,154.297,999.512
1742375345.173,831.055,657.715,-282.715,779.785
1742375345.13,734.375,280.273,-195.312,692.871
1742375345.134,-653.32,-1000.0,-607.422,-690.43
1742375345.138,-1000.0,-928.711,-226.074,-1000.0
1742375345.142,-61.035,440.43,380.371,-39.551
1742375345.146,984.863,999.512,343.262,986.816
1742375345.15,999.512,999.512,34.18,999.512
1742375345.154,166.016,198.242,-333.008,186.035
1742375345.157,-1000.0,-1000.0,-188.477,-1000.0
1742375345.161,-1000.0,-1000.0,352.539,-1000.0
1742375345.165,-248.047,-51.27,437.988,-217.285
1742375345.169,999.512,999.512,154.297,999.512
1742375345.173,831.055,657.715,-282.715,779.785
1742375345.179,-591.309,-872.07,-213.867,-657.715
1742375345.183,-1000.0,-773.438,297.363,-1000.0
1742375345.187,176.27,748.535,446.289,244.629
1742375345.191,999.512,999.512,106.934,999.512
1742375345.195,200.684,-93.262,-375.488,216.309
1742375345.199,-1000.0,-1000.0,-285.156,-1000.0
1742375345.203,-541.016,-173.828,246.582,-481.934
1742375345.206,871.582,999.512,355.957,911.133
1742375345.21,999.512,520.996,25.391,999.512
1742375345.214,9.766,-818.848,-463.379,-18.555
1742375345.218,-1000.0,-1000.0,-434.57,-1000.0
1742375345.222,-218.262,-104.492,228.027,-213.867
1742375345.179,-591.309,-872.07,-213.867,-657.715
1742375345.183,-1000.0,-773.438,297.363,-1000.0
1742375345.187,176.27,748.535,446.289,244.629
1742375345.191,999.512,999.512,106.934,999.512
1742375345.195,200.684,-93.262,-375.488,216.309
1742375345.199,-1000.0,-1000.0,-285.156,-1000.0
1742375345.203,-541.016,-173.828,246.582,-481.934
1742375345.206,871.582,999.512,355.957,911.133
1742375345.21,999.512,520.996,25.391,999.512
1742375345.214,9.766,-818.848,-463.379,-18.555
1742375345.218,-1000.0,-1000.0,-434.57,-1000.0
1742375345.222,-218.262,-104.492,228.027,-213.867
1742375345.179,-591.309,-872.07,-213.867,-657.715
1742375345.183,-1000.0,-773.438,297.363,-1000.0
1742375345.187,176.27,748.535,446.289,244.629
1742375345.191,999.512,999.512,106.934,999.512
1742375345.195,200.684,-93.262,-375.488,216.309
1742375345.199,-1000.0,-1000.0,-285.156,-1000.0
1742375345.203,-541.016,-173.828,246.582,-481.934
1742375345.206,871.582,999.512,355.957,911.133
1742375345.21,999.512,520.996,25.391,999.512
1742375345.214,9.766,-818.848,-463.379,-18.555
1742375345.218,-1000.0,-1000.0,-434.57,-1000.0
1742375345.222,-218.262,-104.492,228.027,-213.867
1742375345.236,974.121,999.512,560.547,972.168
1742375345.24,999.512,999.512,269.531,999.512
1742375345.244,234.863,3.418,-152.344,259.277
1742375345.248,-1000.0,-1000.0,-171.387,-1000.0
1742375345.252,-496.582,-248.535,314.453,-467.285
1742375345.256,874.512,999.512,589.355,891.602
1742375345.26,999.512,447.266,286.621,999.512
1742375345.263,194.824,-868.164,-219.727,200.195
1742375345.267,-1000.0,-1000.0,-317.383,-1000.0
1742375345.271,-795.41,-361.328,188.477,-737.793
1742375345.275,635.254,917.48,522.461,694.824
1742375345.279,995.117,965.332,382.812,986.816
1742375345.236,974.121,999.512,560.547,972.168
1742375345.24,999.512,999.512,269.531,999.512
1742375345.244,234.863,3.418,-152.344,259.277
1742375345.248,-1000.0,-1000.0,-171.387,-1000.0
1742375345.252,-496.582,-248.535,314.453,-467.285
1742375345.256,874.512,999.512,589.355,891.602
1742375345.26,999.512,447.266,286.621,999.512
1742375345.263,194.824,-868.164,-219.727,200.195
1742375345.267,-1000.0,-1000.0,-317.383,-1000.0
1742375345.271,-795.41,-361.328,188.477,-737.793
1742375345.275,635.254,917.48,522.461,694.824
1742375345.279,995.117,965.332,382.812,986.816
1742375345.79,935.547,999.512,341.797,946.777
1742375345.794,999.512,794.922,-45.41,999.512
1742375345.798,-8.301,-460.938,-473.633,-49.316
1742375345.802,-1000.0,-1000.0,-197.266,-1000.0
1742375345.806,-1000.0,-683.105,260.742,-1000.0
1742375345.81,57.129,583.984,300.293,83.008
1742375345.814,999.512,999.512,69.824,999.512
1742375345.817,219.727,109.863,-442.871,209.961
1742375345.821,-963.379,-1000.0,-437.5,-968.262
1742375345.825,-1000.0,-1000.0,87.402,-1000.0
1742375345.829,-528.32,-306.641,264.16,-466.309
1742375345.833,805.664,930.664,86.914,849.121
1742375345.325,-666.016,-872.559,-158.203,-716.797
1742375345.329,-1000.0,-1000.0,261.719,-1000.0
1742375345.333,-228.516,-73.242,404.785,-210.449
1742375345.337,999.512,999.512,250.488,999.512
1742375345.341,566.895,322.754,-287.109,527.832
1742375345.345,-806.641,-944.336,-204.102,-829.59
1742375345.349,-1000.0,-1000.0,288.086,-1000.0
1742375345.352,-435.547,-346.68,347.168,-382.812
1742375345.356,914.062,999.512,163.086,960.938
1742375345.36,999.512,797.852,-251.953,964.844
1742375345.364,-245.117,-560.059,-328.613,-334.473
1742375345.368,-1000.0,-1000.0,125.0,-1000.0
1742375345.325,-666.016,-872.559,-158.203,-716.797
1742375345.329,-1000.0,-1000.0,261.719,-1000.0
1742375345.333,-228.516,-73.242,404.785,-210.449
1742375345.337,999.512,999.512,250.488,999.512
1742375345.341,566.895,322.754,-287.109,527.832
1742375345.345,-806.641,-944.336,-204.102,-829.59
1742375345.349,-1000.0,-1000.0,288.086,-1000.0
1742375345.352,-435.547,-346.68,347.168,-382.812
1742375345.356,914.062,999.512,163.086,960.938
1742375345.36,999.512,797.852,-251.953,964.844
1742375345.364,-245.117,-560.059,-328.613,-334.473
1742375345.368,-1000.0,-1000.0,125.0,-1000.0
1742375345.37,-323.242,-229.492,386.23,-314.453
1742375345.374,999.512,999.512,210.938,999.512
1742375345.378,555.664,244.629,-288.086,500.977
1742375345.382,-931.641,-1000.0,-307.617,-968.262
1742375345.386,-1000.0,-645.02,196.777,-1000.0
1742375345.39,178.223,815.43,504.395,212.891
1742375345.394,999.512,914.062,243.164,999.512
1742375345.397,173.828,-406.738,-327.148,170.898
1742375345.401,-1000.0,-1000.0,-402.832,-1000.0
1742375345.405,-882.324,-356.934,40.039,-852.051
1742375345.409,431.641,866.211,366.211,461.914
1742375345.413,999.512,999.512,219.727,999.512
1742375345.37,-323.242,-229.492,386.23,-314.453
1742375345.374,999.512,999.512,210.938,999.512
1742375345.378,555.664,244.629,-288.086,500.977
1742375345.382,-931.641,-1000.0,-307.617,-968.262
1742375345.386,-1000.0,-645.02,196.777,-1000.0
1742375345.39,178.223,815.43,504.395,212.891
1742375345.394,999.512,914.062,243.164,999.512
1742375345.397,173.828,-406.738,-327.148,170.898
1742375345.401,-1000.0,-1000.0,-402.832,-1000.0
1742375345.405,-882.324,-356.934,40.039,-852.051
1742375345.409,431.641,866.211,366.211,461.914
1742375345.413,999.512,999.512,219.727,999.512
1742375345.415,737.305,378.906,-244.629,711.426
1742375345.419,-566.406,-996.094,-479.004,-594.238
1742375345.423,-1000.0,-950.684,-21.484,-1000.0
1742375345.427,28.32,429.688,466.797,56.152
1742375345.431,999.512,999.512,312.988,999.512
1742375345.435,999.512,999.512,-90.332,999.512
1742375345.439,181.641,126.953,-313.477,188.477
1742375345.442,-1000.0,-1000.0,-83.496,-1000.0
1742375345.446,-1000.0,-978.516,305.664,-1000.0
1742375345.45,-114.258,181.152,355.957,-19.531
1742375345.454,999.512,999.512,69.824,999.512
1742375345.458,461.426,313.965,-314.453,440.43
1742375345.415,737.305,378.906,-244.629,711.426
1742375345.419,-566.406,-996.094,-479.004,-594.238
1742375345.423,-1000.0,-950.684,-21.484,-1000.0
1742375345.427,28.32,429.688,466.797,56.152
1742375345.431,999.512,999.512,312.988,999.512
1742375345.435,999.512,999.512,-90.332,999.512
1742375345.439,181.641,126.953,-313.477,188.477
1742375345.442,-1000.0,-1000.0,-83.496,-1000.0
1742375345.446,-1000.0,-978.516,305.664,-1000.0
1742375345.45,-114.258,181.152,355.957,-19.531
1742375345.454,999.512,999.512,69.824,999.512
1742375345.458,461.426,313.965,-314.453,440.43
1742375345.505,-80.566,336.426,427.734,-34.18
1742375345.509,999.512,999.512,104.004,999.512
1742375345.513,631.836,199.707,-298.828,574.219
1742375345.517,-875.977,-1000.0,-196.289,-920.41
1742375345.521,-983.887,-500.488,264.648,-931.641
1742375345.525,446.777,908.203,533.691,493.164
1742375345.529,999.512,999.512,243.164,999.512
1742375345.532,159.668,-168.457,-363.77,155.762
1742375345.536,-1000.0,-1000.0,-347.656,-1000.0
1742375345.54,-959.961,-536.621,242.188,-926.758
1742375345.544,354.98,736.816,509.277,384.277
1742375345.548,999.512,999.512,322.754,999.512
1742375345.505,-80.566,336.426,427.734,-34.18
1742375345.509,999.512,999.512,104.004,999.512
1742375345.513,631.836,199.707,-298.828,574.219
1742375345.517,-875.977,-1000.0,-196.289,-920.41
1742375345.521,-983.887,-500.488,264.648,-931.641
1742375345.525,446.777,908.203,533.691,493.164
1742375345.529,999.512,999.512,243.164,999.512
1742375345.532,159.668,-168.457,-363.77,155.762
1742375345.536,-1000.0,-1000.0,-347.656,-1000.0
1742375345.54,-959.961,-536.621,242.188,-926.758
1742375345.544,354.98,736.816,509.277,384.277
1742375345.548,999.512,999.512,322.754,999.512
1742375346.017,-173.828,114.258,84.961,-157.227
1742375346.021,981.934,999.512,275.391,983.887
1742375346.025,999.512,463.379,1.465,999.512
1742375346.029,752.93,-784.668,-283.691,639.648
1742375346.033,-785.645,-1000.0,-375.977,-887.695
1742375346.037,-864.746,-199.219,32.227,-802.734
1742375346.041,647.461,999.512,343.262,670.898
1742375346.044,999.512,991.699,128.418,999.512
1742375346.048,121.582,-134.766,-283.203,129.883
1742375346.052,-995.605,-1000.0,-483.887,-998.047
1742375346.056,-1000.0,-962.891,-125.977,-1000.0
1742375346.06,-233.398,147.949,280.273,-200.195
1742375345.566,986.816,608.398,-41.016,946.777
1742375345.57,-89.355,-678.223,-153.809,-172.852
1742375345.574,-1000.0,-1000.0,187.012,-1000.0
1742375345.578,-162.598,97.168,538.086,-157.715
1742375345.582,977.539,999.512,365.234,976.074
1742375345.586,999.512,999.512,-28.32,999.512
1742375345.59,159.668,175.781,-283.691,158.203
1742375345.593,-1000.0,-1000.0,-47.852,-1000.0
1742375345.597,-984.375,-969.238,315.918,-983.887
1742375345.601,-973.633,-942.383,166.992,-973.633
1742375345.605,-944.336,-755.859,-176.27,-944.824
1742375345.609,-1000.0,274.902,-376.465,-1000.0
1742375345.566,986.816,608.398,-41.016,946.777
1742375345.57,-89.355,-678.223,-153.809,-172.852
1742375345.574,-1000.0,-1000.0,187.012,-1000.0
1742375345.578,-162.598,97.168,538.086,-157.715
1742375345.582,977.539,999.512,365.234,976.074
1742375345.586,999.512,999.512,-28.32,999.512
1742375345.59,159.668,175.781,-283.691,158.203
1742375345.593,-1000.0,-1000.0,-47.852,-1000.0
1742375345.597,-984.375,-969.238,315.918,-983.887
1742375345.601,-973.633,-942.383,166.992,-973.633
1742375345.605,-944.336,-755.859,-176.27,-944.824
1742375345.609,-1000.0,274.902,-376.465,-1000.0
1742375345.595,-220.703,999.512,-29.297,-214.844
1742375345.599,999.512,906.738,361.816,999.512
1742375345.603,888.184,951.66,240.234,892.578
1742375345.607,999.512,967.773,-31.25,999.512
1742375345.611,242.676,-281.738,-406.25,194.824
1742375345.615,-1000.0,-1000.0,-169.922,-1000.0
1742375345.619,-224.121,12.695,363.77,-223.145
1742375345.622,999.512,999.512,281.738,999.512
1742375345.626,999.512,411.621,-58.594,967.773
1742375345.63,-108.398,-860.352,-417.48,-204.102
1742375345.634,-1000.0,-1000.0,-236.328,-1000.0
1742375345.638,-654.785,-348.633,263.672,-645.02
1742375345.595,-220.703,999.512,-29.297,-214.844
1742375345.599,999.512,906.738,361.816,999.512
1742375345.603,888.184,951.66,240.234,892.578
1742375345.607,999.512,967.773,-31.25,999.512
1742375345.611,242.676,-281.738,-406.25,194.824
1742375345.615,-1000.0,-1000.0,-169.922,-1000.0
1742375345.619,-224.121,12.695,363.77,-223.145
