timestamps,TP9,AF7,AF8,TP10
1742376355.467,916.504,264.648,-1000.0,912.598
1742376355.471,999.512,7.812,-1000.0,999.512
1742376355.475,21.484,-247.07,-1000.0,0.488
1742376355.479,-1000.0,-248.047,-1000.0,-1000.0
1742376355.483,-437.012,207.52,-1000.0,-446.289
1742376355.487,880.371,431.152,-1000.0,874.023
1742376355.491,999.512,61.523,-1000.0,999.512
1742376355.494,190.43,-312.988,-1000.0,160.645
1742376355.498,-1000.0,-265.625,-1000.0,-1000.0
1742376355.502,-720.215,86.914,-1000.0,-721.68
1742376355.506,662.598,231.934,-1000.0,646.973
1742376355.51,999.512,36.133,-1000.0,999.512
1742376355.197,546.875,253.906,-256.836,539.551
1742376355.201,999.512,105.957,-279.785,999.512
1742376355.205,166.016,-288.574,-305.176,166.992
1742376355.209,-1000.0,-321.777,-296.387,-1000.0
1742376355.213,-912.109,90.82,-236.816,-910.645
1742376355.217,379.395,316.895,-116.699,377.441
1742376355.221,999.512,76.66,140.137,999.512
1742376355.224,334.961,-368.652,597.656,307.129
1742376355.228,-977.539,-371.094,929.199,-992.188
1742376355.232,-1000.0,-14.648,966.797,-1000.0
1742376355.236,170.898,204.102,959.473,179.199
1742376355.24,999.512,124.512,968.75,999.512
1742376355.197,546.875,253.906,-256.836,539.551
1742376355.201,999.512,105.957,-279.785,999.512
1742376355.205,166.016,-288.574,-305.176,166.992
1742376355.209,-1000.0,-321.777,-296.387,-1000.0
1742376355.213,-912.109,90.82,-236.816,-910.645
1742376355.217,379.395,316.895,-116.699,377.441
1742376355.221,999.512,76.66,140.137,999.512
1742376355.224,334.961,-368.652,597.656,307.129
1742376355.228,-977.539,-371.094,929.199,-992.188
1742376355.232,-1000.0,-14.648,966.797,-1000.0
1742376355.236,170.898,204.102,959.473,179.199
1742376355.24,999.512,124.512,968.75,999.512
1742376355.242,451.66,-216.797,966.797,440.43
1742376355.246,-873.535,-334.473,967.285,-881.836
1742376355.25,-1000.0,-44.434,967.285,-1000.0
1742376355.254,-112.305,242.676,967.285,-100.098
1742376355.258,999.512,187.988,966.797,999.512
1742376355.262,636.719,-98.145,966.797,651.855
1742376355.266,-729.492,-295.41,967.285,-700.684
1742376355.269,-1000.0,-229.98,967.285,-1000.0
1742376355.273,-208.984,159.18,967.285,-209.473
1742376355.277,999.512,257.812,966.797,999.512
1742376355.281,842.285,-81.543,966.797,830.566
1742376355.285,-490.234,-334.961,967.285,-498.535
1742376355.242,451.66,-216.797,966.797,440.43
1742376355.246,-873.535,-334.473,967.285,-881.836
1742376355.25,-1000.0,-44.434,967.285,-1000.0
1742376355.254,-112.305,242.676,967.285,-100.098
1742376355.258,999.512,187.988,966.797,999.512
1742376355.262,636.719,-98.145,966.797,651.855
1742376355.266,-729.492,-295.41,967.285,-700.684
1742376355.269,-1000.0,-229.98,967.285,-1000.0
1742376355.273,-208.984,159.18,967.285,-209.473
1742376355.277,999.512,257.812,966.797,999.512
1742376355.281,842.285,-81.543,966.797,830.566
1742376355.285,-490.234,-334.961,967.285,-498.535
1742376355.242,451.66,-216.797,966.797,440.43
1742376355.246,-873.535,-334.473,967.285,-881.836
1742376355.25,-1000.0,-44.434,967.285,-1000.0
1742376355.254,-112.305,242.676,967.285,-100.098
1742376355.258,999.512,187.988,966.797,999.512
1742376355.262,636.719,-98.145,966.797,651.855
1742376355.266,-729.492,-295.41,967.285,-700.684
1742376355.269,-1000.0,-229.98,967.285,-1000.0
1742376355.273,-208.984,159.18,967.285,-209.473
1742376355.277,999.512,257.812,966.797,999.512
1742376355.281,842.285,-81.543,966.797,830.566
1742376355.285,-490.234,-334.961,967.285,-498.535
1742376355.287,-1000.0,-206.543,967.285,-1000.0
1742376355.291,-184.57,252.93,967.285,-208.008
1742376355.295,999.512,264.16,966.797,999.512
1742376355.299,999.512,-62.5,966.797,995.605
1742376355.303,-170.898,-216.309,967.285,-196.289
1742376355.307,-1000.0,-177.246,967.285,-1000.0
1742376355.311,-345.703,137.207,967.773,-339.355
1742376355.314,933.105,188.965,967.773,935.059
1742376355.318,999.512,-73.73,907.715,999.512
1742376355.322,-77.148,-300.781,999.512,-73.242
1742376355.326,-1000.0,-240.723,225.098,-1000.0
1742376355.33,-1000.0,-39.551,-1000.0,-1000.0
1742376355.287,-1000.0,-206.543,967.285,-1000.0
1742376355.291,-184.57,252.93,967.285,-208.008
1742376355.295,999.512,264.16,966.797,999.512
1742376355.299,999.512,-62.5,966.797,995.605
1742376355.303,-170.898,-216.309,967.285,-196.289
1742376355.307,-1000.0,-177.246,967.285,-1000.0
1742376355.311,-345.703,137.207,967.773,-339.355
1742376355.314,933.105,188.965,967.773,935.059
1742376355.318,999.512,-73.73,907.715,999.512
1742376355.322,-77.148,-300.781,999.512,-73.242
1742376355.326,-1000.0,-240.723,225.098,-1000.0
1742376355.33,-1000.0,-39.551,-1000.0,-1000.0
1742376355.347,-16.602,194.824,-994.629,90.82
1742376355.351,999.512,147.949,-969.727,999.512
1742376355.355,-24.902,-294.922,-1000.0,-16.602
1742376355.359,-1000.0,-243.652,-1000.0,-1000.0
1742376355.363,-877.441,82.031,-1000.0,-849.609
1742376355.367,395.02,297.363,-1000.0,437.012
1742376355.371,999.512,100.098,-1000.0,999.512
1742376355.374,151.367,-366.211,-1000.0,148.926
1742376355.378,-1000.0,-324.707,-1000.0,-1000.0
1742376355.382,-1000.0,41.016,-1000.0,-1000.0
1742376355.386,203.613,236.816,-1000.0,208.008
1742376355.39,999.512,168.945,-1000.0,999.512
1742376355.347,-16.602,194.824,-994.629,90.82
1742376355.351,999.512,147.949,-969.727,999.512
1742376355.355,-24.902,-294.922,-1000.0,-16.602
1742376355.359,-1000.0,-243.652,-1000.0,-1000.0
1742376355.363,-877.441,82.031,-1000.0,-849.609
1742376355.367,395.02,297.363,-1000.0,437.012
1742376355.371,999.512,100.098,-1000.0,999.512
1742376355.374,151.367,-366.211,-1000.0,148.926
1742376355.378,-1000.0,-324.707,-1000.0,-1000.0
1742376355.382,-1000.0,41.016,-1000.0,-1000.0
1742376355.386,203.613,236.816,-1000.0,208.008
1742376355.39,999.512,168.945,-1000.0,999.512
1742376355.376,151.367,-279.297,-1000.0,166.992
1742376355.38,-1000.0,-317.871,-1000.0,-1000.0
1742376355.384,-1000.0,26.855,-1000.0,-1000.0
1742376355.388,4.883,229.004,-1000.0,5.859
1742376355.392,999.512,202.148,-1000.0,999.512
1742376355.396,318.359,-238.281,-1000.0,301.758
1742376355.4,-948.242,-412.598,-1000.0,-955.078
1742376355.403,-1000.0,-188.965,-1000.0,-1000.0
1742376355.407,-237.793,141.602,-1000.0,-226.074
1742376355.411,999.512,248.047,-1000.0,999.512
1742376355.415,523.438,-204.59,-1000.0,505.371
1742376355.419,-867.676,-389.16,-1000.0,-869.629
1742376355.376,151.367,-279.297,-1000.0,166.992
1742376355.38,-1000.0,-317.871,-1000.0,-1000.0
1742376355.384,-1000.0,26.855,-1000.0,-1000.0
1742376355.388,4.883,229.004,-1000.0,5.859
1742376355.392,999.512,202.148,-1000.0,999.512
1742376355.396,318.359,-238.281,-1000.0,301.758
1742376355.4,-948.242,-412.598,-1000.0,-955.078
1742376355.403,-1000.0,-188.965,-1000.0,-1000.0
1742376355.407,-237.793,141.602,-1000.0,-226.074
1742376355.411,999.512,248.047,-1000.0,999.512
1742376355.415,523.438,-204.59,-1000.0,505.371
1742376355.419,-867.676,-389.16,-1000.0,-869.629
1742376355.376,151.367,-279.297,-1000.0,166.992
1742376355.38,-1000.0,-317.871,-1000.0,-1000.0
1742376355.384,-1000.0,26.855,-1000.0,-1000.0
1742376355.388,4.883,229.004,-1000.0,5.859
1742376355.392,999.512,202.148,-1000.0,999.512
1742376355.396,318.359,-238.281,-1000.0,301.758
1742376355.4,-948.242,-412.598,-1000.0,-955.078
1742376355.403,-1000.0,-188.965,-1000.0,-1000.0
1742376355.407,-237.793,141.602,-1000.0,-226.074
1742376355.411,999.512,248.047,-1000.0,999.512
1742376355.415,523.438,-204.59,-1000.0,505.371
1742376355.419,-867.676,-389.16,-1000.0,-869.629
1742376355.423,-1000.0,-88.379,-1000.0,-1000.0
1742376355.427,-224.609,221.68,-1000.0,-229.004
1742376355.431,999.512,218.262,-1000.0,999.512
1742376355.435,752.441,-166.504,-1000.0,703.125
1742376355.439,-617.676,-327.148,-1000.0,-670.898
1742376355.443,-1000.0,-87.891,-1000.0,-1000.0
1742376355.447,-187.988,286.133,-1000.0,-193.848
1742376355.45,999.512,200.684,-1000.0,999.512
1742376355.454,974.609,-209.961,-1000.0,938.477
1742376355.458,-244.629,-330.566,-1000.0,-302.734
1742376355.462,-1000.0,-216.309,-1000.0,-1000.0
1742376355.466,-357.91,130.859,-1000.0,-365.723
1742376355.513,180.176,-293.945,-998.047,181.152
1742376355.517,-1000.0,-306.152,-1000.0,-1000.0
1742376355.521,-806.641,53.711,-980.957,-797.363
1742376355.525,538.574,219.238,-935.059,543.945
1742376355.529,999.512,40.527,-905.273,999.512
1742376355.533,301.27,-217.773,-892.578,296.387
1742376355.537,-979.98,-333.496,-903.32,-991.211
1742376355.54,-1000.0,-106.445,-885.254,-1000.0
1742376355.544,119.629,154.785,-852.051,167.48
1742376355.548,999.512,104.98,-833.984,999.512
1742376355.552,455.566,-182.617,-824.707,446.777
1742376355.556,-883.789,-359.375,-791.504,-888.672
1742376355.513,180.176,-293.945,-998.047,181.152
1742376355.517,-1000.0,-306.152,-1000.0,-1000.0
1742376355.521,-806.641,53.711,-980.957,-797.363
1742376355.525,538.574,219.238,-935.059,543.945
1742376355.529,999.512,40.527,-905.273,999.512
1742376355.533,301.27,-217.773,-892.578,296.387
1742376355.537,-979.98,-333.496,-903.32,-991.211
1742376355.54,-1000.0,-106.445,-885.254,-1000.0
1742376355.544,119.629,154.785,-852.051,167.48
1742376355.548,999.512,104.98,-833.984,999.512
1742376355.552,455.566,-182.617,-824.707,446.777
1742376355.556,-883.789,-359.375,-791.504,-888.672
1742376355.513,180.176,-293.945,-998.047,181.152
1742376355.517,-1000.0,-306.152,-1000.0,-1000.0
1742376355.521,-806.641,53.711,-980.957,-797.363
1742376355.525,538.574,219.238,-935.059,543.945
1742376355.529,999.512,40.527,-905.273,999.512
1742376355.533,301.27,-217.773,-892.578,296.387
1742376355.537,-979.98,-333.496,-903.32,-991.211
1742376355.54,-1000.0,-106.445,-885.254,-1000.0
1742376355.544,119.629,154.785,-852.051,167.48
1742376355.548,999.512,104.98,-833.984,999.512
1742376355.552,455.566,-182.617,-824.707,446.777
1742376355.556,-883.789,-359.375,-791.504,-888.672
1742376355.557,-1000.0,-127.441,-737.305,-1000.0
1742376355.561,-47.852,219.238,-672.363,-24.902
1742376355.565,999.512,169.434,-629.883,999.512
1742376355.569,602.539,-174.316,-631.348,618.652
1742376355.573,-730.469,-280.273,-618.652,-698.73
1742376355.577,-1000.0,-64.941,-567.871,-1000.0
1742376355.581,-179.688,130.859,-519.531,-145.508
1742376355.584,999.512,24.902,-503.418,999.512
1742376355.588,845.703,-202.637,-510.742,845.215
1742376355.592,-476.562,-331.055,-494.629,-463.379
1742376355.596,-1000.0,-175.293,-439.453,-1000.0
1742376355.6,-167.969,173.34,-395.02,-169.434
1742376355.557,-1000.0,-127.441,-737.305,-1000.0
1742376355.561,-47.852,219.238,-672.363,-24.902
1742376355.565,999.512,169.434,-629.883,999.512
1742376355.569,602.539,-174.316,-631.348,618.652
1742376355.573,-730.469,-280.273,-618.652,-698.73
1742376355.577,-1000.0,-64.941,-567.871,-1000.0
1742376355.581,-179.688,130.859,-519.531,-145.508
1742376355.584,999.512,24.902,-503.418,999.512
1742376355.588,845.703,-202.637,-510.742,845.215
1742376355.592,-476.562,-331.055,-494.629,-463.379
1742376355.596,-1000.0,-175.293,-439.453,-1000.0
1742376355.6,-167.969,173.34,-395.02,-169.434
1742376355.605,986.328,215.82,-353.027,989.746
1742376355.609,999.512,-44.922,-139.648,999.512
1742376355.613,-8.301,-320.801,197.266,-17.578
1742376355.617,-1000.0,-271.484,595.215,-1000.0
1742376355.621,-182.617,193.848,874.023,-182.129
1742376355.625,997.559,307.617,960.449,998.535
1742376355.629,999.512,-21.973,966.309,999.512
1742376355.632,93.262,-333.496,964.355,87.402
1742376355.636,-1000.0,-278.32,967.773,-1000.0
1742376355.64,-443.848,181.641,967.285,-426.27
1742376355.644,885.742,283.691,967.285,895.02
1742376355.648,999.512,-45.898,966.797,999.512
1742376355.605,986.328,215.82,-353.027,989.746
1742376355.609,999.512,-44.922,-139.648,999.512
1742376355.613,-8.301,-320.801,197.266,-17.578
1742376355.617,-1000.0,-271.484,595.215,-1000.0
1742376355.621,-182.617,193.848,874.023,-182.129
1742376355.625,997.559,307.617,960.449,998.535
1742376355.629,999.512,-21.973,966.309,999.512
1742376355.632,93.262,-333.496,964.355,87.402
1742376355.636,-1000.0,-278.32,967.773,-1000.0
1742376355.64,-443.848,181.641,967.285,-426.27
1742376355.644,885.742,283.691,967.285,895.02
1742376355.648,999.512,-45.898,966.797,999.512
1742376355.605,986.328,215.82,-353.027,989.746
1742376355.609,999.512,-44.922,-139.648,999.512
1742376355.613,-8.301,-320.801,197.266,-17.578
1742376355.617,-1000.0,-271.484,595.215,-1000.0
1742376355.621,-182.617,193.848,874.023,-182.129
1742376355.625,997.559,307.617,960.449,998.535
1742376355.629,999.512,-21.973,966.309,999.512
1742376355.632,93.262,-333.496,964.355,87.402
1742376355.636,-1000.0,-278.32,967.773,-1000.0
1742376355.64,-443.848,181.641,967.285,-426.27
1742376355.644,885.742,283.691,967.285,895.02
1742376355.648,999.512,-45.898,966.797,999.512
1742376355.663,177.246,-289.551,967.285,162.598
1742376355.667,-1000.0,-260.742,967.285,-1000.0
1742376355.671,-714.355,117.188,967.285,-701.172
1742376355.675,666.504,319.824,966.797,670.41
1742376355.679,999.512,93.75,967.285,999.512
1742376355.683,153.32,-274.414,970.215,156.738
1742376355.687,-1000.0,-345.703,906.25,-1000.0
1742376355.69,-1000.0,-105.469,999.512,-1000.0
1742376355.694,200.684,128.418,304.199,223.145
1742376355.698,999.512,76.66,-984.375,999.512
1742376355.702,-27.832,-288.574,-1000.0,46.387
1742376355.706,-1000.0,-251.465,-964.844,-1000.0
1742376355.663,177.246,-289.551,967.285,162.598
1742376355.667,-1000.0,-260.742,967.285,-1000.0
1742376355.671,-714.355,117.188,967.285,-701.172
1742376355.675,666.504,319.824,966.797,670.41
1742376355.679,999.512,93.75,967.285,999.512
1742376355.683,153.32,-274.414,970.215,156.738
1742376355.687,-1000.0,-345.703,906.25,-1000.0
1742376355.69,-1000.0,-105.469,999.512,-1000.0
1742376355.694,200.684,128.418,304.199,223.145
1742376355.698,999.512,76.66,-984.375,999.512
1742376355.702,-27.832,-288.574,-1000.0,46.387
1742376355.706,-1000.0,-251.465,-964.844,-1000.0
1742376355.708,-1000.0,-18.555,-1000.0,-1000.0
1742376355.712,-225.098,144.043,-1000.0,-177.734
1742376355.716,999.512,176.758,-1000.0,999.512
1742376355.72,212.402,-324.707,-1000.0,213.867
1742376355.724,-1000.0,-363.77,-1000.0,-1000.0
1742376355.728,-1000.0,66.406,-1000.0,-1000.0
1742376355.732,-141.602,278.32,-1000.0,-152.832
1742376355.735,999.512,183.594,-1000.0,999.512
1742376355.739,472.168,-295.898,-1000.0,458.984
1742376355.743,-882.324,-379.395,-1000.0,-891.602
1742376355.747,-1000.0,-69.336,-1000.0,-1000.0
1742376355.751,-225.098,231.934,-1000.0,-219.727
1742376355.708,-1000.0,-18.555,-1000.0,-1000.0
1742376355.712,-225.098,144.043,-1000.0,-177.734
1742376355.716,999.512,176.758,-1000.0,999.512
1742376355.72,212.402,-324.707,-1000.0,213.867
1742376355.724,-1000.0,-363.77,-1000.0,-1000.0
1742376355.728,-1000.0,66.406,-1000.0,-1000.0
1742376355.732,-141.602,278.32,-1000.0,-152.832
1742376355.735,999.512,183.594,-1000.0,999.512
1742376355.739,472.168,-295.898,-1000.0,458.984
1742376355.743,-882.324,-379.395,-1000.0,-891.602
1742376355.747,-1000.0,-69.336,-1000.0,-1000.0
1742376355.751,-225.098,231.934,-1000.0,-219.727
1742376355.752,999.512,250.488,-1000.0,999.512
1742376355.756,773.438,-119.629,-1000.0,752.441
1742376355.76,-589.844,-312.988,-1000.0,-608.398
1742376355.764,-1000.0,-105.957,-1000.0,-1000.0
1742376355.768,-185.059,313.477,-1000.0,-187.5
1742376355.772,999.512,334.473,-1000.0,999.512
1742376355.776,994.629,-60.059,-1000.0,976.562
1742376355.779,-222.168,-372.07,-1000.0,-240.723
1742376355.783,-1000.0,-212.402,-1000.0,-1000.0
1742376355.787,-245.605,259.277,-1000.0,-258.789
1742376355.791,971.191,298.828,-1000.0,968.262
1742376355.795,999.512,-34.668,-1000.0,999.512
1742376355.752,999.512,250.488,-1000.0,999.512
1742376355.756,773.438,-119.629,-1000.0,752.441
1742376355.76,-589.844,-312.988,-1000.0,-608.398
1742376355.764,-1000.0,-105.957,-1000.0,-1000.0
1742376355.768,-185.059,313.477,-1000.0,-187.5
1742376355.772,999.512,334.473,-1000.0,999.512
1742376355.776,994.629,-60.059,-1000.0,976.562
1742376355.779,-222.168,-372.07,-1000.0,-240.723
1742376355.783,-1000.0,-212.402,-1000.0,-1000.0
1742376355.787,-245.605,259.277,-1000.0,-258.789
1742376355.791,971.191,298.828,-1000.0,968.262
1742376355.795,999.512,-34.668,-1000.0,999.512
1742376355.798,-12.695,-249.023,-998.047,-27.344
1742376355.802,-1000.0,-190.918,-996.582,-1000.0
1742376355.806,-425.293,200.195,-1000.0,-416.016
1742376355.81,881.836,301.758,-821.289,887.207
1742376355.814,999.512,-19.043,-855.957,999.512
1742376355.818,192.383,-223.633,-775.879,167.48
1742376355.822,-1000.0,-206.543,-234.375,-1000.0
1742376355.825,-538.086,77.637,-161.621,-531.25
1742376355.829,842.285,213.379,-333.008,836.914
1742376355.833,999.512,14.648,-241.699,999.512
1742376355.837,212.402,-231.445,296.387,212.402
1742376355.841,-1000.0,-325.684,401.367,-1000.0
1742376356.307,999.512,107.91,128.906,999.512
1742376356.311,155.273,-231.934,68.848,147.461
1742376356.315,-1000.0,-242.676,-57.129,-1000.0
1742376356.319,-1000.0,-25.391,-191.406,-1000.0
1742376356.323,197.754,241.211,-485.352,229.492
1742376356.327,999.512,207.52,-877.441,999.512
1742376356.331,143.555,-344.238,-1000.0,139.648
1742376356.334,-1000.0,-448.73,-990.234,-1000.0
1742376356.338,-1000.0,-48.828,-1000.0,-1000.0
1742376356.342,61.523,222.168,-1000.0,56.641
1742376356.346,999.512,91.797,-1000.0,999.512
1742376356.35,169.922,-344.727,-1000.0,180.176
1742376355.842,-888.672,-26.367,85.449,-869.141
1742376355.846,447.754,270.508,216.309,470.703
1742376355.85,999.512,106.445,20.996,999.512
1742376355.854,131.836,-327.637,-627.93,135.254
1742376355.858,-1000.0,-277.832,-936.035,-1000.0
1742376355.862,-1000.0,73.242,-996.094,-1000.0
1742376355.866,-59.082,208.008,-994.629,-30.273
1742376355.869,999.512,73.242,-1000.0,999.512
1742376355.873,213.379,-291.992,-999.512,223.145
1742376355.877,-1000.0,-277.344,-997.07,-1000.0
1742376355.881,-1000.0,-7.324,-933.594,-1000.0
1742376355.885,-128.906,201.172,-860.84,-125.977
1742376355.842,-888.672,-26.367,85.449,-869.141
1742376355.846,447.754,270.508,216.309,470.703
1742376355.85,999.512,106.445,20.996,999.512
1742376355.854,131.836,-327.637,-627.93,135.254
1742376355.858,-1000.0,-277.832,-936.035,-1000.0
1742376355.862,-1000.0,73.242,-996.094,-1000.0
1742376355.866,-59.082,208.008,-994.629,-30.273
1742376355.869,999.512,73.242,-1000.0,999.512
1742376355.873,213.379,-291.992,-999.512,223.145
1742376355.877,-1000.0,-277.344,-997.07,-1000.0
1742376355.881,-1000.0,-7.324,-933.594,-1000.0
1742376355.885,-128.906,201.172,-860.84,-125.977
1742376355.842,-888.672,-26.367,85.449,-869.141
1742376355.846,447.754,270.508,216.309,470.703
1742376355.85,999.512,106.445,20.996,999.512
1742376355.854,131.836,-327.637,-627.93,135.254
1742376355.858,-1000.0,-277.832,-936.035,-1000.0
1742376355.862,-1000.0,73.242,-996.094,-1000.0
1742376355.866,-59.082,208.008,-994.629,-30.273
1742376355.869,999.512,73.242,-1000.0,999.512
1742376355.873,213.379,-291.992,-999.512,223.145
1742376355.877,-1000.0,-277.344,-997.07,-1000.0
1742376355.881,-1000.0,-7.324,-933.594,-1000.0
1742376355.885,-128.906,201.172,-860.84,-125.977
1742376355.89,999.512,190.918,-845.215,999.512
1742376355.894,554.199,-140.137,-817.871,545.898
1742376355.898,-813.965,-348.145,-794.922,-814.941
1742376355.902,-1000.0,-145.02,-706.543,-1000.0
1742376355.906,-221.191,216.309,-654.297,-206.055
1742376355.91,999.512,285.645,-746.582,999.512
1742376355.914,697.754,-140.625,-834.961,689.941
1742376355.917,-684.082,-444.336,-821.777,-682.617
1742376355.921,-1000.0,-168.457,-736.816,-1000.0
1742376355.925,-179.199,263.672,-670.41,-185.059
1742376355.929,997.07,278.32,-467.773,999.512
1742376355.933,999.512,-103.027,-251.953,999.512
1742376355.89,999.512,190.918,-845.215,999.512
1742376355.894,554.199,-140.137,-817.871,545.898
1742376355.898,-813.965,-348.145,-794.922,-814.941
1742376355.902,-1000.0,-145.02,-706.543,-1000.0
1742376355.906,-221.191,216.309,-654.297,-206.055
1742376355.91,999.512,285.645,-746.582,999.512
1742376355.914,697.754,-140.625,-834.961,689.941
1742376355.917,-684.082,-444.336,-821.777,-682.617
1742376355.921,-1000.0,-168.457,-736.816,-1000.0
1742376355.925,-179.199,263.672,-670.41,-185.059
1742376355.929,997.07,278.32,-467.773,999.512
1742376355.933,999.512,-103.027,-251.953,999.512
1742376355.932,-120.117,-296.387,339.355,-186.523
1742376355.936,-1000.0,-167.969,979.004,-1000.0
1742376355.94,-168.945,225.586,963.379,-167.48
1742376355.944,986.816,241.211,951.66,986.328
1742376355.948,999.512,12.207,971.191,999.512
1742376355.952,132.324,-170.898,966.797,120.117
1742376355.956,-1000.0,-261.719,967.285,-1000.0
1742376355.959,-467.773,71.289,967.285,-459.473
1742376355.963,882.324,234.375,966.797,884.277
1742376355.967,999.512,13.184,966.797,999.512
1742376355.971,144.531,-253.418,967.285,139.16
1742376355.975,-1000.0,-251.953,967.285,-1000.0
1742376355.932,-120.117,-296.387,339.355,-186.523
1742376355.936,-1000.0,-167.969,979.004,-1000.0
1742376355.94,-168.945,225.586,963.379,-167.48
1742376355.944,986.816,241.211,951.66,986.328
1742376355.948,999.512,12.207,971.191,999.512
1742376355.952,132.324,-170.898,966.797,120.117
1742376355.956,-1000.0,-261.719,967.285,-1000.0
1742376355.959,-467.773,71.289,967.285,-459.473
1742376355.963,882.324,234.375,966.797,884.277
1742376355.967,999.512,13.184,966.797,999.512
1742376355.971,144.531,-253.418,967.285,139.16
1742376355.975,-1000.0,-251.953,967.285,-1000.0
1742376355.992,-667.48,140.137,967.285,-654.785
1742376355.996,713.379,350.586,966.797,718.75
1742376356.0,999.512,80.566,966.797,999.512
1742376356.004,169.922,-300.293,966.797,167.969
1742376356.008,-1000.0,-249.023,967.285,-1000.0
1742376356.012,-922.363,154.785,967.285,-900.879
1742376356.016,387.695,312.012,966.797,411.133
1742376356.019,999.512,44.434,966.797,999.512
1742376356.023,137.695,-401.855,966.797,140.625
1742376356.027,-1000.0,-340.332,967.285,-1000.0
1742376356.031,-1000.0,-3.418,967.285,-1000.0
1742376356.035,20.508,222.168,966.797,40.527
1742376355.992,-667.48,140.137,967.285,-654.785
1742376355.996,713.379,350.586,966.797,718.75
1742376356.0,999.512,80.566,966.797,999.512
1742376356.004,169.922,-300.293,966.797,167.969
1742376356.008,-1000.0,-249.023,967.285,-1000.0
1742376356.012,-922.363,154.785,967.285,-900.879
1742376356.016,387.695,312.012,966.797,411.133
1742376356.019,999.512,44.434,966.797,999.512
1742376356.023,137.695,-401.855,966.797,140.625
1742376356.027,-1000.0,-340.332,967.285,-1000.0
1742376356.031,-1000.0,-3.418,967.285,-1000.0
1742376356.035,20.508,222.168,966.797,40.527
1742376356.502,-1000.0,-341.797,967.285,-1000.0
1742376356.506,-1000.0,15.625,968.262,-971.191
1742376356.51,227.051,214.844,960.938,282.715
1742376356.514,999.512,150.879,974.609,999.512
1742376356.518,194.824,-277.344,907.227,222.656
1742376356.522,-979.98,-347.656,708.496,-970.703
1742376356.526,-1000.0,-9.766,429.688,-1000.0
1742376356.529,-250.488,129.395,-31.738,-207.52
1742376356.533,999.512,85.449,-488.77,999.512
1742376356.537,169.922,-322.754,-887.695,164.551
1742376356.541,-1000.0,-373.047,-1000.0,-1000.0
1742376356.545,-1000.0,-115.234,-986.816,-1000.0
1742376356.037,999.512,152.832,967.285,999.512
1742376356.041,216.797,-296.875,967.285,230.469
1742376356.045,-1000.0,-352.539,966.797,-995.605
1742376356.049,-1000.0,-45.898,967.285,-1000.0
1742376356.053,-129.395,256.836,966.797,-124.023
1742376356.057,999.512,268.555,966.797,999.512
1742376356.061,445.801,-218.262,967.285,444.336
1742376356.064,-896.973,-463.379,967.285,-896.973
1742376356.068,-1000.0,-83.008,967.285,-1000.0
1742376356.072,-238.77,292.48,967.285,-227.539
1742376356.076,999.512,221.68,967.285,999.512
1742376356.08,631.836,-196.777,966.797,618.652
1742376356.037,999.512,152.832,967.285,999.512
1742376356.041,216.797,-296.875,967.285,230.469
1742376356.045,-1000.0,-352.539,966.797,-995.605
1742376356.049,-1000.0,-45.898,967.285,-1000.0
1742376356.053,-129.395,256.836,966.797,-124.023
1742376356.057,999.512,268.555,966.797,999.512
1742376356.061,445.801,-218.262,967.285,444.336
1742376356.064,-896.973,-463.379,967.285,-896.973
1742376356.068,-1000.0,-83.008,967.285,-1000.0
1742376356.072,-238.77,292.48,967.285,-227.539
1742376356.076,999.512,221.68,967.285,999.512
1742376356.08,631.836,-196.777,966.797,618.652
1742376356.083,-763.184,-354.98,967.285,-766.113
1742376356.087,-1000.0,-76.66,967.285,-1000.0
1742376356.091,-198.73,297.852,967.285,-200.684
1742376356.095,999.512,276.367,966.797,999.512
1742376356.099,930.664,-109.375,967.285,916.504
1742376356.103,-335.449,-228.027,967.285,-351.562
1742376356.107,-1000.0,-142.578,967.285,-1000.0
1742376356.11,-261.719,173.828,967.285,-274.414
1742376356.114,974.121,253.418,966.797,971.68
1742376356.118,999.512,-49.805,967.285,999.512
1742376356.122,-102.051,-256.836,967.285,-114.746
1742376356.126,-1000.0,-240.723,967.285,-1000.0
1742376356.083,-763.184,-354.98,967.285,-766.113
1742376356.087,-1000.0,-76.66,967.285,-1000.0
1742376356.091,-198.73,297.852,967.285,-200.684
1742376356.095,999.512,276.367,966.797,999.512
1742376356.099,930.664,-109.375,967.285,916.504
1742376356.103,-335.449,-228.027,967.285,-351.562
1742376356.107,-1000.0,-142.578,967.285,-1000.0
1742376356.11,-261.719,173.828,967.285,-274.414
1742376356.114,974.121,253.418,966.797,971.68
1742376356.118,999.512,-49.805,967.285,999.512
1742376356.122,-102.051,-256.836,967.285,-114.746
1742376356.126,-1000.0,-240.723,967.285,-1000.0
1742376356.128,-434.57,123.535,967.285,-436.035
1742376356.132,877.441,306.152,967.773,875.977
1742376356.136,999.512,-6.348,963.867,999.512
1742376356.14,93.75,-268.555,969.727,87.891
1742376356.144,-1000.0,-217.773,951.66,-1000.0
1742376356.148,-662.109,132.324,877.93,-665.527
1742376356.152,707.52,284.18,808.105,696.289
1742376356.155,999.512,13.672,807.129,999.512
1742376356.159,169.922,-304.688,894.043,154.785
1742376356.163,-1000.0,-285.645,941.406,-1000.0
1742376356.167,-925.293,52.734,903.809,-922.852
1742376356.171,382.812,241.699,893.555,372.559
1742376356.128,-434.57,123.535,967.285,-436.035
1742376356.132,877.441,306.152,967.773,875.977
1742376356.136,999.512,-6.348,963.867,999.512
1742376356.14,93.75,-268.555,969.727,87.891
1742376356.144,-1000.0,-217.773,951.66,-1000.0
1742376356.148,-662.109,132.324,877.93,-665.527
1742376356.152,707.52,284.18,808.105,696.289
1742376356.155,999.512,13.672,807.129,999.512
1742376356.159,169.922,-304.688,894.043,154.785
1742376356.163,-1000.0,-285.645,941.406,-1000.0
1742376356.167,-925.293,52.734,903.809,-922.852
1742376356.171,382.812,241.699,893.555,372.559
1742376356.175,999.512,125.0,854.98,999.512
1742376356.179,137.695,-210.938,735.84,140.625
1742376356.183,-1000.0,-275.879,648.438,-1000.0
1742376356.187,-1000.0,-28.809,594.238,-1000.0
1742376356.191,18.066,218.262,578.613,37.109
1742376356.195,999.512,238.77,624.512,999.512
1742376356.199,298.34,-201.172,618.164,279.785
1742376356.202,-977.539,-446.289,583.008,-984.863
1742376356.206,-1000.0,-94.238,642.09,-1000.0
1742376356.21,-62.012,250.488,680.176,-56.152
1742376356.214,999.512,189.941,652.344,999.512
1742376356.218,414.062,-257.812,595.215,429.688
1742376356.175,999.512,125.0,854.98,999.512
1742376356.179,137.695,-210.938,735.84,140.625
1742376356.183,-1000.0,-275.879,648.438,-1000.0
1742376356.187,-1000.0,-28.809,594.238,-1000.0
1742376356.191,18.066,218.262,578.613,37.109
1742376356.195,999.512,238.77,624.512,999.512
1742376356.199,298.34,-201.172,618.164,279.785
1742376356.202,-977.539,-446.289,583.008,-984.863
1742376356.206,-1000.0,-94.238,642.09,-1000.0
1742376356.21,-62.012,250.488,680.176,-56.152
1742376356.214,999.512,189.941,652.344,999.512
1742376356.218,414.062,-257.812,595.215,429.688
1742376356.217,-907.227,-375.488,570.312,-897.949
1742376356.221,-1000.0,-57.129,567.871,-1000.0
1742376356.225,-233.398,214.844,528.809,-209.473
1742376356.229,999.512,217.773,489.746,999.512
1742376356.233,729.492,-96.191,453.125,710.449
1742376356.237,-645.508,-294.434,424.805,-658.203
1742376356.241,-1000.0,-101.074,411.621,-1000.0
1742376356.244,-201.172,181.152,411.621,-202.637
1742376356.248,999.512,173.828,389.16,999.512
1742376356.252,889.16,-91.797,382.324,874.023
1742376356.256,-414.551,-313.965,385.254,-428.711
1742376356.26,-1000.0,-216.309,381.836,-1000.0
1742376356.217,-907.227,-375.488,570.312,-897.949
1742376356.221,-1000.0,-57.129,567.871,-1000.0
1742376356.225,-233.398,214.844,528.809,-209.473
1742376356.229,999.512,217.773,489.746,999.512
1742376356.233,729.492,-96.191,453.125,710.449
1742376356.237,-645.508,-294.434,424.805,-658.203
1742376356.241,-1000.0,-101.074,411.621,-1000.0
1742376356.244,-201.172,181.152,411.621,-202.637
1742376356.248,999.512,173.828,389.16,999.512
1742376356.252,889.16,-91.797,382.324,874.023
1742376356.256,-414.551,-313.965,385.254,-428.711
1742376356.26,-1000.0,-216.309,381.836,-1000.0
1742376356.263,-215.82,212.891,413.574,-226.562
1742376356.267,988.77,321.777,387.207,990.723
1742376356.271,999.512,-41.504,294.434,999.512
1742376356.275,-107.91,-322.266,304.688,-128.906
1742376356.279,-1000.0,-210.449,354.004,-1000.0
1742376356.283,-361.328,289.062,290.527,-367.676
1742376356.287,920.41,356.934,224.609,917.969
1742376356.29,999.512,-67.383,247.07,999.512
1742376356.294,47.363,-300.293,134.277,32.227
1742376356.298,-1000.0,-206.055,-18.555,-1000.0
1742376356.302,-655.273,119.141,47.363,-653.809
1742376356.306,703.613,314.941,137.207,696.289
1742376356.263,-215.82,212.891,413.574,-226.562
1742376356.267,988.77,321.777,387.207,990.723
1742376356.271,999.512,-41.504,294.434,999.512
1742376356.275,-107.91,-322.266,304.688,-128.906
1742376356.279,-1000.0,-210.449,354.004,-1000.0
1742376356.283,-361.328,289.062,290.527,-367.676
1742376356.287,920.41,356.934,224.609,917.969
1742376356.29,999.512,-67.383,247.07,999.512
1742376356.294,47.363,-300.293,134.277,32.227
1742376356.298,-1000.0,-206.055,-18.555,-1000.0
1742376356.302,-655.273,119.141,47.363,-653.809
1742376356.306,703.613,314.941,137.207,696.289
1742376356.263,-215.82,212.891,413.574,-226.562
1742376356.267,988.77,321.777,387.207,990.723
1742376356.271,999.512,-41.504,294.434,999.512
1742376356.275,-107.91,-322.266,304.688,-128.906
1742376356.279,-1000.0,-210.449,354.004,-1000.0
1742376356.283,-361.328,289.062,290.527,-367.676
1742376356.287,920.41,356.934,224.609,917.969
1742376356.29,999.512,-67.383,247.07,999.512
1742376356.294,47.363,-300.293,134.277,32.227
1742376356.298,-1000.0,-206.055,-18.555,-1000.0
1742376356.302,-655.273,119.141,47.363,-653.809
1742376356.306,703.613,314.941,137.207,696.289
1742376356.368,-1000.0,-367.188,-998.535,-1000.0
1742376356.372,-1000.0,-21.484,-994.141,-1000.0
1742376356.376,-92.285,213.867,-992.188,-90.332
1742376356.38,999.512,132.324,-812.012,999.512
1742376356.384,599.609,-222.656,-488.77,542.48
1742376356.388,-770.02,-277.344,-360.352,-815.43
1742376356.392,-1000.0,-89.355,-217.285,-1000.0
1742376356.395,-174.316,76.66,-372.559,-176.758
1742376356.399,999.512,118.652,-876.953,999.512
1742376356.403,512.207,-216.309,-1000.0,511.719
1742376356.407,-867.676,-375.488,-985.84,-857.91
1742376356.411,-1000.0,-71.777,-1000.0,-1000.0
1742376356.368,-1000.0,-367.188,-998.535,-1000.0
1742376356.372,-1000.0,-21.484,-994.141,-1000.0
1742376356.376,-92.285,213.867,-992.188,-90.332
1742376356.38,999.512,132.324,-812.012,999.512
1742376356.384,599.609,-222.656,-488.77,542.48
1742376356.388,-770.02,-277.344,-360.352,-815.43
1742376356.392,-1000.0,-89.355,-217.285,-1000.0
1742376356.395,-174.316,76.66,-372.559,-176.758
1742376356.399,999.512,118.652,-876.953,999.512
1742376356.403,512.207,-216.309,-1000.0,511.719
1742376356.407,-867.676,-375.488,-985.84,-857.91
1742376356.411,-1000.0,-71.777,-1000.0,-1000.0
1742376356.412,-211.914,241.699,-1000.0,-216.309
1742376356.416,999.512,247.07,-1000.0,999.512
1742376356.42,875.488,-74.219,-1000.0,833.496
1742376356.424,-440.43,-325.684,-1000.0,-492.676
1742376356.428,-1000.0,-118.652,-1000.0,-1000.0
1742376356.432,-180.664,302.246,-1000.0,-210.449
1742376356.436,998.047,294.922,-1000.0,992.188
1742376356.439,999.512,-96.68,-1000.0,999.512
1742376356.443,-95.703,-323.73,-1000.0,-115.723
1742376356.447,-1000.0,-239.258,-957.52,-1000.0
1742376356.451,-368.652,187.012,-1000.0,-372.07
1742376356.455,916.992,306.152,-710.449,915.039
1742376356.412,-211.914,241.699,-1000.0,-216.309
1742376356.416,999.512,247.07,-1000.0,999.512
1742376356.42,875.488,-74.219,-1000.0,833.496
1742376356.424,-440.43,-325.684,-1000.0,-492.676
1742376356.428,-1000.0,-118.652,-1000.0,-1000.0
1742376356.432,-180.664,302.246,-1000.0,-210.449
1742376356.436,998.047,294.922,-1000.0,992.188
1742376356.439,999.512,-96.68,-1000.0,999.512
1742376356.443,-95.703,-323.73,-1000.0,-115.723
1742376356.447,-1000.0,-239.258,-957.52,-1000.0
1742376356.451,-368.652,187.012,-1000.0,-372.07
1742376356.455,916.992,306.152,-710.449,915.039
1742376356.412,-211.914,241.699,-1000.0,-216.309
1742376356.416,999.512,247.07,-1000.0,999.512
1742376356.42,875.488,-74.219,-1000.0,833.496
1742376356.424,-440.43,-325.684,-1000.0,-492.676
1742376356.428,-1000.0,-118.652,-1000.0,-1000.0
1742376356.432,-180.664,302.246,-1000.0,-210.449
1742376356.436,998.047,294.922,-1000.0,992.188
1742376356.439,999.512,-96.68,-1000.0,999.512
1742376356.443,-95.703,-323.73,-1000.0,-115.723
1742376356.447,-1000.0,-239.258,-957.52,-1000.0
1742376356.451,-368.652,187.012,-1000.0,-372.07
1742376356.455,916.992,306.152,-710.449,915.039
1742376356.46,999.512,28.32,515.137,999.512
1742376356.464,155.762,-211.426,999.512,136.23
1742376356.468,-1000.0,-250.0,927.246,-1000.0
1742376356.472,-365.234,145.996,966.797,-363.77
1742376356.476,943.359,313.477,968.75,939.453
1742376356.48,999.512,117.676,967.285,999.512
1742376356.484,208.984,-221.191,967.285,210.449
1742376356.487,-1000.0,-391.602,967.285,-1000.0
1742376356.491,-756.836,40.039,967.285,-726.562
1742376356.495,620.605,291.504,967.285,650.879
1742376356.499,999.512,51.27,966.797,999.512
1742376356.503,155.273,-340.332,967.285,161.621
1742376356.46,999.512,28.32,515.137,999.512
1742376356.464,155.762,-211.426,999.512,136.23
1742376356.468,-1000.0,-250.0,927.246,-1000.0
1742376356.472,-365.234,145.996,966.797,-363.77
1742376356.476,943.359,313.477,968.75,939.453
1742376356.48,999.512,117.676,967.285,999.512
1742376356.484,208.984,-221.191,967.285,210.449
1742376356.487,-1000.0,-391.602,967.285,-1000.0
1742376356.491,-756.836,40.039,967.285,-726.562
1742376356.495,620.605,291.504,967.285,650.879
1742376356.499,999.512,51.27,966.797,999.512
1742376356.503,155.273,-340.332,967.285,161.621
1742376356.548,-268.066,146.484,-1000.0,-266.113
1742376356.552,999.512,231.934,-1000.0,999.512
1742376356.556,525.879,-230.469,-1000.0,533.691
1742376356.56,-869.141,-430.664,-1000.0,-850.098
1742376356.564,-1000.0,-150.391,-1000.0,-1000.0
1742376356.568,-183.594,233.887,-969.238,-191.406
1742376356.572,989.258,223.633,-1000.0,999.512
1742376356.575,999.512,-165.527,-802.734,999.512
1742376356.579,-73.73,-358.887,231.934,-172.852
1742376356.583,-1000.0,-201.66,934.082,-1000.0
1742376356.587,-156.25,174.805,951.172,-156.738
1742376356.591,999.512,149.902,955.078,999.512
1742376356.548,-268.066,146.484,-1000.0,-266.113
1742376356.552,999.512,231.934,-1000.0,999.512
1742376356.556,525.879,-230.469,-1000.0,533.691
1742376356.56,-869.141,-430.664,-1000.0,-850.098
1742376356.564,-1000.0,-150.391,-1000.0,-1000.0
1742376356.568,-183.594,233.887,-969.238,-191.406
1742376356.572,989.258,223.633,-1000.0,999.512
1742376356.575,999.512,-165.527,-802.734,999.512
1742376356.579,-73.73,-358.887,231.934,-172.852
1742376356.583,-1000.0,-201.66,934.082,-1000.0
1742376356.587,-156.25,174.805,951.172,-156.738
1742376356.591,999.512,149.902,955.078,999.512
1742376356.592,999.512,-84.961,970.215,999.512
1742376356.596,66.406,-227.051,967.285,30.762
1742376356.6,-1000.0,-229.492,967.285,-1000.0
1742376356.604,-345.703,171.875,966.797,-329.102
1742376356.608,935.059,362.793,966.797,939.453
1742376356.612,999.512,78.125,966.797,999.512
1742376356.616,151.367,-265.625,967.285,136.23
1742376356.619,-1000.0,-358.887,967.285,-1000.0
1742376356.623,-590.82,67.383,967.285,-583.984
1742376356.627,791.016,383.789,966.797,787.598
1742376356.631,999.512,94.238,966.797,999.512
1742376356.635,177.246,-299.805,966.797,161.133
1742376356.592,999.512,-84.961,970.215,999.512
1742376356.596,66.406,-227.051,967.285,30.762
1742376356.6,-1000.0,-229.492,967.285,-1000.0
1742376356.604,-345.703,171.875,966.797,-329.102
1742376356.608,935.059,362.793,966.797,939.453
1742376356.612,999.512,78.125,966.797,999.512
1742376356.616,151.367,-265.625,967.285,136.23
1742376356.619,-1000.0,-358.887,967.285,-1000.0
1742376356.623,-590.82,67.383,967.285,-583.984
1742376356.627,791.016,383.789,966.797,787.598
1742376356.631,999.512,94.238,966.797,999.512
1742376356.635,177.246,-299.805,966.797,161.133
1742376356.638,-1000.0,-271.973,967.285,-1000.0
1742376356.642,-874.023,80.566,967.773,-846.68
1742376356.646,459.473,304.688,957.52,487.305
1742376356.65,999.512,88.867,978.516,999.512
1742376356.654,119.141,-314.453,834.961,121.094
1742376356.658,-998.047,-204.59,537.109,-998.047
1742376356.662,-1000.0,-4.883,-98.145,-1000.0
1742376356.665,-256.348,88.867,-881.348,-251.465
1742376356.669,999.512,187.012,-1000.0,999.512
1742376356.673,173.34,-261.23,-977.051,174.316
1742376356.677,-1000.0,-315.43,-1000.0,-1000.0
1742376356.681,-1000.0,-33.691,-1000.0,-1000.0
1742376356.638,-1000.0,-271.973,967.285,-1000.0
1742376356.642,-874.023,80.566,967.773,-846.68
1742376356.646,459.473,304.688,957.52,487.305
1742376356.65,999.512,88.867,978.516,999.512
1742376356.654,119.141,-314.453,834.961,121.094
1742376356.658,-998.047,-204.59,537.109,-998.047
1742376356.662,-1000.0,-4.883,-98.145,-1000.0
1742376356.665,-256.348,88.867,-881.348,-251.465
1742376356.669,999.512,187.012,-1000.0,999.512
1742376356.673,173.34,-261.23,-977.051,174.316
1742376356.677,-1000.0,-315.43,-1000.0,-1000.0
1742376356.681,-1000.0,-33.691,-1000.0,-1000.0
1742376356.638,-1000.0,-271.973,967.285,-1000.0
1742376356.642,-874.023,80.566,967.773,-846.68
1742376356.646,459.473,304.688,957.52,487.305
1742376356.65,999.512,88.867,978.516,999.512
1742376356.654,119.141,-314.453,834.961,121.094
1742376356.658,-998.047,-204.59,537.109,-998.047
1742376356.662,-1000.0,-4.883,-98.145,-1000.0
1742376356.665,-256.348,88.867,-881.348,-251.465
1742376356.669,999.512,187.012,-1000.0,999.512
1742376356.673,173.34,-261.23,-977.051,174.316
1742376356.677,-1000.0,-315.43,-1000.0,-1000.0
1742376356.681,-1000.0,-33.691,-1000.0,-1000.0
1742376356.685,-206.543,174.805,-1000.0,-191.406
1742376356.689,999.512,210.938,-1000.0,999.512
1742376356.693,380.859,-230.957,-972.168,361.816
1742376356.697,-1000.0,-385.254,-1000.0,-997.07
1742376356.701,-1000.0,7.812,-652.344,-1000.0
1742376356.705,174.316,354.004,301.27,119.141
1742376356.709,999.512,149.414,835.449,999.512
1742376356.712,908.203,-246.094,943.848,854.98
1742376356.716,-284.668,-315.918,962.891,-378.906
1742376356.72,-1000.0,-148.438,965.332,-1000.0
1742376356.724,-192.871,155.762,968.262,-176.27
1742376356.728,999.512,145.508,966.797,999.512
1742376356.685,-206.543,174.805,-1000.0,-191.406
1742376356.689,999.512,210.938,-1000.0,999.512
1742376356.693,380.859,-230.957,-972.168,361.816
1742376356.697,-1000.0,-385.254,-1000.0,-997.07
1742376356.701,-1000.0,7.812,-652.344,-1000.0
1742376356.705,174.316,354.004,301.27,119.141
1742376356.709,999.512,149.414,835.449,999.512
1742376356.712,908.203,-246.094,943.848,854.98
1742376356.716,-284.668,-315.918,962.891,-378.906
1742376356.72,-1000.0,-148.438,965.332,-1000.0
1742376356.724,-192.871,155.762,968.262,-176.27
1742376356.728,999.512,145.508,966.797,999.512
1742376356.757,947.754,-137.207,966.797,923.34
1742376356.761,-317.871,-279.785,967.285,-345.703
1742376356.765,-1000.0,-96.68,968.262,-1000.0
1742376356.769,-178.711,229.004,964.355,-191.406
1742376356.773,999.512,245.117,966.309,999.512
1742376356.777,999.512,31.738,943.848,999.512
1742376356.781,-170.41,-284.668,809.082,-186.523
1742376356.784,-1000.0,-299.805,421.387,-1000.0
1742376356.788,-1000.0,3.418,-524.902,-946.777
1742376356.792,167.969,241.211,-1000.0,336.426
1742376356.796,999.512,48.34,-970.703,999.512
1742376356.8,-256.836,-338.379,-996.582,-250.977
1742376356.757,947.754,-137.207,966.797,923.34
1742376356.761,-317.871,-279.785,967.285,-345.703
1742376356.765,-1000.0,-96.68,968.262,-1000.0
1742376356.769,-178.711,229.004,964.355,-191.406
1742376356.773,999.512,245.117,966.309,999.512
1742376356.777,999.512,31.738,943.848,999.512
1742376356.781,-170.41,-284.668,809.082,-186.523
1742376356.784,-1000.0,-299.805,421.387,-1000.0
1742376356.788,-1000.0,3.418,-524.902,-946.777
1742376356.792,167.969,241.211,-1000.0,336.426
1742376356.796,999.512,48.34,-970.703,999.512
1742376356.8,-256.836,-338.379,-996.582,-250.977
1742376356.787,-1000.0,-220.703,-1000.0,-1000.0
1742376356.791,-678.711,139.648,-1000.0,-674.316
1742376356.795,629.883,288.574,-1000.0,636.719
1742376356.799,999.512,41.992,-1000.0,999.512
1742376356.803,168.457,-225.586,-1000.0,140.625
1742376356.807,-1000.0,-160.645,-1000.0,-1000.0
1742376356.811,-816.895,94.727,-1000.0,-820.801
1742376356.814,540.527,173.828,-996.094,518.066
1742376356.818,999.512,14.648,-973.633,999.512
1742376356.822,187.5,-276.855,-1000.0,193.359
1742376356.826,-1000.0,-320.312,-439.453,-1000.0
1742376356.83,-262.207,164.551,642.09,-369.629
1742376356.787,-1000.0,-220.703,-1000.0,-1000.0
1742376356.791,-678.711,139.648,-1000.0,-674.316
1742376356.795,629.883,288.574,-1000.0,636.719
1742376356.799,999.512,41.992,-1000.0,999.512
1742376356.803,168.457,-225.586,-1000.0,140.625
1742376356.807,-1000.0,-160.645,-1000.0,-1000.0
1742376356.811,-816.895,94.727,-1000.0,-820.801
1742376356.814,540.527,173.828,-996.094,518.066
1742376356.818,999.512,14.648,-973.633,999.512
1742376356.822,187.5,-276.855,-1000.0,193.359
1742376356.826,-1000.0,-320.312,-439.453,-1000.0
1742376356.83,-262.207,164.551,642.09,-369.629
1742376356.787,-1000.0,-220.703,-1000.0,-1000.0
1742376356.791,-678.711,139.648,-1000.0,-674.316
1742376356.795,629.883,288.574,-1000.0,636.719
1742376356.799,999.512,41.992,-1000.0,999.512
1742376356.803,168.457,-225.586,-1000.0,140.625
1742376356.807,-1000.0,-160.645,-1000.0,-1000.0
1742376356.811,-816.895,94.727,-1000.0,-820.801
1742376356.814,540.527,173.828,-996.094,518.066
1742376356.818,999.512,14.648,-973.633,999.512
1742376356.822,187.5,-276.855,-1000.0,193.359
1742376356.826,-1000.0,-320.312,-439.453,-1000.0
1742376356.83,-262.207,164.551,642.09,-369.629
1742376356.847,965.82,315.43,992.676,922.363
1742376356.851,999.512,70.801,938.965,999.512
1742376356.855,442.383,-197.754,965.82,402.832
1742376356.859,-938.965,-347.656,968.75,-954.59
1742376356.863,-1000.0,-31.738,967.285,-1000.0
1742376356.867,168.457,284.18,966.797,184.57
1742376356.871,999.512,173.34,966.797,999.512
1742376356.874,386.23,-301.27,966.797,393.066
1742376356.878,-902.344,-417.969,967.285,-900.391
1742376356.882,-1000.0,-67.383,967.285,-1000.0
1742376356.886,-203.125,209.961,967.285,-172.852
1742376356.89,999.512,227.539,967.285,999.512
1742376356.877,614.746,-178.711,966.797,598.145
1742376356.881,-772.461,-361.328,966.797,-776.367
1742376356.885,-1000.0,-121.582,967.285,-1000.0
1742376356.889,-207.031,214.844,967.285,-208.984
1742376356.893,999.512,268.066,966.797,999.512
1742376356.897,873.047,-85.449,966.797,857.422
1742376356.901,-444.336,-326.66,967.285,-461.426
1742376356.904,-1000.0,-272.461,967.285,-1000.0
1742376356.908,-181.641,178.711,964.844,-197.266
1742376356.912,999.512,337.402,972.168,999.512
1742376356.916,999.512,-51.27,927.734,997.07
1742376356.92,-183.105,-319.824,880.371,-191.406
1742376356.952,-1000.0,-203.613,833.984,-1000.0
1742376356.956,-344.727,216.309,761.719,-326.66
1742376356.96,933.594,354.492,713.379,940.43
1742376356.964,999.512,-13.672,626.465,999.512
1742376356.968,-23.926,-273.438,483.887,-15.137
1742376356.972,-1000.0,-129.883,428.711,-1000.0
1742376356.976,-524.902,180.176,487.305,-510.742
1742376356.979,821.289,210.449,534.668,826.66
1742376356.983,999.512,-14.648,568.359,999.512
1742376356.987,175.293,-258.789,542.48,159.668
1742376356.991,-1000.0,-245.117,484.375,-1000.0
1742376356.995,-803.711,83.984,491.699,-777.832
1742376356.967,556.641,315.43,539.551,579.59
1742376356.971,999.512,112.305,540.039,999.512
1742376356.975,159.18,-309.57,497.559,163.086
1742376356.979,-1000.0,-319.824,499.023,-1000.0
1742376356.983,-972.656,68.848,507.324,-949.707
1742376356.987,300.293,279.785,477.051,327.148
1742376356.991,999.512,114.746,444.824,999.512
1742376356.994,135.742,-358.887,416.992,167.48
1742376356.998,-1000.0,-374.023,378.418,-1000.0
1742376357.002,-1000.0,-15.137,365.723,-1000.0
1742376357.006,-32.715,181.641,377.441,-14.648
1742376357.01,999.512,120.117,350.098,999.512
1742376357.015,326.66,-279.297,264.648,331.543
1742376357.019,-949.219,-348.633,177.246,-947.266
1742376357.023,-1000.0,6.836,125.977,-1000.0
1742376357.027,-222.168,181.152,86.426,-189.453
1742376357.031,999.512,117.188,82.031,999.512
1742376357.035,633.301,-80.566,81.543,618.164
1742376357.039,-755.859,-312.988,62.988,-756.836
1742376357.042,-1000.0,-206.543,67.871,-1000.0
1742376357.046,-206.055,181.641,85.938,-208.984
1742376357.05,999.512,221.68,132.812,999.512
1742376357.054,874.023,-118.164,198.73,844.727
1742376357.058,-442.871,-369.629,279.785,-480.957
1742376357.015,326.66,-279.297,264.648,331.543
1742376357.019,-949.219,-348.633,177.246,-947.266
1742376357.023,-1000.0,6.836,125.977,-1000.0
1742376357.027,-222.168,181.152,86.426,-189.453
1742376357.031,999.512,117.188,82.031,999.512
1742376357.035,633.301,-80.566,81.543,618.164
1742376357.039,-755.859,-312.988,62.988,-756.836
1742376357.042,-1000.0,-206.543,67.871,-1000.0
1742376357.046,-206.055,181.641,85.938,-208.984
1742376357.05,999.512,221.68,132.812,999.512
1742376357.054,874.023,-118.164,198.73,844.727
1742376357.058,-442.871,-369.629,279.785,-480.957
1742376357.537,999.512,362.305,-171.875,999.512
1742376357.541,750.977,-38.086,-175.293,720.215
1742376357.545,-619.141,-296.387,-90.82,-650.879
1742376357.549,-1000.0,-90.332,19.043,-1000.0
1742376357.553,-188.965,377.93,57.617,-192.871
1742376357.557,999.512,409.668,70.312,999.512
1742376357.561,973.145,-44.922,35.645,948.242
1742376357.564,-265.137,-315.43,63.477,-302.246
1742376357.568,-1000.0,-158.691,137.695,-1000.0
1742376357.572,-229.98,307.129,161.621,-241.211
1742376357.576,976.562,334.473,113.281,975.586
1742376357.58,999.512,24.902,45.41,999.512
1742376357.015,326.66,-279.297,264.648,331.543
1742376357.019,-949.219,-348.633,177.246,-947.266
1742376357.023,-1000.0,6.836,125.977,-1000.0
1742376357.027,-222.168,181.152,86.426,-189.453
1742376357.031,999.512,117.188,82.031,999.512
1742376357.035,633.301,-80.566,81.543,618.164
1742376357.039,-755.859,-312.988,62.988,-756.836
1742376357.042,-1000.0,-206.543,67.871,-1000.0
1742376357.046,-206.055,181.641,85.938,-208.984
1742376357.05,999.512,221.68,132.812,999.512
1742376357.054,874.023,-118.164,198.73,844.727
1742376357.058,-442.871,-369.629,279.785,-480.957
1742376357.072,-1000.0,-211.914,353.027,-1000.0
1742376357.076,-173.34,217.285,479.492,-175.293
1742376357.08,997.07,212.402,600.098,999.512
1742376357.084,999.512,-129.395,641.113,999.512
1742376357.088,-78.125,-280.273,626.465,-93.75
1742376357.092,-1000.0,-216.797,680.176,-1000.0
1742376357.096,-236.816,156.25,754.395,-234.863
1742376357.099,999.512,156.738,575.195,999.512
1742376357.103,999.512,-254.395,248.047,999.512
1742376357.107,-111.328,-402.344,154.297,-95.215
1742376357.111,-1000.0,-311.523,318.359,-1000.0
1742376357.115,-463.867,51.27,508.789,-453.613
1742376357.072,-1000.0,-211.914,353.027,-1000.0
1742376357.076,-173.34,217.285,479.492,-175.293
1742376357.08,997.07,212.402,600.098,999.512
1742376357.084,999.512,-129.395,641.113,999.512
1742376357.088,-78.125,-280.273,626.465,-93.75
1742376357.092,-1000.0,-216.797,680.176,-1000.0
1742376357.096,-236.816,156.25,754.395,-234.863
1742376357.099,999.512,156.738,575.195,999.512
1742376357.103,999.512,-254.395,248.047,999.512
1742376357.107,-111.328,-402.344,154.297,-95.215
1742376357.111,-1000.0,-311.523,318.359,-1000.0
1742376357.115,-463.867,51.27,508.789,-453.613
1742376357.131,851.074,233.887,645.996,858.398
1742376357.135,999.512,-31.25,557.129,999.512
1742376357.139,126.465,-364.746,106.934,129.395
1742376357.143,-1000.0,-354.492,-238.281,-1000.0
1742376357.147,-955.078,-37.598,-360.352,-911.621
1742376357.151,315.918,226.074,-517.578,379.395
1742376357.155,999.512,20.508,-586.914,999.512
1742376357.158,135.254,-401.367,-509.766,134.277
1742376357.162,-1000.0,-326.172,-552.734,-1000.0
1742376357.166,-1000.0,-79.102,-838.379,-1000.0
1742376357.17,-14.648,114.746,-1000.0,30.762
1742376357.174,999.512,75.684,-993.164,999.512
1742376357.131,851.074,233.887,645.996,858.398
1742376357.135,999.512,-31.25,557.129,999.512
1742376357.139,126.465,-364.746,106.934,129.395
1742376357.143,-1000.0,-354.492,-238.281,-1000.0
1742376357.147,-955.078,-37.598,-360.352,-911.621
1742376357.151,315.918,226.074,-517.578,379.395
1742376357.155,999.512,20.508,-586.914,999.512
1742376357.158,135.254,-401.367,-509.766,134.277
1742376357.162,-1000.0,-326.172,-552.734,-1000.0
1742376357.166,-1000.0,-79.102,-838.379,-1000.0
1742376357.17,-14.648,114.746,-1000.0,30.762
1742376357.174,999.512,75.684,-993.164,999.512
1742376357.162,153.32,-341.797,-998.047,149.414
1742376357.166,-1000.0,-367.188,-1000.0,-1000.0
1742376357.17,-1000.0,-74.707,-998.047,-1000.0
1742376357.174,-29.785,155.273,-968.75,-46.875
1742376357.178,999.512,175.293,-1000.0,999.512
1742376357.182,699.219,-174.316,-559.082,603.027
1742376357.186,-707.52,-405.273,564.453,-797.363
1742376357.189,-1000.0,-222.168,999.512,-1000.0
1742376357.193,170.898,132.812,937.988,119.141
1742376357.197,999.512,182.129,964.355,999.512
1742376357.201,675.781,-174.805,968.75,641.602
1742376357.205,-631.348,-439.941,967.285,-674.316
1742376357.208,-1000.0,-180.664,967.285,-1000.0
1742376357.212,-213.379,185.547,967.285,-207.031
1742376357.216,999.512,210.449,966.797,999.512
1742376357.22,778.809,-198.242,966.797,766.113
1742376357.224,-583.008,-366.211,967.285,-588.867
1742376357.228,-1000.0,-81.543,967.285,-1000.0
1742376357.232,-187.012,216.309,966.309,-190.43
1742376357.235,999.512,152.344,964.355,999.512
1742376357.239,979.492,-135.254,975.098,956.543
1742376357.243,-241.699,-297.852,909.18,-277.832
1742376357.247,-1000.0,-202.148,886.23,-1000.0
1742376357.251,-304.688,238.77,967.285,-299.805
1742376357.208,-1000.0,-180.664,967.285,-1000.0
1742376357.212,-213.379,185.547,967.285,-207.031
1742376357.216,999.512,210.449,966.797,999.512
1742376357.22,778.809,-198.242,966.797,766.113
1742376357.224,-583.008,-366.211,967.285,-588.867
1742376357.228,-1000.0,-81.543,967.285,-1000.0
1742376357.232,-187.012,216.309,966.309,-190.43
1742376357.235,999.512,152.344,964.355,999.512
1742376357.239,979.492,-135.254,975.098,956.543
1742376357.243,-241.699,-297.852,909.18,-277.832
1742376357.247,-1000.0,-202.148,886.23,-1000.0
1742376357.251,-304.688,238.77,967.285,-299.805
1742376357.208,-1000.0,-180.664,967.285,-1000.0
1742376357.212,-213.379,185.547,967.285,-207.031
1742376357.216,999.512,210.449,966.797,999.512
1742376357.22,778.809,-198.242,966.797,766.113
1742376357.224,-583.008,-366.211,967.285,-588.867
1742376357.228,-1000.0,-81.543,967.285,-1000.0
1742376357.232,-187.012,216.309,966.309,-190.43
1742376357.235,999.512,152.344,964.355,999.512
1742376357.239,979.492,-135.254,975.098,956.543
1742376357.243,-241.699,-297.852,909.18,-277.832
1742376357.247,-1000.0,-202.148,886.23,-1000.0
1742376357.251,-304.688,238.77,967.285,-299.805
1742376357.252,946.777,345.215,969.238,951.172
1742376357.256,999.512,-19.043,963.867,999.512
1742376357.26,-19.531,-298.828,968.262,-39.551
1742376357.264,-1000.0,-251.465,966.309,-1000.0
1742376357.268,-501.953,199.707,961.914,-492.676
1742376357.272,852.051,359.375,969.727,856.445
1742376357.276,999.512,37.598,874.023,999.512
1742376357.279,25.391,-339.844,633.789,15.625
1742376357.283,-1000.0,-296.875,383.789,-1000.0
1742376357.287,-987.793,47.363,201.172,-956.543
1742376357.291,228.516,223.633,182.617,275.391
1742376357.295,999.512,83.008,319.336,999.512
1742376357.252,946.777,345.215,969.238,951.172
1742376357.256,999.512,-19.043,963.867,999.512
1742376357.26,-19.531,-298.828,968.262,-39.551
1742376357.264,-1000.0,-251.465,966.309,-1000.0
1742376357.268,-501.953,199.707,961.914,-492.676
1742376357.272,852.051,359.375,969.727,856.445
1742376357.276,999.512,37.598,874.023,999.512
1742376357.279,25.391,-339.844,633.789,15.625
1742376357.283,-1000.0,-296.875,383.789,-1000.0
1742376357.287,-987.793,47.363,201.172,-956.543
1742376357.291,228.516,223.633,182.617,275.391
1742376357.295,999.512,83.008,319.336,999.512
1742376357.299,171.875,-302.246,488.77,165.039
1742376357.303,-1000.0,-323.242,593.75,-1000.0
1742376357.307,-877.93,84.473,674.805,-890.137
1742376357.311,448.242,275.391,706.543,424.805
1742376357.315,999.512,42.969,653.32,999.512
1742376357.319,169.922,-264.16,621.094,171.875
1742376357.323,-1000.0,-362.305,610.352,-1000.0
1742376357.326,-1000.0,-138.672,549.805,-1000.0
1742376357.33,-24.414,124.023,482.422,-20.996
1742376357.334,999.512,127.441,401.367,999.512
1742376357.338,238.77,-291.504,181.641,250.0
1742376357.342,-990.234,-404.297,15.625,-986.816
1742376357.299,171.875,-302.246,488.77,165.039
1742376357.303,-1000.0,-323.242,593.75,-1000.0
1742376357.307,-877.93,84.473,674.805,-890.137
1742376357.311,448.242,275.391,706.543,424.805
1742376357.315,999.512,42.969,653.32,999.512
1742376357.319,169.922,-264.16,621.094,171.875
1742376357.323,-1000.0,-362.305,610.352,-1000.0
1742376357.326,-1000.0,-138.672,549.805,-1000.0
1742376357.33,-24.414,124.023,482.422,-20.996
1742376357.334,999.512,127.441,401.367,999.512
1742376357.338,238.77,-291.504,181.641,250.0
1742376357.342,-990.234,-404.297,15.625,-986.816
1742376357.342,-1000.0,-47.852,-12.695,-1000.0
1742376357.346,-193.848,232.91,4.883,-178.711
1742376357.35,999.512,239.258,130.859,999.512
1742376357.354,599.121,-191.406,288.086,569.824
1742376357.358,-787.598,-351.562,307.617,-807.617
1742376357.362,-1000.0,-34.668,232.422,-1000.0
1742376357.366,-187.5,248.047,209.961,-168.945
1742376357.369,999.512,172.852,99.121,999.512
1742376357.373,791.504,-182.129,62.5,794.434
1742376357.377,-556.641,-304.688,127.93,-539.551
1742376357.381,-1000.0,-124.512,119.629,-1000.0
1742376357.385,-176.27,209.473,86.426,-178.223
1742376357.342,-1000.0,-47.852,-12.695,-1000.0
1742376357.346,-193.848,232.91,4.883,-178.711
1742376357.35,999.512,239.258,130.859,999.512
1742376357.354,599.121,-191.406,288.086,569.824
1742376357.358,-787.598,-351.562,307.617,-807.617
1742376357.362,-1000.0,-34.668,232.422,-1000.0
1742376357.366,-187.5,248.047,209.961,-168.945
1742376357.369,999.512,172.852,99.121,999.512
1742376357.373,791.504,-182.129,62.5,794.434
1742376357.377,-556.641,-304.688,127.93,-539.551
1742376357.381,-1000.0,-124.512,119.629,-1000.0
1742376357.385,-176.27,209.473,86.426,-178.223
1742376357.388,999.023,249.023,123.535,999.512
1742376357.392,999.512,-32.227,181.152,999.512
1742376357.396,-118.652,-234.375,221.68,-134.277
1742376357.4,-1000.0,-154.785,258.301,-1000.0
1742376357.404,-169.922,284.18,299.805,-189.453
1742376357.408,987.793,406.25,348.145,982.422
1742376357.412,999.512,145.02,461.426,999.512
1742376357.415,119.141,-73.73,537.109,116.699
1742376357.419,-1000.0,14.16,515.625,-1000.0
1742376357.423,-388.672,493.652,484.375,-382.812
1742376357.427,917.969,590.82,445.801,921.387
1742376357.431,999.512,220.703,364.746,999.512
1742376357.388,999.023,249.023,123.535,999.512
1742376357.392,999.512,-32.227,181.152,999.512
1742376357.396,-118.652,-234.375,221.68,-134.277
1742376357.4,-1000.0,-154.785,258.301,-1000.0
1742376357.404,-169.922,284.18,299.805,-189.453
1742376357.408,987.793,406.25,348.145,982.422
1742376357.412,999.512,145.02,461.426,999.512
1742376357.415,119.141,-73.73,537.109,116.699
1742376357.419,-1000.0,14.16,515.625,-1000.0
1742376357.423,-388.672,493.652,484.375,-382.812
1742376357.427,917.969,590.82,445.801,921.387
1742376357.431,999.512,220.703,364.746,999.512
1742376357.388,999.023,249.023,123.535,999.512
1742376357.392,999.512,-32.227,181.152,999.512
1742376357.396,-118.652,-234.375,221.68,-134.277
1742376357.4,-1000.0,-154.785,258.301,-1000.0
1742376357.404,-169.922,284.18,299.805,-189.453
1742376357.408,987.793,406.25,348.145,982.422
1742376357.412,999.512,145.02,461.426,999.512
1742376357.415,119.141,-73.73,537.109,116.699
1742376357.419,-1000.0,14.16,515.625,-1000.0
1742376357.423,-388.672,493.652,484.375,-382.812
1742376357.427,917.969,590.82,445.801,921.387
1742376357.431,999.512,220.703,364.746,999.512
1742376357.432,184.57,-41.016,290.039,171.875
1742376357.436,-1000.0,-9.277,371.582,-1000.0
1742376357.44,-598.145,328.613,478.027,-583.008
1742376357.444,801.27,498.535,529.297,808.105
1742376357.448,999.512,309.57,515.137,999.512
1742376357.452,161.133,-71.777,458.008,166.992
1742376357.456,-1000.0,-156.738,414.062,-1000.0
1742376357.459,-1000.0,104.492,344.238,-972.656
1742376357.463,233.887,328.125,250.488,293.457
1742376357.467,999.512,312.012,166.504,999.512
1742376357.471,139.16,-84.961,46.875,142.09
1742376357.475,-1000.0,-224.121,-11.719,-1000.0
1742376357.432,184.57,-41.016,290.039,171.875
1742376357.436,-1000.0,-9.277,371.582,-1000.0
1742376357.44,-598.145,328.613,478.027,-583.008
1742376357.444,801.27,498.535,529.297,808.105
1742376357.448,999.512,309.57,515.137,999.512
1742376357.452,161.133,-71.777,458.008,166.992
1742376357.456,-1000.0,-156.738,414.062,-1000.0
1742376357.459,-1000.0,104.492,344.238,-972.656
1742376357.463,233.887,328.125,250.488,293.457
1742376357.467,999.512,312.012,166.504,999.512
1742376357.471,139.16,-84.961,46.875,142.09
1742376357.475,-1000.0,-224.121,-11.719,-1000.0
1742376357.479,-1000.0,122.07,-31.738,-1000.0
1742376357.483,8.301,374.023,-44.434,41.016
1742376357.487,999.512,304.688,0.488,999.512
1742376357.491,312.988,-109.863,9.277,307.617
1742376357.495,-977.051,-229.004,2.441,-974.121
1742376357.499,-1000.0,138.184,104.492,-1000.0
1742376357.503,-26.855,339.844,218.262,-35.645
1742376357.506,999.512,207.031,194.336,999.512
1742376357.51,458.984,-149.902,70.801,451.66
1742376357.514,-875.0,-273.926,-103.027,-880.371
1742376357.518,-1000.0,-9.277,-223.145,-1000.0
1742376357.522,-227.539,296.875,-208.008,-225.098
1742376357.479,-1000.0,122.07,-31.738,-1000.0
1742376357.483,8.301,374.023,-44.434,41.016
1742376357.487,999.512,304.688,0.488,999.512
1742376357.491,312.988,-109.863,9.277,307.617
1742376357.495,-977.051,-229.004,2.441,-974.121
1742376357.499,-1000.0,138.184,104.492,-1000.0
1742376357.503,-26.855,339.844,218.262,-35.645
1742376357.506,999.512,207.031,194.336,999.512
1742376357.51,458.984,-149.902,70.801,451.66
1742376357.514,-875.0,-273.926,-103.027,-880.371
1742376357.518,-1000.0,-9.277,-223.145,-1000.0
1742376357.522,-227.539,296.875,-208.008,-225.098
1742376357.583,-26.367,-203.613,82.031,-50.293
1742376357.587,-1000.0,-181.641,138.184,-1000.0
1742376357.591,-434.57,231.445,173.828,-435.547
1742376357.595,874.512,366.699,184.082,872.559
1742376357.599,999.512,63.965,174.316,999.512
1742376357.603,187.988,-149.414,175.781,162.109
1742376357.607,-1000.0,-184.57,149.414,-1000.0
1742376357.61,-686.523,123.047,168.457,-692.383
1742376357.614,702.148,328.125,208.008,680.664
1742376357.618,999.512,117.188,202.637,999.512
1742376357.622,159.668,-207.52,199.219,156.738
1742376357.626,-1000.0,-248.047,187.988,-1000.0
1742376357.583,-26.367,-203.613,82.031,-50.293
1742376357.587,-1000.0,-181.641,138.184,-1000.0
1742376357.591,-434.57,231.445,173.828,-435.547
1742376357.595,874.512,366.699,184.082,872.559
1742376357.599,999.512,63.965,174.316,999.512
1742376357.603,187.988,-149.414,175.781,162.109
1742376357.607,-1000.0,-184.57,149.414,-1000.0
1742376357.61,-686.523,123.047,168.457,-692.383
1742376357.614,702.148,328.125,208.008,680.664
1742376357.618,999.512,117.188,202.637,999.512
1742376357.622,159.668,-207.52,199.219,156.738
1742376357.626,-1000.0,-248.047,187.988,-1000.0
1742376357.583,-26.367,-203.613,82.031,-50.293
1742376357.587,-1000.0,-181.641,138.184,-1000.0
1742376357.591,-434.57,231.445,173.828,-435.547
1742376357.595,874.512,366.699,184.082,872.559
1742376357.599,999.512,63.965,174.316,999.512
1742376357.603,187.988,-149.414,175.781,162.109
1742376357.607,-1000.0,-184.57,149.414,-1000.0
1742376357.61,-686.523,123.047,168.457,-692.383
1742376357.614,702.148,328.125,208.008,680.664
1742376357.618,999.512,117.188,202.637,999.512
1742376357.622,159.668,-207.52,199.219,156.738
1742376357.626,-1000.0,-248.047,187.988,-1000.0
1742376357.656,-995.605,89.355,116.699,-975.586
1742376357.66,259.277,343.262,-36.133,287.109
1742376357.664,999.512,204.59,-129.883,999.512
1742376357.668,142.09,-266.113,-145.02,142.578
1742376357.672,-1000.0,-261.719,-157.227,-1000.0
1742376357.676,-1000.0,20.508,-135.742,-1000.0
1742376357.68,55.176,191.406,-145.02,49.316
1742376357.683,999.512,84.473,-167.969,999.512
1742376357.687,207.031,-422.363,-155.762,213.867
1742376357.691,-1000.0,-428.711,-104.004,-998.535
1742376357.695,-1000.0,-58.594,-36.621,-1000.0
1742376357.699,-133.789,145.508,1.465,-147.949
1742376357.673,999.512,147.461,10.254,999.512
1742376357.677,464.844,-247.559,39.551,452.637
1742376357.681,-885.742,-415.039,91.309,-894.531
1742376357.685,-1000.0,-152.832,10.742,-1000.0
1742376357.689,-230.469,157.715,-115.234,-228.516
1742376357.693,999.512,263.672,-83.984,999.512
1742376357.697,723.145,-175.781,20.508,703.125
1742376357.7,-653.32,-443.848,66.895,-668.945
1742376357.704,-1000.0,-187.012,20.996,-1000.0
1742376357.708,-206.055,150.879,-16.113,-226.562
1742376357.712,999.512,208.984,-19.043,999.512
1742376357.716,838.379,-177.246,-23.438,807.617
1742376357.717,-475.098,-356.934,-18.066,-517.09
1742376357.721,-1000.0,-161.133,-55.664,-1000.0
1742376357.725,-340.332,206.055,-109.863,-367.676
1742376357.729,940.918,297.363,-231.445,941.895
1742376357.733,999.512,26.367,-310.059,999.512
1742376357.737,-134.766,-185.059,-37.109,-208.984
1742376357.741,-1000.0,-188.477,181.152,-1000.0
1742376357.744,-578.613,52.246,119.629,-625.488
1742376357.748,788.086,244.629,86.426,743.164
1742376357.752,999.512,11.23,82.52,999.512
1742376357.756,-60.547,-251.953,-19.531,-121.582
1742376357.76,-1000.0,-232.91,-102.051,-1000.0
1742376357.717,-475.098,-356.934,-18.066,-517.09
1742376357.721,-1000.0,-161.133,-55.664,-1000.0
1742376357.725,-340.332,206.055,-109.863,-367.676
1742376357.729,940.918,297.363,-231.445,941.895
1742376357.733,999.512,26.367,-310.059,999.512
1742376357.737,-134.766,-185.059,-37.109,-208.984
1742376357.741,-1000.0,-188.477,181.152,-1000.0
1742376357.744,-578.613,52.246,119.629,-625.488
1742376357.748,788.086,244.629,86.426,743.164
1742376357.752,999.512,11.23,82.52,999.512
1742376357.756,-60.547,-251.953,-19.531,-121.582
1742376357.76,-1000.0,-232.91,-102.051,-1000.0
1742376357.717,-475.098,-356.934,-18.066,-517.09
1742376357.721,-1000.0,-161.133,-55.664,-1000.0
1742376357.725,-340.332,206.055,-109.863,-367.676
1742376357.729,940.918,297.363,-231.445,941.895
1742376357.733,999.512,26.367,-310.059,999.512
1742376357.737,-134.766,-185.059,-37.109,-208.984
1742376357.741,-1000.0,-188.477,181.152,-1000.0
1742376357.744,-578.613,52.246,119.629,-625.488
1742376357.748,788.086,244.629,86.426,743.164
1742376357.752,999.512,11.23,82.52,999.512
1742376357.756,-60.547,-251.953,-19.531,-121.582
1742376357.76,-1000.0,-232.91,-102.051,-1000.0
1742376357.778,-885.254,15.625,-83.496,-923.828
1742376357.782,387.207,258.301,-111.328,315.43
1742376357.786,999.512,76.66,-193.359,999.512
1742376357.79,109.863,-291.016,-215.332,56.152
1742376357.794,-1000.0,-270.508,-154.297,-1000.0
1742376357.798,-1000.0,100.586,-73.242,-1000.0
1742376357.802,210.449,249.512,7.812,147.949
1742376357.805,999.512,-2.93,125.0,999.512
1742376357.809,137.695,-361.328,198.73,135.742
1742376357.813,-1000.0,-294.434,231.934,-1000.0
1742376357.817,-1000.0,5.371,279.297,-1000.0
1742376357.821,-14.16,172.363,248.535,-61.035
1742376357.778,-885.254,15.625,-83.496,-923.828
1742376357.782,387.207,258.301,-111.328,315.43
1742376357.786,999.512,76.66,-193.359,999.512
1742376357.79,109.863,-291.016,-215.332,56.152
1742376357.794,-1000.0,-270.508,-154.297,-1000.0
1742376357.798,-1000.0,100.586,-73.242,-1000.0
1742376357.802,210.449,249.512,7.812,147.949
1742376357.805,999.512,-2.93,125.0,999.512
1742376357.809,137.695,-361.328,198.73,135.742
1742376357.813,-1000.0,-294.434,231.934,-1000.0
1742376357.817,-1000.0,5.371,279.297,-1000.0
1742376357.821,-14.16,172.363,248.535,-61.035
1742376357.822,999.512,180.176,122.07,999.512
1742376357.826,171.387,-221.68,80.078,176.758
1742376357.83,-1000.0,-380.371,112.793,-1000.0
1742376357.834,-1000.0,-87.402,145.02,-1000.0
1742376357.838,-192.383,257.324,157.715,-209.961
1742376357.842,999.512,286.133,86.914,999.512
1742376357.846,406.25,-237.793,-12.207,379.883
1742376357.849,-928.711,-437.012,-35.156,-943.848
1742376357.853,-1000.0,-88.867,-73.73,-1000.0
1742376357.857,-227.539,266.602,-126.465,-218.262
1742376357.861,999.512,227.051,-117.188,999.512
1742376357.865,810.547,-123.047,-55.176,803.223
1742376357.822,999.512,180.176,122.07,999.512
1742376357.826,171.387,-221.68,80.078,176.758
1742376357.83,-1000.0,-380.371,112.793,-1000.0
1742376357.834,-1000.0,-87.402,145.02,-1000.0
1742376357.838,-192.383,257.324,157.715,-209.961
1742376357.842,999.512,286.133,86.914,999.512
1742376357.846,406.25,-237.793,-12.207,379.883
1742376357.849,-928.711,-437.012,-35.156,-943.848
1742376357.853,-1000.0,-88.867,-73.73,-1000.0
1742376357.857,-227.539,266.602,-126.465,-218.262
1742376357.861,999.512,227.051,-117.188,999.512
1742376357.865,810.547,-123.047,-55.176,803.223
1742376357.867,-536.621,-305.664,-25.879,-537.598
1742376357.871,-1000.0,-153.32,-44.922,-1000.0
1742376357.875,-175.781,235.84,-44.922,-171.875
1742376357.879,998.535,229.004,-33.691,999.512
1742376357.883,999.512,-100.098,-52.734,999.512
1742376357.887,-113.281,-211.426,-83.496,-103.516
1742376357.891,-1000.0,-237.793,-80.566,-1000.0
1742376357.894,-175.781,78.613,-94.727,-176.758
1742376357.898,996.582,210.449,-149.414,996.094
1742376357.902,999.512,-38.574,-207.52,999.512
1742376357.906,36.133,-258.301,-204.102,54.688
1742376357.91,-1000.0,-240.723,-157.715,-1000.0
1742376357.867,-536.621,-305.664,-25.879,-537.598
1742376357.871,-1000.0,-153.32,-44.922,-1000.0
1742376357.875,-175.781,235.84,-44.922,-171.875
1742376357.879,998.535,229.004,-33.691,999.512
1742376357.883,999.512,-100.098,-52.734,999.512
1742376357.887,-113.281,-211.426,-83.496,-103.516
1742376357.891,-1000.0,-237.793,-80.566,-1000.0
1742376357.894,-175.781,78.613,-94.727,-176.758
1742376357.898,996.582,210.449,-149.414,996.094
1742376357.902,999.512,-38.574,-207.52,999.512
1742376357.906,36.133,-258.301,-204.102,54.688
1742376357.91,-1000.0,-240.723,-157.715,-1000.0
1742376357.867,-536.621,-305.664,-25.879,-537.598
1742376357.871,-1000.0,-153.32,-44.922,-1000.0
1742376357.875,-175.781,235.84,-44.922,-171.875
1742376357.879,998.535,229.004,-33.691,999.512
1742376357.883,999.512,-100.098,-52.734,999.512
1742376357.887,-113.281,-211.426,-83.496,-103.516
1742376357.891,-1000.0,-237.793,-80.566,-1000.0
1742376357.894,-175.781,78.613,-94.727,-176.758
1742376357.898,996.582,210.449,-149.414,996.094
1742376357.902,999.512,-38.574,-207.52,999.512
1742376357.906,36.133,-258.301,-204.102,54.688
1742376357.91,-1000.0,-240.723,-157.715,-1000.0
1742376357.912,-302.734,192.383,-135.742,-287.109
1742376357.916,942.383,290.039,-81.543,951.66
1742376357.92,999.512,-19.043,-0.977,999.512
1742376357.924,224.121,-310.059,48.828,211.914
1742376357.928,-1000.0,-249.023,85.938,-1000.0
1742376357.932,-474.609,178.223,96.68,-456.055
1742376357.936,887.207,252.93,114.258,892.578
1742376357.939,999.512,-77.637,128.418,999.512
1742376357.943,179.688,-434.57,160.645,184.082
1742376357.947,-1000.0,-391.113,-3.418,-1000.0
1742376357.951,-949.707,-34.668,-283.691,-916.504
1742376357.955,341.797,110.84,-332.031,382.324
1742376357.912,-302.734,192.383,-135.742,-287.109
1742376357.916,942.383,290.039,-81.543,951.66
1742376357.92,999.512,-19.043,-0.977,999.512
1742376357.924,224.121,-310.059,48.828,211.914
1742376357.928,-1000.0,-249.023,85.938,-1000.0
1742376357.932,-474.609,178.223,96.68,-456.055
1742376357.936,887.207,252.93,114.258,892.578
1742376357.939,999.512,-77.637,128.418,999.512
1742376357.943,179.688,-434.57,160.645,184.082
1742376357.947,-1000.0,-391.113,-3.418,-1000.0
1742376357.951,-949.707,-34.668,-283.691,-916.504
1742376357.955,341.797,110.84,-332.031,382.324
1742376357.958,999.512,19.531,-184.57,999.512
1742376357.962,153.32,-337.891,-65.918,186.035
1742376357.966,-1000.0,-418.457,-58.594,-1000.0
1742376357.97,-1000.0,-75.195,-11.23,-981.445
1742376357.974,217.285,167.969,66.406,263.184
1742376357.978,999.512,159.668,128.906,999.512
1742376357.982,329.59,-273.926,128.418,347.168
1742376357.985,-953.125,-470.703,106.445,-945.801
1742376357.989,-1000.0,-89.355,99.121,-1000.0
1742376357.993,-13.184,183.594,102.539,9.277
1742376357.997,999.512,118.164,-16.113,999.512
1742376358.001,310.059,-322.754,-217.285,341.309
1742376357.958,999.512,19.531,-184.57,999.512
1742376357.962,153.32,-337.891,-65.918,186.035
1742376357.966,-1000.0,-418.457,-58.594,-1000.0
1742376357.97,-1000.0,-75.195,-11.23,-981.445
1742376357.974,217.285,167.969,66.406,263.184
1742376357.978,999.512,159.668,128.906,999.512
1742376357.982,329.59,-273.926,128.418,347.168
1742376357.985,-953.125,-470.703,106.445,-945.801
1742376357.989,-1000.0,-89.355,99.121,-1000.0
1742376357.993,-13.184,183.594,102.539,9.277
1742376357.997,999.512,118.164,-16.113,999.512
1742376358.001,310.059,-322.754,-217.285,341.309
1742376358.001,-954.102,-443.359,-324.707,-937.5
1742376358.005,-1000.0,-105.469,-337.891,-1000.0
1742376358.009,-250.488,182.129,-330.566,-224.121
1742376358.013,999.512,192.871,-312.988,999.512
1742376358.017,667.48,-134.277,-344.238,667.48
1742376358.021,-757.812,-316.895,-425.781,-746.094
1742376358.025,-1000.0,-147.461,-330.566,-1000.0
1742376358.028,-198.73,118.652,-216.309,-199.219
1742376358.032,999.512,176.758,-247.559,999.512
1742376358.036,892.578,-75.684,-270.996,884.766
1742376358.04,-404.785,-270.02,-222.656,-408.203
1742376358.044,-1000.0,-166.016,-177.734,-1000.0
1742376358.001,-954.102,-443.359,-324.707,-937.5
1742376358.005,-1000.0,-105.469,-337.891,-1000.0
1742376358.009,-250.488,182.129,-330.566,-224.121
1742376358.013,999.512,192.871,-312.988,999.512
1742376358.017,667.48,-134.277,-344.238,667.48
1742376358.021,-757.812,-316.895,-425.781,-746.094
1742376358.025,-1000.0,-147.461,-330.566,-1000.0
1742376358.028,-198.73,118.652,-216.309,-199.219
1742376358.032,999.512,176.758,-247.559,999.512
1742376358.036,892.578,-75.684,-270.996,884.766
1742376358.04,-404.785,-270.02,-222.656,-408.203
1742376358.044,-1000.0,-166.016,-177.734,-1000.0
1742376358.048,-172.363,187.988,-150.879,-202.637
1742376358.052,993.652,287.109,-121.094,987.305
1742376358.056,999.512,-36.621,-98.145,999.512
1742376358.06,-35.156,-249.512,-22.949,-53.223
1742376358.064,-1000.0,-219.238,89.355,-1000.0
1742376358.068,-288.574,243.652,100.098,-291.016
1742376358.072,955.078,369.629,8.789,951.66
1742376358.075,999.512,-102.539,-54.688,999.512
1742376358.079,89.844,-315.43,-71.777,103.027
1742376358.083,-1000.0,-224.609,-63.965,-1000.0
1742376358.087,-566.895,136.719,-23.926,-579.59
1742376358.091,800.293,288.574,-31.25,782.227
1742376358.093,999.512,41.016,-49.805,999.512
1742376358.097,170.898,-232.422,-133.301,169.434
1742376358.101,-1000.0,-299.316,-304.199,-1000.0
1742376358.105,-950.195,7.324,-361.816,-937.988
1742376358.109,341.309,272.949,-346.191,350.098
1742376358.113,999.512,129.395,-343.75,999.512
1742376358.117,141.602,-323.73,-350.586,143.066
1742376358.12,-1000.0,-448.242,-354.004,-1000.0
1742376358.124,-1000.0,-83.496,-312.988,-1000.0
1742376358.128,89.355,224.609,-301.27,87.402
1742376358.132,999.512,119.141,-345.703,999.512
1742376358.136,113.77,-287.598,-342.773,116.211
1742376358.093,999.512,41.016,-49.805,999.512
1742376358.097,170.898,-232.422,-133.301,169.434
1742376358.101,-1000.0,-299.316,-304.199,-1000.0
1742376358.105,-950.195,7.324,-361.816,-937.988
1742376358.109,341.309,272.949,-346.191,350.098
1742376358.113,999.512,129.395,-343.75,999.512
1742376358.117,141.602,-323.73,-350.586,143.066
1742376358.12,-1000.0,-448.242,-354.004,-1000.0
1742376358.124,-1000.0,-83.496,-312.988,-1000.0
1742376358.128,89.355,224.609,-301.27,87.402
1742376358.132,999.512,119.141,-345.703,999.512
1742376358.136,113.77,-287.598,-342.773,116.211
1742376358.139,-1000.0,-324.707,-341.797,-1000.0
1742376358.143,-1000.0,-59.57,-261.719,-1000.0
1742376358.147,-41.992,169.434,-82.52,-69.824
1742376358.151,999.512,200.195,60.059,999.512
1742376358.155,473.145,-206.055,175.293,452.148
1742376358.159,-868.164,-339.355,232.91,-884.766
1742376358.163,-1000.0,-66.406,230.469,-1000.0
1742376358.166,-230.957,106.445,192.383,-219.727
1742376358.17,999.512,171.875,160.645,999.512
1742376358.174,631.348,-155.273,172.363,613.77
1742376358.178,-762.207,-365.234,151.367,-769.531
1742376358.182,-1000.0,-107.422,81.543,-1000.0
1742376358.139,-1000.0,-324.707,-341.797,-1000.0
1742376358.143,-1000.0,-59.57,-261.719,-1000.0
1742376358.147,-41.992,169.434,-82.52,-69.824
1742376358.151,999.512,200.195,60.059,999.512
1742376358.155,473.145,-206.055,175.293,452.148
1742376358.159,-868.164,-339.355,232.91,-884.766
1742376358.163,-1000.0,-66.406,230.469,-1000.0
1742376358.166,-230.957,106.445,192.383,-219.727
1742376358.17,999.512,171.875,160.645,999.512
1742376358.174,631.348,-155.273,172.363,613.77
1742376358.178,-762.207,-365.234,151.367,-769.531
1742376358.182,-1000.0,-107.422,81.543,-1000.0
1742376358.182,-200.684,283.691,112.305,-202.148
1742376358.186,999.512,292.48,180.664,999.512
1742376358.19,916.504,-31.738,218.75,906.738
1742376358.194,-371.094,-242.676,186.035,-375.0
1742376358.198,-1000.0,-103.027,163.086,-1000.0
1742376358.202,-196.777,310.059,199.219,-223.145
1742376358.206,999.512,332.52,183.594,999.512
1742376358.209,999.512,-79.102,209.473,998.047
1742376358.213,-161.621,-324.707,218.262,-188.477
1742376358.217,-1000.0,-185.547,162.598,-1000.0
1742376358.221,-410.156,209.473,153.32,-404.297
1742376358.225,887.207,311.523,174.805,889.648
1742376358.182,-200.684,283.691,112.305,-202.148
1742376358.186,999.512,292.48,180.664,999.512
1742376358.19,916.504,-31.738,218.75,906.738
1742376358.194,-371.094,-242.676,186.035,-375.0
1742376358.198,-1000.0,-103.027,163.086,-1000.0
1742376358.202,-196.777,310.059,199.219,-223.145
1742376358.206,999.512,332.52,183.594,999.512
1742376358.209,999.512,-79.102,209.473,998.047
1742376358.213,-161.621,-324.707,218.262,-188.477
1742376358.217,-1000.0,-185.547,162.598,-1000.0
1742376358.221,-410.156,209.473,153.32,-404.297
1742376358.225,887.207,311.523,174.805,889.648
1742376358.182,-200.684,283.691,112.305,-202.148
1742376358.186,999.512,292.48,180.664,999.512
1742376358.19,916.504,-31.738,218.75,906.738
1742376358.194,-371.094,-242.676,186.035,-375.0
1742376358.198,-1000.0,-103.027,163.086,-1000.0
1742376358.202,-196.777,310.059,199.219,-223.145
1742376358.206,999.512,332.52,183.594,999.512
1742376358.209,999.512,-79.102,209.473,998.047
1742376358.213,-161.621,-324.707,218.262,-188.477
1742376358.217,-1000.0,-185.547,162.598,-1000.0
1742376358.221,-410.156,209.473,153.32,-404.297
1742376358.225,887.207,311.523,174.805,889.648
1742376358.242,999.512,34.668,183.105,999.512
1742376358.246,78.613,-184.082,178.223,73.73
1742376358.25,-1000.0,-165.527,133.301,-1000.0
1742376358.254,-614.258,166.504,130.371,-613.281
1742376358.258,752.93,339.844,150.879,749.023
1742376358.262,999.512,162.109,154.785,999.512
1742376358.266,189.453,-213.867,172.363,180.664
1742376358.269,-1000.0,-307.617,237.793,-1000.0
1742376358.273,-750.488,138.184,337.891,-752.441
1742376358.277,627.93,384.766,368.164,618.652
1742376358.281,999.512,117.676,381.836,999.512
1742376358.285,152.832,-279.297,409.18,153.809
1742376358.242,999.512,34.668,183.105,999.512
1742376358.246,78.613,-184.082,178.223,73.73
1742376358.25,-1000.0,-165.527,133.301,-1000.0
1742376358.254,-614.258,166.504,130.371,-613.281
1742376358.258,752.93,339.844,150.879,749.023
1742376358.262,999.512,162.109,154.785,999.512
1742376358.266,189.453,-213.867,172.363,180.664
1742376358.269,-1000.0,-307.617,237.793,-1000.0
1742376358.273,-750.488,138.184,337.891,-752.441
1742376358.277,627.93,384.766,368.164,618.652
1742376358.281,999.512,117.676,381.836,999.512
1742376358.285,152.832,-279.297,409.18,153.809
1742376358.286,-1000.0,-250.977,406.25,-1000.0
1742376358.29,-1000.0,86.426,389.648,-1000.0
1742376358.294,185.059,229.492,378.418,190.918
1742376358.298,999.512,88.379,328.613,999.512
1742376358.302,252.93,-240.234,272.949,258.301
1742376358.306,-977.539,-278.32,221.68,-978.516
1742376358.31,-1000.0,-50.293,211.426,-1000.0
1742376358.313,-96.68,95.215,202.148,-77.637
1742376358.317,999.512,104.98,107.422,999.512
1742376358.321,391.602,-246.582,53.711,386.23
1742376358.325,-924.316,-401.367,38.086,-925.781
1742376358.329,-1000.0,-122.559,22.461,-1000.0
1742376358.286,-1000.0,-250.977,406.25,-1000.0
1742376358.29,-1000.0,86.426,389.648,-1000.0
1742376358.294,185.059,229.492,378.418,190.918
1742376358.298,999.512,88.379,328.613,999.512
1742376358.302,252.93,-240.234,272.949,258.301
1742376358.306,-977.539,-278.32,221.68,-978.516
1742376358.31,-1000.0,-50.293,211.426,-1000.0
1742376358.313,-96.68,95.215,202.148,-77.637
1742376358.317,999.512,104.98,107.422,999.512
1742376358.321,391.602,-246.582,53.711,386.23
1742376358.325,-924.316,-401.367,38.086,-925.781
1742376358.329,-1000.0,-122.559,22.461,-1000.0
1742376358.333,-238.281,117.188,22.949,-217.285
1742376358.337,999.512,134.277,17.09,999.512
1742376358.341,612.305,-248.047,14.648,602.539
1742376358.345,-782.715,-429.688,-0.977,-780.273
1742376358.349,-1000.0,-185.547,36.133,-1000.0
1742376358.353,-214.844,224.121,89.355,-212.891
1742376358.357,999.512,232.91,62.012,999.512
1742376358.36,801.27,-283.691,5.371,802.734
1742376358.364,-546.387,-432.129,-46.387,-533.691
1742376358.368,-1000.0,-166.992,-62.988,-1000.0
1742376358.372,-211.914,184.082,-57.129,-227.051
1742376358.376,991.211,210.938,-104.492,994.141
1742376358.333,-238.281,117.188,22.949,-217.285
1742376358.337,999.512,134.277,17.09,999.512
1742376358.341,612.305,-248.047,14.648,602.539
1742376358.345,-782.715,-429.688,-0.977,-780.273
1742376358.349,-1000.0,-185.547,36.133,-1000.0
1742376358.353,-214.844,224.121,89.355,-212.891
1742376358.357,999.512,232.91,62.012,999.512
1742376358.36,801.27,-283.691,5.371,802.734
1742376358.364,-546.387,-432.129,-46.387,-533.691
1742376358.368,-1000.0,-166.992,-62.988,-1000.0
1742376358.372,-211.914,184.082,-57.129,-227.051
1742376358.376,991.211,210.938,-104.492,994.141
1742376358.378,999.512,-117.188,-153.32,999.512
1742376358.382,-135.254,-266.113,-189.453,-162.598
1742376358.386,-1000.0,-233.887,-190.918,-1000.0
1742376358.39,-358.887,118.652,-163.574,-366.699
1742376358.394,915.527,294.434,-148.926,910.645
1742376358.398,999.512,-63.477,-172.852,999.512
1742376358.402,78.125,-358.887,-187.012,73.242
1742376358.405,-1000.0,-395.996,-217.285,-1000.0
1742376358.409,-571.777,72.754,-250.0,-586.426
1742376358.413,794.434,308.594,-184.57,773.438
1742376358.417,999.512,-18.066,-125.977,999.512
1742376358.421,187.988,-335.449,-121.094,173.828
1742376358.378,999.512,-117.188,-153.32,999.512
1742376358.382,-135.254,-266.113,-189.453,-162.598
1742376358.386,-1000.0,-233.887,-190.918,-1000.0
1742376358.39,-358.887,118.652,-163.574,-366.699
1742376358.394,915.527,294.434,-148.926,910.645
1742376358.398,999.512,-63.477,-172.852,999.512
1742376358.402,78.125,-358.887,-187.012,73.242
1742376358.405,-1000.0,-395.996,-217.285,-1000.0
1742376358.409,-571.777,72.754,-250.0,-586.426
1742376358.413,794.434,308.594,-184.57,773.438
1742376358.417,999.512,-18.066,-125.977,999.512
1742376358.421,187.988,-335.449,-121.094,173.828
1742376358.424,-1000.0,-303.711,-87.891,-1000.0
1742376358.428,-791.504,75.684,-15.137,-788.086
1742376358.432,576.66,250.977,13.672,570.801
1742376358.436,999.512,3.418,-15.625,999.512
1742376358.44,147.949,-300.293,-27.832,150.391
1742376358.444,-1000.0,-224.121,-54.199,-1000.0
1742376358.448,-1000.0,15.137,-44.434,-1000.0
1742376358.451,148.926,120.117,-57.617,163.086
1742376358.455,999.512,84.961,-73.242,999.512
1742376358.459,163.574,-259.766,-60.059,178.711
1742376358.463,-1000.0,-343.262,-42.48,-1000.0
1742376358.467,-1000.0,-28.32,-17.578,-1000.0
1742376358.467,-58.105,190.918,-14.648,-65.918
1742376358.471,999.512,164.062,-12.207,999.512
1742376358.475,352.539,-279.785,-40.527,348.145
1742376358.479,-941.406,-421.875,-60.547,-944.824
1742376358.483,-1000.0,-32.227,-66.406,-1000.0
1742376358.487,-212.891,270.02,-40.527,-201.66
1742376358.491,999.512,245.117,-35.645,999.512
1742376358.494,482.91,-307.129,-92.285,471.68
1742376358.498,-889.16,-507.324,-33.203,-892.578
1742376358.502,-1000.0,-124.512,95.703,-1000.0
1742376358.506,-225.098,204.102,186.035,-225.098
1742376358.51,999.512,219.238,88.867,999.512
1742376358.467,-58.105,190.918,-14.648,-65.918
1742376358.471,999.512,164.062,-12.207,999.512
1742376358.475,352.539,-279.785,-40.527,348.145
1742376358.479,-941.406,-421.875,-60.547,-944.824
1742376358.483,-1000.0,-32.227,-66.406,-1000.0
1742376358.487,-212.891,270.02,-40.527,-201.66
1742376358.491,999.512,245.117,-35.645,999.512
1742376358.494,482.91,-307.129,-92.285,471.68
1742376358.498,-889.16,-507.324,-33.203,-892.578
1742376358.502,-1000.0,-124.512,95.703,-1000.0
1742376358.506,-225.098,204.102,186.035,-225.098
1742376358.51,999.512,219.238,88.867,999.512
1742376358.513,772.461,-115.234,-111.328,770.02
1742376358.517,-582.031,-306.152,-185.059,-575.684
1742376358.521,-1000.0,-153.809,-226.074,-1000.0
1742376358.525,-244.629,177.246,-234.863,-261.719
1742376358.529,974.609,251.953,-180.176,973.633
1742376358.533,999.512,28.809,-175.781,999.512
1742376358.537,-110.84,-288.574,-208.008,-133.301
1742376358.54,-1000.0,-347.656,-168.457,-1000.0
1742376358.544,-337.402,154.785,-105.469,-350.098
1742376358.548,930.176,331.055,-51.27,925.293
1742376358.552,999.512,-62.012,-17.578,999.512
1742376358.556,67.383,-350.098,-12.695,42.48
1742376358.513,772.461,-115.234,-111.328,770.02
1742376358.517,-582.031,-306.152,-185.059,-575.684
1742376358.521,-1000.0,-153.809,-226.074,-1000.0
1742376358.525,-244.629,177.246,-234.863,-261.719
1742376358.529,974.609,251.953,-180.176,973.633
1742376358.533,999.512,28.809,-175.781,999.512
1742376358.537,-110.84,-288.574,-208.008,-133.301
1742376358.54,-1000.0,-347.656,-168.457,-1000.0
1742376358.544,-337.402,154.785,-105.469,-350.098
1742376358.548,930.176,331.055,-51.27,925.293
1742376358.552,999.512,-62.012,-17.578,999.512
1742376358.556,67.383,-350.098,-12.695,42.48
1742376358.557,-1000.0,-280.762,10.742,-1000.0
1742376358.561,-518.066,149.414,78.125,-524.902
1742376358.565,836.914,306.641,139.16,823.73
1742376358.569,999.512,-24.414,112.305,999.512
1742376358.573,189.453,-277.832,116.211,173.828
1742376358.577,-1000.0,-232.91,157.227,-1000.0
1742376358.581,-814.453,-8.301,148.926,-815.918
1742376358.584,546.875,147.461,171.387,531.738
1742376358.588,999.512,40.527,175.781,999.512
1742376358.592,152.344,-312.012,178.711,155.273
1742376358.596,-1000.0,-338.867,197.754,-1000.0
1742376358.6,-1000.0,-26.367,171.387,-1000.0
1742376358.557,-1000.0,-280.762,10.742,-1000.0
1742376358.561,-518.066,149.414,78.125,-524.902
1742376358.565,836.914,306.641,139.16,823.73
1742376358.569,999.512,-24.414,112.305,999.512
1742376358.573,189.453,-277.832,116.211,173.828
1742376358.577,-1000.0,-232.91,157.227,-1000.0
1742376358.581,-814.453,-8.301,148.926,-815.918
1742376358.584,546.875,147.461,171.387,531.738
1742376358.588,999.512,40.527,175.781,999.512
1742376358.592,152.344,-312.012,178.711,155.273
1742376358.596,-1000.0,-338.867,197.754,-1000.0
1742376358.6,-1000.0,-26.367,171.387,-1000.0
1742376358.605,208.984,164.551,142.578,230.469
1742376358.609,999.512,91.309,109.375,999.512
1742376358.613,200.195,-300.781,99.121,216.309
1742376358.617,-1000.0,-369.141,80.078,-1000.0
1742376358.621,-1000.0,-68.848,73.242,-1000.0
1742376358.625,4.395,192.383,35.156,21.973
1742376358.629,999.512,121.582,5.371,999.512
1742376358.632,305.176,-400.879,12.695,318.848
1742376358.636,-957.031,-455.078,-20.02,-950.195
1742376358.64,-1000.0,-101.074,-61.035,-1000.0
1742376358.644,-209.473,148.926,-61.035,-183.594
1742376358.648,999.512,143.066,-13.184,999.512
1742376358.605,208.984,164.551,142.578,230.469
1742376358.609,999.512,91.309,109.375,999.512
1742376358.613,200.195,-300.781,99.121,216.309
1742376358.617,-1000.0,-369.141,80.078,-1000.0
1742376358.621,-1000.0,-68.848,73.242,-1000.0
1742376358.625,4.395,192.383,35.156,21.973
1742376358.629,999.512,121.582,5.371,999.512
1742376358.632,305.176,-400.879,12.695,318.848
1742376358.636,-957.031,-455.078,-20.02,-950.195
1742376358.64,-1000.0,-101.074,-61.035,-1000.0
1742376358.644,-209.473,148.926,-61.035,-183.594
1742376358.648,999.512,143.066,-13.184,999.512
1742376358.663,654.297,-222.168,27.344,669.434
1742376358.667,-755.859,-332.031,44.434,-724.609
1742376358.671,-1000.0,-79.102,81.055,-1000.0
1742376358.675,-116.211,201.66,92.773,-106.445
1742376358.679,999.512,210.938,122.559,999.512
1742376358.683,885.254,-126.953,92.773,894.043
1742376358.687,-423.828,-379.395,21.973,-397.949
1742376358.69,-1000.0,-308.594,50.781,-1000.0
1742376358.694,-175.293,150.391,94.238,-176.758
1742376358.698,999.512,266.113,94.238,999.512
1742376358.702,999.512,-77.637,105.957,999.512
1742376358.706,-105.469,-327.637,114.258,-103.027
1742376358.663,654.297,-222.168,27.344,669.434
1742376358.667,-755.859,-332.031,44.434,-724.609
1742376358.671,-1000.0,-79.102,81.055,-1000.0
1742376358.675,-116.211,201.66,92.773,-106.445
1742376358.679,999.512,210.938,122.559,999.512
1742376358.683,885.254,-126.953,92.773,894.043
1742376358.687,-423.828,-379.395,21.973,-397.949
1742376358.69,-1000.0,-308.594,50.781,-1000.0
1742376358.694,-175.293,150.391,94.238,-176.758
1742376358.698,999.512,266.113,94.238,999.512
1742376358.702,999.512,-77.637,105.957,999.512
1742376358.706,-105.469,-327.637,114.258,-103.027
1742376358.708,-1000.0,-246.582,137.207,-1000.0
1742376358.712,-267.578,210.938,206.055,-276.855
1742376358.716,955.078,280.273,221.68,951.66
1742376358.72,999.512,-72.266,182.617,999.512
1742376358.724,101.562,-241.699,159.668,114.258
1742376358.728,-1000.0,-199.707,142.578,-1000.0
1742376358.732,-455.078,141.113,151.855,-452.148
1742376358.735,880.371,218.75,131.836,882.812
1742376358.739,999.512,-44.922,53.223,999.512
1742376358.743,185.547,-278.809,28.809,175.293
1742376358.747,-1000.0,-279.785,43.945,-1000.0
1742376358.751,-801.27,31.25,29.297,-773.926
1742376358.708,-1000.0,-246.582,137.207,-1000.0
1742376358.712,-267.578,210.938,206.055,-276.855
1742376358.716,955.078,280.273,221.68,951.66
1742376358.72,999.512,-72.266,182.617,999.512
1742376358.724,101.562,-241.699,159.668,114.258
1742376358.728,-1000.0,-199.707,142.578,-1000.0
1742376358.732,-455.078,141.113,151.855,-452.148
1742376358.735,880.371,218.75,131.836,882.812
1742376358.739,999.512,-44.922,53.223,999.512
1742376358.743,185.547,-278.809,28.809,175.293
1742376358.747,-1000.0,-279.785,43.945,-1000.0
1742376358.751,-801.27,31.25,29.297,-773.926
1742376358.708,-1000.0,-246.582,137.207,-1000.0
1742376358.712,-267.578,210.938,206.055,-276.855
1742376358.716,955.078,280.273,221.68,951.66
1742376358.72,999.512,-72.266,182.617,999.512
1742376358.724,101.562,-241.699,159.668,114.258
1742376358.728,-1000.0,-199.707,142.578,-1000.0
1742376358.732,-455.078,141.113,151.855,-452.148
1742376358.735,880.371,218.75,131.836,882.812
1742376358.739,999.512,-44.922,53.223,999.512
1742376358.743,185.547,-278.809,28.809,175.293
1742376358.747,-1000.0,-279.785,43.945,-1000.0
1742376358.751,-801.27,31.25,29.297,-773.926
1742376358.752,561.035,214.844,20.996,585.938
1742376358.756,999.512,66.406,24.414,999.512
1742376358.76,171.387,-311.523,21.484,173.828
1742376358.764,-1000.0,-348.633,-138.184,-1000.0
1742376358.768,-871.094,104.98,-56.152,-858.398
1742376358.772,455.566,301.758,247.559,465.82
1742376358.776,999.512,118.652,287.109,999.512
1742376358.779,202.148,-314.941,256.836,220.703
1742376358.783,-1000.0,-416.504,203.613,-1000.0
1742376358.787,-1000.0,-23.926,217.285,-1000.0
1742376358.791,49.316,210.938,250.977,60.059
1742376358.795,999.512,180.664,227.539,999.512
1742376358.752,561.035,214.844,20.996,585.938
1742376358.756,999.512,66.406,24.414,999.512
1742376358.76,171.387,-311.523,21.484,173.828
1742376358.764,-1000.0,-348.633,-138.184,-1000.0
1742376358.768,-871.094,104.98,-56.152,-858.398
1742376358.772,455.566,301.758,247.559,465.82
1742376358.776,999.512,118.652,287.109,999.512
1742376358.779,202.148,-314.941,256.836,220.703
1742376358.783,-1000.0,-416.504,203.613,-1000.0
1742376358.787,-1000.0,-23.926,217.285,-1000.0
1742376358.791,49.316,210.938,250.977,60.059
1742376358.795,999.512,180.664,227.539,999.512
1742376358.798,383.301,-219.238,209.473,385.742
1742376358.802,-916.504,-323.242,175.293,-916.504
1742376358.806,-1000.0,0.488,158.691,-1000.0
1742376358.81,-177.246,181.641,180.176,-155.273
1742376358.814,999.512,210.938,175.293,999.512
1742376358.818,643.066,-24.414,159.668,658.203
1742376358.822,-735.84,-261.23,155.273,-705.078
1742376358.825,-1000.0,-166.992,131.836,-1000.0
1742376358.829,-214.355,195.312,132.812,-212.402
1742376358.833,999.512,333.008,122.559,999.512
1742376358.837,788.574,-41.016,71.289,797.363
1742376358.841,-568.848,-292.969,3.906,-543.945
1742376358.842,-1000.0,-121.582,-23.926,-1000.0
1742376358.846,-190.43,263.672,-15.137,-218.75
1742376358.85,999.512,312.5,-28.809,999.512
1742376358.854,980.469,-67.383,-59.082,970.703
1742376358.858,-239.746,-224.121,-78.125,-257.324
1742376358.862,-1000.0,-108.398,-53.711,-1000.0
1742376358.866,-317.871,197.266,-36.133,-316.895
1742376358.869,942.871,243.652,-71.289,947.266
1742376358.873,999.512,-49.805,-87.891,999.512
1742376358.877,-30.762,-268.555,-84.961,-58.105
1742376358.881,-1000.0,-236.328,-100.586,-1000.0
1742376358.885,-533.691,178.711,-243.652,-554.688
1742376358.842,-1000.0,-121.582,-23.926,-1000.0
1742376358.846,-190.43,263.672,-15.137,-218.75
1742376358.85,999.512,312.5,-28.809,999.512
1742376358.854,980.469,-67.383,-59.082,970.703
1742376358.858,-239.746,-224.121,-78.125,-257.324
1742376358.862,-1000.0,-108.398,-53.711,-1000.0
1742376358.866,-317.871,197.266,-36.133,-316.895
1742376358.869,942.871,243.652,-71.289,947.266
1742376358.873,999.512,-49.805,-87.891,999.512
1742376358.877,-30.762,-268.555,-84.961,-58.105
1742376358.881,-1000.0,-236.328,-100.586,-1000.0
1742376358.885,-533.691,178.711,-243.652,-554.688
1742376358.842,-1000.0,-121.582,-23.926,-1000.0
1742376358.846,-190.43,263.672,-15.137,-218.75
1742376358.85,999.512,312.5,-28.809,999.512
1742376358.854,980.469,-67.383,-59.082,970.703
1742376358.858,-239.746,-224.121,-78.125,-257.324
1742376358.862,-1000.0,-108.398,-53.711,-1000.0
1742376358.866,-317.871,197.266,-36.133,-316.895
1742376358.869,942.871,243.652,-71.289,947.266
1742376358.873,999.512,-49.805,-87.891,999.512
1742376358.877,-30.762,-268.555,-84.961,-58.105
1742376358.881,-1000.0,-236.328,-100.586,-1000.0
1742376358.885,-533.691,178.711,-243.652,-554.688
1742376358.89,818.848,325.684,-358.398,787.109
1742376358.894,999.512,-31.738,-365.234,999.512
1742376358.898,141.602,-315.918,-387.207,123.047
1742376358.902,-1000.0,-325.195,-419.434,-1000.0
1742376358.906,-761.719,59.57,-396.973,-754.395
1742376358.91,601.074,347.656,-363.281,602.539
1742376358.914,999.512,33.691,-409.18,999.512
1742376358.917,159.668,-453.613,-436.523,156.25
1742376358.921,-1000.0,-395.996,-383.301,-1000.0
1742376358.925,-975.586,-54.199,-333.984,-976.074
1742376358.929,286.621,136.23,-302.734,278.809
1742376358.933,999.512,20.996,-265.625,999.512
1742376358.89,818.848,325.684,-358.398,787.109
1742376358.894,999.512,-31.738,-365.234,999.512
1742376358.898,141.602,-315.918,-387.207,123.047
1742376358.902,-1000.0,-325.195,-419.434,-1000.0
1742376358.906,-761.719,59.57,-396.973,-754.395
1742376358.91,601.074,347.656,-363.281,602.539
1742376358.914,999.512,33.691,-409.18,999.512
1742376358.917,159.668,-453.613,-436.523,156.25
1742376358.921,-1000.0,-395.996,-383.301,-1000.0
1742376358.925,-975.586,-54.199,-333.984,-976.074
1742376358.929,286.621,136.23,-302.734,278.809
1742376358.933,999.512,20.996,-265.625,999.512
1742376358.89,818.848,325.684,-358.398,787.109
1742376358.894,999.512,-31.738,-365.234,999.512
1742376358.898,141.602,-315.918,-387.207,123.047
1742376358.902,-1000.0,-325.195,-419.434,-1000.0
1742376358.906,-761.719,59.57,-396.973,-754.395
1742376358.91,601.074,347.656,-363.281,602.539
1742376358.914,999.512,33.691,-409.18,999.512
1742376358.917,159.668,-453.613,-436.523,156.25
1742376358.921,-1000.0,-395.996,-383.301,-1000.0
1742376358.925,-975.586,-54.199,-333.984,-976.074
1742376358.929,286.621,136.23,-302.734,278.809
1742376358.933,999.512,20.996,-265.625,999.512
1742376358.933,205.566,-359.375,-234.375,205.566
1742376358.937,-1000.0,-376.953,-195.801,-1000.0
1742376358.941,-1000.0,-50.781,-82.52,-1000.0
1742376358.945,104.004,101.074,60.059,107.422
1742376358.949,999.512,109.375,132.812,999.512
1742376358.953,407.715,-215.332,145.508,406.25
1742376358.957,-898.438,-439.941,126.953,-898.438
1742376358.96,-1000.0,-236.328,116.699,-1000.0
1742376358.964,-172.852,104.004,110.352,-166.016
1742376358.968,999.512,176.758,87.891,999.512
1742376358.972,570.801,-221.191,87.402,570.801
1742376358.976,-809.57,-381.836,84.961,-801.27
1742376358.933,205.566,-359.375,-234.375,205.566
1742376358.937,-1000.0,-376.953,-195.801,-1000.0
1742376358.941,-1000.0,-50.781,-82.52,-1000.0
1742376358.945,104.004,101.074,60.059,107.422
1742376358.949,999.512,109.375,132.812,999.512
1742376358.953,407.715,-215.332,145.508,406.25
1742376358.957,-898.438,-439.941,126.953,-898.438
1742376358.96,-1000.0,-236.328,116.699,-1000.0
1742376358.964,-172.852,104.004,110.352,-166.016
1742376358.968,999.512,176.758,87.891,999.512
1742376358.972,570.801,-221.191,87.402,570.801
1742376358.976,-809.57,-381.836,84.961,-801.27
1742376358.992,-1000.0,-135.254,96.68,-1000.0
1742376358.996,-218.262,178.711,108.398,-212.402
1742376359.0,999.512,201.172,97.656,999.512
1742376359.004,785.156,-175.781,104.004,792.969
1742376359.008,-574.707,-320.312,83.984,-553.223
1742376359.012,-1000.0,-79.59,62.5,-1000.0
1742376359.016,-188.965,196.289,34.668,-191.895
1742376359.019,999.512,132.324,-27.832,999.512
1742376359.023,960.449,-160.645,-74.707,939.941
1742376359.027,-272.461,-315.918,-82.52,-302.734
1742376359.031,-1000.0,-227.051,-70.312,-1000.0
1742376359.035,-342.285,140.625,-82.52,-346.191
1742376358.992,-1000.0,-135.254,96.68,-1000.0
1742376358.996,-218.262,178.711,108.398,-212.402
1742376359.0,999.512,201.172,97.656,999.512
1742376359.004,785.156,-175.781,104.004,792.969
1742376359.008,-574.707,-320.312,83.984,-553.223
1742376359.012,-1000.0,-79.59,62.5,-1000.0
1742376359.016,-188.965,196.289,34.668,-191.895
1742376359.019,999.512,132.324,-27.832,999.512
1742376359.023,960.449,-160.645,-74.707,939.941
1742376359.027,-272.461,-315.918,-82.52,-302.734
1742376359.031,-1000.0,-227.051,-70.312,-1000.0
1742376359.035,-342.285,140.625,-82.52,-346.191
1742376359.037,925.293,268.555,-92.773,920.898
1742376359.041,999.512,-23.438,-59.082,999.512
1742376359.045,4.883,-303.223,-52.734,5.859
1742376359.049,-1000.0,-249.023,-62.012,-1000.0
1742376359.053,-438.965,217.773,-34.18,-447.754
1742376359.057,879.395,299.316,-31.25,875.0
1742376359.061,999.512,-74.219,-54.199,999.512
1742376359.064,164.551,-366.699,-68.848,146.484
1742376359.068,-1000.0,-358.887,-58.594,-1000.0
1742376359.072,-782.715,37.109,-12.207,-771.973
1742376359.076,579.59,248.047,26.367,582.52
1742376359.08,999.512,38.086,49.316,999.512
1742376359.037,925.293,268.555,-92.773,920.898
1742376359.041,999.512,-23.438,-59.082,999.512
1742376359.045,4.883,-303.223,-52.734,5.859
1742376359.049,-1000.0,-249.023,-62.012,-1000.0
1742376359.053,-438.965,217.773,-34.18,-447.754
1742376359.057,879.395,299.316,-31.25,875.0
1742376359.061,999.512,-74.219,-54.199,999.512
1742376359.064,164.551,-366.699,-68.848,146.484
1742376359.068,-1000.0,-358.887,-58.594,-1000.0
1742376359.072,-782.715,37.109,-12.207,-771.973
1742376359.076,579.59,248.047,26.367,582.52
1742376359.08,999.512,38.086,49.316,999.512
1742376359.083,151.367,-332.52,45.41,152.832
1742376359.087,-1000.0,-341.309,56.641,-1000.0
1742376359.091,-1000.0,-27.344,44.922,-1000.0
1742376359.095,193.359,142.09,4.395,191.895
1742376359.099,999.512,115.234,26.367,999.512
1742376359.103,135.742,-216.797,41.504,161.621
1742376359.107,-1000.0,-333.496,6.836,-1000.0
1742376359.11,-1000.0,-112.793,8.301,-1000.0
1742376359.114,-53.223,115.723,2.441,-61.523
1742376359.118,999.512,189.453,-33.203,999.512
1742376359.122,229.98,-293.945,-57.617,243.164
1742376359.126,-993.652,-437.988,-37.598,-989.746
1742376359.083,151.367,-332.52,45.41,152.832
1742376359.087,-1000.0,-341.309,56.641,-1000.0
1742376359.091,-1000.0,-27.344,44.922,-1000.0
1742376359.095,193.359,142.09,4.395,191.895
1742376359.099,999.512,115.234,26.367,999.512
1742376359.103,135.742,-216.797,41.504,161.621
1742376359.107,-1000.0,-333.496,6.836,-1000.0
1742376359.11,-1000.0,-112.793,8.301,-1000.0
1742376359.114,-53.223,115.723,2.441,-61.523
1742376359.118,999.512,189.453,-33.203,999.512
1742376359.122,229.98,-293.945,-57.617,243.164
1742376359.126,-993.652,-437.988,-37.598,-989.746
1742376359.127,-1000.0,-70.801,0.0,-1000.0
1742376359.131,-229.98,155.762,-1.953,-216.797
1742376359.135,999.512,138.672,-8.789,999.512
1742376359.139,424.316,-305.664,-24.414,407.227
1742376359.143,-925.293,-380.371,-10.254,-929.688
1742376359.147,-1000.0,-61.523,20.996,-1000.0
1742376359.151,-239.258,165.039,22.461,-237.793
1742376359.154,999.512,103.516,6.836,999.512
1742376359.158,669.434,-293.945,-12.695,662.598
1742376359.162,-719.238,-418.457,-2.93,-713.867
1742376359.166,-1000.0,-206.543,9.277,-1000.0
1742376359.17,-202.148,116.699,4.883,-237.793
1742376359.127,-1000.0,-70.801,0.0,-1000.0
1742376359.131,-229.98,155.762,-1.953,-216.797
1742376359.135,999.512,138.672,-8.789,999.512
1742376359.139,424.316,-305.664,-24.414,407.227
1742376359.143,-925.293,-380.371,-10.254,-929.688
1742376359.147,-1000.0,-61.523,20.996,-1000.0
1742376359.151,-239.258,165.039,22.461,-237.793
1742376359.154,999.512,103.516,6.836,999.512
1742376359.158,669.434,-293.945,-12.695,662.598
1742376359.162,-719.238,-418.457,-2.93,-713.867
1742376359.166,-1000.0,-206.543,9.277,-1000.0
1742376359.17,-202.148,116.699,4.883,-237.793
1742376359.174,999.512,226.074,-5.859,999.512
1742376359.178,942.871,-149.902,-9.766,920.898
1742376359.182,-305.664,-400.391,20.02,-346.68
1742376359.186,-1000.0,-291.992,36.133,-1000.0
1742376359.19,-346.191,88.867,26.855,-368.164
1742376359.194,935.059,304.688,23.926,926.758
1742376359.198,999.512,-34.18,27.344,999.512
1742376359.201,-74.707,-409.668,16.602,-101.562
1742376359.205,-1000.0,-332.52,11.719,-1000.0
1742376359.209,-516.113,100.098,41.016,-541.504
1742376359.213,827.637,254.883,29.785,798.828
1742376359.217,999.512,-52.246,5.371,999.512
1742376359.218,128.906,-272.461,40.527,100.098
1742376359.222,-1000.0,-213.379,50.781,-1000.0
1742376359.226,-682.129,148.438,42.969,-714.355
1742376359.23,694.824,295.898,51.27,643.555
1742376359.234,999.512,117.676,45.898,999.512
1742376359.238,153.809,-164.062,18.066,150.391
1742376359.242,-1000.0,-232.91,-6.348,-1000.0
1742376359.245,-1000.0,-8.301,1.465,-1000.0
1742376359.249,186.035,231.445,-130.859,183.105
1742376359.253,999.512,217.285,-336.426,999.512
1742376359.257,134.277,-231.934,-353.516,137.207
1742376359.261,-1000.0,-308.594,-364.258,-1000.0
1742376359.218,128.906,-272.461,40.527,100.098
1742376359.222,-1000.0,-213.379,50.781,-1000.0
1742376359.226,-682.129,148.438,42.969,-714.355
1742376359.23,694.824,295.898,51.27,643.555
1742376359.234,999.512,117.676,45.898,999.512
1742376359.238,153.809,-164.062,18.066,150.391
1742376359.242,-1000.0,-232.91,-6.348,-1000.0
1742376359.245,-1000.0,-8.301,1.465,-1000.0
1742376359.249,186.035,231.445,-130.859,183.105
1742376359.253,999.512,217.285,-336.426,999.512
1742376359.257,134.277,-231.934,-353.516,137.207
1742376359.261,-1000.0,-308.594,-364.258,-1000.0
1742376359.263,-1000.0,30.762,-473.145,-1000.0
1742376359.267,-79.59,298.34,-525.879,-77.148
1742376359.271,999.512,266.602,-400.391,999.512
1742376359.275,324.707,-179.688,-305.176,310.059
1742376359.279,-971.191,-313.965,-344.238,-975.098
1742376359.283,-1000.0,51.27,-307.617,-1000.0
1742376359.287,-105.469,294.922,-313.477,-110.352
1742376359.29,999.512,13.184,-468.75,999.512
1742376359.294,412.109,-541.992,-596.68,416.992
1742376359.298,-914.551,-614.258,-722.168,-909.668
1742376359.302,-1000.0,-351.562,-828.125,-1000.0
1742376359.306,-216.797,-61.035,-925.293,-216.797
1742376359.263,-1000.0,30.762,-473.145,-1000.0
1742376359.267,-79.59,298.34,-525.879,-77.148
1742376359.271,999.512,266.602,-400.391,999.512
1742376359.275,324.707,-179.688,-305.176,310.059
1742376359.279,-971.191,-313.965,-344.238,-975.098
1742376359.283,-1000.0,51.27,-307.617,-1000.0
1742376359.287,-105.469,294.922,-313.477,-110.352
1742376359.29,999.512,13.184,-468.75,999.512
1742376359.294,412.109,-541.992,-596.68,416.992
1742376359.298,-914.551,-614.258,-722.168,-909.668
1742376359.302,-1000.0,-351.562,-828.125,-1000.0
1742376359.306,-216.797,-61.035,-925.293,-216.797
1742376359.263,-1000.0,30.762,-473.145,-1000.0
1742376359.267,-79.59,298.34,-525.879,-77.148
1742376359.271,999.512,266.602,-400.391,999.512
1742376359.275,324.707,-179.688,-305.176,310.059
1742376359.279,-971.191,-313.965,-344.238,-975.098
1742376359.283,-1000.0,51.27,-307.617,-1000.0
1742376359.287,-105.469,294.922,-313.477,-110.352
1742376359.29,999.512,13.184,-468.75,999.512
1742376359.294,412.109,-541.992,-596.68,416.992
1742376359.298,-914.551,-614.258,-722.168,-909.668
1742376359.302,-1000.0,-351.562,-828.125,-1000.0
1742376359.306,-216.797,-61.035,-925.293,-216.797
1742376359.307,999.512,-36.133,-995.117,999.512
1742376359.311,896.973,-344.727,-749.512,881.348
1742376359.315,-408.203,-522.461,-437.988,-422.363
1742376359.319,-1000.0,-376.465,-374.023,-1000.0
1742376359.323,-181.641,56.152,-363.77,-177.734
1742376359.327,999.512,88.867,-330.566,999.512
1742376359.331,999.512,-300.781,-346.68,999.512
1742376359.334,-187.012,-559.57,-399.902,-193.359
1742376359.338,-1000.0,-391.113,-405.273,-1000.0
1742376359.342,-166.992,84.473,-382.812,-186.523
1742376359.346,986.328,125.0,-386.719,980.957
1742376359.35,999.512,-202.637,-322.266,999.512
1742376359.307,999.512,-36.133,-995.117,999.512
1742376359.311,896.973,-344.727,-749.512,881.348
1742376359.315,-408.203,-522.461,-437.988,-422.363
1742376359.319,-1000.0,-376.465,-374.023,-1000.0
1742376359.323,-181.641,56.152,-363.77,-177.734
1742376359.327,999.512,88.867,-330.566,999.512
1742376359.331,999.512,-300.781,-346.68,999.512
1742376359.334,-187.012,-559.57,-399.902,-193.359
1742376359.338,-1000.0,-391.113,-405.273,-1000.0
1742376359.342,-166.992,84.473,-382.812,-186.523
1742376359.346,986.328,125.0,-386.719,980.957
1742376359.35,999.512,-202.637,-322.266,999.512
1742376359.367,97.656,-392.578,-227.539,104.492
1742376359.371,-1000.0,-341.309,-329.59,-1000.0
1742376359.375,-393.555,88.867,-459.961,-371.582
1742376359.379,908.691,165.039,-372.559,919.434
1742376359.383,999.512,-81.543,-238.77,999.512
1742376359.387,212.891,-254.883,-182.129,210.938
1742376359.391,-1000.0,-347.656,-200.195,-1000.0
1742376359.394,-649.414,-27.832,-185.059,-616.211
1742376359.398,746.582,186.035,-141.113,770.508
1742376359.402,999.512,10.254,-106.934,999.512
1742376359.406,175.781,-351.074,-72.754,181.152
1742376359.41,-1000.0,-410.645,-52.246,-1000.0
1742376359.367,97.656,-392.578,-227.539,104.492
1742376359.371,-1000.0,-341.309,-329.59,-1000.0
1742376359.375,-393.555,88.867,-459.961,-371.582
1742376359.379,908.691,165.039,-372.559,919.434
1742376359.383,999.512,-81.543,-238.77,999.512
1742376359.387,212.891,-254.883,-182.129,210.938
1742376359.391,-1000.0,-347.656,-200.195,-1000.0
1742376359.394,-649.414,-27.832,-185.059,-616.211
1742376359.398,746.582,186.035,-141.113,770.508
1742376359.402,999.512,10.254,-106.934,999.512
1742376359.406,175.781,-351.074,-72.754,181.152
1742376359.41,-1000.0,-410.645,-52.246,-1000.0
1742376359.367,97.656,-392.578,-227.539,104.492
1742376359.371,-1000.0,-341.309,-329.59,-1000.0
1742376359.375,-393.555,88.867,-459.961,-371.582
1742376359.379,908.691,165.039,-372.559,919.434
1742376359.383,999.512,-81.543,-238.77,999.512
1742376359.387,212.891,-254.883,-182.129,210.938
1742376359.391,-1000.0,-347.656,-200.195,-1000.0
1742376359.394,-649.414,-27.832,-185.059,-616.211
1742376359.398,746.582,186.035,-141.113,770.508
1742376359.402,999.512,10.254,-106.934,999.512
1742376359.406,175.781,-351.074,-72.754,181.152
1742376359.41,-1000.0,-410.645,-52.246,-1000.0
1742376359.412,-883.301,-62.988,-22.949,-850.098
1742376359.416,446.289,143.066,-87.402,486.816
1742376359.42,999.512,4.395,-219.238,999.512
1742376359.424,145.996,-433.105,-156.738,158.691
1742376359.428,-1000.0,-398.926,-51.27,-1000.0
1742376359.432,-1000.0,-41.016,-62.012,-1000.0
1742376359.436,128.418,90.332,-74.707,167.969
1742376359.439,999.512,-62.5,-149.902,999.512
1742376359.443,224.609,-451.66,-269.043,250.977
1742376359.447,-988.281,-456.543,-284.18,-977.051
1742376359.451,-1000.0,-163.574,-253.906,-1000.0
1742376359.455,-136.23,89.844,-253.418,-126.953
1742376359.412,-883.301,-62.988,-22.949,-850.098
1742376359.416,446.289,143.066,-87.402,486.816
1742376359.42,999.512,4.395,-219.238,999.512
1742376359.424,145.996,-433.105,-156.738,158.691
1742376359.428,-1000.0,-398.926,-51.27,-1000.0
1742376359.432,-1000.0,-41.016,-62.012,-1000.0
1742376359.436,128.418,90.332,-74.707,167.969
1742376359.439,999.512,-62.5,-149.902,999.512
1742376359.443,224.609,-451.66,-269.043,250.977
1742376359.447,-988.281,-456.543,-284.18,-977.051
1742376359.451,-1000.0,-163.574,-253.906,-1000.0
1742376359.455,-136.23,89.844,-253.418,-126.953
1742376359.458,999.512,118.652,-213.379,999.512
1742376359.462,500.977,-339.355,-136.719,513.672
1742376359.466,-865.723,-471.68,-8.789,-847.168
1742376359.47,-1000.0,-188.965,95.703,-1000.0
1742376359.474,-211.426,50.293,119.629,-188.965
1742376359.478,999.512,155.273,102.539,999.512
1742376359.482,780.762,-193.848,49.805,794.434
1742376359.485,-577.148,-506.836,58.594,-544.434
1742376359.489,-1000.0,-331.055,72.754,-1000.0
1742376359.493,-190.43,109.375,58.594,-191.406
1742376359.497,999.512,181.152,60.547,999.512
1742376359.501,954.59,-203.125,61.035,948.242
1742376359.458,999.512,118.652,-213.379,999.512
1742376359.462,500.977,-339.355,-136.719,513.672
1742376359.466,-865.723,-471.68,-8.789,-847.168
1742376359.47,-1000.0,-188.965,95.703,-1000.0
1742376359.474,-211.426,50.293,119.629,-188.965
1742376359.478,999.512,155.273,102.539,999.512
1742376359.482,780.762,-193.848,49.805,794.434
1742376359.485,-577.148,-506.836,58.594,-544.434
1742376359.489,-1000.0,-331.055,72.754,-1000.0
1742376359.493,-190.43,109.375,58.594,-191.406
1742376359.497,999.512,181.152,60.547,999.512
1742376359.501,954.59,-203.125,61.035,948.242
1742376359.458,999.512,118.652,-213.379,999.512
1742376359.462,500.977,-339.355,-136.719,513.672
1742376359.466,-865.723,-471.68,-8.789,-847.168
1742376359.47,-1000.0,-188.965,95.703,-1000.0
1742376359.474,-211.426,50.293,119.629,-188.965
1742376359.478,999.512,155.273,102.539,999.512
1742376359.482,780.762,-193.848,49.805,794.434
1742376359.485,-577.148,-506.836,58.594,-544.434
1742376359.489,-1000.0,-331.055,72.754,-1000.0
1742376359.493,-190.43,109.375,58.594,-191.406
1742376359.497,999.512,181.152,60.547,999.512
1742376359.501,954.59,-203.125,61.035,948.242
1742376359.502,-293.945,-380.859,28.32,-300.293
1742376359.506,-1000.0,-246.582,-42.969,-1000.0
1742376359.51,-239.746,164.062,-126.465,-242.188
1742376359.514,958.008,208.984,-250.488,959.961
1742376359.518,999.512,-89.355,-171.875,999.512
1742376359.522,73.73,-278.32,44.922,53.223
1742376359.526,-1000.0,-346.191,70.312,-1000.0
1742376359.529,-435.059,29.297,70.312,-411.621
1742376359.533,891.113,181.152,50.781,901.367
1742376359.537,999.512,-98.145,-56.641,999.512
1742376359.541,159.668,-341.797,-9.277,148.438
1742376359.545,-1000.0,-359.863,-8.789,-1000.0
1742376359.502,-293.945,-380.859,28.32,-300.293
1742376359.506,-1000.0,-246.582,-42.969,-1000.0
1742376359.51,-239.746,164.062,-126.465,-242.188
1742376359.514,958.008,208.984,-250.488,959.961
1742376359.518,999.512,-89.355,-171.875,999.512
1742376359.522,73.73,-278.32,44.922,53.223
1742376359.526,-1000.0,-346.191,70.312,-1000.0
1742376359.529,-435.059,29.297,70.312,-411.621
1742376359.533,891.113,181.152,50.781,901.367
1742376359.537,999.512,-98.145,-56.641,999.512
1742376359.541,159.668,-341.797,-9.277,148.438
1742376359.545,-1000.0,-359.863,-8.789,-1000.0
1742376359.549,-677.734,21.484,-124.512,-663.086
1742376359.553,705.078,247.07,-161.621,709.473
1742376359.557,999.512,34.18,-224.609,999.512
1742376359.561,173.34,-338.867,-296.875,173.828
1742376359.565,-1000.0,-337.891,-357.91,-1000.0
1742376359.569,-887.695,98.633,-420.41,-853.516
1742376359.573,439.941,303.711,-448.73,481.445
1742376359.576,999.512,25.391,-491.211,999.512
1742376359.58,156.25,-385.254,-551.27,158.691
1742376359.584,-1000.0,-322.754,-576.66,-1000.0
1742376359.588,-980.469,39.551,-411.133,-967.773
1742376359.592,256.836,239.746,-144.043,275.391
1742376359.592,999.512,164.551,-75.195,999.512
1742376359.596,366.699,-200.195,-59.57,359.863
1742376359.6,-936.035,-312.012,-34.668,-944.336
1742376359.604,-1000.0,40.527,-46.387,-1000.0
1742376359.608,6.348,302.734,-55.664,41.992
1742376359.612,999.512,262.695,-50.293,999.512
1742376359.616,483.887,-155.273,-63.965,501.953
1742376359.619,-856.445,-387.207,-183.594,-828.125
1742376359.623,-1000.0,-114.258,-357.91,-1000.0
1742376359.627,-240.234,235.352,-649.414,-235.352
1742376359.631,999.512,314.453,-951.66,999.512
1742376359.635,520.508,-111.328,-1000.0,548.34
1742376359.592,999.512,164.551,-75.195,999.512
1742376359.596,366.699,-200.195,-59.57,359.863
1742376359.6,-936.035,-312.012,-34.668,-944.336
1742376359.604,-1000.0,40.527,-46.387,-1000.0
1742376359.608,6.348,302.734,-55.664,41.992
1742376359.612,999.512,262.695,-50.293,999.512
1742376359.616,483.887,-155.273,-63.965,501.953
1742376359.619,-856.445,-387.207,-183.594,-828.125
1742376359.623,-1000.0,-114.258,-357.91,-1000.0
1742376359.627,-240.234,235.352,-649.414,-235.352
1742376359.631,999.512,314.453,-951.66,999.512
1742376359.635,520.508,-111.328,-1000.0,548.34
1742376359.639,-872.559,-299.805,-991.699,-836.914
1742376359.643,-1000.0,-41.016,-1000.0,-1000.0
1742376359.647,-207.52,282.715,-1000.0,-207.031
1742376359.651,999.512,317.871,-1000.0,999.512
1742376359.655,905.762,-50.781,-1000.0,895.996
1742376359.659,-374.512,-176.758,-1000.0,-382.324
1742376359.663,-1000.0,-118.164,-1000.0,-1000.0
1742376359.666,-296.875,88.867,-1000.0,-293.945
1742376359.67,945.312,250.0,-1000.0,952.637
1742376359.674,999.512,11.719,-1000.0,999.512
1742376359.678,-26.367,-264.648,-996.094,-60.547
1742376359.682,-1000.0,-302.734,-945.312,-1000.0
1742376359.639,-872.559,-299.805,-991.699,-836.914
1742376359.643,-1000.0,-41.016,-1000.0,-1000.0
1742376359.647,-207.52,282.715,-1000.0,-207.031
1742376359.651,999.512,317.871,-1000.0,999.512
1742376359.655,905.762,-50.781,-1000.0,895.996
1742376359.659,-374.512,-176.758,-1000.0,-382.324
1742376359.663,-1000.0,-118.164,-1000.0,-1000.0
1742376359.666,-296.875,88.867,-1000.0,-293.945
1742376359.67,945.312,250.0,-1000.0,952.637
1742376359.674,999.512,11.719,-1000.0,999.512
1742376359.678,-26.367,-264.648,-996.094,-60.547
1742376359.682,-1000.0,-302.734,-945.312,-1000.0
1742376359.639,-872.559,-299.805,-991.699,-836.914
1742376359.643,-1000.0,-41.016,-1000.0,-1000.0
1742376359.647,-207.52,282.715,-1000.0,-207.031
1742376359.651,999.512,317.871,-1000.0,999.512
1742376359.655,905.762,-50.781,-1000.0,895.996
1742376359.659,-374.512,-176.758,-1000.0,-382.324
1742376359.663,-1000.0,-118.164,-1000.0,-1000.0
1742376359.666,-296.875,88.867,-1000.0,-293.945
1742376359.67,945.312,250.0,-1000.0,952.637
1742376359.674,999.512,11.719,-1000.0,999.512
1742376359.678,-26.367,-264.648,-996.094,-60.547
1742376359.682,-1000.0,-302.734,-945.312,-1000.0
1742376359.682,-403.809,122.07,-1000.0,-390.137
1742376359.686,889.16,315.43,-144.531,891.602
1742376359.69,999.512,22.949,999.512,999.512
1742376359.694,212.891,-287.598,940.918,213.867
1742376359.698,-1000.0,-272.949,945.312,-1000.0
1742376359.702,-382.812,235.352,972.168,-392.09
1742376359.706,933.594,286.621,967.285,926.758
1742376359.709,999.512,-83.496,967.285,999.512
1742376359.713,199.219,-292.969,966.797,200.684
1742376359.717,-1000.0,-263.672,966.797,-1000.0
1742376359.721,-843.262,52.734,967.285,-815.918
1742376359.725,505.371,241.211,966.797,535.156
1742376359.682,-403.809,122.07,-1000.0,-390.137
1742376359.686,889.16,315.43,-144.531,891.602
1742376359.69,999.512,22.949,999.512,999.512
1742376359.694,212.891,-287.598,940.918,213.867
1742376359.698,-1000.0,-272.949,945.312,-1000.0
1742376359.702,-382.812,235.352,972.168,-392.09
1742376359.706,933.594,286.621,967.285,926.758
1742376359.709,999.512,-83.496,967.285,999.512
1742376359.713,199.219,-292.969,966.797,200.684
1742376359.717,-1000.0,-263.672,966.797,-1000.0
1742376359.721,-843.262,52.734,967.285,-815.918
1742376359.725,505.371,241.211,966.797,535.156
1742376359.682,-403.809,122.07,-1000.0,-390.137
1742376359.686,889.16,315.43,-144.531,891.602
1742376359.69,999.512,22.949,999.512,999.512
1742376359.694,212.891,-287.598,940.918,213.867
1742376359.698,-1000.0,-272.949,945.312,-1000.0
1742376359.702,-382.812,235.352,972.168,-392.09
1742376359.706,933.594,286.621,967.285,926.758
1742376359.709,999.512,-83.496,967.285,999.512
1742376359.713,199.219,-292.969,966.797,200.684
1742376359.717,-1000.0,-263.672,966.797,-1000.0
1742376359.721,-843.262,52.734,967.285,-815.918
1742376359.725,505.371,241.211,966.797,535.156
1742376359.73,999.512,104.98,966.797,999.512
1742376359.734,141.113,-317.871,966.797,144.531
1742376359.738,-1000.0,-396.973,967.285,-1000.0
1742376359.742,-1000.0,-75.195,967.285,-1000.0
1742376359.746,65.918,176.27,966.797,83.984
1742376359.75,999.512,188.965,966.797,999.512
1742376359.754,217.773,-312.988,967.285,237.305
1742376359.757,-989.746,-498.047,967.285,-983.398
1742376359.761,-1000.0,-162.109,967.285,-1000.0
1742376359.765,-190.918,119.629,967.285,-166.504
1742376359.769,999.512,131.836,966.797,999.512
1742376359.773,324.219,-375.0,966.797,315.918
1742376359.73,999.512,104.98,966.797,999.512
1742376359.734,141.113,-317.871,966.797,144.531
1742376359.738,-1000.0,-396.973,967.285,-1000.0
1742376359.742,-1000.0,-75.195,967.285,-1000.0
1742376359.746,65.918,176.27,966.797,83.984
1742376359.75,999.512,188.965,966.797,999.512
1742376359.754,217.773,-312.988,967.285,237.305
1742376359.757,-989.746,-498.047,967.285,-983.398
1742376359.761,-1000.0,-162.109,967.285,-1000.0
1742376359.765,-190.918,119.629,967.285,-166.504
1742376359.769,999.512,131.836,966.797,999.512
1742376359.773,324.219,-375.0,966.797,315.918
1742376359.787,-969.238,-473.145,967.285,-968.262
1742376359.791,-1000.0,-99.609,967.773,-1000.0
1742376359.795,-251.465,143.555,964.844,-246.094
1742376359.799,999.512,216.309,968.75,999.512
1742376359.803,602.539,-181.152,962.402,577.148
1742376359.807,-787.109,-359.863,892.578,-800.781
1742376359.811,-1000.0,-150.391,873.535,-1000.0
1742376359.814,-286.621,109.863,860.352,-303.223
1742376359.818,999.512,266.602,813.477,999.512
1742376359.822,771.484,-80.078,801.758,721.68
1742376359.826,-592.773,-297.363,765.625,-652.832
1742376359.83,-1000.0,-132.324,732.422,-1000.0
1742376359.848,-345.215,260.742,724.121,-368.652
1742376359.852,955.078,397.949,681.641,958.496
1742376359.856,999.512,53.223,624.512,975.586
1742376359.86,-226.074,-226.562,569.336,-292.969
1742376359.864,-1000.0,-165.527,483.887,-1000.0
1742376359.868,-464.844,264.16,481.445,-481.934
1742376359.872,862.793,416.504,510.742,854.004
1742376359.875,999.512,-15.625,519.043,999.512
1742376359.879,-8.301,-362.305,502.441,-37.598
1742376359.883,-1000.0,-256.836,486.816,-1000.0
1742376359.887,-724.609,88.379,465.332,-724.609
1742376359.891,610.84,214.355,368.652,605.469
1742376359.848,-345.215,260.742,724.121,-368.652
1742376359.852,955.078,397.949,681.641,958.496
1742376359.856,999.512,53.223,624.512,975.586
1742376359.86,-226.074,-226.562,569.336,-292.969
1742376359.864,-1000.0,-165.527,483.887,-1000.0
1742376359.868,-464.844,264.16,481.445,-481.934
1742376359.872,862.793,416.504,510.742,854.004
1742376359.875,999.512,-15.625,519.043,999.512
1742376359.879,-8.301,-362.305,502.441,-37.598
1742376359.883,-1000.0,-256.836,486.816,-1000.0
1742376359.887,-724.609,88.379,465.332,-724.609
1742376359.891,610.84,214.355,368.652,605.469
1742376359.878,999.512,25.391,299.316,999.512
1742376359.882,173.828,-278.32,304.199,150.391
1742376359.886,-1000.0,-309.57,338.379,-1000.0
1742376359.89,-867.188,34.18,354.492,-862.305
1742376359.894,469.727,262.695,327.637,465.82
1742376359.898,999.512,123.047,306.641,999.512
1742376359.902,146.484,-328.125,333.008,149.414
1742376359.905,-1000.0,-446.777,345.215,-1000.0
1742376359.909,-1000.0,-53.711,318.359,-1000.0
1742376359.913,135.742,202.637,306.641,165.039
1742376359.917,999.512,134.766,285.645,999.512
1742376359.921,219.727,-293.457,186.035,234.375
1742376359.878,999.512,25.391,299.316,999.512
1742376359.882,173.828,-278.32,304.199,150.391
1742376359.886,-1000.0,-309.57,338.379,-1000.0
1742376359.89,-867.188,34.18,354.492,-862.305
1742376359.894,469.727,262.695,327.637,465.82
1742376359.898,999.512,123.047,306.641,999.512
1742376359.902,146.484,-328.125,333.008,149.414
1742376359.905,-1000.0,-446.777,345.215,-1000.0
1742376359.909,-1000.0,-53.711,318.359,-1000.0
1742376359.913,135.742,202.637,306.641,165.039
1742376359.917,999.512,134.766,285.645,999.512
1742376359.921,219.727,-293.457,186.035,234.375
1742376359.878,999.512,25.391,299.316,999.512
1742376359.882,173.828,-278.32,304.199,150.391
1742376359.886,-1000.0,-309.57,338.379,-1000.0
1742376359.89,-867.188,34.18,354.492,-862.305
1742376359.894,469.727,262.695,327.637,465.82
1742376359.898,999.512,123.047,306.641,999.512
1742376359.902,146.484,-328.125,333.008,149.414
1742376359.905,-1000.0,-446.777,345.215,-1000.0
1742376359.909,-1000.0,-53.711,318.359,-1000.0
1742376359.913,135.742,202.637,306.641,165.039
1742376359.917,999.512,134.766,285.645,999.512
1742376359.921,219.727,-293.457,186.035,234.375
1742376359.923,-1000.0,-381.836,75.684,-999.512
1742376359.927,-1000.0,-25.391,135.742,-1000.0
1742376359.931,-23.438,188.965,285.645,-14.16
1742376359.935,999.512,136.23,354.98,999.512
1742376359.939,494.629,-236.328,355.469,496.582
1742376359.943,-853.027,-353.516,347.656,-842.773
1742376359.947,-1000.0,-94.727,341.309,-1000.0
1742376359.95,-223.145,81.543,303.711,-198.242
1742376359.954,999.512,129.395,171.387,999.512
1742376359.958,633.301,-190.918,24.414,625.977
1742376359.962,-758.789,-363.77,-16.602,-753.418
1742376359.966,-1000.0,-193.848,-28.809,-1000.0
1742376359.967,-198.73,124.023,-41.992,-200.684
1742376359.971,999.512,206.543,-66.895,999.512
1742376359.975,933.105,-145.996,-86.426,918.945
1742376359.979,-344.238,-366.699,-170.898,-360.84
1742376359.983,-1000.0,-173.34,-179.688,-1000.0
1742376359.987,-172.852,278.809,16.602,-174.805
1742376359.991,997.07,242.676,102.539,999.512
1742376359.994,999.512,-190.918,74.707,999.512
1742376359.998,-48.34,-342.285,52.734,-73.73
1742376360.002,-1000.0,-209.473,13.672,-1000.0
1742376360.006,-345.215,199.219,-37.109,-338.379
1742376360.01,918.945,303.223,-116.211,921.387
1742376360.015,999.512,33.691,-190.43,999.512
1742376360.019,181.152,-209.473,-204.59,153.32
1742376360.023,-1000.0,-265.137,-194.824,-1000.0
1742376360.027,-562.012,115.723,-134.766,-570.801
1742376360.031,826.172,331.543,-111.328,800.293
1742376360.035,999.512,175.293,-111.328,999.512
1742376360.039,191.895,-223.633,-125.977,193.359
1742376360.042,-1000.0,-390.625,-152.344,-1000.0
