timestamps,TP9,AF7,AF8,TP10
1742379107.013,999.512,-28.32,471.68,999.512
1742379107.017,806.641,-31.738,109.375,795.898
1742379107.021,-563.477,87.402,-460.449,-587.402
1742379107.025,-1000.0,69.336,-488.281,-1000.0
1742379107.029,154.297,-15.625,235.84,182.129
1742379107.033,999.512,4.883,588.379,999.512
1742379107.037,811.523,22.461,198.73,816.406
1742379107.04,-558.594,-20.996,-472.168,-564.941
1742379107.044,-1000.0,-44.434,-574.707,-1000.0
1742379107.048,-62.5,0.0,128.418,1.465
1742379107.052,999.512,22.949,439.453,999.512
1742379107.056,825.195,-1.465,164.551,838.867
1742379107.072,-533.203,-24.414,-388.184,-510.742
1742379107.076,-1000.0,-1.465,-488.77,-1000.0
1742379107.08,-463.867,12.695,96.191,-396.484
1742379107.084,891.602,6.348,457.52,912.109
1742379107.088,999.512,-30.273,263.184,988.77
1742379107.092,-349.609,34.668,-264.16,-343.262
1742379107.096,-1000.0,136.719,-553.711,-1000.0
1742379107.099,-726.562,19.531,-102.051,-695.801
1742379107.103,654.785,-22.461,416.016,680.176
1742379107.107,999.512,-5.371,296.387,999.512
1742379107.111,-58.594,-29.297,-253.418,-40.039
1742379107.115,-1000.0,-45.898,-553.711,-1000.0
1742379107.072,-533.203,-24.414,-388.184,-510.742
1742379107.076,-1000.0,-1.465,-488.77,-1000.0
1742379107.08,-463.867,12.695,96.191,-396.484
1742379107.084,891.602,6.348,457.52,912.109
1742379107.088,999.512,-30.273,263.184,988.77
1742379107.092,-349.609,34.668,-264.16,-343.262
1742379107.096,-1000.0,136.719,-553.711,-1000.0
1742379107.099,-726.562,19.531,-102.051,-695.801
1742379107.103,654.785,-22.461,416.016,680.176
1742379107.107,999.512,-5.371,296.387,999.512
1742379107.111,-58.594,-29.297,-253.418,-40.039
1742379107.115,-1000.0,-45.898,-553.711,-1000.0
1742379107.072,-533.203,-24.414,-388.184,-510.742
1742379107.076,-1000.0,-1.465,-488.77,-1000.0
1742379107.08,-463.867,12.695,96.191,-396.484
1742379107.084,891.602,6.348,457.52,912.109
1742379107.088,999.512,-30.273,263.184,988.77
1742379107.092,-349.609,34.668,-264.16,-343.262
1742379107.096,-1000.0,136.719,-553.711,-1000.0
1742379107.099,-726.562,19.531,-102.051,-695.801
1742379107.103,654.785,-22.461,416.016,680.176
1742379107.107,999.512,-5.371,296.387,999.512
1742379107.111,-58.594,-29.297,-253.418,-40.039
1742379107.115,-1000.0,-45.898,-553.711,-1000.0
1742379107.132,-799.805,-25.879,-63.477,-789.062
1742379107.136,575.195,55.664,517.578,595.703
1742379107.14,999.512,16.113,407.715,999.512
1742379107.144,267.09,-39.062,-166.992,253.906
1742379107.148,-1000.0,-16.602,-547.363,-1000.0
1742379107.152,-881.348,8.789,-122.559,-875.488
1742379107.156,526.855,12.207,412.598,539.551
1742379107.159,999.512,-36.133,409.668,999.512
1742379107.163,576.172,-22.461,-100.098,541.504
1742379107.167,-882.324,256.348,-562.988,-886.719
1742379107.171,-984.375,173.828,-305.176,-982.91
1742379107.175,481.934,-48.828,333.008,471.191
1742379107.162,999.512,-53.223,394.531,999.512
1742379107.166,734.863,-71.289,5.371,723.145
1742379107.17,-654.785,-67.383,-465.82,-664.062
1742379107.174,-1000.0,-57.617,-407.715,-1000.0
1742379107.178,155.762,-44.922,261.719,145.996
1742379107.182,999.512,-35.645,506.348,999.512
1742379107.186,797.363,-54.688,120.605,779.785
1742379107.189,-558.105,-78.613,-505.371,-590.82
1742379107.193,-1000.0,-70.801,-515.625,-1000.0
1742379107.197,-179.199,-57.617,209.961,-159.18
1742379107.201,999.512,-45.41,500.488,999.512
1742379107.205,828.613,-63.965,131.836,830.566
1742379107.207,-551.27,114.258,-401.855,-556.152
1742379107.211,-1000.0,264.16,-457.52,-1000.0
1742379107.215,-598.633,37.598,60.547,-538.574
1742379107.219,807.617,-83.008,458.496,833.496
1742379107.223,999.512,-73.242,263.184,999.512
1742379107.227,-309.082,-109.375,-257.324,-329.59
1742379107.231,-1000.0,-108.887,-512.207,-1000.0
1742379107.234,-698.242,-116.211,-73.73,-670.41
1742379107.238,679.688,-184.082,402.832,699.707
1742379107.242,999.512,-124.023,345.215,999.512
1742379107.246,0.977,-73.242,-214.355,-8.301
1742379107.25,-1000.0,-107.91,-501.953,-1000.0
1742379107.207,-551.27,114.258,-401.855,-556.152
1742379107.211,-1000.0,264.16,-457.52,-1000.0
1742379107.215,-598.633,37.598,60.547,-538.574
1742379107.219,807.617,-83.008,458.496,833.496
1742379107.223,999.512,-73.242,263.184,999.512
1742379107.227,-309.082,-109.375,-257.324,-329.59
1742379107.231,-1000.0,-108.887,-512.207,-1000.0
1742379107.234,-698.242,-116.211,-73.73,-670.41
1742379107.238,679.688,-184.082,402.832,699.707
1742379107.242,999.512,-124.023,345.215,999.512
1742379107.246,0.977,-73.242,-214.355,-8.301
1742379107.25,-1000.0,-107.91,-501.953,-1000.0
1742379107.252,-829.102,-116.699,-139.16,-800.293
1742379107.256,538.086,-77.148,339.844,576.66
1742379107.26,999.512,-65.918,350.098,999.512
1742379107.264,397.461,-42.969,-225.586,373.535
1742379107.268,-995.117,-45.898,-634.277,-1000.0
1742379107.272,-895.508,-51.27,-144.531,-870.605
1742379107.276,551.27,-58.594,425.781,583.984
1742379107.279,999.512,148.438,296.875,999.512
1742379107.283,485.352,176.27,-229.492,451.66
1742379107.287,-956.055,-74.219,-552.246,-954.102
1742379107.291,-917.48,-84.473,-287.109,-916.504
1742379107.295,557.617,-65.43,300.781,549.316
1742379107.252,-829.102,-116.699,-139.16,-800.293
1742379107.256,538.086,-77.148,339.844,576.66
1742379107.26,999.512,-65.918,350.098,999.512
1742379107.264,397.461,-42.969,-225.586,373.535
1742379107.268,-995.117,-45.898,-634.277,-1000.0
1742379107.272,-895.508,-51.27,-144.531,-870.605
1742379107.276,551.27,-58.594,425.781,583.984
1742379107.279,999.512,148.438,296.875,999.512
1742379107.283,485.352,176.27,-229.492,451.66
1742379107.287,-956.055,-74.219,-552.246,-954.102
1742379107.291,-917.48,-84.473,-287.109,-916.504
1742379107.295,557.617,-65.43,300.781,549.316
1742379107.299,999.512,-65.918,441.406,999.512
1742379107.303,802.246,-110.352,11.23,781.738
1742379107.307,-601.562,-102.051,-527.344,-636.719
1742379107.311,-1000.0,231.934,-523.926,-1000.0
1742379107.315,300.293,174.805,128.906,339.355
1742379107.319,999.512,-101.562,493.652,999.512
1742379107.323,818.848,-60.547,129.883,818.359
1742379107.326,-582.031,112.793,-572.754,-589.355
1742379107.33,-1000.0,1.953,-590.82,-1000.0
1742379107.334,243.164,-111.328,200.684,265.625
1742379107.338,999.512,-80.078,466.797,999.512
1742379107.342,814.941,-87.402,131.836,835.938
1742379107.299,999.512,-65.918,441.406,999.512
1742379107.303,802.246,-110.352,11.23,781.738
1742379107.307,-601.562,-102.051,-527.344,-636.719
1742379107.311,-1000.0,231.934,-523.926,-1000.0
1742379107.315,300.293,174.805,128.906,339.355
1742379107.319,999.512,-101.562,493.652,999.512
1742379107.323,818.848,-60.547,129.883,818.359
1742379107.326,-582.031,112.793,-572.754,-589.355
1742379107.33,-1000.0,1.953,-590.82,-1000.0
1742379107.334,243.164,-111.328,200.684,265.625
1742379107.338,999.512,-80.078,466.797,999.512
1742379107.342,814.941,-87.402,131.836,835.938
1742379107.342,-508.301,-118.164,-413.086,-488.281
1742379107.346,-1000.0,-119.629,-540.527,-1000.0
1742379107.35,-186.523,-81.543,133.789,-126.953
1742379107.354,981.934,-84.961,468.75,995.605
1742379107.358,986.328,-107.422,202.637,973.633
1742379107.362,-252.441,-131.348,-234.863,-246.582
1742379107.366,-1000.0,-67.871,-500.488,-1000.0
1742379107.369,-614.746,22.949,-63.965,-555.664
1742379107.373,775.879,-53.223,385.742,799.316
1742379107.377,999.512,-96.68,269.531,999.512
1742379107.381,-104.98,-93.262,-228.516,-66.895
1742379107.385,-1000.0,-104.98,-534.18,-1000.0
1742379107.342,-508.301,-118.164,-413.086,-488.281
1742379107.346,-1000.0,-119.629,-540.527,-1000.0
1742379107.35,-186.523,-81.543,133.789,-126.953
1742379107.354,981.934,-84.961,468.75,995.605
1742379107.358,986.328,-107.422,202.637,973.633
1742379107.362,-252.441,-131.348,-234.863,-246.582
1742379107.366,-1000.0,-67.871,-500.488,-1000.0
1742379107.369,-614.746,22.949,-63.965,-555.664
1742379107.373,775.879,-53.223,385.742,799.316
1742379107.377,999.512,-96.68,269.531,999.512
1742379107.381,-104.98,-93.262,-228.516,-66.895
1742379107.385,-1000.0,-104.98,-534.18,-1000.0
1742379107.342,-508.301,-118.164,-413.086,-488.281
1742379107.346,-1000.0,-119.629,-540.527,-1000.0
1742379107.35,-186.523,-81.543,133.789,-126.953
1742379107.354,981.934,-84.961,468.75,995.605
1742379107.358,986.328,-107.422,202.637,973.633
1742379107.362,-252.441,-131.348,-234.863,-246.582
1742379107.366,-1000.0,-67.871,-500.488,-1000.0
1742379107.369,-614.746,22.949,-63.965,-555.664
1742379107.373,775.879,-53.223,385.742,799.316
1742379107.377,999.512,-96.68,269.531,999.512
1742379107.381,-104.98,-93.262,-228.516,-66.895
1742379107.385,-1000.0,-104.98,-534.18,-1000.0
1742379107.387,-714.355,-100.098,-47.852,-700.195
1742379107.391,684.57,-64.453,458.008,701.66
1742379107.395,999.512,26.855,301.758,999.512
1742379107.399,75.684,-35.645,-244.141,87.402
1742379107.403,-1000.0,-104.98,-584.961,-1000.0
1742379107.407,-850.586,-83.984,-70.312,-830.566
1742379107.411,537.109,7.324,514.16,567.871
1742379107.414,999.512,-16.602,394.531,999.512
1742379107.418,320.801,-91.309,-201.172,326.66
1742379107.422,-1000.0,-102.539,-571.289,-1000.0
1742379107.426,-889.16,-121.094,-229.98,-892.09
1742379107.43,539.062,-62.012,333.008,540.527
1742379107.387,-714.355,-100.098,-47.852,-700.195
1742379107.391,684.57,-64.453,458.008,701.66
1742379107.395,999.512,26.855,301.758,999.512
1742379107.399,75.684,-35.645,-244.141,87.402
1742379107.403,-1000.0,-104.98,-584.961,-1000.0
1742379107.407,-850.586,-83.984,-70.312,-830.566
1742379107.411,537.109,7.324,514.16,567.871
1742379107.414,999.512,-16.602,394.531,999.512
1742379107.418,320.801,-91.309,-201.172,326.66
1742379107.422,-1000.0,-102.539,-571.289,-1000.0
1742379107.426,-889.16,-121.094,-229.98,-892.09
1742379107.43,539.062,-62.012,333.008,540.527
1742379107.448,999.512,-48.828,356.445,999.512
1742379107.452,754.395,-66.895,-47.363,748.047
1742379107.456,-710.938,-77.148,-488.77,-712.891
1742379107.46,-1000.0,-70.312,-348.633,-1000.0
1742379107.464,471.191,-53.223,275.391,476.562
1742379107.468,999.512,-4.395,512.695,999.512
1742379107.472,824.707,-31.25,109.375,812.5
1742379107.475,-599.609,-87.402,-603.516,-621.094
1742379107.479,-1000.0,-63.965,-561.523,-1000.0
1742379107.483,385.254,-41.016,285.156,400.879
1742379107.487,999.512,-49.805,416.016,999.512
1742379107.491,795.898,-63.965,22.461,798.828
1742379107.448,999.512,-48.828,356.445,999.512
1742379107.452,754.395,-66.895,-47.363,748.047
1742379107.456,-710.938,-77.148,-488.77,-712.891
1742379107.46,-1000.0,-70.312,-348.633,-1000.0
1742379107.464,471.191,-53.223,275.391,476.562
1742379107.468,999.512,-4.395,512.695,999.512
1742379107.472,824.707,-31.25,109.375,812.5
1742379107.475,-599.609,-87.402,-603.516,-621.094
1742379107.479,-1000.0,-63.965,-561.523,-1000.0
1742379107.483,385.254,-41.016,285.156,400.879
1742379107.487,999.512,-49.805,416.016,999.512
1742379107.491,795.898,-63.965,22.461,798.828
1742379107.448,999.512,-48.828,356.445,999.512
1742379107.452,754.395,-66.895,-47.363,748.047
1742379107.456,-710.938,-77.148,-488.77,-712.891
1742379107.46,-1000.0,-70.312,-348.633,-1000.0
1742379107.464,471.191,-53.223,275.391,476.562
1742379107.468,999.512,-4.395,512.695,999.512
1742379107.472,824.707,-31.25,109.375,812.5
1742379107.475,-599.609,-87.402,-603.516,-621.094
1742379107.479,-1000.0,-63.965,-561.523,-1000.0
1742379107.483,385.254,-41.016,285.156,400.879
1742379107.487,999.512,-49.805,416.016,999.512
1742379107.491,795.898,-63.965,22.461,798.828
1742379107.537,-620.117,-41.016,-6.348,-593.75
1742379107.541,728.027,-0.977,463.379,745.605
1742379107.545,999.512,-71.777,430.664,999.512
1742379107.549,674.316,-96.191,-84.473,615.234
1742379107.553,-887.695,-84.961,-420.898,-912.598
1742379107.557,-775.391,-75.684,70.312,-737.305
1742379107.561,759.277,-58.105,607.91,770.508
1742379107.564,999.512,-78.125,434.082,999.512
1742379107.568,747.07,84.473,-115.723,710.938
1742379107.572,-757.324,98.145,-461.914,-783.691
1742379107.576,-971.68,-84.473,-119.141,-945.801
1742379107.58,575.684,-62.5,426.27,592.285
1742379107.537,-620.117,-41.016,-6.348,-593.75
1742379107.541,728.027,-0.977,463.379,745.605
1742379107.545,999.512,-71.777,430.664,999.512
1742379107.549,674.316,-96.191,-84.473,615.234
1742379107.553,-887.695,-84.961,-420.898,-912.598
1742379107.557,-775.391,-75.684,70.312,-737.305
1742379107.561,759.277,-58.105,607.91,770.508
1742379107.564,999.512,-78.125,434.082,999.512
1742379107.568,747.07,84.473,-115.723,710.938
1742379107.572,-757.324,98.145,-461.914,-783.691
1742379107.576,-971.68,-84.473,-119.141,-945.801
1742379107.58,575.684,-62.5,426.27,592.285
1742379107.537,-620.117,-41.016,-6.348,-593.75
1742379107.541,728.027,-0.977,463.379,745.605
1742379107.545,999.512,-71.777,430.664,999.512
1742379107.549,674.316,-96.191,-84.473,615.234
1742379107.553,-887.695,-84.961,-420.898,-912.598
1742379107.557,-775.391,-75.684,70.312,-737.305
1742379107.561,759.277,-58.105,607.91,770.508
1742379107.564,999.512,-78.125,434.082,999.512
1742379107.568,747.07,84.473,-115.723,710.938
1742379107.572,-757.324,98.145,-461.914,-783.691
1742379107.576,-971.68,-84.473,-119.141,-945.801
1742379107.58,575.684,-62.5,426.27,592.285
1742379107.583,999.512,-48.828,460.938,999.512
1742379107.587,830.566,-72.266,88.379,800.781
1742379107.591,-638.672,-133.789,-430.176,-670.41
1742379107.595,-1000.0,-103.516,-364.258,-1000.0
1742379107.599,545.898,275.391,322.754,531.25
1742379107.603,999.512,167.969,537.109,999.512
1742379107.607,789.062,-167.48,48.34,766.602
1742379107.61,-630.371,-115.234,-577.637,-652.344
1742379107.614,-1000.0,107.422,-476.074,-1000.0
1742379107.618,340.82,6.348,275.391,327.148
1742379107.622,999.512,-140.625,430.664,999.512
1742379107.626,784.668,-114.258,54.199,772.461
1742379107.583,999.512,-48.828,460.938,999.512
1742379107.587,830.566,-72.266,88.379,800.781
1742379107.591,-638.672,-133.789,-430.176,-670.41
1742379107.595,-1000.0,-103.516,-364.258,-1000.0
1742379107.599,545.898,275.391,322.754,531.25
1742379107.603,999.512,167.969,537.109,999.512
1742379107.607,789.062,-167.48,48.34,766.602
1742379107.61,-630.371,-115.234,-577.637,-652.344
1742379107.614,-1000.0,107.422,-476.074,-1000.0
1742379107.618,340.82,6.348,275.391,327.148
1742379107.622,999.512,-140.625,430.664,999.512
1742379107.626,784.668,-114.258,54.199,772.461
1742379107.583,999.512,-48.828,460.938,999.512
1742379107.587,830.566,-72.266,88.379,800.781
1742379107.591,-638.672,-133.789,-430.176,-670.41
1742379107.595,-1000.0,-103.516,-364.258,-1000.0
1742379107.599,545.898,275.391,322.754,531.25
1742379107.603,999.512,167.969,537.109,999.512
1742379107.607,789.062,-167.48,48.34,766.602
1742379107.61,-630.371,-115.234,-577.637,-652.344
1742379107.614,-1000.0,107.422,-476.074,-1000.0
1742379107.618,340.82,6.348,275.391,327.148
1742379107.622,999.512,-140.625,430.664,999.512
1742379107.626,784.668,-114.258,54.199,772.461
1742379107.628,-530.762,-122.559,-457.031,-551.758
1742379107.632,-1000.0,-120.605,-550.781,-1000.0
1742379107.636,-283.691,-99.609,78.613,-291.992
1742379107.64,999.512,-66.895,434.082,995.117
1742379107.644,867.676,-71.289,265.625,873.047
1742379107.648,-525.879,-101.562,-258.789,-530.273
1742379107.652,-1000.0,-119.141,-482.422,-1000.0
1742379107.655,-584.961,-16.113,16.602,-562.012
1742379107.659,833.984,68.848,383.301,841.309
1742379107.663,999.512,-66.895,250.977,992.676
1742379107.667,-383.301,-115.234,-321.289,-412.109
1742379107.671,-1000.0,-82.031,-555.176,-1000.0
1742379107.628,-530.762,-122.559,-457.031,-551.758
1742379107.632,-1000.0,-120.605,-550.781,-1000.0
1742379107.636,-283.691,-99.609,78.613,-291.992
1742379107.64,999.512,-66.895,434.082,995.117
1742379107.644,867.676,-71.289,265.625,873.047
1742379107.648,-525.879,-101.562,-258.789,-530.273
1742379107.652,-1000.0,-119.141,-482.422,-1000.0
1742379107.655,-584.961,-16.113,16.602,-562.012
1742379107.659,833.984,68.848,383.301,841.309
1742379107.663,999.512,-66.895,250.977,992.676
1742379107.667,-383.301,-115.234,-321.289,-412.109
1742379107.671,-1000.0,-82.031,-555.176,-1000.0
1742379107.673,-670.898,-73.73,16.113,-668.945
1742379107.677,744.629,-84.961,486.328,742.676
1742379107.681,999.512,-83.008,302.734,999.512
1742379107.685,-261.719,-39.551,-300.781,-272.461
1742379107.689,-1000.0,-58.105,-592.285,-1000.0
1742379107.693,-766.602,-92.285,15.625,-769.531
1742379107.697,613.281,-38.086,534.668,614.746
1742379107.7,999.512,245.605,336.914,999.512
1742379107.704,-9.277,122.07,-252.93,-38.574
1742379107.708,-1000.0,-114.746,-584.961,-1000.0
1742379107.712,-843.75,-80.566,-220.215,-845.703
1742379107.716,507.324,-76.172,335.938,513.184
1742379107.733,999.512,-86.914,353.027,999.512
1742379107.737,472.168,-92.285,-127.93,403.809
1742379107.741,-922.852,-90.82,-548.828,-937.988
1742379107.745,-1000.0,-78.125,-359.863,-999.512
1742379107.749,385.254,-64.453,254.395,378.906
1742379107.753,999.512,-68.848,477.539,999.512
1742379107.757,713.379,-71.289,21.484,683.594
1742379107.76,-705.566,-77.148,-604.98,-729.004
1742379107.764,-1000.0,-81.543,-479.004,-1000.0
1742379107.768,257.812,-70.801,259.277,242.188
1742379107.772,999.512,46.387,381.348,999.512
1742379107.776,771.973,60.059,-63.965,748.535
1742379107.733,999.512,-86.914,353.027,999.512
1742379107.737,472.168,-92.285,-127.93,403.809
1742379107.741,-922.852,-90.82,-548.828,-937.988
1742379107.745,-1000.0,-78.125,-359.863,-999.512
1742379107.749,385.254,-64.453,254.395,378.906
1742379107.753,999.512,-68.848,477.539,999.512
1742379107.757,713.379,-71.289,21.484,683.594
1742379107.76,-705.566,-77.148,-604.98,-729.004
1742379107.764,-1000.0,-81.543,-479.004,-1000.0
1742379107.768,257.812,-70.801,259.277,242.188
1742379107.772,999.512,46.387,381.348,999.512
1742379107.776,771.973,60.059,-63.965,748.535
1742379107.733,999.512,-86.914,353.027,999.512
1742379107.737,472.168,-92.285,-127.93,403.809
1742379107.741,-922.852,-90.82,-548.828,-937.988
1742379107.745,-1000.0,-78.125,-359.863,-999.512
1742379107.749,385.254,-64.453,254.395,378.906
1742379107.753,999.512,-68.848,477.539,999.512
1742379107.757,713.379,-71.289,21.484,683.594
1742379107.76,-705.566,-77.148,-604.98,-729.004
1742379107.764,-1000.0,-81.543,-479.004,-1000.0
1742379107.768,257.812,-70.801,259.277,242.188
1742379107.772,999.512,46.387,381.348,999.512
1742379107.776,771.973,60.059,-63.965,748.535
1742379107.762,-575.684,-86.426,-508.789,-608.887
1742379107.766,-1000.0,-81.543,-410.645,-1000.0
1742379107.77,-153.32,51.27,144.043,-155.762
1742379107.774,999.512,1.465,360.352,999.512
1742379107.778,824.707,-93.75,65.43,827.148
1742379107.782,-549.316,-97.168,-398.438,-559.082
1742379107.786,-1000.0,-89.844,-496.582,-1000.0
1742379107.789,-609.375,-72.266,10.742,-552.246
1742379107.793,834.961,-69.336,352.051,854.004
1742379107.797,981.445,-65.918,219.238,968.262
1742379107.801,-458.984,-41.992,-334.961,-458.496
1742379107.805,-1000.0,-72.266,-576.172,-1000.0
1742379107.762,-575.684,-86.426,-508.789,-608.887
1742379107.766,-1000.0,-81.543,-410.645,-1000.0
1742379107.77,-153.32,51.27,144.043,-155.762
1742379107.774,999.512,1.465,360.352,999.512
1742379107.778,824.707,-93.75,65.43,827.148
1742379107.782,-549.316,-97.168,-398.438,-559.082
1742379107.786,-1000.0,-89.844,-496.582,-1000.0
1742379107.789,-609.375,-72.266,10.742,-552.246
1742379107.793,834.961,-69.336,352.051,854.004
1742379107.797,981.445,-65.918,219.238,968.262
1742379107.801,-458.984,-41.992,-334.961,-458.496
1742379107.805,-1000.0,-72.266,-576.172,-1000.0
1742379107.808,-752.93,-93.262,-8.301,-732.91
1742379107.812,680.176,-51.27,424.316,694.824
1742379107.816,999.512,-35.156,264.648,999.512
1742379107.82,-349.609,-94.238,-308.105,-354.492
1742379107.824,-1000.0,-106.934,-601.074,-1000.0
1742379107.828,-757.324,-14.648,-20.996,-752.93
1742379107.832,671.875,2.441,446.777,672.363
1742379107.835,999.512,-80.078,232.422,999.512
1742379107.839,-309.57,-92.285,-356.445,-303.711
1742379107.843,-1000.0,-6.836,-627.93,-1000.0
1742379107.847,-808.594,-16.602,-191.406,-809.082
1742379107.851,486.328,-76.66,288.574,497.559
1742379107.808,-752.93,-93.262,-8.301,-732.91
1742379107.812,680.176,-51.27,424.316,694.824
1742379107.816,999.512,-35.156,264.648,999.512
1742379107.82,-349.609,-94.238,-308.105,-354.492
1742379107.824,-1000.0,-106.934,-601.074,-1000.0
1742379107.828,-757.324,-14.648,-20.996,-752.93
1742379107.832,671.875,2.441,446.777,672.363
1742379107.835,999.512,-80.078,232.422,999.512
1742379107.839,-309.57,-92.285,-356.445,-303.711
1742379107.843,-1000.0,-6.836,-627.93,-1000.0
1742379107.847,-808.594,-16.602,-191.406,-809.082
1742379107.851,486.328,-76.66,288.574,497.559
1742379107.808,-752.93,-93.262,-8.301,-732.91
1742379107.812,680.176,-51.27,424.316,694.824
1742379107.816,999.512,-35.156,264.648,999.512
1742379107.82,-349.609,-94.238,-308.105,-354.492
1742379107.824,-1000.0,-106.934,-601.074,-1000.0
1742379107.828,-757.324,-14.648,-20.996,-752.93
1742379107.832,671.875,2.441,446.777,672.363
1742379107.835,999.512,-80.078,232.422,999.512
1742379107.839,-309.57,-92.285,-356.445,-303.711
1742379107.843,-1000.0,-6.836,-627.93,-1000.0
1742379107.847,-808.594,-16.602,-191.406,-809.082
1742379107.851,486.328,-76.66,288.574,497.559
1742379107.868,999.512,-51.758,321.289,999.512
1742379107.872,543.457,31.738,-104.492,489.746
1742379107.876,-891.113,-35.156,-578.613,-912.598
1742379107.88,-1000.0,-104.004,-367.676,-983.887
1742379107.884,429.199,-44.922,275.391,443.848
1742379107.888,999.512,39.062,490.723,999.512
1742379107.892,678.711,-21.484,-9.277,668.945
1742379107.895,-780.762,-105.957,-660.156,-781.25
1742379107.899,-1000.0,-78.613,-522.461,-1000.0
1742379107.903,416.992,-32.715,238.281,419.922
1742379107.907,999.512,-53.223,389.648,999.512
1742379107.911,793.945,-83.496,-4.883,773.438
1742379107.868,999.512,-51.758,321.289,999.512
1742379107.872,543.457,31.738,-104.492,489.746
1742379107.876,-891.113,-35.156,-578.613,-912.598
1742379107.88,-1000.0,-104.004,-367.676,-983.887
1742379107.884,429.199,-44.922,275.391,443.848
1742379107.888,999.512,39.062,490.723,999.512
1742379107.892,678.711,-21.484,-9.277,668.945
1742379107.895,-780.762,-105.957,-660.156,-781.25
1742379107.899,-1000.0,-78.613,-522.461,-1000.0
1742379107.903,416.992,-32.715,238.281,419.922
1742379107.907,999.512,-53.223,389.648,999.512
1742379107.911,793.945,-83.496,-4.883,773.438
1742379107.912,-572.754,-86.426,-491.211,-601.074
1742379107.916,-1000.0,-66.406,-471.68,-1000.0
1742379107.92,95.703,-41.016,213.867,95.215
1742379107.924,999.512,-45.898,412.598,999.512
1742379107.928,797.852,-32.227,74.219,810.547
1742379107.932,-536.133,-42.969,-399.902,-534.18
1742379107.936,-1000.0,-63.477,-559.57,-1000.0
1742379107.939,-446.777,-66.895,-3.418,-385.254
1742379107.943,944.824,33.691,301.758,957.031
1742379107.947,893.066,71.777,87.402,896.973
1742379107.951,-546.875,-64.941,-454.59,-532.227
1742379107.955,-1000.0,-81.055,-626.953,-1000.0
1742379107.912,-572.754,-86.426,-491.211,-601.074
1742379107.916,-1000.0,-66.406,-471.68,-1000.0
1742379107.92,95.703,-41.016,213.867,95.215
1742379107.924,999.512,-45.898,412.598,999.512
1742379107.928,797.852,-32.227,74.219,810.547
1742379107.932,-536.133,-42.969,-399.902,-534.18
1742379107.936,-1000.0,-63.477,-559.57,-1000.0
1742379107.939,-446.777,-66.895,-3.418,-385.254
1742379107.943,944.824,33.691,301.758,957.031
1742379107.947,893.066,71.777,87.402,896.973
1742379107.951,-546.875,-64.941,-454.59,-532.227
1742379107.955,-1000.0,-81.055,-626.953,-1000.0
1742379107.912,-572.754,-86.426,-491.211,-601.074
1742379107.916,-1000.0,-66.406,-471.68,-1000.0
1742379107.92,95.703,-41.016,213.867,95.215
1742379107.924,999.512,-45.898,412.598,999.512
1742379107.928,797.852,-32.227,74.219,810.547
1742379107.932,-536.133,-42.969,-399.902,-534.18
1742379107.936,-1000.0,-63.477,-559.57,-1000.0
1742379107.939,-446.777,-66.895,-3.418,-385.254
1742379107.943,944.824,33.691,301.758,957.031
1742379107.947,893.066,71.777,87.402,896.973
1742379107.951,-546.875,-64.941,-454.59,-532.227
1742379107.955,-1000.0,-81.055,-626.953,-1000.0
1742379107.958,-490.723,-52.246,87.891,-455.566
1742379107.962,891.113,-44.922,505.859,899.414
1742379107.966,985.84,-65.918,197.754,974.609
1742379107.97,-392.578,-64.941,-390.137,-400.879
1742379107.974,-1000.0,48.828,-602.539,-1000.0
1742379107.978,-687.5,-7.812,28.32,-669.434
1742379107.982,746.094,-80.566,485.84,751.953
1742379107.985,999.512,-68.848,291.016,999.512
1742379107.989,-338.379,-63.477,-388.672,-334.473
1742379107.993,-1000.0,-57.617,-631.836,-1000.0
1742379107.997,-799.316,-71.289,-68.359,-782.227
1742379108.001,512.207,-51.27,496.094,540.527
1742379107.958,-490.723,-52.246,87.891,-455.566
1742379107.962,891.113,-44.922,505.859,899.414
1742379107.966,985.84,-65.918,197.754,974.609
1742379107.97,-392.578,-64.941,-390.137,-400.879
1742379107.974,-1000.0,48.828,-602.539,-1000.0
1742379107.978,-687.5,-7.812,28.32,-669.434
1742379107.982,746.094,-80.566,485.84,751.953
1742379107.985,999.512,-68.848,291.016,999.512
1742379107.989,-338.379,-63.477,-388.672,-334.473
1742379107.993,-1000.0,-57.617,-631.836,-1000.0
1742379107.997,-799.316,-71.289,-68.359,-782.227
1742379108.001,512.207,-51.27,496.094,540.527
1742379107.958,-490.723,-52.246,87.891,-455.566
1742379107.962,891.113,-44.922,505.859,899.414
1742379107.966,985.84,-65.918,197.754,974.609
1742379107.97,-392.578,-64.941,-390.137,-400.879
1742379107.974,-1000.0,48.828,-602.539,-1000.0
1742379107.978,-687.5,-7.812,28.32,-669.434
1742379107.982,746.094,-80.566,485.84,751.953
1742379107.985,999.512,-68.848,291.016,999.512
1742379107.989,-338.379,-63.477,-388.672,-334.473
1742379107.993,-1000.0,-57.617,-631.836,-1000.0
1742379107.997,-799.316,-71.289,-68.359,-782.227
1742379108.001,512.207,-51.27,496.094,540.527
1742379108.003,999.512,-50.781,459.473,999.512
1742379108.007,356.445,-86.914,-62.012,324.219
1742379108.011,-1000.0,-97.656,-466.797,-1000.0
1742379108.015,-895.02,-60.547,-131.348,-888.672
1742379108.019,536.133,-34.18,444.824,540.039
1742379108.023,999.512,-41.016,592.285,999.512
1742379108.027,667.969,-83.496,123.047,659.668
1742379108.03,-789.551,21.484,-513.184,-788.086
1742379108.034,-1000.0,90.332,-307.129,-1000.0
1742379108.038,419.434,-45.41,450.195,423.34
1742379108.042,999.512,-51.758,558.105,999.512
1742379108.046,733.398,103.516,33.203,719.238
1742379108.048,-660.156,13.184,-451.66,-671.387
1742379108.052,-1000.0,-114.258,-373.535,-1000.0
1742379108.056,156.738,-43.457,240.723,146.484
1742379108.06,999.512,94.238,447.754,999.512
1742379108.064,800.781,8.789,47.852,796.875
1742379108.068,-543.945,-116.211,-383.789,-560.547
1742379108.072,-1000.0,-74.219,-433.594,-1000.0
1742379108.075,-240.234,59.082,57.129,-216.797
1742379108.079,999.512,-1.953,382.324,999.512
1742379108.083,886.719,-80.078,231.934,892.09
1742379108.087,-481.445,-70.312,-327.148,-474.121
1742379108.091,-1000.0,-73.73,-534.668,-1000.0
1742379108.048,-660.156,13.184,-451.66,-671.387
1742379108.052,-1000.0,-114.258,-373.535,-1000.0
1742379108.056,156.738,-43.457,240.723,146.484
1742379108.06,999.512,94.238,447.754,999.512
1742379108.064,800.781,8.789,47.852,796.875
1742379108.068,-543.945,-116.211,-383.789,-560.547
1742379108.072,-1000.0,-74.219,-433.594,-1000.0
1742379108.075,-240.234,59.082,57.129,-216.797
1742379108.079,999.512,-1.953,382.324,999.512
1742379108.083,886.719,-80.078,231.934,892.09
1742379108.087,-481.445,-70.312,-327.148,-474.121
1742379108.091,-1000.0,-73.73,-534.668,-1000.0
1742379108.093,-578.125,-66.406,37.109,-522.949
1742379108.097,830.078,-69.336,467.285,853.516
1742379108.101,999.512,-68.359,311.523,999.512
1742379108.105,-337.891,-71.777,-278.32,-349.121
1742379108.109,-1000.0,-87.891,-526.367,-1000.0
1742379108.113,-637.207,-91.309,104.004,-621.094
1742379108.117,783.203,24.902,577.637,786.621
1742379108.12,999.512,59.57,343.262,999.512
1742379108.124,-289.062,-83.496,-224.121,-287.598
1742379108.128,-1000.0,-93.262,-474.121,-1000.0
1742379108.132,-795.898,-55.176,-25.879,-780.273
1742379108.136,512.207,-72.754,459.961,543.457
1742379108.093,-578.125,-66.406,37.109,-522.949
1742379108.097,830.078,-69.336,467.285,853.516
1742379108.101,999.512,-68.359,311.523,999.512
1742379108.105,-337.891,-71.777,-278.32,-349.121
1742379108.109,-1000.0,-87.891,-526.367,-1000.0
1742379108.113,-637.207,-91.309,104.004,-621.094
1742379108.117,783.203,24.902,577.637,786.621
1742379108.12,999.512,59.57,343.262,999.512
1742379108.124,-289.062,-83.496,-224.121,-287.598
1742379108.128,-1000.0,-93.262,-474.121,-1000.0
1742379108.132,-795.898,-55.176,-25.879,-780.273
1742379108.136,512.207,-72.754,459.961,543.457
1742379108.138,999.512,-80.566,470.215,999.512
1742379108.142,446.777,-85.938,-18.555,384.766
1742379108.146,-971.68,-192.871,-513.184,-986.816
1742379108.15,-910.645,-186.523,-256.836,-906.738
1742379108.154,541.016,-65.918,328.125,533.691
1742379108.158,999.512,-33.691,467.773,999.512
1742379108.162,614.746,11.719,-62.012,576.172
1742379108.165,-842.285,-30.762,-689.453,-855.469
1742379108.169,-1000.0,-56.641,-456.055,-1000.0
1742379108.173,439.941,-19.043,304.688,433.594
1742379108.177,999.512,-27.344,468.75,999.512
1742379108.181,754.395,-53.223,39.551,735.352
1742379108.138,999.512,-80.566,470.215,999.512
1742379108.142,446.777,-85.938,-18.555,384.766
1742379108.146,-971.68,-192.871,-513.184,-986.816
1742379108.15,-910.645,-186.523,-256.836,-906.738
1742379108.154,541.016,-65.918,328.125,533.691
1742379108.158,999.512,-33.691,467.773,999.512
1742379108.162,614.746,11.719,-62.012,576.172
1742379108.165,-842.285,-30.762,-689.453,-855.469
1742379108.169,-1000.0,-56.641,-456.055,-1000.0
1742379108.173,439.941,-19.043,304.688,433.594
1742379108.177,999.512,-27.344,468.75,999.512
1742379108.181,754.395,-53.223,39.551,735.352
1742379108.663,-332.031,-23.438,125.488,-373.047
1742379108.667,998.535,-20.02,463.379,977.051
1742379108.671,855.957,-29.785,97.656,858.398
1742379108.675,-564.941,-38.086,-514.648,-576.172
1742379108.679,-1000.0,-37.109,-611.328,-1000.0
1742379108.683,-510.254,-17.09,207.031,-563.477
1742379108.687,925.781,-10.254,618.164,884.766
1742379108.69,882.324,-46.387,258.789,893.066
1742379108.694,-591.797,79.59,-369.141,-596.68
1742379108.698,-1000.0,120.117,-601.562,-1000.0
1742379108.702,-851.562,-19.043,17.09,-849.121
1742379108.706,574.219,-19.043,499.512,592.285
1742379108.138,999.512,-80.566,470.215,999.512
1742379108.142,446.777,-85.938,-18.555,384.766
1742379108.146,-971.68,-192.871,-513.184,-986.816
1742379108.15,-910.645,-186.523,-256.836,-906.738
1742379108.154,541.016,-65.918,328.125,533.691
1742379108.158,999.512,-33.691,467.773,999.512
1742379108.162,614.746,11.719,-62.012,576.172
1742379108.165,-842.285,-30.762,-689.453,-855.469
1742379108.169,-1000.0,-56.641,-456.055,-1000.0
1742379108.173,439.941,-19.043,304.688,433.594
1742379108.177,999.512,-27.344,468.75,999.512
1742379108.181,754.395,-53.223,39.551,735.352
1742379108.182,-673.828,-66.895,-511.23,-690.918
1742379108.186,-1000.0,-49.316,-427.734,-1000.0
1742379108.19,328.125,-26.367,288.086,326.66
1742379108.194,999.512,-38.086,430.176,999.512
1742379108.198,786.133,-61.035,82.52,787.598
1742379108.202,-532.227,-60.059,-345.703,-542.969
1742379108.206,-1000.0,-45.898,-424.805,-1000.0
1742379108.209,-270.996,-47.852,111.328,-223.145
1742379108.213,999.512,-41.016,409.668,999.512
1742379108.217,855.469,-27.832,187.988,862.305
1742379108.221,-570.312,-49.316,-400.391,-556.641
1742379108.225,-1000.0,-59.082,-535.156,-1000.0
1742379108.182,-673.828,-66.895,-511.23,-690.918
1742379108.186,-1000.0,-49.316,-427.734,-1000.0
1742379108.19,328.125,-26.367,288.086,326.66
1742379108.194,999.512,-38.086,430.176,999.512
1742379108.198,786.133,-61.035,82.52,787.598
1742379108.202,-532.227,-60.059,-345.703,-542.969
1742379108.206,-1000.0,-45.898,-424.805,-1000.0
1742379108.209,-270.996,-47.852,111.328,-223.145
1742379108.213,999.512,-41.016,409.668,999.512
1742379108.217,855.469,-27.832,187.988,862.305
1742379108.221,-570.312,-49.316,-400.391,-556.641
1742379108.225,-1000.0,-59.082,-535.156,-1000.0
1742379108.243,-305.176,-22.461,184.082,-278.809
1742379108.247,981.445,11.23,519.531,982.422
1742379108.251,917.969,-22.949,203.125,918.945
1742379108.255,-447.754,-62.012,-402.832,-445.801
1742379108.259,-1000.0,-56.641,-634.277,-1000.0
1742379108.263,-590.332,-28.809,60.059,-541.992
1742379108.267,825.195,-13.672,525.879,841.309
1742379108.27,999.512,-41.992,304.199,999.512
1742379108.274,-357.91,-53.711,-363.281,-354.98
1742379108.278,-1000.0,28.809,-614.258,-1000.0
1742379108.282,-801.27,11.719,-71.289,-778.809
1742379108.286,533.691,-28.32,375.977,565.918
1742379108.243,-305.176,-22.461,184.082,-278.809
1742379108.247,981.445,11.23,519.531,982.422
1742379108.251,917.969,-22.949,203.125,918.945
1742379108.255,-447.754,-62.012,-402.832,-445.801
1742379108.259,-1000.0,-56.641,-634.277,-1000.0
1742379108.263,-590.332,-28.809,60.059,-541.992
1742379108.267,825.195,-13.672,525.879,841.309
1742379108.27,999.512,-41.992,304.199,999.512
1742379108.274,-357.91,-53.711,-363.281,-354.98
1742379108.278,-1000.0,28.809,-614.258,-1000.0
1742379108.282,-801.27,11.719,-71.289,-778.809
1742379108.286,533.691,-28.32,375.977,565.918
1742379108.243,-305.176,-22.461,184.082,-278.809
1742379108.247,981.445,11.23,519.531,982.422
1742379108.251,917.969,-22.949,203.125,918.945
1742379108.255,-447.754,-62.012,-402.832,-445.801
1742379108.259,-1000.0,-56.641,-634.277,-1000.0
1742379108.263,-590.332,-28.809,60.059,-541.992
1742379108.267,825.195,-13.672,525.879,841.309
1742379108.27,999.512,-41.992,304.199,999.512
1742379108.274,-357.91,-53.711,-363.281,-354.98
1742379108.278,-1000.0,28.809,-614.258,-1000.0
1742379108.282,-801.27,11.719,-71.289,-778.809
1742379108.286,533.691,-28.32,375.977,565.918
1742379108.287,999.512,-23.926,305.664,999.512
1742379108.291,155.273,-51.758,-188.965,130.371
1742379108.295,-1000.0,-68.848,-545.898,-1000.0
1742379108.299,-864.746,-62.988,-160.156,-857.422
1742379108.303,518.555,-52.246,394.531,531.738
1742379108.307,999.512,-43.945,502.441,999.512
1742379108.311,571.289,-64.453,-18.555,517.578
1742379108.314,-900.879,-102.051,-595.215,-911.621
1742379108.318,-944.824,49.316,-370.117,-948.73
1742379108.322,535.156,114.258,316.406,517.578
1742379108.326,999.512,-36.621,437.988,999.512
1742379108.33,639.648,-64.941,-117.676,610.84
1742379108.287,999.512,-23.926,305.664,999.512
1742379108.291,155.273,-51.758,-188.965,130.371
1742379108.295,-1000.0,-68.848,-545.898,-1000.0
1742379108.299,-864.746,-62.988,-160.156,-857.422
1742379108.303,518.555,-52.246,394.531,531.738
1742379108.307,999.512,-43.945,502.441,999.512
1742379108.311,571.289,-64.453,-18.555,517.578
1742379108.314,-900.879,-102.051,-595.215,-911.621
1742379108.318,-944.824,49.316,-370.117,-948.73
1742379108.322,535.156,114.258,316.406,517.578
1742379108.326,999.512,-36.621,437.988,999.512
1742379108.33,639.648,-64.941,-117.676,610.84
1742379108.287,999.512,-23.926,305.664,999.512
1742379108.291,155.273,-51.758,-188.965,130.371
1742379108.295,-1000.0,-68.848,-545.898,-1000.0
1742379108.299,-864.746,-62.988,-160.156,-857.422
1742379108.303,518.555,-52.246,394.531,531.738
1742379108.307,999.512,-43.945,502.441,999.512
1742379108.311,571.289,-64.453,-18.555,517.578
1742379108.314,-900.879,-102.051,-595.215,-911.621
1742379108.318,-944.824,49.316,-370.117,-948.73
1742379108.322,535.156,114.258,316.406,517.578
1742379108.326,999.512,-36.621,437.988,999.512
1742379108.33,639.648,-64.941,-117.676,610.84
1742379108.333,-771.484,9.277,-556.152,-783.691
1742379108.337,-1000.0,-29.785,-372.07,-1000.0
1742379108.341,250.488,-53.711,180.176,241.699
1742379108.345,999.512,-22.949,323.242,999.512
1742379108.349,771.484,26.855,-61.035,749.023
1742379108.353,-559.57,-14.648,-470.215,-594.727
1742379108.357,-1000.0,-108.887,-460.938,-1000.0
1742379108.36,-273.926,-30.762,72.266,-264.648
1742379108.364,999.512,217.773,351.074,999.512
1742379108.368,860.84,61.523,85.449,857.91
1742379108.372,-576.66,-124.023,-450.684,-580.078
1742379108.376,-1000.0,-70.801,-520.996,-1000.0
1742379108.333,-771.484,9.277,-556.152,-783.691
1742379108.337,-1000.0,-29.785,-372.07,-1000.0
1742379108.341,250.488,-53.711,180.176,241.699
1742379108.345,999.512,-22.949,323.242,999.512
1742379108.349,771.484,26.855,-61.035,749.023
1742379108.353,-559.57,-14.648,-470.215,-594.727
1742379108.357,-1000.0,-108.887,-460.938,-1000.0
1742379108.36,-273.926,-30.762,72.266,-264.648
1742379108.364,999.512,217.773,351.074,999.512
1742379108.368,860.84,61.523,85.449,857.91
1742379108.372,-576.66,-124.023,-450.684,-580.078
1742379108.376,-1000.0,-70.801,-520.996,-1000.0
1742379108.333,-771.484,9.277,-556.152,-783.691
1742379108.337,-1000.0,-29.785,-372.07,-1000.0
1742379108.341,250.488,-53.711,180.176,241.699
1742379108.345,999.512,-22.949,323.242,999.512
1742379108.349,771.484,26.855,-61.035,749.023
1742379108.353,-559.57,-14.648,-470.215,-594.727
1742379108.357,-1000.0,-108.887,-460.938,-1000.0
1742379108.36,-273.926,-30.762,72.266,-264.648
1742379108.364,999.512,217.773,351.074,999.512
1742379108.368,860.84,61.523,85.449,857.91
1742379108.372,-576.66,-124.023,-450.684,-580.078
1742379108.376,-1000.0,-70.801,-520.996,-1000.0
1742379108.378,-223.145,-39.062,199.707,-246.582
1742379108.382,999.512,-52.734,467.773,999.512
1742379108.386,855.957,-86.426,192.871,863.281
1742379108.39,-523.438,-73.73,-363.281,-526.367
1742379108.394,-1000.0,-46.875,-613.281,-1000.0
1742379108.398,-646.973,-46.387,64.941,-650.879
1742379108.402,804.688,-48.828,478.516,794.922
1742379108.405,996.582,5.371,203.125,984.375
1742379108.409,-446.777,21.484,-403.32,-469.238
1742379108.413,-1000.0,-40.039,-613.281,-1000.0
1742379108.417,-686.035,-22.461,-28.32,-674.805
1742379108.421,694.824,-23.926,391.602,693.848
1742379108.423,999.512,-21.484,228.027,999.512
1742379108.427,-89.355,-48.34,-235.84,-46.875
1742379108.431,-1000.0,-45.898,-575.195,-1000.0
1742379108.435,-811.035,227.539,-220.215,-776.367
1742379108.439,526.367,200.195,317.871,581.543
1742379108.443,999.512,-19.531,431.152,999.512
1742379108.447,704.102,-27.832,-19.531,748.535
1742379108.45,-794.434,-8.789,-536.133,-750.0
1742379108.454,-963.867,-11.23,-195.312,-956.543
1742379108.458,574.219,2.441,523.926,596.191
1742379108.462,999.512,12.695,573.242,999.512
1742379108.466,835.938,-1.465,69.824,832.52
1742379108.468,-641.113,-20.02,-427.734,-647.461
1742379108.472,-993.652,-10.254,-220.703,-994.141
1742379108.476,583.496,33.203,468.75,594.727
1742379108.48,999.512,24.902,507.812,999.512
1742379108.484,857.91,-0.488,51.27,920.898
1742379108.488,-576.66,-31.738,-339.355,-472.656
1742379108.492,-1000.0,64.941,-293.945,-1000.0
1742379108.495,490.723,155.762,258.301,534.18
1742379108.499,999.512,19.043,360.352,999.512
1742379108.503,838.379,-31.738,80.078,896.973
1742379108.507,-507.812,-24.414,-418.945,-414.551
1742379108.511,-1000.0,-9.766,-462.402,-1000.0
1742379108.468,-641.113,-20.02,-427.734,-647.461
1742379108.472,-993.652,-10.254,-220.703,-994.141
1742379108.476,583.496,33.203,468.75,594.727
1742379108.48,999.512,24.902,507.812,999.512
1742379108.484,857.91,-0.488,51.27,920.898
1742379108.488,-576.66,-31.738,-339.355,-472.656
1742379108.492,-1000.0,64.941,-293.945,-1000.0
1742379108.495,490.723,155.762,258.301,534.18
1742379108.499,999.512,19.043,360.352,999.512
1742379108.503,838.379,-31.738,80.078,896.973
1742379108.507,-507.812,-24.414,-418.945,-414.551
1742379108.511,-1000.0,-9.766,-462.402,-1000.0
1742379108.513,201.172,5.859,278.809,273.438
1742379108.517,999.512,-1.953,510.742,999.512
1742379108.521,900.879,71.289,141.602,931.641
1742379108.525,-411.621,22.949,-437.012,-352.539
1742379108.529,-1000.0,-29.785,-621.582,-1000.0
1742379108.533,-79.59,12.207,230.469,17.09
1742379108.537,999.512,-15.137,609.863,999.512
1742379108.54,865.234,-31.738,236.816,884.766
1742379108.544,-469.238,-46.387,-388.672,-403.32
1742379108.548,-1000.0,-38.574,-600.098,-1000.0
1742379108.552,-744.629,0.977,8.301,-719.238
1742379108.556,608.398,0.488,550.293,634.277
1742379108.513,201.172,5.859,278.809,273.438
1742379108.517,999.512,-1.953,510.742,999.512
1742379108.521,900.879,71.289,141.602,931.641
1742379108.525,-411.621,22.949,-437.012,-352.539
1742379108.529,-1000.0,-29.785,-621.582,-1000.0
1742379108.533,-79.59,12.207,230.469,17.09
1742379108.537,999.512,-15.137,609.863,999.512
1742379108.54,865.234,-31.738,236.816,884.766
1742379108.544,-469.238,-46.387,-388.672,-403.32
1742379108.548,-1000.0,-38.574,-600.098,-1000.0
1742379108.552,-744.629,0.977,8.301,-719.238
1742379108.556,608.398,0.488,550.293,634.277
1742379108.572,999.512,-16.602,459.961,999.512
1742379108.576,53.711,-38.574,-179.199,62.012
1742379108.58,-1000.0,-47.363,-571.289,-1000.0
1742379108.584,-861.328,-35.156,-84.473,-853.027
1742379108.588,520.996,-18.555,532.715,546.387
1742379108.592,999.512,-10.742,566.895,999.512
1742379108.596,299.805,-38.574,-71.289,248.535
1742379108.599,-1000.0,-57.617,-619.629,-1000.0
1742379108.603,-885.254,-49.805,-262.695,-880.859
1742379108.607,532.227,67.383,437.012,530.273
1742379108.611,999.512,84.473,564.453,999.512
1742379108.615,680.176,-38.086,-31.738,638.672
1742379108.572,999.512,-16.602,459.961,999.512
1742379108.576,53.711,-38.574,-179.199,62.012
1742379108.58,-1000.0,-47.363,-571.289,-1000.0
1742379108.584,-861.328,-35.156,-84.473,-853.027
1742379108.588,520.996,-18.555,532.715,546.387
1742379108.592,999.512,-10.742,566.895,999.512
1742379108.596,299.805,-38.574,-71.289,248.535
1742379108.599,-1000.0,-57.617,-619.629,-1000.0
1742379108.603,-885.254,-49.805,-262.695,-880.859
1742379108.607,532.227,67.383,437.012,530.273
1742379108.611,999.512,84.473,564.453,999.512
1742379108.615,680.176,-38.086,-31.738,638.672
1742379108.618,-819.336,-35.156,-469.238,-835.449
1742379108.622,-958.496,116.699,-155.762,-959.473
1742379108.626,573.242,51.758,406.25,554.688
1742379108.63,999.512,-64.941,538.086,999.512
1742379108.634,814.453,-49.805,115.723,799.316
1742379108.638,-575.195,-43.457,-351.074,-590.332
1742379108.642,-1000.0,-44.922,-291.016,-1000.0
1742379108.645,259.766,-37.109,274.414,223.633
1742379108.649,999.512,-20.508,437.988,999.512
1742379108.653,777.832,-8.789,40.039,749.023
1742379108.657,-542.969,-21.484,-479.492,-584.473
1742379108.661,-1000.0,-34.18,-525.391,-1000.0
1742379108.618,-819.336,-35.156,-469.238,-835.449
1742379108.622,-958.496,116.699,-155.762,-959.473
1742379108.626,573.242,51.758,406.25,554.688
1742379108.63,999.512,-64.941,538.086,999.512
1742379108.634,814.453,-49.805,115.723,799.316
1742379108.638,-575.195,-43.457,-351.074,-590.332
1742379108.642,-1000.0,-44.922,-291.016,-1000.0
1742379108.645,259.766,-37.109,274.414,223.633
1742379108.649,999.512,-20.508,437.988,999.512
1742379108.653,777.832,-8.789,40.039,749.023
1742379108.657,-542.969,-21.484,-479.492,-584.473
1742379108.661,-1000.0,-34.18,-525.391,-1000.0
1742379108.708,999.512,-15.137,343.75,999.512
1742379108.712,-428.223,-45.898,-312.988,-481.445
1742379108.716,-1000.0,-44.922,-702.637,-1000.0
1742379108.72,-876.465,-107.422,-98.145,-909.18
1742379108.724,607.91,358.887,414.551,552.734
1742379108.728,975.586,398.438,257.324,982.422
1742379108.732,-681.152,-79.102,-458.496,-682.129
1742379108.735,-1000.0,-127.441,-1000.0,-1000.0
1742379108.739,-1000.0,-273.438,-493.652,-1000.0
1742379108.743,-523.926,-158.203,382.324,-574.707
1742379108.747,999.023,-48.34,577.637,972.168
1742379108.751,794.922,-99.609,24.902,732.422
1742379108.708,999.512,-15.137,343.75,999.512
1742379108.712,-428.223,-45.898,-312.988,-481.445
1742379108.716,-1000.0,-44.922,-702.637,-1000.0
1742379108.72,-876.465,-107.422,-98.145,-909.18
1742379108.724,607.91,358.887,414.551,552.734
1742379108.728,975.586,398.438,257.324,982.422
1742379108.732,-681.152,-79.102,-458.496,-682.129
1742379108.735,-1000.0,-127.441,-1000.0,-1000.0
1742379108.739,-1000.0,-273.438,-493.652,-1000.0
1742379108.743,-523.926,-158.203,382.324,-574.707
1742379108.747,999.023,-48.34,577.637,972.168
1742379108.751,794.922,-99.609,24.902,732.422
1742379108.708,999.512,-15.137,343.75,999.512
1742379108.712,-428.223,-45.898,-312.988,-481.445
1742379108.716,-1000.0,-44.922,-702.637,-1000.0
1742379108.72,-876.465,-107.422,-98.145,-909.18
1742379108.724,607.91,358.887,414.551,552.734
1742379108.728,975.586,398.438,257.324,982.422
1742379108.732,-681.152,-79.102,-458.496,-682.129
1742379108.735,-1000.0,-127.441,-1000.0,-1000.0
1742379108.739,-1000.0,-273.438,-493.652,-1000.0
1742379108.743,-523.926,-158.203,382.324,-574.707
1742379108.747,999.023,-48.34,577.637,972.168
1742379108.751,794.922,-99.609,24.902,732.422
1742379108.753,-866.699,-119.629,-423.828,-910.645
1742379108.757,-957.52,-83.984,-161.133,-954.102
1742379108.761,579.59,-61.035,471.68,553.711
1742379108.765,999.512,-68.359,553.711,999.512
1742379108.769,581.543,-72.266,34.668,528.32
1742379108.773,-730.957,-72.266,-404.785,-771.973
1742379108.777,-1000.0,-55.664,-263.672,-1000.0
1742379108.78,364.746,-54.199,309.082,308.594
1742379108.784,999.512,-55.664,402.832,999.512
1742379108.788,815.43,-52.734,39.551,799.316
1742379108.792,-578.125,-62.988,-477.051,-603.516
1742379108.796,-1000.0,-48.34,-548.34,-1000.0
1742379108.798,252.441,-26.855,121.094,231.934
1742379108.802,999.512,-36.621,506.348,999.512
1742379108.806,902.832,-54.199,177.734,909.668
1742379108.81,-434.082,-37.109,-448.73,-428.711
1742379108.814,-1000.0,-42.969,-546.387,-1000.0
1742379108.818,192.871,-36.621,258.301,191.406
1742379108.822,999.512,-50.781,529.785,999.512
1742379108.825,864.258,2.441,166.992,859.375
1742379108.829,-398.926,-1.465,-392.578,-408.691
1742379108.833,-1000.0,-82.031,-556.152,-1000.0
1742379108.837,-835.938,-62.988,-17.578,-839.844
1742379108.841,615.723,-41.016,392.578,625.488
1742379108.843,999.512,-58.594,251.953,999.512
1742379108.847,-482.422,-77.148,-351.562,-531.738
1742379108.851,-1000.0,-76.172,-539.551,-1000.0
1742379108.855,-797.852,-77.148,-56.641,-798.34
1742379108.859,488.77,-59.57,333.984,503.906
1742379108.863,999.512,-59.57,420.41,999.512
1742379108.867,476.074,-42.969,-45.41,363.77
1742379108.87,-959.961,-29.297,-561.523,-999.512
1742379108.874,-915.039,-63.965,-183.105,-876.953
1742379108.878,545.41,-56.152,500.488,566.406
1742379108.882,999.512,-64.941,584.473,999.512
1742379108.886,667.48,-75.684,8.301,659.668
1742379108.888,-816.406,-75.684,-393.555,-811.523
1742379108.892,-989.258,-57.617,-120.605,-990.234
1742379108.896,508.789,0.488,414.551,515.625
1742379108.9,999.512,-15.625,515.137,999.512
1742379108.904,520.508,-68.848,42.969,441.895
1742379108.908,-892.578,-62.012,-283.203,-925.293
1742379108.912,-1000.0,-6.836,-152.344,-1000.0
1742379108.915,384.766,-27.344,324.219,399.902
1742379108.919,999.512,-79.102,478.027,999.512
1742379108.923,810.547,-92.285,75.684,792.969
1742379108.927,-597.168,-101.074,-436.035,-634.766
1742379108.931,-1000.0,-88.379,-393.555,-1000.0
1742379108.934,306.641,-53.711,259.766,370.605
1742379108.938,999.512,-78.125,475.098,999.512
1742379108.942,910.645,-117.676,155.762,935.547
1742379108.946,-421.875,-99.609,-380.859,-379.883
1742379108.95,-1000.0,-80.566,-497.07,-1000.0
1742379108.954,255.371,-49.316,237.793,333.496
1742379108.958,999.512,-50.293,531.25,999.512
1742379108.961,929.199,-64.941,155.762,971.68
1742379108.965,-270.508,-67.383,-384.277,-129.883
1742379108.969,-1000.0,-81.055,-550.293,-1000.0
1742379108.973,-224.121,-77.148,22.949,-64.941
1742379108.977,901.855,-62.988,395.508,956.055
1742379108.934,306.641,-53.711,259.766,370.605
1742379108.938,999.512,-78.125,475.098,999.512
1742379108.942,910.645,-117.676,155.762,935.547
1742379108.946,-421.875,-99.609,-380.859,-379.883
1742379108.95,-1000.0,-80.566,-497.07,-1000.0
1742379108.954,255.371,-49.316,237.793,333.496
1742379108.958,999.512,-50.293,531.25,999.512
1742379108.961,929.199,-64.941,155.762,971.68
1742379108.965,-270.508,-67.383,-384.277,-129.883
1742379108.969,-1000.0,-81.055,-550.293,-1000.0
1742379108.973,-224.121,-77.148,22.949,-64.941
1742379108.977,901.855,-62.988,395.508,956.055
1742379108.934,306.641,-53.711,259.766,370.605
1742379108.938,999.512,-78.125,475.098,999.512
1742379108.942,910.645,-117.676,155.762,935.547
1742379108.946,-421.875,-99.609,-380.859,-379.883
1742379108.95,-1000.0,-80.566,-497.07,-1000.0
1742379108.954,255.371,-49.316,237.793,333.496
1742379108.958,999.512,-50.293,531.25,999.512
1742379108.961,929.199,-64.941,155.762,971.68
1742379108.965,-270.508,-67.383,-384.277,-129.883
1742379108.969,-1000.0,-81.055,-550.293,-1000.0
1742379108.973,-224.121,-77.148,22.949,-64.941
1742379108.977,901.855,-62.988,395.508,956.055
1742379109.703,410.156,-65.918,308.594,410.645
1742379109.707,999.512,48.34,483.887,999.512
1742379109.711,830.078,-30.273,34.668,827.148
1742379109.715,-611.816,-145.02,-465.332,-617.188
1742379109.719,-1000.0,-117.676,-380.371,-1000.0
1742379109.723,441.406,-74.707,412.598,440.918
1742379109.727,999.512,-99.609,605.957,999.512
1742379109.73,837.402,-130.859,143.555,849.609
1742379109.734,-493.164,-131.348,-380.859,-473.633
1742379109.738,-1000.0,-109.375,-403.32,-1000.0
1742379109.742,62.012,-98.145,271.973,55.664
1742379109.746,999.512,-112.305,592.285,999.512
1742379108.934,306.641,-53.711,259.766,370.605
1742379108.938,999.512,-78.125,475.098,999.512
1742379108.942,910.645,-117.676,155.762,935.547
1742379108.946,-421.875,-99.609,-380.859,-379.883
1742379108.95,-1000.0,-80.566,-497.07,-1000.0
1742379108.954,255.371,-49.316,237.793,333.496
1742379108.958,999.512,-50.293,531.25,999.512
1742379108.961,929.199,-64.941,155.762,971.68
1742379108.965,-270.508,-67.383,-384.277,-129.883
1742379108.969,-1000.0,-81.055,-550.293,-1000.0
1742379108.973,-224.121,-77.148,22.949,-64.941
1742379108.977,901.855,-62.988,395.508,956.055
1742379108.934,306.641,-53.711,259.766,370.605
1742379108.938,999.512,-78.125,475.098,999.512
1742379108.942,910.645,-117.676,155.762,935.547
1742379108.946,-421.875,-99.609,-380.859,-379.883
1742379108.95,-1000.0,-80.566,-497.07,-1000.0
1742379108.954,255.371,-49.316,237.793,333.496
1742379108.958,999.512,-50.293,531.25,999.512
1742379108.961,929.199,-64.941,155.762,971.68
1742379108.965,-270.508,-67.383,-384.277,-129.883
1742379108.969,-1000.0,-81.055,-550.293,-1000.0
1742379108.973,-224.121,-77.148,22.949,-64.941
1742379108.977,901.855,-62.988,395.508,956.055
1742379108.934,306.641,-53.711,259.766,370.605
1742379108.938,999.512,-78.125,475.098,999.512
1742379108.942,910.645,-117.676,155.762,935.547
1742379108.946,-421.875,-99.609,-380.859,-379.883
1742379108.95,-1000.0,-80.566,-497.07,-1000.0
1742379108.954,255.371,-49.316,237.793,333.496
1742379108.958,999.512,-50.293,531.25,999.512
1742379108.961,929.199,-64.941,155.762,971.68
1742379108.965,-270.508,-67.383,-384.277,-129.883
1742379108.969,-1000.0,-81.055,-550.293,-1000.0
1742379108.973,-224.121,-77.148,22.949,-64.941
1742379108.977,901.855,-62.988,395.508,956.055
1742379108.934,306.641,-53.711,259.766,370.605
1742379108.938,999.512,-78.125,475.098,999.512
1742379108.942,910.645,-117.676,155.762,935.547
1742379108.946,-421.875,-99.609,-380.859,-379.883
1742379108.95,-1000.0,-80.566,-497.07,-1000.0
1742379108.954,255.371,-49.316,237.793,333.496
1742379108.958,999.512,-50.293,531.25,999.512
1742379108.961,929.199,-64.941,155.762,971.68
1742379108.965,-270.508,-67.383,-384.277,-129.883
1742379108.969,-1000.0,-81.055,-550.293,-1000.0
1742379108.973,-224.121,-77.148,22.949,-64.941
1742379108.977,901.855,-62.988,395.508,956.055
1742379108.992,999.512,-66.406,293.945,999.512
1742379108.996,468.262,-70.801,-253.418,550.781
1742379109.0,-1000.0,-57.129,-623.047,-1000.0
1742379109.004,-609.375,-69.336,-53.223,-499.023
1742379109.008,826.66,-47.852,385.254,886.23
1742379109.012,999.512,106.934,395.508,999.512
1742379109.016,623.535,8.301,-150.879,665.527
1742379109.019,-887.207,-123.535,-653.809,-862.793
1742379109.023,-921.387,-82.031,-201.172,-887.207
1742379109.027,582.52,-57.129,391.602,635.254
1742379109.031,999.512,-85.449,348.633,999.512
1742379109.035,530.273,-122.07,-220.703,527.344
1742379108.992,999.512,-66.406,293.945,999.512
1742379108.996,468.262,-70.801,-253.418,550.781
1742379109.0,-1000.0,-57.129,-623.047,-1000.0
1742379109.004,-609.375,-69.336,-53.223,-499.023
1742379109.008,826.66,-47.852,385.254,886.23
1742379109.012,999.512,106.934,395.508,999.512
1742379109.016,623.535,8.301,-150.879,665.527
1742379109.019,-887.207,-123.535,-653.809,-862.793
1742379109.023,-921.387,-82.031,-201.172,-887.207
1742379109.027,582.52,-57.129,391.602,635.254
1742379109.031,999.512,-85.449,348.633,999.512
1742379109.035,530.273,-122.07,-220.703,527.344
1742379109.704,-1000.0,-38.086,-539.062,-1000.0
1742379109.708,-884.277,-30.762,-172.363,-886.719
1742379109.712,527.344,-77.637,287.598,532.227
1742379109.716,999.512,-52.734,309.082,999.512
1742379109.72,500.0,16.602,-175.293,429.199
1742379109.724,-922.363,-46.387,-488.281,-941.895
1742379109.728,-983.398,-118.164,-208.008,-974.121
1742379109.731,445.312,-51.758,361.816,438.965
1742379109.735,999.512,152.344,497.559,999.512
1742379109.739,673.34,19.531,-19.531,631.348
1742379109.743,-811.035,-129.883,-459.473,-826.66
1742379109.747,-996.582,-76.66,-283.203,-1000.0
1742379108.992,999.512,-66.406,293.945,999.512
1742379108.996,468.262,-70.801,-253.418,550.781
1742379109.0,-1000.0,-57.129,-623.047,-1000.0
1742379109.004,-609.375,-69.336,-53.223,-499.023
1742379109.008,826.66,-47.852,385.254,886.23
1742379109.012,999.512,106.934,395.508,999.512
1742379109.016,623.535,8.301,-150.879,665.527
1742379109.019,-887.207,-123.535,-653.809,-862.793
1742379109.023,-921.387,-82.031,-201.172,-887.207
1742379109.027,582.52,-57.129,391.602,635.254
1742379109.031,999.512,-85.449,348.633,999.512
1742379109.035,530.273,-122.07,-220.703,527.344
1742379108.992,999.512,-66.406,293.945,999.512
1742379108.996,468.262,-70.801,-253.418,550.781
1742379109.0,-1000.0,-57.129,-623.047,-1000.0
1742379109.004,-609.375,-69.336,-53.223,-499.023
1742379109.008,826.66,-47.852,385.254,886.23
1742379109.012,999.512,106.934,395.508,999.512
1742379109.016,623.535,8.301,-150.879,665.527
1742379109.019,-887.207,-123.535,-653.809,-862.793
1742379109.023,-921.387,-82.031,-201.172,-887.207
1742379109.027,582.52,-57.129,391.602,635.254
1742379109.031,999.512,-85.449,348.633,999.512
1742379109.035,530.273,-122.07,-220.703,527.344
1742379108.992,999.512,-66.406,293.945,999.512
1742379108.996,468.262,-70.801,-253.418,550.781
1742379109.0,-1000.0,-57.129,-623.047,-1000.0
1742379109.004,-609.375,-69.336,-53.223,-499.023
1742379109.008,826.66,-47.852,385.254,886.23
1742379109.012,999.512,106.934,395.508,999.512
1742379109.016,623.535,8.301,-150.879,665.527
1742379109.019,-887.207,-123.535,-653.809,-862.793
1742379109.023,-921.387,-82.031,-201.172,-887.207
1742379109.027,582.52,-57.129,391.602,635.254
1742379109.031,999.512,-85.449,348.633,999.512
1742379109.035,530.273,-122.07,-220.703,527.344
1742379108.992,999.512,-66.406,293.945,999.512
1742379108.996,468.262,-70.801,-253.418,550.781
1742379109.0,-1000.0,-57.129,-623.047,-1000.0
1742379109.004,-609.375,-69.336,-53.223,-499.023
1742379109.008,826.66,-47.852,385.254,886.23
1742379109.012,999.512,106.934,395.508,999.512
1742379109.016,623.535,8.301,-150.879,665.527
1742379109.019,-887.207,-123.535,-653.809,-862.793
1742379109.023,-921.387,-82.031,-201.172,-887.207
1742379109.027,582.52,-57.129,391.602,635.254
1742379109.031,999.512,-85.449,348.633,999.512
1742379109.035,530.273,-122.07,-220.703,527.344
1742379108.992,999.512,-66.406,293.945,999.512
1742379108.996,468.262,-70.801,-253.418,550.781
1742379109.0,-1000.0,-57.129,-623.047,-1000.0
1742379109.004,-609.375,-69.336,-53.223,-499.023
1742379109.008,826.66,-47.852,385.254,886.23
1742379109.012,999.512,106.934,395.508,999.512
1742379109.016,623.535,8.301,-150.879,665.527
1742379109.019,-887.207,-123.535,-653.809,-862.793
1742379109.023,-921.387,-82.031,-201.172,-887.207
1742379109.027,582.52,-57.129,391.602,635.254
1742379109.031,999.512,-85.449,348.633,999.512
1742379109.035,530.273,-122.07,-220.703,527.344
1742379108.992,999.512,-66.406,293.945,999.512
1742379108.996,468.262,-70.801,-253.418,550.781
1742379109.0,-1000.0,-57.129,-623.047,-1000.0
1742379109.004,-609.375,-69.336,-53.223,-499.023
1742379109.008,826.66,-47.852,385.254,886.23
1742379109.012,999.512,106.934,395.508,999.512
1742379109.016,623.535,8.301,-150.879,665.527
1742379109.019,-887.207,-123.535,-653.809,-862.793
1742379109.023,-921.387,-82.031,-201.172,-887.207
1742379109.027,582.52,-57.129,391.602,635.254
1742379109.031,999.512,-85.449,348.633,999.512
1742379109.035,530.273,-122.07,-220.703,527.344
1742379108.992,999.512,-66.406,293.945,999.512
1742379108.996,468.262,-70.801,-253.418,550.781
1742379109.0,-1000.0,-57.129,-623.047,-1000.0
1742379109.004,-609.375,-69.336,-53.223,-499.023
1742379109.008,826.66,-47.852,385.254,886.23
1742379109.012,999.512,106.934,395.508,999.512
1742379109.016,623.535,8.301,-150.879,665.527
1742379109.019,-887.207,-123.535,-653.809,-862.793
1742379109.023,-921.387,-82.031,-201.172,-887.207
1742379109.027,582.52,-57.129,391.602,635.254
1742379109.031,999.512,-85.449,348.633,999.512
1742379109.035,530.273,-122.07,-220.703,527.344
1742379108.992,999.512,-66.406,293.945,999.512
1742379108.996,468.262,-70.801,-253.418,550.781
1742379109.0,-1000.0,-57.129,-623.047,-1000.0
1742379109.004,-609.375,-69.336,-53.223,-499.023
1742379109.008,826.66,-47.852,385.254,886.23
1742379109.012,999.512,106.934,395.508,999.512
1742379109.016,623.535,8.301,-150.879,665.527
1742379109.019,-887.207,-123.535,-653.809,-862.793
1742379109.023,-921.387,-82.031,-201.172,-887.207
1742379109.027,582.52,-57.129,391.602,635.254
1742379109.031,999.512,-85.449,348.633,999.512
1742379109.035,530.273,-122.07,-220.703,527.344
1742379108.992,999.512,-66.406,293.945,999.512
1742379108.996,468.262,-70.801,-253.418,550.781
1742379109.0,-1000.0,-57.129,-623.047,-1000.0
1742379109.004,-609.375,-69.336,-53.223,-499.023
1742379109.008,826.66,-47.852,385.254,886.23
1742379109.012,999.512,106.934,395.508,999.512
1742379109.016,623.535,8.301,-150.879,665.527
1742379109.019,-887.207,-123.535,-653.809,-862.793
1742379109.023,-921.387,-82.031,-201.172,-887.207
1742379109.027,582.52,-57.129,391.602,635.254
1742379109.031,999.512,-85.449,348.633,999.512
1742379109.035,530.273,-122.07,-220.703,527.344
1742379108.992,999.512,-66.406,293.945,999.512
1742379108.996,468.262,-70.801,-253.418,550.781
1742379109.0,-1000.0,-57.129,-623.047,-1000.0
1742379109.004,-609.375,-69.336,-53.223,-499.023
1742379109.008,826.66,-47.852,385.254,886.23
1742379109.012,999.512,106.934,395.508,999.512
1742379109.016,623.535,8.301,-150.879,665.527
1742379109.019,-887.207,-123.535,-653.809,-862.793
1742379109.023,-921.387,-82.031,-201.172,-887.207
1742379109.027,582.52,-57.129,391.602,635.254
1742379109.031,999.512,-85.449,348.633,999.512
1742379109.035,530.273,-122.07,-220.703,527.344
1742379108.992,999.512,-66.406,293.945,999.512
1742379108.996,468.262,-70.801,-253.418,550.781
1742379109.0,-1000.0,-57.129,-623.047,-1000.0
1742379109.004,-609.375,-69.336,-53.223,-499.023
1742379109.008,826.66,-47.852,385.254,886.23
1742379109.012,999.512,106.934,395.508,999.512
1742379109.016,623.535,8.301,-150.879,665.527
1742379109.019,-887.207,-123.535,-653.809,-862.793
1742379109.023,-921.387,-82.031,-201.172,-887.207
1742379109.027,582.52,-57.129,391.602,635.254
1742379109.031,999.512,-85.449,348.633,999.512
1742379109.035,530.273,-122.07,-220.703,527.344
1742379108.992,999.512,-66.406,293.945,999.512
1742379108.996,468.262,-70.801,-253.418,550.781
1742379109.0,-1000.0,-57.129,-623.047,-1000.0
1742379109.004,-609.375,-69.336,-53.223,-499.023
1742379109.008,826.66,-47.852,385.254,886.23
1742379109.012,999.512,106.934,395.508,999.512
1742379109.016,623.535,8.301,-150.879,665.527
1742379109.019,-887.207,-123.535,-653.809,-862.793
1742379109.023,-921.387,-82.031,-201.172,-887.207
1742379109.027,582.52,-57.129,391.602,635.254
1742379109.031,999.512,-85.449,348.633,999.512
1742379109.035,530.273,-122.07,-220.703,527.344
1742379108.992,999.512,-66.406,293.945,999.512
1742379108.996,468.262,-70.801,-253.418,550.781
1742379109.0,-1000.0,-57.129,-623.047,-1000.0
1742379109.004,-609.375,-69.336,-53.223,-499.023
1742379109.008,826.66,-47.852,385.254,886.23
1742379109.012,999.512,106.934,395.508,999.512
1742379109.016,623.535,8.301,-150.879,665.527
1742379109.019,-887.207,-123.535,-653.809,-862.793
1742379109.023,-921.387,-82.031,-201.172,-887.207
1742379109.027,582.52,-57.129,391.602,635.254
1742379109.031,999.512,-85.449,348.633,999.512
1742379109.035,530.273,-122.07,-220.703,527.344
1742379108.992,999.512,-66.406,293.945,999.512
1742379108.996,468.262,-70.801,-253.418,550.781
1742379109.0,-1000.0,-57.129,-623.047,-1000.0
1742379109.004,-609.375,-69.336,-53.223,-499.023
1742379109.008,826.66,-47.852,385.254,886.23
1742379109.012,999.512,106.934,395.508,999.512
1742379109.016,623.535,8.301,-150.879,665.527
1742379109.019,-887.207,-123.535,-653.809,-862.793
1742379109.023,-921.387,-82.031,-201.172,-887.207
1742379109.027,582.52,-57.129,391.602,635.254
1742379109.031,999.512,-85.449,348.633,999.512
1742379109.035,530.273,-122.07,-220.703,527.344
1742379108.992,999.512,-66.406,293.945,999.512
1742379108.996,468.262,-70.801,-253.418,550.781
1742379109.0,-1000.0,-57.129,-623.047,-1000.0
1742379109.004,-609.375,-69.336,-53.223,-499.023
1742379109.008,826.66,-47.852,385.254,886.23
1742379109.012,999.512,106.934,395.508,999.512
1742379109.016,623.535,8.301,-150.879,665.527
1742379109.019,-887.207,-123.535,-653.809,-862.793
1742379109.023,-921.387,-82.031,-201.172,-887.207
1742379109.027,582.52,-57.129,391.602,635.254
1742379109.031,999.512,-85.449,348.633,999.512
1742379109.035,530.273,-122.07,-220.703,527.344
1742379108.992,999.512,-66.406,293.945,999.512
1742379108.996,468.262,-70.801,-253.418,550.781
1742379109.0,-1000.0,-57.129,-623.047,-1000.0
1742379109.004,-609.375,-69.336,-53.223,-499.023
1742379109.008,826.66,-47.852,385.254,886.23
1742379109.012,999.512,106.934,395.508,999.512
1742379109.016,623.535,8.301,-150.879,665.527
1742379109.019,-887.207,-123.535,-653.809,-862.793
1742379109.023,-921.387,-82.031,-201.172,-887.207
1742379109.027,582.52,-57.129,391.602,635.254
1742379109.031,999.512,-85.449,348.633,999.512
1742379109.035,530.273,-122.07,-220.703,527.344
1742379108.992,999.512,-66.406,293.945,999.512
1742379108.996,468.262,-70.801,-253.418,550.781
1742379109.0,-1000.0,-57.129,-623.047,-1000.0
1742379109.004,-609.375,-69.336,-53.223,-499.023
1742379109.008,826.66,-47.852,385.254,886.23
1742379109.012,999.512,106.934,395.508,999.512
1742379109.016,623.535,8.301,-150.879,665.527
1742379109.019,-887.207,-123.535,-653.809,-862.793
1742379109.023,-921.387,-82.031,-201.172,-887.207
1742379109.027,582.52,-57.129,391.602,635.254
1742379109.031,999.512,-85.449,348.633,999.512
1742379109.035,530.273,-122.07,-220.703,527.344
1742379108.992,999.512,-66.406,293.945,999.512
1742379108.996,468.262,-70.801,-253.418,550.781
1742379109.0,-1000.0,-57.129,-623.047,-1000.0
1742379109.004,-609.375,-69.336,-53.223,-499.023
1742379109.008,826.66,-47.852,385.254,886.23
1742379109.012,999.512,106.934,395.508,999.512
1742379109.016,623.535,8.301,-150.879,665.527
1742379109.019,-887.207,-123.535,-653.809,-862.793
1742379109.023,-921.387,-82.031,-201.172,-887.207
1742379109.027,582.52,-57.129,391.602,635.254
1742379109.031,999.512,-85.449,348.633,999.512
1742379109.035,530.273,-122.07,-220.703,527.344
1742379108.992,999.512,-66.406,293.945,999.512
1742379108.996,468.262,-70.801,-253.418,550.781
1742379109.0,-1000.0,-57.129,-623.047,-1000.0
1742379109.004,-609.375,-69.336,-53.223,-499.023
1742379109.008,826.66,-47.852,385.254,886.23
1742379109.012,999.512,106.934,395.508,999.512
1742379109.016,623.535,8.301,-150.879,665.527
1742379109.019,-887.207,-123.535,-653.809,-862.793
1742379109.023,-921.387,-82.031,-201.172,-887.207
1742379109.027,582.52,-57.129,391.602,635.254
1742379109.031,999.512,-85.449,348.633,999.512
1742379109.035,530.273,-122.07,-220.703,527.344
1742379108.992,999.512,-66.406,293.945,999.512
1742379108.996,468.262,-70.801,-253.418,550.781
1742379109.0,-1000.0,-57.129,-623.047,-1000.0
1742379109.004,-609.375,-69.336,-53.223,-499.023
1742379109.008,826.66,-47.852,385.254,886.23
1742379109.012,999.512,106.934,395.508,999.512
1742379109.016,623.535,8.301,-150.879,665.527
1742379109.019,-887.207,-123.535,-653.809,-862.793
1742379109.023,-921.387,-82.031,-201.172,-887.207
1742379109.027,582.52,-57.129,391.602,635.254
1742379109.031,999.512,-85.449,348.633,999.512
1742379109.035,530.273,-122.07,-220.703,527.344
1742379108.992,999.512,-66.406,293.945,999.512
1742379108.996,468.262,-70.801,-253.418,550.781
1742379109.0,-1000.0,-57.129,-623.047,-1000.0
1742379109.004,-609.375,-69.336,-53.223,-499.023
1742379109.008,826.66,-47.852,385.254,886.23
1742379109.012,999.512,106.934,395.508,999.512
1742379109.016,623.535,8.301,-150.879,665.527
1742379109.019,-887.207,-123.535,-653.809,-862.793
1742379109.023,-921.387,-82.031,-201.172,-887.207
1742379109.027,582.52,-57.129,391.602,635.254
1742379109.031,999.512,-85.449,348.633,999.512
1742379109.035,530.273,-122.07,-220.703,527.344
1742379108.992,999.512,-66.406,293.945,999.512
1742379108.996,468.262,-70.801,-253.418,550.781
1742379109.0,-1000.0,-57.129,-623.047,-1000.0
1742379109.004,-609.375,-69.336,-53.223,-499.023
1742379109.008,826.66,-47.852,385.254,886.23
1742379109.012,999.512,106.934,395.508,999.512
1742379109.016,623.535,8.301,-150.879,665.527
1742379109.019,-887.207,-123.535,-653.809,-862.793
1742379109.023,-921.387,-82.031,-201.172,-887.207
1742379109.027,582.52,-57.129,391.602,635.254
1742379109.031,999.512,-85.449,348.633,999.512
1742379109.035,530.273,-122.07,-220.703,527.344
1742379108.992,999.512,-66.406,293.945,999.512
1742379108.996,468.262,-70.801,-253.418,550.781
1742379109.0,-1000.0,-57.129,-623.047,-1000.0
1742379109.004,-609.375,-69.336,-53.223,-499.023
1742379109.008,826.66,-47.852,385.254,886.23
1742379109.012,999.512,106.934,395.508,999.512
1742379109.016,623.535,8.301,-150.879,665.527
1742379109.019,-887.207,-123.535,-653.809,-862.793
1742379109.023,-921.387,-82.031,-201.172,-887.207
1742379109.027,582.52,-57.129,391.602,635.254
1742379109.031,999.512,-85.449,348.633,999.512
1742379109.035,530.273,-122.07,-220.703,527.344
1742379109.037,-929.199,-122.07,-647.461,-916.016
1742379109.041,-925.781,-77.637,-265.625,-925.781
1742379109.045,548.828,-96.68,305.664,553.223
1742379109.049,999.512,-118.652,325.684,999.512
1742379109.053,640.137,-126.465,-132.324,638.184
1742379109.057,-799.316,-143.066,-575.684,-799.805
1742379109.061,-1000.0,-130.371,-348.145,-1000.0
1742379109.064,363.281,-149.414,170.41,399.902
1742379109.068,999.512,-14.648,175.781,999.512
1742379109.072,735.352,110.352,-125.977,728.027
1742379109.076,-609.863,-88.867,-540.039,-620.605
1742379109.08,-1000.0,-154.297,-530.762,-1000.0
1742379109.037,-929.199,-122.07,-647.461,-916.016
1742379109.041,-925.781,-77.637,-265.625,-925.781
1742379109.045,548.828,-96.68,305.664,553.223
1742379109.049,999.512,-118.652,325.684,999.512
1742379109.053,640.137,-126.465,-132.324,638.184
1742379109.057,-799.316,-143.066,-575.684,-799.805
1742379109.061,-1000.0,-130.371,-348.145,-1000.0
1742379109.064,363.281,-149.414,170.41,399.902
1742379109.068,999.512,-14.648,175.781,999.512
1742379109.072,735.352,110.352,-125.977,728.027
1742379109.076,-609.863,-88.867,-540.039,-620.605
1742379109.08,-1000.0,-154.297,-530.762,-1000.0
1742379109.037,-929.199,-122.07,-647.461,-916.016
1742379109.041,-925.781,-77.637,-265.625,-925.781
1742379109.045,548.828,-96.68,305.664,553.223
1742379109.049,999.512,-118.652,325.684,999.512
1742379109.053,640.137,-126.465,-132.324,638.184
1742379109.057,-799.316,-143.066,-575.684,-799.805
1742379109.061,-1000.0,-130.371,-348.145,-1000.0
1742379109.064,363.281,-149.414,170.41,399.902
1742379109.068,999.512,-14.648,175.781,999.512
1742379109.072,735.352,110.352,-125.977,728.027
1742379109.076,-609.863,-88.867,-540.039,-620.605
1742379109.08,-1000.0,-154.297,-530.762,-1000.0
1742379109.037,-929.199,-122.07,-647.461,-916.016
1742379109.041,-925.781,-77.637,-265.625,-925.781
1742379109.045,548.828,-96.68,305.664,553.223
1742379109.049,999.512,-118.652,325.684,999.512
1742379109.053,640.137,-126.465,-132.324,638.184
1742379109.057,-799.316,-143.066,-575.684,-799.805
1742379109.061,-1000.0,-130.371,-348.145,-1000.0
1742379109.064,363.281,-149.414,170.41,399.902
1742379109.068,999.512,-14.648,175.781,999.512
1742379109.072,735.352,110.352,-125.977,728.027
1742379109.076,-609.863,-88.867,-540.039,-620.605
1742379109.08,-1000.0,-154.297,-530.762,-1000.0
1742379109.037,-929.199,-122.07,-647.461,-916.016
1742379109.041,-925.781,-77.637,-265.625,-925.781
1742379109.045,548.828,-96.68,305.664,553.223
1742379109.049,999.512,-118.652,325.684,999.512
1742379109.053,640.137,-126.465,-132.324,638.184
1742379109.057,-799.316,-143.066,-575.684,-799.805
1742379109.061,-1000.0,-130.371,-348.145,-1000.0
1742379109.064,363.281,-149.414,170.41,399.902
1742379109.068,999.512,-14.648,175.781,999.512
1742379109.072,735.352,110.352,-125.977,728.027
1742379109.076,-609.863,-88.867,-540.039,-620.605
1742379109.08,-1000.0,-154.297,-530.762,-1000.0
1742379109.037,-929.199,-122.07,-647.461,-916.016
1742379109.041,-925.781,-77.637,-265.625,-925.781
1742379109.045,548.828,-96.68,305.664,553.223
1742379109.049,999.512,-118.652,325.684,999.512
1742379109.053,640.137,-126.465,-132.324,638.184
1742379109.057,-799.316,-143.066,-575.684,-799.805
1742379109.061,-1000.0,-130.371,-348.145,-1000.0
1742379109.064,363.281,-149.414,170.41,399.902
1742379109.068,999.512,-14.648,175.781,999.512
1742379109.072,735.352,110.352,-125.977,728.027
1742379109.076,-609.863,-88.867,-540.039,-620.605
1742379109.08,-1000.0,-154.297,-530.762,-1000.0
1742379109.037,-929.199,-122.07,-647.461,-916.016
1742379109.041,-925.781,-77.637,-265.625,-925.781
1742379109.045,548.828,-96.68,305.664,553.223
1742379109.049,999.512,-118.652,325.684,999.512
1742379109.053,640.137,-126.465,-132.324,638.184
1742379109.057,-799.316,-143.066,-575.684,-799.805
1742379109.061,-1000.0,-130.371,-348.145,-1000.0
1742379109.064,363.281,-149.414,170.41,399.902
1742379109.068,999.512,-14.648,175.781,999.512
1742379109.072,735.352,110.352,-125.977,728.027
1742379109.076,-609.863,-88.867,-540.039,-620.605
1742379109.08,-1000.0,-154.297,-530.762,-1000.0
1742379109.037,-929.199,-122.07,-647.461,-916.016
1742379109.041,-925.781,-77.637,-265.625,-925.781
1742379109.045,548.828,-96.68,305.664,553.223
1742379109.049,999.512,-118.652,325.684,999.512
1742379109.053,640.137,-126.465,-132.324,638.184
1742379109.057,-799.316,-143.066,-575.684,-799.805
1742379109.061,-1000.0,-130.371,-348.145,-1000.0
1742379109.064,363.281,-149.414,170.41,399.902
1742379109.068,999.512,-14.648,175.781,999.512
1742379109.072,735.352,110.352,-125.977,728.027
1742379109.076,-609.863,-88.867,-540.039,-620.605
1742379109.08,-1000.0,-154.297,-530.762,-1000.0
1742379109.037,-929.199,-122.07,-647.461,-916.016
1742379109.041,-925.781,-77.637,-265.625,-925.781
1742379109.045,548.828,-96.68,305.664,553.223
1742379109.049,999.512,-118.652,325.684,999.512
1742379109.053,640.137,-126.465,-132.324,638.184
1742379109.057,-799.316,-143.066,-575.684,-799.805
1742379109.061,-1000.0,-130.371,-348.145,-1000.0
1742379109.064,363.281,-149.414,170.41,399.902
1742379109.068,999.512,-14.648,175.781,999.512
1742379109.072,735.352,110.352,-125.977,728.027
1742379109.076,-609.863,-88.867,-540.039,-620.605
1742379109.08,-1000.0,-154.297,-530.762,-1000.0
1742379109.037,-929.199,-122.07,-647.461,-916.016
1742379109.041,-925.781,-77.637,-265.625,-925.781
1742379109.045,548.828,-96.68,305.664,553.223
1742379109.049,999.512,-118.652,325.684,999.512
1742379109.053,640.137,-126.465,-132.324,638.184
1742379109.057,-799.316,-143.066,-575.684,-799.805
1742379109.061,-1000.0,-130.371,-348.145,-1000.0
1742379109.064,363.281,-149.414,170.41,399.902
1742379109.068,999.512,-14.648,175.781,999.512
1742379109.072,735.352,110.352,-125.977,728.027
1742379109.076,-609.863,-88.867,-540.039,-620.605
1742379109.08,-1000.0,-154.297,-530.762,-1000.0
1742379109.037,-929.199,-122.07,-647.461,-916.016
1742379109.041,-925.781,-77.637,-265.625,-925.781
1742379109.045,548.828,-96.68,305.664,553.223
1742379109.049,999.512,-118.652,325.684,999.512
1742379109.053,640.137,-126.465,-132.324,638.184
1742379109.057,-799.316,-143.066,-575.684,-799.805
1742379109.061,-1000.0,-130.371,-348.145,-1000.0
1742379109.064,363.281,-149.414,170.41,399.902
1742379109.068,999.512,-14.648,175.781,999.512
1742379109.072,735.352,110.352,-125.977,728.027
1742379109.076,-609.863,-88.867,-540.039,-620.605
1742379109.08,-1000.0,-154.297,-530.762,-1000.0
1742379109.037,-929.199,-122.07,-647.461,-916.016
1742379109.041,-925.781,-77.637,-265.625,-925.781
1742379109.045,548.828,-96.68,305.664,553.223
1742379109.049,999.512,-118.652,325.684,999.512
1742379109.053,640.137,-126.465,-132.324,638.184
1742379109.057,-799.316,-143.066,-575.684,-799.805
1742379109.061,-1000.0,-130.371,-348.145,-1000.0
1742379109.064,363.281,-149.414,170.41,399.902
1742379109.068,999.512,-14.648,175.781,999.512
1742379109.072,735.352,110.352,-125.977,728.027
1742379109.076,-609.863,-88.867,-540.039,-620.605
1742379109.08,-1000.0,-154.297,-530.762,-1000.0
1742379109.037,-929.199,-122.07,-647.461,-916.016
1742379109.041,-925.781,-77.637,-265.625,-925.781
1742379109.045,548.828,-96.68,305.664,553.223
1742379109.049,999.512,-118.652,325.684,999.512
1742379109.053,640.137,-126.465,-132.324,638.184
1742379109.057,-799.316,-143.066,-575.684,-799.805
1742379109.061,-1000.0,-130.371,-348.145,-1000.0
1742379109.064,363.281,-149.414,170.41,399.902
1742379109.068,999.512,-14.648,175.781,999.512
1742379109.072,735.352,110.352,-125.977,728.027
1742379109.076,-609.863,-88.867,-540.039,-620.605
1742379109.08,-1000.0,-154.297,-530.762,-1000.0
1742379109.037,-929.199,-122.07,-647.461,-916.016
1742379109.041,-925.781,-77.637,-265.625,-925.781
1742379109.045,548.828,-96.68,305.664,553.223
1742379109.049,999.512,-118.652,325.684,999.512
1742379109.053,640.137,-126.465,-132.324,638.184
1742379109.057,-799.316,-143.066,-575.684,-799.805
1742379109.061,-1000.0,-130.371,-348.145,-1000.0
1742379109.064,363.281,-149.414,170.41,399.902
1742379109.068,999.512,-14.648,175.781,999.512
1742379109.072,735.352,110.352,-125.977,728.027
1742379109.076,-609.863,-88.867,-540.039,-620.605
1742379109.08,-1000.0,-154.297,-530.762,-1000.0
1742379109.037,-929.199,-122.07,-647.461,-916.016
1742379109.041,-925.781,-77.637,-265.625,-925.781
1742379109.045,548.828,-96.68,305.664,553.223
1742379109.049,999.512,-118.652,325.684,999.512
1742379109.053,640.137,-126.465,-132.324,638.184
1742379109.057,-799.316,-143.066,-575.684,-799.805
1742379109.061,-1000.0,-130.371,-348.145,-1000.0
1742379109.064,363.281,-149.414,170.41,399.902
1742379109.068,999.512,-14.648,175.781,999.512
1742379109.072,735.352,110.352,-125.977,728.027
1742379109.076,-609.863,-88.867,-540.039,-620.605
1742379109.08,-1000.0,-154.297,-530.762,-1000.0
1742379109.037,-929.199,-122.07,-647.461,-916.016
1742379109.041,-925.781,-77.637,-265.625,-925.781
1742379109.045,548.828,-96.68,305.664,553.223
1742379109.049,999.512,-118.652,325.684,999.512
1742379109.053,640.137,-126.465,-132.324,638.184
1742379109.057,-799.316,-143.066,-575.684,-799.805
1742379109.061,-1000.0,-130.371,-348.145,-1000.0
1742379109.064,363.281,-149.414,170.41,399.902
1742379109.068,999.512,-14.648,175.781,999.512
1742379109.072,735.352,110.352,-125.977,728.027
1742379109.076,-609.863,-88.867,-540.039,-620.605
1742379109.08,-1000.0,-154.297,-530.762,-1000.0
1742379109.037,-929.199,-122.07,-647.461,-916.016
1742379109.041,-925.781,-77.637,-265.625,-925.781
1742379109.045,548.828,-96.68,305.664,553.223
1742379109.049,999.512,-118.652,325.684,999.512
1742379109.053,640.137,-126.465,-132.324,638.184
1742379109.057,-799.316,-143.066,-575.684,-799.805
1742379109.061,-1000.0,-130.371,-348.145,-1000.0
1742379109.064,363.281,-149.414,170.41,399.902
1742379109.068,999.512,-14.648,175.781,999.512
1742379109.072,735.352,110.352,-125.977,728.027
1742379109.076,-609.863,-88.867,-540.039,-620.605
1742379109.08,-1000.0,-154.297,-530.762,-1000.0
1742379109.037,-929.199,-122.07,-647.461,-916.016
1742379109.041,-925.781,-77.637,-265.625,-925.781
1742379109.045,548.828,-96.68,305.664,553.223
1742379109.049,999.512,-118.652,325.684,999.512
1742379109.053,640.137,-126.465,-132.324,638.184
1742379109.057,-799.316,-143.066,-575.684,-799.805
1742379109.061,-1000.0,-130.371,-348.145,-1000.0
1742379109.064,363.281,-149.414,170.41,399.902
1742379109.068,999.512,-14.648,175.781,999.512
1742379109.072,735.352,110.352,-125.977,728.027
1742379109.076,-609.863,-88.867,-540.039,-620.605
1742379109.08,-1000.0,-154.297,-530.762,-1000.0
1742379109.037,-929.199,-122.07,-647.461,-916.016
1742379109.041,-925.781,-77.637,-265.625,-925.781
1742379109.045,548.828,-96.68,305.664,553.223
1742379109.049,999.512,-118.652,325.684,999.512
1742379109.053,640.137,-126.465,-132.324,638.184
1742379109.057,-799.316,-143.066,-575.684,-799.805
1742379109.061,-1000.0,-130.371,-348.145,-1000.0
1742379109.064,363.281,-149.414,170.41,399.902
1742379109.068,999.512,-14.648,175.781,999.512
1742379109.072,735.352,110.352,-125.977,728.027
1742379109.076,-609.863,-88.867,-540.039,-620.605
1742379109.08,-1000.0,-154.297,-530.762,-1000.0
1742379109.037,-929.199,-122.07,-647.461,-916.016
1742379109.041,-925.781,-77.637,-265.625,-925.781
1742379109.045,548.828,-96.68,305.664,553.223
1742379109.049,999.512,-118.652,325.684,999.512
1742379109.053,640.137,-126.465,-132.324,638.184
1742379109.057,-799.316,-143.066,-575.684,-799.805
1742379109.061,-1000.0,-130.371,-348.145,-1000.0
1742379109.064,363.281,-149.414,170.41,399.902
1742379109.068,999.512,-14.648,175.781,999.512
1742379109.072,735.352,110.352,-125.977,728.027
1742379109.076,-609.863,-88.867,-540.039,-620.605
1742379109.08,-1000.0,-154.297,-530.762,-1000.0
1742379109.037,-929.199,-122.07,-647.461,-916.016
1742379109.041,-925.781,-77.637,-265.625,-925.781
1742379109.045,548.828,-96.68,305.664,553.223
1742379109.049,999.512,-118.652,325.684,999.512
1742379109.053,640.137,-126.465,-132.324,638.184
1742379109.057,-799.316,-143.066,-575.684,-799.805
1742379109.061,-1000.0,-130.371,-348.145,-1000.0
1742379109.064,363.281,-149.414,170.41,399.902
1742379109.068,999.512,-14.648,175.781,999.512
1742379109.072,735.352,110.352,-125.977,728.027
1742379109.076,-609.863,-88.867,-540.039,-620.605
1742379109.08,-1000.0,-154.297,-530.762,-1000.0
1742379109.037,-929.199,-122.07,-647.461,-916.016
1742379109.041,-925.781,-77.637,-265.625,-925.781
1742379109.045,548.828,-96.68,305.664,553.223
1742379109.049,999.512,-118.652,325.684,999.512
1742379109.053,640.137,-126.465,-132.324,638.184
1742379109.057,-799.316,-143.066,-575.684,-799.805
1742379109.061,-1000.0,-130.371,-348.145,-1000.0
1742379109.064,363.281,-149.414,170.41,399.902
1742379109.068,999.512,-14.648,175.781,999.512
1742379109.072,735.352,110.352,-125.977,728.027
1742379109.076,-609.863,-88.867,-540.039,-620.605
1742379109.08,-1000.0,-154.297,-530.762,-1000.0
1742379109.037,-929.199,-122.07,-647.461,-916.016
1742379109.041,-925.781,-77.637,-265.625,-925.781
1742379109.045,548.828,-96.68,305.664,553.223
1742379109.049,999.512,-118.652,325.684,999.512
1742379109.053,640.137,-126.465,-132.324,638.184
1742379109.057,-799.316,-143.066,-575.684,-799.805
1742379109.061,-1000.0,-130.371,-348.145,-1000.0
1742379109.064,363.281,-149.414,170.41,399.902
1742379109.068,999.512,-14.648,175.781,999.512
1742379109.072,735.352,110.352,-125.977,728.027
1742379109.076,-609.863,-88.867,-540.039,-620.605
1742379109.08,-1000.0,-154.297,-530.762,-1000.0
1742379109.037,-929.199,-122.07,-647.461,-916.016
1742379109.041,-925.781,-77.637,-265.625,-925.781
1742379109.045,548.828,-96.68,305.664,553.223
1742379109.049,999.512,-118.652,325.684,999.512
1742379109.053,640.137,-126.465,-132.324,638.184
1742379109.057,-799.316,-143.066,-575.684,-799.805
1742379109.061,-1000.0,-130.371,-348.145,-1000.0
1742379109.064,363.281,-149.414,170.41,399.902
1742379109.068,999.512,-14.648,175.781,999.512
1742379109.072,735.352,110.352,-125.977,728.027
1742379109.076,-609.863,-88.867,-540.039,-620.605
1742379109.08,-1000.0,-154.297,-530.762,-1000.0
1742379109.037,-929.199,-122.07,-647.461,-916.016
1742379109.041,-925.781,-77.637,-265.625,-925.781
1742379109.045,548.828,-96.68,305.664,553.223
1742379109.049,999.512,-118.652,325.684,999.512
1742379109.053,640.137,-126.465,-132.324,638.184
1742379109.057,-799.316,-143.066,-575.684,-799.805
1742379109.061,-1000.0,-130.371,-348.145,-1000.0
1742379109.064,363.281,-149.414,170.41,399.902
1742379109.068,999.512,-14.648,175.781,999.512
1742379109.072,735.352,110.352,-125.977,728.027
1742379109.076,-609.863,-88.867,-540.039,-620.605
1742379109.08,-1000.0,-154.297,-530.762,-1000.0
1742379109.037,-929.199,-122.07,-647.461,-916.016
1742379109.041,-925.781,-77.637,-265.625,-925.781
1742379109.045,548.828,-96.68,305.664,553.223
1742379109.049,999.512,-118.652,325.684,999.512
1742379109.053,640.137,-126.465,-132.324,638.184
1742379109.057,-799.316,-143.066,-575.684,-799.805
1742379109.061,-1000.0,-130.371,-348.145,-1000.0
1742379109.064,363.281,-149.414,170.41,399.902
1742379109.068,999.512,-14.648,175.781,999.512
1742379109.072,735.352,110.352,-125.977,728.027
1742379109.076,-609.863,-88.867,-540.039,-620.605
1742379109.08,-1000.0,-154.297,-530.762,-1000.0
1742379109.082,-146.973,-103.027,129.883,-116.699
1742379109.086,999.512,-112.305,430.176,999.512
1742379109.09,797.363,-145.508,-44.922,771.484
1742379109.094,-602.051,-148.926,-587.891,-628.418
1742379109.098,-1000.0,-108.887,-563.965,-1000.0
1742379109.102,-384.277,-112.305,104.98,-385.254
1742379109.106,977.051,-142.578,416.016,967.773
1742379109.109,859.863,-129.883,70.801,860.84
1742379109.113,-574.219,-6.836,-473.633,-577.637
1742379109.117,-1000.0,-46.387,-695.801,-1000.0
1742379109.121,-770.996,-141.602,-154.297,-770.508
1742379109.125,692.871,-116.699,294.922,691.406
1742379109.082,-146.973,-103.027,129.883,-116.699
1742379109.086,999.512,-112.305,430.176,999.512
1742379109.09,797.363,-145.508,-44.922,771.484
1742379109.094,-602.051,-148.926,-587.891,-628.418
1742379109.098,-1000.0,-108.887,-563.965,-1000.0
1742379109.102,-384.277,-112.305,104.98,-385.254
1742379109.106,977.051,-142.578,416.016,967.773
1742379109.109,859.863,-129.883,70.801,860.84
1742379109.113,-574.219,-6.836,-473.633,-577.637
1742379109.117,-1000.0,-46.387,-695.801,-1000.0
1742379109.121,-770.996,-141.602,-154.297,-770.508
1742379109.125,692.871,-116.699,294.922,691.406
1742379109.082,-146.973,-103.027,129.883,-116.699
1742379109.086,999.512,-112.305,430.176,999.512
1742379109.09,797.363,-145.508,-44.922,771.484
1742379109.094,-602.051,-148.926,-587.891,-628.418
1742379109.098,-1000.0,-108.887,-563.965,-1000.0
1742379109.102,-384.277,-112.305,104.98,-385.254
1742379109.106,977.051,-142.578,416.016,967.773
1742379109.109,859.863,-129.883,70.801,860.84
1742379109.113,-574.219,-6.836,-473.633,-577.637
1742379109.117,-1000.0,-46.387,-695.801,-1000.0
1742379109.121,-770.996,-141.602,-154.297,-770.508
1742379109.125,692.871,-116.699,294.922,691.406
1742379109.082,-146.973,-103.027,129.883,-116.699
1742379109.086,999.512,-112.305,430.176,999.512
1742379109.09,797.363,-145.508,-44.922,771.484
1742379109.094,-602.051,-148.926,-587.891,-628.418
1742379109.098,-1000.0,-108.887,-563.965,-1000.0
1742379109.102,-384.277,-112.305,104.98,-385.254
1742379109.106,977.051,-142.578,416.016,967.773
1742379109.109,859.863,-129.883,70.801,860.84
1742379109.113,-574.219,-6.836,-473.633,-577.637
1742379109.117,-1000.0,-46.387,-695.801,-1000.0
1742379109.121,-770.996,-141.602,-154.297,-770.508
1742379109.125,692.871,-116.699,294.922,691.406
1742379109.082,-146.973,-103.027,129.883,-116.699
1742379109.086,999.512,-112.305,430.176,999.512
1742379109.09,797.363,-145.508,-44.922,771.484
1742379109.094,-602.051,-148.926,-587.891,-628.418
1742379109.098,-1000.0,-108.887,-563.965,-1000.0
1742379109.102,-384.277,-112.305,104.98,-385.254
1742379109.106,977.051,-142.578,416.016,967.773
1742379109.109,859.863,-129.883,70.801,860.84
1742379109.113,-574.219,-6.836,-473.633,-577.637
1742379109.117,-1000.0,-46.387,-695.801,-1000.0
1742379109.121,-770.996,-141.602,-154.297,-770.508
1742379109.125,692.871,-116.699,294.922,691.406
1742379109.082,-146.973,-103.027,129.883,-116.699
1742379109.086,999.512,-112.305,430.176,999.512
1742379109.09,797.363,-145.508,-44.922,771.484
1742379109.094,-602.051,-148.926,-587.891,-628.418
1742379109.098,-1000.0,-108.887,-563.965,-1000.0
1742379109.102,-384.277,-112.305,104.98,-385.254
1742379109.106,977.051,-142.578,416.016,967.773
1742379109.109,859.863,-129.883,70.801,860.84
1742379109.113,-574.219,-6.836,-473.633,-577.637
1742379109.117,-1000.0,-46.387,-695.801,-1000.0
1742379109.121,-770.996,-141.602,-154.297,-770.508
1742379109.125,692.871,-116.699,294.922,691.406
1742379109.082,-146.973,-103.027,129.883,-116.699
1742379109.086,999.512,-112.305,430.176,999.512
1742379109.09,797.363,-145.508,-44.922,771.484
1742379109.094,-602.051,-148.926,-587.891,-628.418
1742379109.098,-1000.0,-108.887,-563.965,-1000.0
1742379109.102,-384.277,-112.305,104.98,-385.254
1742379109.106,977.051,-142.578,416.016,967.773
1742379109.109,859.863,-129.883,70.801,860.84
1742379109.113,-574.219,-6.836,-473.633,-577.637
1742379109.117,-1000.0,-46.387,-695.801,-1000.0
1742379109.121,-770.996,-141.602,-154.297,-770.508
1742379109.125,692.871,-116.699,294.922,691.406
1742379109.082,-146.973,-103.027,129.883,-116.699
1742379109.086,999.512,-112.305,430.176,999.512
1742379109.09,797.363,-145.508,-44.922,771.484
1742379109.094,-602.051,-148.926,-587.891,-628.418
1742379109.098,-1000.0,-108.887,-563.965,-1000.0
1742379109.102,-384.277,-112.305,104.98,-385.254
1742379109.106,977.051,-142.578,416.016,967.773
1742379109.109,859.863,-129.883,70.801,860.84
1742379109.113,-574.219,-6.836,-473.633,-577.637
1742379109.117,-1000.0,-46.387,-695.801,-1000.0
1742379109.121,-770.996,-141.602,-154.297,-770.508
1742379109.125,692.871,-116.699,294.922,691.406
1742379109.082,-146.973,-103.027,129.883,-116.699
1742379109.086,999.512,-112.305,430.176,999.512
1742379109.09,797.363,-145.508,-44.922,771.484
1742379109.094,-602.051,-148.926,-587.891,-628.418
1742379109.098,-1000.0,-108.887,-563.965,-1000.0
1742379109.102,-384.277,-112.305,104.98,-385.254
1742379109.106,977.051,-142.578,416.016,967.773
1742379109.109,859.863,-129.883,70.801,860.84
1742379109.113,-574.219,-6.836,-473.633,-577.637
1742379109.117,-1000.0,-46.387,-695.801,-1000.0
1742379109.121,-770.996,-141.602,-154.297,-770.508
1742379109.125,692.871,-116.699,294.922,691.406
1742379109.082,-146.973,-103.027,129.883,-116.699
1742379109.086,999.512,-112.305,430.176,999.512
1742379109.09,797.363,-145.508,-44.922,771.484
1742379109.094,-602.051,-148.926,-587.891,-628.418
1742379109.098,-1000.0,-108.887,-563.965,-1000.0
1742379109.102,-384.277,-112.305,104.98,-385.254
1742379109.106,977.051,-142.578,416.016,967.773
1742379109.109,859.863,-129.883,70.801,860.84
1742379109.113,-574.219,-6.836,-473.633,-577.637
1742379109.117,-1000.0,-46.387,-695.801,-1000.0
1742379109.121,-770.996,-141.602,-154.297,-770.508
1742379109.125,692.871,-116.699,294.922,691.406
1742379109.082,-146.973,-103.027,129.883,-116.699
1742379109.086,999.512,-112.305,430.176,999.512
1742379109.09,797.363,-145.508,-44.922,771.484
1742379109.094,-602.051,-148.926,-587.891,-628.418
1742379109.098,-1000.0,-108.887,-563.965,-1000.0
1742379109.102,-384.277,-112.305,104.98,-385.254
1742379109.106,977.051,-142.578,416.016,967.773
1742379109.109,859.863,-129.883,70.801,860.84
1742379109.113,-574.219,-6.836,-473.633,-577.637
1742379109.117,-1000.0,-46.387,-695.801,-1000.0
1742379109.121,-770.996,-141.602,-154.297,-770.508
1742379109.125,692.871,-116.699,294.922,691.406
1742379109.082,-146.973,-103.027,129.883,-116.699
1742379109.086,999.512,-112.305,430.176,999.512
1742379109.09,797.363,-145.508,-44.922,771.484
1742379109.094,-602.051,-148.926,-587.891,-628.418
1742379109.098,-1000.0,-108.887,-563.965,-1000.0
1742379109.102,-384.277,-112.305,104.98,-385.254
1742379109.106,977.051,-142.578,416.016,967.773
1742379109.109,859.863,-129.883,70.801,860.84
1742379109.113,-574.219,-6.836,-473.633,-577.637
1742379109.117,-1000.0,-46.387,-695.801,-1000.0
1742379109.121,-770.996,-141.602,-154.297,-770.508
1742379109.125,692.871,-116.699,294.922,691.406
1742379109.082,-146.973,-103.027,129.883,-116.699
1742379109.086,999.512,-112.305,430.176,999.512
1742379109.09,797.363,-145.508,-44.922,771.484
1742379109.094,-602.051,-148.926,-587.891,-628.418
1742379109.098,-1000.0,-108.887,-563.965,-1000.0
1742379109.102,-384.277,-112.305,104.98,-385.254
1742379109.106,977.051,-142.578,416.016,967.773
1742379109.109,859.863,-129.883,70.801,860.84
1742379109.113,-574.219,-6.836,-473.633,-577.637
1742379109.117,-1000.0,-46.387,-695.801,-1000.0
1742379109.121,-770.996,-141.602,-154.297,-770.508
1742379109.125,692.871,-116.699,294.922,691.406
1742379109.082,-146.973,-103.027,129.883,-116.699
1742379109.086,999.512,-112.305,430.176,999.512
1742379109.09,797.363,-145.508,-44.922,771.484
1742379109.094,-602.051,-148.926,-587.891,-628.418
1742379109.098,-1000.0,-108.887,-563.965,-1000.0
1742379109.102,-384.277,-112.305,104.98,-385.254
1742379109.106,977.051,-142.578,416.016,967.773
1742379109.109,859.863,-129.883,70.801,860.84
1742379109.113,-574.219,-6.836,-473.633,-577.637
1742379109.117,-1000.0,-46.387,-695.801,-1000.0
1742379109.121,-770.996,-141.602,-154.297,-770.508
1742379109.125,692.871,-116.699,294.922,691.406
1742379109.082,-146.973,-103.027,129.883,-116.699
1742379109.086,999.512,-112.305,430.176,999.512
1742379109.09,797.363,-145.508,-44.922,771.484
1742379109.094,-602.051,-148.926,-587.891,-628.418
1742379109.098,-1000.0,-108.887,-563.965,-1000.0
1742379109.102,-384.277,-112.305,104.98,-385.254
1742379109.106,977.051,-142.578,416.016,967.773
1742379109.109,859.863,-129.883,70.801,860.84
1742379109.113,-574.219,-6.836,-473.633,-577.637
1742379109.117,-1000.0,-46.387,-695.801,-1000.0
1742379109.121,-770.996,-141.602,-154.297,-770.508
1742379109.125,692.871,-116.699,294.922,691.406
1742379109.082,-146.973,-103.027,129.883,-116.699
1742379109.086,999.512,-112.305,430.176,999.512
1742379109.09,797.363,-145.508,-44.922,771.484
1742379109.094,-602.051,-148.926,-587.891,-628.418
1742379109.098,-1000.0,-108.887,-563.965,-1000.0
1742379109.102,-384.277,-112.305,104.98,-385.254
1742379109.106,977.051,-142.578,416.016,967.773
1742379109.109,859.863,-129.883,70.801,860.84
1742379109.113,-574.219,-6.836,-473.633,-577.637
1742379109.117,-1000.0,-46.387,-695.801,-1000.0
1742379109.121,-770.996,-141.602,-154.297,-770.508
1742379109.125,692.871,-116.699,294.922,691.406
1742379109.082,-146.973,-103.027,129.883,-116.699
1742379109.086,999.512,-112.305,430.176,999.512
1742379109.09,797.363,-145.508,-44.922,771.484
1742379109.094,-602.051,-148.926,-587.891,-628.418
1742379109.098,-1000.0,-108.887,-563.965,-1000.0
1742379109.102,-384.277,-112.305,104.98,-385.254
1742379109.106,977.051,-142.578,416.016,967.773
1742379109.109,859.863,-129.883,70.801,860.84
1742379109.113,-574.219,-6.836,-473.633,-577.637
1742379109.117,-1000.0,-46.387,-695.801,-1000.0
1742379109.121,-770.996,-141.602,-154.297,-770.508
1742379109.125,692.871,-116.699,294.922,691.406
1742379109.082,-146.973,-103.027,129.883,-116.699
1742379109.086,999.512,-112.305,430.176,999.512
1742379109.09,797.363,-145.508,-44.922,771.484
1742379109.094,-602.051,-148.926,-587.891,-628.418
1742379109.098,-1000.0,-108.887,-563.965,-1000.0
1742379109.102,-384.277,-112.305,104.98,-385.254
1742379109.106,977.051,-142.578,416.016,967.773
1742379109.109,859.863,-129.883,70.801,860.84
1742379109.113,-574.219,-6.836,-473.633,-577.637
1742379109.117,-1000.0,-46.387,-695.801,-1000.0
1742379109.121,-770.996,-141.602,-154.297,-770.508
1742379109.125,692.871,-116.699,294.922,691.406
1742379109.082,-146.973,-103.027,129.883,-116.699
1742379109.086,999.512,-112.305,430.176,999.512
1742379109.09,797.363,-145.508,-44.922,771.484
1742379109.094,-602.051,-148.926,-587.891,-628.418
1742379109.098,-1000.0,-108.887,-563.965,-1000.0
1742379109.102,-384.277,-112.305,104.98,-385.254
1742379109.106,977.051,-142.578,416.016,967.773
1742379109.109,859.863,-129.883,70.801,860.84
1742379109.113,-574.219,-6.836,-473.633,-577.637
1742379109.117,-1000.0,-46.387,-695.801,-1000.0
1742379109.121,-770.996,-141.602,-154.297,-770.508
1742379109.125,692.871,-116.699,294.922,691.406
1742379109.082,-146.973,-103.027,129.883,-116.699
1742379109.086,999.512,-112.305,430.176,999.512
1742379109.09,797.363,-145.508,-44.922,771.484
1742379109.094,-602.051,-148.926,-587.891,-628.418
1742379109.098,-1000.0,-108.887,-563.965,-1000.0
1742379109.102,-384.277,-112.305,104.98,-385.254
1742379109.106,977.051,-142.578,416.016,967.773
1742379109.109,859.863,-129.883,70.801,860.84
1742379109.113,-574.219,-6.836,-473.633,-577.637
1742379109.117,-1000.0,-46.387,-695.801,-1000.0
1742379109.121,-770.996,-141.602,-154.297,-770.508
1742379109.125,692.871,-116.699,294.922,691.406
1742379109.082,-146.973,-103.027,129.883,-116.699
1742379109.086,999.512,-112.305,430.176,999.512
1742379109.09,797.363,-145.508,-44.922,771.484
1742379109.094,-602.051,-148.926,-587.891,-628.418
1742379109.098,-1000.0,-108.887,-563.965,-1000.0
1742379109.102,-384.277,-112.305,104.98,-385.254
1742379109.106,977.051,-142.578,416.016,967.773
1742379109.109,859.863,-129.883,70.801,860.84
1742379109.113,-574.219,-6.836,-473.633,-577.637
1742379109.117,-1000.0,-46.387,-695.801,-1000.0
1742379109.121,-770.996,-141.602,-154.297,-770.508
1742379109.125,692.871,-116.699,294.922,691.406
1742379109.082,-146.973,-103.027,129.883,-116.699
1742379109.086,999.512,-112.305,430.176,999.512
1742379109.09,797.363,-145.508,-44.922,771.484
1742379109.094,-602.051,-148.926,-587.891,-628.418
1742379109.098,-1000.0,-108.887,-563.965,-1000.0
1742379109.102,-384.277,-112.305,104.98,-385.254
1742379109.106,977.051,-142.578,416.016,967.773
1742379109.109,859.863,-129.883,70.801,860.84
1742379109.113,-574.219,-6.836,-473.633,-577.637
1742379109.117,-1000.0,-46.387,-695.801,-1000.0
1742379109.121,-770.996,-141.602,-154.297,-770.508
1742379109.125,692.871,-116.699,294.922,691.406
1742379109.082,-146.973,-103.027,129.883,-116.699
1742379109.086,999.512,-112.305,430.176,999.512
1742379109.09,797.363,-145.508,-44.922,771.484
1742379109.094,-602.051,-148.926,-587.891,-628.418
1742379109.098,-1000.0,-108.887,-563.965,-1000.0
1742379109.102,-384.277,-112.305,104.98,-385.254
1742379109.106,977.051,-142.578,416.016,967.773
1742379109.109,859.863,-129.883,70.801,860.84
1742379109.113,-574.219,-6.836,-473.633,-577.637
1742379109.117,-1000.0,-46.387,-695.801,-1000.0
1742379109.121,-770.996,-141.602,-154.297,-770.508
1742379109.125,692.871,-116.699,294.922,691.406
1742379109.082,-146.973,-103.027,129.883,-116.699
1742379109.086,999.512,-112.305,430.176,999.512
1742379109.09,797.363,-145.508,-44.922,771.484
1742379109.094,-602.051,-148.926,-587.891,-628.418
1742379109.098,-1000.0,-108.887,-563.965,-1000.0
1742379109.102,-384.277,-112.305,104.98,-385.254
1742379109.106,977.051,-142.578,416.016,967.773
1742379109.109,859.863,-129.883,70.801,860.84
1742379109.113,-574.219,-6.836,-473.633,-577.637
1742379109.117,-1000.0,-46.387,-695.801,-1000.0
1742379109.121,-770.996,-141.602,-154.297,-770.508
1742379109.125,692.871,-116.699,294.922,691.406
1742379109.082,-146.973,-103.027,129.883,-116.699
1742379109.086,999.512,-112.305,430.176,999.512
1742379109.09,797.363,-145.508,-44.922,771.484
1742379109.094,-602.051,-148.926,-587.891,-628.418
1742379109.098,-1000.0,-108.887,-563.965,-1000.0
1742379109.102,-384.277,-112.305,104.98,-385.254
1742379109.106,977.051,-142.578,416.016,967.773
1742379109.109,859.863,-129.883,70.801,860.84
1742379109.113,-574.219,-6.836,-473.633,-577.637
1742379109.117,-1000.0,-46.387,-695.801,-1000.0
1742379109.121,-770.996,-141.602,-154.297,-770.508
1742379109.125,692.871,-116.699,294.922,691.406
1742379109.082,-146.973,-103.027,129.883,-116.699
1742379109.086,999.512,-112.305,430.176,999.512
1742379109.09,797.363,-145.508,-44.922,771.484
1742379109.094,-602.051,-148.926,-587.891,-628.418
1742379109.098,-1000.0,-108.887,-563.965,-1000.0
1742379109.102,-384.277,-112.305,104.98,-385.254
1742379109.106,977.051,-142.578,416.016,967.773
1742379109.109,859.863,-129.883,70.801,860.84
1742379109.113,-574.219,-6.836,-473.633,-577.637
1742379109.117,-1000.0,-46.387,-695.801,-1000.0
1742379109.121,-770.996,-141.602,-154.297,-770.508
1742379109.125,692.871,-116.699,294.922,691.406
1742379109.127,999.512,-115.234,146.484,994.629
1742379109.131,-484.863,-146.973,-457.031,-509.277
1742379109.135,-1000.0,-155.273,-687.012,-1000.0
1742379109.139,-743.652,-116.699,-138.672,-756.348
1742379109.143,634.277,-85.449,322.266,622.07
1742379109.147,999.512,-92.773,340.82,999.512
1742379109.151,-95.703,-145.02,-226.562,-128.418
1742379109.154,-1000.0,-18.066,-707.52,-1000.0
1742379109.158,-832.52,81.055,-270.02,-820.801
1742379109.162,510.742,-71.289,338.867,535.645
1742379109.166,999.512,-106.934,345.703,999.512
1742379109.17,389.16,-9.277,-240.234,310.547
1742379109.127,999.512,-115.234,146.484,994.629
1742379109.131,-484.863,-146.973,-457.031,-509.277
1742379109.135,-1000.0,-155.273,-687.012,-1000.0
1742379109.139,-743.652,-116.699,-138.672,-756.348
1742379109.143,634.277,-85.449,322.266,622.07
1742379109.147,999.512,-92.773,340.82,999.512
1742379109.151,-95.703,-145.02,-226.562,-128.418
1742379109.154,-1000.0,-18.066,-707.52,-1000.0
1742379109.158,-832.52,81.055,-270.02,-820.801
1742379109.162,510.742,-71.289,338.867,535.645
1742379109.166,999.512,-106.934,345.703,999.512
1742379109.17,389.16,-9.277,-240.234,310.547
1742379109.127,999.512,-115.234,146.484,994.629
1742379109.131,-484.863,-146.973,-457.031,-509.277
1742379109.135,-1000.0,-155.273,-687.012,-1000.0
1742379109.139,-743.652,-116.699,-138.672,-756.348
1742379109.143,634.277,-85.449,322.266,622.07
1742379109.147,999.512,-92.773,340.82,999.512
1742379109.151,-95.703,-145.02,-226.562,-128.418
1742379109.154,-1000.0,-18.066,-707.52,-1000.0
1742379109.158,-832.52,81.055,-270.02,-820.801
1742379109.162,510.742,-71.289,338.867,535.645
1742379109.166,999.512,-106.934,345.703,999.512
1742379109.17,389.16,-9.277,-240.234,310.547
1742379109.127,999.512,-115.234,146.484,994.629
1742379109.131,-484.863,-146.973,-457.031,-509.277
1742379109.135,-1000.0,-155.273,-687.012,-1000.0
1742379109.139,-743.652,-116.699,-138.672,-756.348
1742379109.143,634.277,-85.449,322.266,622.07
1742379109.147,999.512,-92.773,340.82,999.512
1742379109.151,-95.703,-145.02,-226.562,-128.418
1742379109.154,-1000.0,-18.066,-707.52,-1000.0
1742379109.158,-832.52,81.055,-270.02,-820.801
1742379109.162,510.742,-71.289,338.867,535.645
1742379109.166,999.512,-106.934,345.703,999.512
1742379109.17,389.16,-9.277,-240.234,310.547
1742379109.127,999.512,-115.234,146.484,994.629
1742379109.131,-484.863,-146.973,-457.031,-509.277
1742379109.135,-1000.0,-155.273,-687.012,-1000.0
1742379109.139,-743.652,-116.699,-138.672,-756.348
1742379109.143,634.277,-85.449,322.266,622.07
1742379109.147,999.512,-92.773,340.82,999.512
1742379109.151,-95.703,-145.02,-226.562,-128.418
1742379109.154,-1000.0,-18.066,-707.52,-1000.0
1742379109.158,-832.52,81.055,-270.02,-820.801
1742379109.162,510.742,-71.289,338.867,535.645
1742379109.166,999.512,-106.934,345.703,999.512
1742379109.17,389.16,-9.277,-240.234,310.547
1742379109.127,999.512,-115.234,146.484,994.629
1742379109.131,-484.863,-146.973,-457.031,-509.277
1742379109.135,-1000.0,-155.273,-687.012,-1000.0
1742379109.139,-743.652,-116.699,-138.672,-756.348
1742379109.143,634.277,-85.449,322.266,622.07
1742379109.147,999.512,-92.773,340.82,999.512
1742379109.151,-95.703,-145.02,-226.562,-128.418
1742379109.154,-1000.0,-18.066,-707.52,-1000.0
1742379109.158,-832.52,81.055,-270.02,-820.801
1742379109.162,510.742,-71.289,338.867,535.645
1742379109.166,999.512,-106.934,345.703,999.512
1742379109.17,389.16,-9.277,-240.234,310.547
1742379109.127,999.512,-115.234,146.484,994.629
1742379109.131,-484.863,-146.973,-457.031,-509.277
1742379109.135,-1000.0,-155.273,-687.012,-1000.0
1742379109.139,-743.652,-116.699,-138.672,-756.348
1742379109.143,634.277,-85.449,322.266,622.07
1742379109.147,999.512,-92.773,340.82,999.512
1742379109.151,-95.703,-145.02,-226.562,-128.418
1742379109.154,-1000.0,-18.066,-707.52,-1000.0
1742379109.158,-832.52,81.055,-270.02,-820.801
1742379109.162,510.742,-71.289,338.867,535.645
1742379109.166,999.512,-106.934,345.703,999.512
1742379109.17,389.16,-9.277,-240.234,310.547
1742379109.127,999.512,-115.234,146.484,994.629
1742379109.131,-484.863,-146.973,-457.031,-509.277
1742379109.135,-1000.0,-155.273,-687.012,-1000.0
1742379109.139,-743.652,-116.699,-138.672,-756.348
1742379109.143,634.277,-85.449,322.266,622.07
1742379109.147,999.512,-92.773,340.82,999.512
1742379109.151,-95.703,-145.02,-226.562,-128.418
1742379109.154,-1000.0,-18.066,-707.52,-1000.0
1742379109.158,-832.52,81.055,-270.02,-820.801
1742379109.162,510.742,-71.289,338.867,535.645
1742379109.166,999.512,-106.934,345.703,999.512
1742379109.17,389.16,-9.277,-240.234,310.547
1742379109.127,999.512,-115.234,146.484,994.629
1742379109.131,-484.863,-146.973,-457.031,-509.277
1742379109.135,-1000.0,-155.273,-687.012,-1000.0
1742379109.139,-743.652,-116.699,-138.672,-756.348
1742379109.143,634.277,-85.449,322.266,622.07
1742379109.147,999.512,-92.773,340.82,999.512
1742379109.151,-95.703,-145.02,-226.562,-128.418
1742379109.154,-1000.0,-18.066,-707.52,-1000.0
1742379109.158,-832.52,81.055,-270.02,-820.801
1742379109.162,510.742,-71.289,338.867,535.645
1742379109.166,999.512,-106.934,345.703,999.512
1742379109.17,389.16,-9.277,-240.234,310.547
1742379109.127,999.512,-115.234,146.484,994.629
1742379109.131,-484.863,-146.973,-457.031,-509.277
1742379109.135,-1000.0,-155.273,-687.012,-1000.0
1742379109.139,-743.652,-116.699,-138.672,-756.348
1742379109.143,634.277,-85.449,322.266,622.07
1742379109.147,999.512,-92.773,340.82,999.512
1742379109.151,-95.703,-145.02,-226.562,-128.418
1742379109.154,-1000.0,-18.066,-707.52,-1000.0
1742379109.158,-832.52,81.055,-270.02,-820.801
1742379109.162,510.742,-71.289,338.867,535.645
1742379109.166,999.512,-106.934,345.703,999.512
1742379109.17,389.16,-9.277,-240.234,310.547
1742379109.127,999.512,-115.234,146.484,994.629
1742379109.131,-484.863,-146.973,-457.031,-509.277
1742379109.135,-1000.0,-155.273,-687.012,-1000.0
1742379109.139,-743.652,-116.699,-138.672,-756.348
1742379109.143,634.277,-85.449,322.266,622.07
1742379109.147,999.512,-92.773,340.82,999.512
1742379109.151,-95.703,-145.02,-226.562,-128.418
1742379109.154,-1000.0,-18.066,-707.52,-1000.0
1742379109.158,-832.52,81.055,-270.02,-820.801
1742379109.162,510.742,-71.289,338.867,535.645
1742379109.166,999.512,-106.934,345.703,999.512
1742379109.17,389.16,-9.277,-240.234,310.547
1742379109.127,999.512,-115.234,146.484,994.629
1742379109.131,-484.863,-146.973,-457.031,-509.277
1742379109.135,-1000.0,-155.273,-687.012,-1000.0
1742379109.139,-743.652,-116.699,-138.672,-756.348
1742379109.143,634.277,-85.449,322.266,622.07
1742379109.147,999.512,-92.773,340.82,999.512
1742379109.151,-95.703,-145.02,-226.562,-128.418
1742379109.154,-1000.0,-18.066,-707.52,-1000.0
1742379109.158,-832.52,81.055,-270.02,-820.801
1742379109.162,510.742,-71.289,338.867,535.645
1742379109.166,999.512,-106.934,345.703,999.512
1742379109.17,389.16,-9.277,-240.234,310.547
1742379109.127,999.512,-115.234,146.484,994.629
1742379109.131,-484.863,-146.973,-457.031,-509.277
1742379109.135,-1000.0,-155.273,-687.012,-1000.0
1742379109.139,-743.652,-116.699,-138.672,-756.348
1742379109.143,634.277,-85.449,322.266,622.07
1742379109.147,999.512,-92.773,340.82,999.512
1742379109.151,-95.703,-145.02,-226.562,-128.418
1742379109.154,-1000.0,-18.066,-707.52,-1000.0
1742379109.158,-832.52,81.055,-270.02,-820.801
1742379109.162,510.742,-71.289,338.867,535.645
1742379109.166,999.512,-106.934,345.703,999.512
1742379109.17,389.16,-9.277,-240.234,310.547
1742379109.127,999.512,-115.234,146.484,994.629
1742379109.131,-484.863,-146.973,-457.031,-509.277
1742379109.135,-1000.0,-155.273,-687.012,-1000.0
1742379109.139,-743.652,-116.699,-138.672,-756.348
1742379109.143,634.277,-85.449,322.266,622.07
1742379109.147,999.512,-92.773,340.82,999.512
1742379109.151,-95.703,-145.02,-226.562,-128.418
1742379109.154,-1000.0,-18.066,-707.52,-1000.0
1742379109.158,-832.52,81.055,-270.02,-820.801
1742379109.162,510.742,-71.289,338.867,535.645
1742379109.166,999.512,-106.934,345.703,999.512
1742379109.17,389.16,-9.277,-240.234,310.547
1742379109.127,999.512,-115.234,146.484,994.629
1742379109.131,-484.863,-146.973,-457.031,-509.277
1742379109.135,-1000.0,-155.273,-687.012,-1000.0
1742379109.139,-743.652,-116.699,-138.672,-756.348
1742379109.143,634.277,-85.449,322.266,622.07
1742379109.147,999.512,-92.773,340.82,999.512
1742379109.151,-95.703,-145.02,-226.562,-128.418
1742379109.154,-1000.0,-18.066,-707.52,-1000.0
1742379109.158,-832.52,81.055,-270.02,-820.801
1742379109.162,510.742,-71.289,338.867,535.645
1742379109.166,999.512,-106.934,345.703,999.512
1742379109.17,389.16,-9.277,-240.234,310.547
1742379109.127,999.512,-115.234,146.484,994.629
1742379109.131,-484.863,-146.973,-457.031,-509.277
1742379109.135,-1000.0,-155.273,-687.012,-1000.0
1742379109.139,-743.652,-116.699,-138.672,-756.348
1742379109.143,634.277,-85.449,322.266,622.07
1742379109.147,999.512,-92.773,340.82,999.512
1742379109.151,-95.703,-145.02,-226.562,-128.418
1742379109.154,-1000.0,-18.066,-707.52,-1000.0
1742379109.158,-832.52,81.055,-270.02,-820.801
1742379109.162,510.742,-71.289,338.867,535.645
1742379109.166,999.512,-106.934,345.703,999.512
1742379109.17,389.16,-9.277,-240.234,310.547
1742379109.127,999.512,-115.234,146.484,994.629
1742379109.131,-484.863,-146.973,-457.031,-509.277
1742379109.135,-1000.0,-155.273,-687.012,-1000.0
1742379109.139,-743.652,-116.699,-138.672,-756.348
1742379109.143,634.277,-85.449,322.266,622.07
1742379109.147,999.512,-92.773,340.82,999.512
1742379109.151,-95.703,-145.02,-226.562,-128.418
1742379109.154,-1000.0,-18.066,-707.52,-1000.0
1742379109.158,-832.52,81.055,-270.02,-820.801
1742379109.162,510.742,-71.289,338.867,535.645
1742379109.166,999.512,-106.934,345.703,999.512
1742379109.17,389.16,-9.277,-240.234,310.547
1742379109.127,999.512,-115.234,146.484,994.629
1742379109.131,-484.863,-146.973,-457.031,-509.277
1742379109.135,-1000.0,-155.273,-687.012,-1000.0
1742379109.139,-743.652,-116.699,-138.672,-756.348
1742379109.143,634.277,-85.449,322.266,622.07
1742379109.147,999.512,-92.773,340.82,999.512
1742379109.151,-95.703,-145.02,-226.562,-128.418
1742379109.154,-1000.0,-18.066,-707.52,-1000.0
1742379109.158,-832.52,81.055,-270.02,-820.801
1742379109.162,510.742,-71.289,338.867,535.645
1742379109.166,999.512,-106.934,345.703,999.512
1742379109.17,389.16,-9.277,-240.234,310.547
1742379109.127,999.512,-115.234,146.484,994.629
1742379109.131,-484.863,-146.973,-457.031,-509.277
1742379109.135,-1000.0,-155.273,-687.012,-1000.0
1742379109.139,-743.652,-116.699,-138.672,-756.348
1742379109.143,634.277,-85.449,322.266,622.07
1742379109.147,999.512,-92.773,340.82,999.512
1742379109.151,-95.703,-145.02,-226.562,-128.418
1742379109.154,-1000.0,-18.066,-707.52,-1000.0
1742379109.158,-832.52,81.055,-270.02,-820.801
1742379109.162,510.742,-71.289,338.867,535.645
1742379109.166,999.512,-106.934,345.703,999.512
1742379109.17,389.16,-9.277,-240.234,310.547
1742379109.127,999.512,-115.234,146.484,994.629
1742379109.131,-484.863,-146.973,-457.031,-509.277
1742379109.135,-1000.0,-155.273,-687.012,-1000.0
1742379109.139,-743.652,-116.699,-138.672,-756.348
1742379109.143,634.277,-85.449,322.266,622.07
1742379109.147,999.512,-92.773,340.82,999.512
1742379109.151,-95.703,-145.02,-226.562,-128.418
1742379109.154,-1000.0,-18.066,-707.52,-1000.0
1742379109.158,-832.52,81.055,-270.02,-820.801
1742379109.162,510.742,-71.289,338.867,535.645
1742379109.166,999.512,-106.934,345.703,999.512
1742379109.17,389.16,-9.277,-240.234,310.547
1742379109.127,999.512,-115.234,146.484,994.629
1742379109.131,-484.863,-146.973,-457.031,-509.277
1742379109.135,-1000.0,-155.273,-687.012,-1000.0
1742379109.139,-743.652,-116.699,-138.672,-756.348
1742379109.143,634.277,-85.449,322.266,622.07
1742379109.147,999.512,-92.773,340.82,999.512
1742379109.151,-95.703,-145.02,-226.562,-128.418
1742379109.154,-1000.0,-18.066,-707.52,-1000.0
1742379109.158,-832.52,81.055,-270.02,-820.801
1742379109.162,510.742,-71.289,338.867,535.645
1742379109.166,999.512,-106.934,345.703,999.512
1742379109.17,389.16,-9.277,-240.234,310.547
1742379109.127,999.512,-115.234,146.484,994.629
1742379109.131,-484.863,-146.973,-457.031,-509.277
1742379109.135,-1000.0,-155.273,-687.012,-1000.0
1742379109.139,-743.652,-116.699,-138.672,-756.348
1742379109.143,634.277,-85.449,322.266,622.07
1742379109.147,999.512,-92.773,340.82,999.512
1742379109.151,-95.703,-145.02,-226.562,-128.418
1742379109.154,-1000.0,-18.066,-707.52,-1000.0
1742379109.158,-832.52,81.055,-270.02,-820.801
1742379109.162,510.742,-71.289,338.867,535.645
1742379109.166,999.512,-106.934,345.703,999.512
1742379109.17,389.16,-9.277,-240.234,310.547
1742379109.127,999.512,-115.234,146.484,994.629
1742379109.131,-484.863,-146.973,-457.031,-509.277
1742379109.135,-1000.0,-155.273,-687.012,-1000.0
1742379109.139,-743.652,-116.699,-138.672,-756.348
1742379109.143,634.277,-85.449,322.266,622.07
1742379109.147,999.512,-92.773,340.82,999.512
1742379109.151,-95.703,-145.02,-226.562,-128.418
1742379109.154,-1000.0,-18.066,-707.52,-1000.0
1742379109.158,-832.52,81.055,-270.02,-820.801
1742379109.162,510.742,-71.289,338.867,535.645
1742379109.166,999.512,-106.934,345.703,999.512
1742379109.17,389.16,-9.277,-240.234,310.547
1742379109.127,999.512,-115.234,146.484,994.629
1742379109.131,-484.863,-146.973,-457.031,-509.277
1742379109.135,-1000.0,-155.273,-687.012,-1000.0
1742379109.139,-743.652,-116.699,-138.672,-756.348
1742379109.143,634.277,-85.449,322.266,622.07
1742379109.147,999.512,-92.773,340.82,999.512
1742379109.151,-95.703,-145.02,-226.562,-128.418
1742379109.154,-1000.0,-18.066,-707.52,-1000.0
1742379109.158,-832.52,81.055,-270.02,-820.801
1742379109.162,510.742,-71.289,338.867,535.645
1742379109.166,999.512,-106.934,345.703,999.512
1742379109.17,389.16,-9.277,-240.234,310.547
1742379109.127,999.512,-115.234,146.484,994.629
1742379109.131,-484.863,-146.973,-457.031,-509.277
1742379109.135,-1000.0,-155.273,-687.012,-1000.0
1742379109.139,-743.652,-116.699,-138.672,-756.348
1742379109.143,634.277,-85.449,322.266,622.07
1742379109.147,999.512,-92.773,340.82,999.512
1742379109.151,-95.703,-145.02,-226.562,-128.418
1742379109.154,-1000.0,-18.066,-707.52,-1000.0
1742379109.158,-832.52,81.055,-270.02,-820.801
1742379109.162,510.742,-71.289,338.867,535.645
1742379109.166,999.512,-106.934,345.703,999.512
1742379109.17,389.16,-9.277,-240.234,310.547
1742379109.127,999.512,-115.234,146.484,994.629
1742379109.131,-484.863,-146.973,-457.031,-509.277
1742379109.135,-1000.0,-155.273,-687.012,-1000.0
1742379109.139,-743.652,-116.699,-138.672,-756.348
1742379109.143,634.277,-85.449,322.266,622.07
1742379109.147,999.512,-92.773,340.82,999.512
1742379109.151,-95.703,-145.02,-226.562,-128.418
1742379109.154,-1000.0,-18.066,-707.52,-1000.0
1742379109.158,-832.52,81.055,-270.02,-820.801
1742379109.162,510.742,-71.289,338.867,535.645
1742379109.166,999.512,-106.934,345.703,999.512
1742379109.17,389.16,-9.277,-240.234,310.547
1742379109.173,-995.605,-49.316,-592.285,-1000.0
1742379109.177,-900.879,-139.648,-198.242,-885.742
1742379109.181,547.363,-96.68,294.434,545.41
1742379109.185,999.512,51.758,333.496,999.512
1742379109.189,792.969,-39.551,-122.07,761.23
1742379109.193,-695.801,-149.414,-496.094,-723.145
1742379109.197,-983.398,-117.676,-257.324,-981.934
1742379109.2,579.102,-107.422,282.715,567.871
1742379109.204,999.512,-110.84,358.398,999.512
1742379109.208,826.66,-112.305,-28.32,818.359
1742379109.212,-602.539,-116.211,-509.277,-615.723
1742379109.216,-1000.0,-102.539,-420.41,-1000.0
1742379109.173,-995.605,-49.316,-592.285,-1000.0
1742379109.177,-900.879,-139.648,-198.242,-885.742
1742379109.181,547.363,-96.68,294.434,545.41
1742379109.185,999.512,51.758,333.496,999.512
1742379109.189,792.969,-39.551,-122.07,761.23
1742379109.193,-695.801,-149.414,-496.094,-723.145
1742379109.197,-983.398,-117.676,-257.324,-981.934
1742379109.2,579.102,-107.422,282.715,567.871
1742379109.204,999.512,-110.84,358.398,999.512
1742379109.208,826.66,-112.305,-28.32,818.359
1742379109.212,-602.539,-116.211,-509.277,-615.723
1742379109.216,-1000.0,-102.539,-420.41,-1000.0
1742379109.173,-995.605,-49.316,-592.285,-1000.0
1742379109.177,-900.879,-139.648,-198.242,-885.742
1742379109.181,547.363,-96.68,294.434,545.41
1742379109.185,999.512,51.758,333.496,999.512
1742379109.189,792.969,-39.551,-122.07,761.23
1742379109.193,-695.801,-149.414,-496.094,-723.145
1742379109.197,-983.398,-117.676,-257.324,-981.934
1742379109.2,579.102,-107.422,282.715,567.871
1742379109.204,999.512,-110.84,358.398,999.512
1742379109.208,826.66,-112.305,-28.32,818.359
1742379109.212,-602.539,-116.211,-509.277,-615.723
1742379109.216,-1000.0,-102.539,-420.41,-1000.0
1742379109.173,-995.605,-49.316,-592.285,-1000.0
1742379109.177,-900.879,-139.648,-198.242,-885.742
1742379109.181,547.363,-96.68,294.434,545.41
1742379109.185,999.512,51.758,333.496,999.512
1742379109.189,792.969,-39.551,-122.07,761.23
1742379109.193,-695.801,-149.414,-496.094,-723.145
1742379109.197,-983.398,-117.676,-257.324,-981.934
1742379109.2,579.102,-107.422,282.715,567.871
1742379109.204,999.512,-110.84,358.398,999.512
1742379109.208,826.66,-112.305,-28.32,818.359
1742379109.212,-602.539,-116.211,-509.277,-615.723
1742379109.216,-1000.0,-102.539,-420.41,-1000.0
1742379109.173,-995.605,-49.316,-592.285,-1000.0
1742379109.177,-900.879,-139.648,-198.242,-885.742
1742379109.181,547.363,-96.68,294.434,545.41
1742379109.185,999.512,51.758,333.496,999.512
1742379109.189,792.969,-39.551,-122.07,761.23
1742379109.193,-695.801,-149.414,-496.094,-723.145
1742379109.197,-983.398,-117.676,-257.324,-981.934
1742379109.2,579.102,-107.422,282.715,567.871
1742379109.204,999.512,-110.84,358.398,999.512
1742379109.208,826.66,-112.305,-28.32,818.359
1742379109.212,-602.539,-116.211,-509.277,-615.723
1742379109.216,-1000.0,-102.539,-420.41,-1000.0
1742379109.173,-995.605,-49.316,-592.285,-1000.0
1742379109.177,-900.879,-139.648,-198.242,-885.742
1742379109.181,547.363,-96.68,294.434,545.41
1742379109.185,999.512,51.758,333.496,999.512
1742379109.189,792.969,-39.551,-122.07,761.23
1742379109.193,-695.801,-149.414,-496.094,-723.145
1742379109.197,-983.398,-117.676,-257.324,-981.934
1742379109.2,579.102,-107.422,282.715,567.871
1742379109.204,999.512,-110.84,358.398,999.512
1742379109.208,826.66,-112.305,-28.32,818.359
1742379109.212,-602.539,-116.211,-509.277,-615.723
1742379109.216,-1000.0,-102.539,-420.41,-1000.0
1742379109.173,-995.605,-49.316,-592.285,-1000.0
1742379109.177,-900.879,-139.648,-198.242,-885.742
1742379109.181,547.363,-96.68,294.434,545.41
1742379109.185,999.512,51.758,333.496,999.512
1742379109.189,792.969,-39.551,-122.07,761.23
1742379109.193,-695.801,-149.414,-496.094,-723.145
1742379109.197,-983.398,-117.676,-257.324,-981.934
1742379109.2,579.102,-107.422,282.715,567.871
1742379109.204,999.512,-110.84,358.398,999.512
1742379109.208,826.66,-112.305,-28.32,818.359
1742379109.212,-602.539,-116.211,-509.277,-615.723
1742379109.216,-1000.0,-102.539,-420.41,-1000.0
1742379109.173,-995.605,-49.316,-592.285,-1000.0
1742379109.177,-900.879,-139.648,-198.242,-885.742
1742379109.181,547.363,-96.68,294.434,545.41
1742379109.185,999.512,51.758,333.496,999.512
1742379109.189,792.969,-39.551,-122.07,761.23
1742379109.193,-695.801,-149.414,-496.094,-723.145
1742379109.197,-983.398,-117.676,-257.324,-981.934
1742379109.2,579.102,-107.422,282.715,567.871
1742379109.204,999.512,-110.84,358.398,999.512
1742379109.208,826.66,-112.305,-28.32,818.359
1742379109.212,-602.539,-116.211,-509.277,-615.723
1742379109.216,-1000.0,-102.539,-420.41,-1000.0
1742379109.173,-995.605,-49.316,-592.285,-1000.0
1742379109.177,-900.879,-139.648,-198.242,-885.742
1742379109.181,547.363,-96.68,294.434,545.41
1742379109.185,999.512,51.758,333.496,999.512
1742379109.189,792.969,-39.551,-122.07,761.23
1742379109.193,-695.801,-149.414,-496.094,-723.145
1742379109.197,-983.398,-117.676,-257.324,-981.934
1742379109.2,579.102,-107.422,282.715,567.871
1742379109.204,999.512,-110.84,358.398,999.512
1742379109.208,826.66,-112.305,-28.32,818.359
1742379109.212,-602.539,-116.211,-509.277,-615.723
1742379109.216,-1000.0,-102.539,-420.41,-1000.0
1742379109.173,-995.605,-49.316,-592.285,-1000.0
1742379109.177,-900.879,-139.648,-198.242,-885.742
1742379109.181,547.363,-96.68,294.434,545.41
1742379109.185,999.512,51.758,333.496,999.512
1742379109.189,792.969,-39.551,-122.07,761.23
1742379109.193,-695.801,-149.414,-496.094,-723.145
1742379109.197,-983.398,-117.676,-257.324,-981.934
1742379109.2,579.102,-107.422,282.715,567.871
1742379109.204,999.512,-110.84,358.398,999.512
1742379109.208,826.66,-112.305,-28.32,818.359
1742379109.212,-602.539,-116.211,-509.277,-615.723
1742379109.216,-1000.0,-102.539,-420.41,-1000.0
1742379109.173,-995.605,-49.316,-592.285,-1000.0
1742379109.177,-900.879,-139.648,-198.242,-885.742
1742379109.181,547.363,-96.68,294.434,545.41
1742379109.185,999.512,51.758,333.496,999.512
1742379109.189,792.969,-39.551,-122.07,761.23
1742379109.193,-695.801,-149.414,-496.094,-723.145
1742379109.197,-983.398,-117.676,-257.324,-981.934
1742379109.2,579.102,-107.422,282.715,567.871
1742379109.204,999.512,-110.84,358.398,999.512
1742379109.208,826.66,-112.305,-28.32,818.359
1742379109.212,-602.539,-116.211,-509.277,-615.723
1742379109.216,-1000.0,-102.539,-420.41,-1000.0
1742379109.173,-995.605,-49.316,-592.285,-1000.0
1742379109.177,-900.879,-139.648,-198.242,-885.742
1742379109.181,547.363,-96.68,294.434,545.41
1742379109.185,999.512,51.758,333.496,999.512
1742379109.189,792.969,-39.551,-122.07,761.23
1742379109.193,-695.801,-149.414,-496.094,-723.145
1742379109.197,-983.398,-117.676,-257.324,-981.934
1742379109.2,579.102,-107.422,282.715,567.871
1742379109.204,999.512,-110.84,358.398,999.512
1742379109.208,826.66,-112.305,-28.32,818.359
1742379109.212,-602.539,-116.211,-509.277,-615.723
1742379109.216,-1000.0,-102.539,-420.41,-1000.0
1742379109.173,-995.605,-49.316,-592.285,-1000.0
1742379109.177,-900.879,-139.648,-198.242,-885.742
1742379109.181,547.363,-96.68,294.434,545.41
1742379109.185,999.512,51.758,333.496,999.512
1742379109.189,792.969,-39.551,-122.07,761.23
1742379109.193,-695.801,-149.414,-496.094,-723.145
1742379109.197,-983.398,-117.676,-257.324,-981.934
1742379109.2,579.102,-107.422,282.715,567.871
1742379109.204,999.512,-110.84,358.398,999.512
1742379109.208,826.66,-112.305,-28.32,818.359
1742379109.212,-602.539,-116.211,-509.277,-615.723
1742379109.216,-1000.0,-102.539,-420.41,-1000.0
1742379109.173,-995.605,-49.316,-592.285,-1000.0
1742379109.177,-900.879,-139.648,-198.242,-885.742
1742379109.181,547.363,-96.68,294.434,545.41
1742379109.185,999.512,51.758,333.496,999.512
1742379109.189,792.969,-39.551,-122.07,761.23
1742379109.193,-695.801,-149.414,-496.094,-723.145
1742379109.197,-983.398,-117.676,-257.324,-981.934
1742379109.2,579.102,-107.422,282.715,567.871
1742379109.204,999.512,-110.84,358.398,999.512
1742379109.208,826.66,-112.305,-28.32,818.359
1742379109.212,-602.539,-116.211,-509.277,-615.723
1742379109.216,-1000.0,-102.539,-420.41,-1000.0
1742379109.173,-995.605,-49.316,-592.285,-1000.0
1742379109.177,-900.879,-139.648,-198.242,-885.742
1742379109.181,547.363,-96.68,294.434,545.41
1742379109.185,999.512,51.758,333.496,999.512
1742379109.189,792.969,-39.551,-122.07,761.23
1742379109.193,-695.801,-149.414,-496.094,-723.145
1742379109.197,-983.398,-117.676,-257.324,-981.934
1742379109.2,579.102,-107.422,282.715,567.871
1742379109.204,999.512,-110.84,358.398,999.512
1742379109.208,826.66,-112.305,-28.32,818.359
1742379109.212,-602.539,-116.211,-509.277,-615.723
1742379109.216,-1000.0,-102.539,-420.41,-1000.0
1742379109.173,-995.605,-49.316,-592.285,-1000.0
