timestamps,TP9,AF7,AF8,TP10
1742380307.512,76.172,37.109,41.504,112.305
1742380307.516,999.512,50.293,41.992,999.512
1742380307.52,217.773,-24.414,17.578,210.449
1742380307.511,-1000.0,-46.875,-11.23,-1000.0
1742380307.515,-111.816,-2.441,28.32,-81.543
1742380307.519,999.512,5.859,36.621,999.512
1742380307.523,384.277,-65.918,1.465,346.68
1742380307.527,-931.152,-71.289,-14.16,-947.754
1742380307.531,-1000.0,-28.32,20.996,-1000.0
1742380307.534,-223.633,-5.859,56.152,-196.777
1742380307.538,999.512,-2.441,46.387,999.512
1742380307.542,606.934,-45.898,17.09,572.266
1742380307.546,-785.156,-70.312,7.812,-805.176
1742380307.55,-1000.0,-32.715,28.809,-1000.0
1742380307.552,-210.938,29.297,65.918,-215.332
1742380307.556,999.512,38.574,64.453,999.512
1742380307.56,839.844,-32.715,13.672,811.523
1742380307.564,-494.629,-65.43,10.254,-529.785
1742380307.568,-1000.0,-37.109,18.555,-1000.0
1742380307.572,-186.035,43.945,48.828,-189.941
1742380307.576,999.512,66.895,64.453,999.512
1742380307.579,981.445,-7.812,27.344,955.566
1742380307.583,-234.863,-59.082,-5.371,-280.762
1742380307.587,-1000.0,-45.898,-6.836,-1000.0
1742380307.591,-333.496,30.762,20.508,-305.176
1742380307.595,935.059,61.523,7.324,951.172
1742380307.552,-210.938,29.297,65.918,-215.332
1742380307.556,999.512,38.574,64.453,999.512
1742380307.56,839.844,-32.715,13.672,811.523
1742380307.564,-494.629,-65.43,10.254,-529.785
1742380307.568,-1000.0,-37.109,18.555,-1000.0
1742380307.572,-186.035,43.945,48.828,-189.941
1742380307.576,999.512,66.895,64.453,999.512
1742380307.579,981.445,-7.812,27.344,955.566
1742380307.583,-234.863,-59.082,-5.371,-280.762
1742380307.587,-1000.0,-45.898,-6.836,-1000.0
1742380307.591,-333.496,30.762,20.508,-305.176
1742380307.595,935.059,61.523,7.324,951.172
1742380307.552,-210.938,29.297,65.918,-215.332
1742380307.556,999.512,38.574,64.453,999.512
1742380307.56,839.844,-32.715,13.672,811.523
1742380307.564,-494.629,-65.43,10.254,-529.785
1742380307.568,-1000.0,-37.109,18.555,-1000.0
1742380307.572,-186.035,43.945,48.828,-189.941
1742380307.576,999.512,66.895,64.453,999.512
1742380307.579,981.445,-7.812,27.344,955.566
1742380307.583,-234.863,-59.082,-5.371,-280.762
1742380307.587,-1000.0,-45.898,-6.836,-1000.0
1742380307.591,-333.496,30.762,20.508,-305.176
1742380307.595,935.059,61.523,7.324,951.172
1742380307.597,999.512,7.324,-18.066,999.512
1742380307.601,-20.996,-32.227,-22.461,-54.688
1742380307.605,-1000.0,-22.949,-0.488,-1000.0
1742380307.609,-484.863,45.41,31.738,-455.566
1742380307.613,848.633,72.754,40.039,863.77
1742380307.617,999.512,33.203,1.465,999.512
1742380307.621,162.598,-32.715,-61.523,139.648
1742380307.624,-1000.0,-71.777,-61.035,-1000.0
1742380307.628,-770.996,-26.855,-29.297,-715.332
1742380307.632,595.215,11.719,-15.625,649.902
1742380307.636,999.512,-4.395,11.23,999.512
1742380307.64,166.504,-52.246,20.02,169.434
1742380307.597,999.512,7.324,-18.066,999.512
1742380307.601,-20.996,-32.227,-22.461,-54.688
1742380307.605,-1000.0,-22.949,-0.488,-1000.0
1742380307.609,-484.863,45.41,31.738,-455.566
1742380307.613,848.633,72.754,40.039,863.77
1742380307.617,999.512,33.203,1.465,999.512
1742380307.621,162.598,-32.715,-61.523,139.648
1742380307.624,-1000.0,-71.777,-61.035,-1000.0
1742380307.628,-770.996,-26.855,-29.297,-715.332
1742380307.632,595.215,11.719,-15.625,649.902
1742380307.636,999.512,-4.395,11.23,999.512
1742380307.64,166.504,-52.246,20.02,169.434
1742380307.642,-1000.0,-64.941,49.805,-1000.0
1742380307.646,-922.363,-9.766,87.402,-882.324
1742380307.65,387.207,32.227,90.332,441.895
1742380307.654,999.512,3.418,70.801,999.512
1742380307.658,145.02,-75.684,39.551,149.902
1742380307.662,-1000.0,-82.52,22.949,-1000.0
1742380307.666,-1000.0,-22.461,41.504,-1000.0
1742380307.669,121.582,-4.883,92.285,172.852
1742380307.673,999.512,-41.992,73.242,999.512
1742380307.677,201.66,-107.422,18.555,192.871
1742380307.681,-1000.0,-106.934,27.832,-1000.0
1742380307.685,-1000.0,-31.738,57.129,-1000.0
1742380307.642,-1000.0,-64.941,49.805,-1000.0
1742380307.646,-922.363,-9.766,87.402,-882.324
1742380307.65,387.207,32.227,90.332,441.895
1742380307.654,999.512,3.418,70.801,999.512
1742380307.658,145.02,-75.684,39.551,149.902
1742380307.662,-1000.0,-82.52,22.949,-1000.0
1742380307.666,-1000.0,-22.461,41.504,-1000.0
1742380307.669,121.582,-4.883,92.285,172.852
1742380307.673,999.512,-41.992,73.242,999.512
1742380307.677,201.66,-107.422,18.555,192.871
1742380307.681,-1000.0,-106.934,27.832,-1000.0
1742380307.685,-1000.0,-31.738,57.129,-1000.0
1742380307.642,-1000.0,-64.941,49.805,-1000.0
1742380307.646,-922.363,-9.766,87.402,-882.324
1742380307.65,387.207,32.227,90.332,441.895
1742380307.654,999.512,3.418,70.801,999.512
1742380307.658,145.02,-75.684,39.551,149.902
1742380307.662,-1000.0,-82.52,22.949,-1000.0
1742380307.666,-1000.0,-22.461,41.504,-1000.0
1742380307.669,121.582,-4.883,92.285,172.852
1742380307.673,999.512,-41.992,73.242,999.512
1742380307.677,201.66,-107.422,18.555,192.871
1742380307.681,-1000.0,-106.934,27.832,-1000.0
1742380307.685,-1000.0,-31.738,57.129,-1000.0
1742380307.703,-89.355,29.785,71.289,-55.176
1742380307.707,999.512,62.5,85.938,999.512
1742380307.711,399.902,9.277,42.969,380.371
1742380307.715,-923.34,-25.391,13.184,-935.059
1742380307.719,-1000.0,30.273,93.262,-1000.0
1742380307.723,-195.801,98.633,140.625,-147.461
1742380307.727,999.512,142.09,77.637,999.512
1742380307.73,573.73,75.195,-18.555,575.195
1742380307.734,-811.035,8.789,-55.664,-794.434
1742380307.738,-1000.0,56.641,-47.363,-1000.0
1742380307.742,-209.473,154.297,-55.176,-198.73
1742380307.746,999.512,182.617,-65.918,999.512
1742380307.703,-89.355,29.785,71.289,-55.176
1742380307.707,999.512,62.5,85.938,999.512
1742380307.711,399.902,9.277,42.969,380.371
1742380307.715,-923.34,-25.391,13.184,-935.059
1742380307.719,-1000.0,30.273,93.262,-1000.0
1742380307.723,-195.801,98.633,140.625,-147.461
1742380307.727,999.512,142.09,77.637,999.512
1742380307.73,573.73,75.195,-18.555,575.195
1742380307.734,-811.035,8.789,-55.664,-794.434
1742380307.738,-1000.0,56.641,-47.363,-1000.0
1742380307.742,-209.473,154.297,-55.176,-198.73
1742380307.746,999.512,182.617,-65.918,999.512
1742380307.747,867.188,113.281,-121.094,902.344
1742380307.751,-452.637,55.176,-170.41,-389.16
1742380307.755,-1000.0,57.617,-125.488,-1000.0
1742380307.759,-173.34,151.367,-56.152,-171.875
1742380307.763,996.582,200.684,-16.602,995.605
1742380307.767,999.512,140.137,-36.621,999.512
1742380307.771,-73.242,90.82,-92.773,-44.922
1742380307.774,-1000.0,103.027,-126.465,-1000.0
1742380307.778,-268.066,159.18,-112.793,-235.84
1742380307.782,961.426,175.781,-116.699,977.539
1742380307.786,999.512,162.109,-149.414,999.512
1742380307.79,80.566,111.328,-206.055,76.66
1742380307.747,867.188,113.281,-121.094,902.344
1742380307.751,-452.637,55.176,-170.41,-389.16
1742380307.755,-1000.0,57.617,-125.488,-1000.0
1742380307.759,-173.34,151.367,-56.152,-171.875
1742380307.763,996.582,200.684,-16.602,995.605
1742380307.767,999.512,140.137,-36.621,999.512
1742380307.771,-73.242,90.82,-92.773,-44.922
1742380307.774,-1000.0,103.027,-126.465,-1000.0
1742380307.778,-268.066,159.18,-112.793,-235.84
1742380307.782,961.426,175.781,-116.699,977.539
1742380307.786,999.512,162.109,-149.414,999.512
1742380307.79,80.566,111.328,-206.055,76.66
1742380307.792,-1000.0,89.844,-236.328,-1000.0
1742380307.796,-435.059,170.898,-205.078,-391.602
1742380307.8,887.695,182.617,-177.246,909.668
1742380307.804,999.512,103.027,-215.332,999.512
1742380307.808,200.684,33.691,-243.652,186.035
1742380307.812,-1000.0,-7.812,-226.562,-1000.0
1742380307.816,-603.516,41.504,-195.312,-566.895
1742380307.819,790.527,76.172,-174.805,811.035
1742380307.823,999.512,2.93,-196.777,999.512
1742380307.827,183.594,-52.246,-179.199,188.965
1742380307.831,-1000.0,-39.551,-119.629,-1000.0
1742380307.835,-832.031,44.434,-61.035,-798.828
1742380307.792,-1000.0,89.844,-236.328,-1000.0
1742380307.796,-435.059,170.898,-205.078,-391.602
1742380307.8,887.695,182.617,-177.246,909.668
1742380307.804,999.512,103.027,-215.332,999.512
1742380307.808,200.684,33.691,-243.652,186.035
1742380307.812,-1000.0,-7.812,-226.562,-1000.0
1742380307.816,-603.516,41.504,-195.312,-566.895
1742380307.819,790.527,76.172,-174.805,811.035
1742380307.823,999.512,2.93,-196.777,999.512
1742380307.827,183.594,-52.246,-179.199,188.965
1742380307.831,-1000.0,-39.551,-119.629,-1000.0
1742380307.835,-832.031,44.434,-61.035,-798.828
1742380307.792,-1000.0,89.844,-236.328,-1000.0
1742380307.796,-435.059,170.898,-205.078,-391.602
1742380307.8,887.695,182.617,-177.246,909.668
1742380307.804,999.512,103.027,-215.332,999.512
1742380307.808,200.684,33.691,-243.652,186.035
1742380307.812,-1000.0,-7.812,-226.562,-1000.0
1742380307.816,-603.516,41.504,-195.312,-566.895
1742380307.819,790.527,76.172,-174.805,811.035
1742380307.823,999.512,2.93,-196.777,999.512
1742380307.827,183.594,-52.246,-179.199,188.965
1742380307.831,-1000.0,-39.551,-119.629,-1000.0
1742380307.835,-832.031,44.434,-61.035,-798.828
1742380307.837,521.973,97.168,-4.395,559.082
1742380307.841,999.512,70.312,-0.977,999.512
1742380307.845,147.461,-2.441,-44.922,153.32
1742380307.849,-1000.0,-35.156,-53.711,-1000.0
1742380307.853,-1000.0,25.391,-11.23,-1000.0
1742380307.857,147.461,85.449,11.719,194.336
1742380307.861,999.512,35.645,0.977,999.512
1742380307.864,251.465,-90.332,-19.043,236.328
1742380307.868,-979.98,-119.629,-16.113,-987.793
1742380307.872,-1000.0,-73.73,11.23,-1000.0
1742380307.876,-102.051,-50.781,-6.348,-75.195
1742380307.88,999.512,-59.082,-20.508,999.512
1742380307.837,521.973,97.168,-4.395,559.082
1742380307.841,999.512,70.312,-0.977,999.512
1742380307.845,147.461,-2.441,-44.922,153.32
1742380307.849,-1000.0,-35.156,-53.711,-1000.0
1742380307.853,-1000.0,25.391,-11.23,-1000.0
1742380307.857,147.461,85.449,11.719,194.336
1742380307.861,999.512,35.645,0.977,999.512
1742380307.864,251.465,-90.332,-19.043,236.328
1742380307.868,-979.98,-119.629,-16.113,-987.793
1742380307.872,-1000.0,-73.73,11.23,-1000.0
1742380307.876,-102.051,-50.781,-6.348,-75.195
1742380307.88,999.512,-59.082,-20.508,999.512
1742380307.837,521.973,97.168,-4.395,559.082
1742380307.841,999.512,70.312,-0.977,999.512
1742380307.845,147.461,-2.441,-44.922,153.32
1742380307.849,-1000.0,-35.156,-53.711,-1000.0
1742380307.853,-1000.0,25.391,-11.23,-1000.0
1742380307.857,147.461,85.449,11.719,194.336
1742380307.861,999.512,35.645,0.977,999.512
1742380307.864,251.465,-90.332,-19.043,236.328
1742380307.868,-979.98,-119.629,-16.113,-987.793
1742380307.872,-1000.0,-73.73,11.23,-1000.0
1742380307.876,-102.051,-50.781,-6.348,-75.195
1742380307.88,999.512,-59.082,-20.508,999.512
1742380307.882,414.551,-133.301,-16.602,389.648
1742380307.886,-913.086,-175.781,-39.551,-924.316
1742380307.89,-1000.0,-143.555,-39.062,-1000.0
1742380307.894,-228.516,-105.957,0.488,-205.078
1742380307.898,999.512,-100.586,24.902,999.512
1742380307.902,677.246,-147.461,13.672,660.156
1742380307.906,-708.496,-184.57,9.277,-715.82
1742380307.909,-1000.0,-158.203,47.852,-1000.0
1742380307.913,-201.66,-74.707,79.102,-196.777
1742380307.917,999.512,-46.875,99.609,999.512
1742380307.921,898.926,-78.613,126.953,900.879
1742380307.925,-405.273,-92.773,87.402,-390.625
1742380307.927,-1000.0,-94.238,111.328,-1000.0
1742380307.931,-180.664,-41.016,140.625,-182.129
1742380307.935,999.512,-32.715,52.734,999.512
1742380307.939,999.512,-98.145,-20.996,999.512
1742380307.943,-170.898,-133.789,-48.34,-179.199
1742380307.947,-1000.0,-112.305,-19.043,-1000.0
1742380307.951,-249.023,-51.758,6.836,-222.168
1742380307.954,971.68,-48.34,-6.348,980.957
1742380307.958,999.512,-91.797,-62.5,999.512
1742380307.962,-0.488,-92.773,-54.199,11.719
1742380307.966,-1000.0,-56.641,17.09,-1000.0
1742380307.97,-446.289,29.297,62.012,-414.062
1742380307.927,-1000.0,-94.238,111.328,-1000.0
1742380307.931,-180.664,-41.016,140.625,-182.129
1742380307.935,999.512,-32.715,52.734,999.512
1742380307.939,999.512,-98.145,-20.996,999.512
1742380307.943,-170.898,-133.789,-48.34,-179.199
1742380307.947,-1000.0,-112.305,-19.043,-1000.0
1742380307.951,-249.023,-51.758,6.836,-222.168
1742380307.954,971.68,-48.34,-6.348,980.957
1742380307.958,999.512,-91.797,-62.5,999.512
1742380307.962,-0.488,-92.773,-54.199,11.719
1742380307.966,-1000.0,-56.641,17.09,-1000.0
1742380307.97,-446.289,29.297,62.012,-414.062
1742380307.927,-1000.0,-94.238,111.328,-1000.0
1742380307.931,-180.664,-41.016,140.625,-182.129
1742380307.935,999.512,-32.715,52.734,999.512
1742380307.939,999.512,-98.145,-20.996,999.512
1742380307.943,-170.898,-133.789,-48.34,-179.199
1742380307.947,-1000.0,-112.305,-19.043,-1000.0
1742380307.951,-249.023,-51.758,6.836,-222.168
1742380307.954,971.68,-48.34,-6.348,980.957
1742380307.958,999.512,-91.797,-62.5,999.512
1742380307.962,-0.488,-92.773,-54.199,11.719
1742380307.966,-1000.0,-56.641,17.09,-1000.0
1742380307.97,-446.289,29.297,62.012,-414.062
1742380307.973,872.07,72.754,63.477,891.602
1742380307.977,999.512,37.598,70.312,999.512
1742380307.981,182.617,-6.348,68.359,166.016
1742380307.985,-1000.0,3.906,59.082,-1000.0
1742380307.989,-736.816,75.684,56.641,-691.406
1742380307.993,641.113,127.441,64.941,682.617
1742380307.997,999.512,88.867,70.312,999.512
1742380308.0,167.969,5.371,34.18,167.969
1742380308.004,-1000.0,29.785,56.641,-1000.0
1742380308.008,-921.387,107.422,110.84,-886.23
1742380308.012,388.672,150.391,145.508,436.035
1742380308.016,999.512,131.348,135.742,999.512
1742380307.973,872.07,72.754,63.477,891.602
1742380307.977,999.512,37.598,70.312,999.512
1742380307.981,182.617,-6.348,68.359,166.016
1742380307.985,-1000.0,3.906,59.082,-1000.0
1742380307.989,-736.816,75.684,56.641,-691.406
1742380307.993,641.113,127.441,64.941,682.617
1742380307.997,999.512,88.867,70.312,999.512
1742380308.0,167.969,5.371,34.18,167.969
1742380308.004,-1000.0,29.785,56.641,-1000.0
1742380308.008,-921.387,107.422,110.84,-886.23
1742380308.012,388.672,150.391,145.508,436.035
1742380308.016,999.512,131.348,135.742,999.512
1742380308.017,157.715,42.969,98.633,162.598
1742380308.021,-1000.0,22.949,105.469,-1000.0
1742380308.025,-958.008,74.707,142.578,-932.129
1742380308.029,270.02,112.793,156.25,325.684
1742380308.033,999.512,101.074,162.598,999.512
1742380308.037,257.812,35.156,138.184,237.793
1742380308.041,-976.562,7.324,132.812,-985.352
1742380308.044,-1000.0,41.504,161.133,-1000.0
1742380308.048,-96.191,82.52,148.926,-64.941
1742380308.052,999.512,77.637,93.75,999.512
1742380308.056,416.992,29.785,59.57,396.484
1742380308.06,-924.316,199.219,238.77,-931.152
1742380308.017,157.715,42.969,98.633,162.598
1742380308.021,-1000.0,22.949,105.469,-1000.0
1742380308.025,-958.008,74.707,142.578,-932.129
1742380308.029,270.02,112.793,156.25,325.684
1742380308.033,999.512,101.074,162.598,999.512
1742380308.037,257.812,35.156,138.184,237.793
1742380308.041,-976.562,7.324,132.812,-985.352
1742380308.044,-1000.0,41.504,161.133,-1000.0
1742380308.048,-96.191,82.52,148.926,-64.941
1742380308.052,999.512,77.637,93.75,999.512
1742380308.056,416.992,29.785,59.57,396.484
1742380308.06,-924.316,199.219,238.77,-931.152
1742380308.017,157.715,42.969,98.633,162.598
1742380308.021,-1000.0,22.949,105.469,-1000.0
1742380308.025,-958.008,74.707,142.578,-932.129
1742380308.029,270.02,112.793,156.25,325.684
1742380308.033,999.512,101.074,162.598,999.512
1742380308.037,257.812,35.156,138.184,237.793
1742380308.041,-976.562,7.324,132.812,-985.352
1742380308.044,-1000.0,41.504,161.133,-1000.0
1742380308.048,-96.191,82.52,148.926,-64.941
1742380308.052,999.512,77.637,93.75,999.512
1742380308.056,416.992,29.785,59.57,396.484
1742380308.06,-924.316,199.219,238.77,-931.152
1742380308.077,-1000.0,410.645,440.918,-1000.0
1742380308.081,-116.699,467.773,505.371,-108.398
1742380308.085,999.512,482.422,545.41,999.512
1742380308.089,694.824,438.477,528.32,672.363
1742380308.093,-659.18,415.039,466.797,-680.664
1742380308.097,-1000.0,455.078,445.801,-1000.0
1742380308.101,-206.543,538.086,470.703,-196.289
1742380308.104,999.512,570.312,441.406,999.512
1742380308.108,847.656,490.723,375.0,824.219
1742380308.112,-482.422,444.824,354.98,-507.812
1742380308.116,-1000.0,468.75,385.742,-1000.0
1742380308.12,-199.219,497.559,416.992,-208.008
1742380308.077,-1000.0,410.645,440.918,-1000.0
1742380308.081,-116.699,467.773,505.371,-108.398
1742380308.085,999.512,482.422,545.41,999.512
1742380308.089,694.824,438.477,528.32,672.363
1742380308.093,-659.18,415.039,466.797,-680.664
1742380308.097,-1000.0,455.078,445.801,-1000.0
1742380308.101,-206.543,538.086,470.703,-196.289
1742380308.104,999.512,570.312,441.406,999.512
1742380308.108,847.656,490.723,375.0,824.219
1742380308.112,-482.422,444.824,354.98,-507.812
1742380308.116,-1000.0,468.75,385.742,-1000.0
1742380308.12,-199.219,497.559,416.992,-208.008
1742380308.077,-1000.0,410.645,440.918,-1000.0
1742380308.081,-116.699,467.773,505.371,-108.398
1742380308.085,999.512,482.422,545.41,999.512
1742380308.089,694.824,438.477,528.32,672.363
1742380308.093,-659.18,415.039,466.797,-680.664
1742380308.097,-1000.0,455.078,445.801,-1000.0
1742380308.101,-206.543,538.086,470.703,-196.289
1742380308.104,999.512,570.312,441.406,999.512
1742380308.108,847.656,490.723,375.0,824.219
1742380308.112,-482.422,444.824,354.98,-507.812
1742380308.116,-1000.0,468.75,385.742,-1000.0
1742380308.12,-199.219,497.559,416.992,-208.008
1742380308.122,999.512,473.633,406.25,999.512
1742380308.126,876.465,384.766,373.047,794.434
1742380308.13,-410.156,323.73,321.289,-522.949
1742380308.134,-1000.0,319.824,277.832,-1000.0
1742380308.138,-438.477,354.98,270.996,-482.91
1742380308.142,890.625,364.746,277.832,885.742
1742380308.146,999.512,283.691,226.562,999.512
1742380308.149,-122.559,218.262,172.852,-240.234
1742380308.153,-1000.0,211.426,160.156,-1000.0
1742380308.157,-601.562,258.301,195.801,-655.762
1742380308.161,754.883,287.109,226.562,700.684
1742380308.165,999.512,229.98,193.359,999.512
1742380308.122,999.512,473.633,406.25,999.512
1742380308.126,876.465,384.766,373.047,794.434
1742380308.13,-410.156,323.73,321.289,-522.949
1742380308.134,-1000.0,319.824,277.832,-1000.0
1742380308.138,-438.477,354.98,270.996,-482.91
1742380308.142,890.625,364.746,277.832,885.742
1742380308.146,999.512,283.691,226.562,999.512
1742380308.149,-122.559,218.262,172.852,-240.234
1742380308.153,-1000.0,211.426,160.156,-1000.0
1742380308.157,-601.562,258.301,195.801,-655.762
1742380308.161,754.883,287.109,226.562,700.684
1742380308.165,999.512,229.98,193.359,999.512
1742380308.167,16.113,165.527,156.738,-85.938
1742380308.171,-1000.0,164.062,154.297,-1000.0
1742380308.175,-785.645,214.355,184.57,-817.871
1742380308.179,541.504,241.211,192.383,476.074
1742380308.183,999.512,199.707,169.434,999.512
1742380308.187,152.832,147.949,161.133,112.793
1742380308.191,-1000.0,131.836,156.25,-1000.0
1742380308.194,-1000.0,148.438,144.043,-1000.0
1742380308.198,215.332,165.527,145.02,197.754
1742380308.202,999.512,146.484,132.324,999.512
1742380308.206,142.09,85.449,92.285,142.578
1742380308.21,-1000.0,75.195,81.055,-1000.0
1742380308.167,16.113,165.527,156.738,-85.938
1742380308.171,-1000.0,164.062,154.297,-1000.0
1742380308.175,-785.645,214.355,184.57,-817.871
1742380308.179,541.504,241.211,192.383,476.074
1742380308.183,999.512,199.707,169.434,999.512
1742380308.187,152.832,147.949,161.133,112.793
1742380308.191,-1000.0,131.836,156.25,-1000.0
1742380308.194,-1000.0,148.438,144.043,-1000.0
1742380308.198,215.332,165.527,145.02,197.754
1742380308.202,999.512,146.484,132.324,999.512
1742380308.206,142.09,85.449,92.285,142.578
1742380308.21,-1000.0,75.195,81.055,-1000.0
1742380308.212,-1000.0,97.656,115.723,-1000.0
1742380308.216,41.504,131.836,149.902,18.066
1742380308.22,999.512,125.977,136.23,999.512
1742380308.224,200.684,34.18,112.305,171.875
1742380308.228,-1000.0,11.719,93.75,-1000.0
1742380308.232,-1000.0,65.43,77.637,-1000.0
1742380308.236,-113.77,110.352,83.496,-114.258
1742380308.239,999.512,100.098,76.172,999.512
1742380308.243,366.211,0.488,21.973,312.5
1742380308.247,-938.965,-27.832,14.648,-964.355
1742380308.251,-1000.0,41.016,69.824,-1000.0
1742380308.255,-237.793,109.863,107.91,-225.098
1742380308.212,-1000.0,97.656,115.723,-1000.0
1742380308.216,41.504,131.836,149.902,18.066
1742380308.22,999.512,125.977,136.23,999.512
1742380308.224,200.684,34.18,112.305,171.875
1742380308.228,-1000.0,11.719,93.75,-1000.0
1742380308.232,-1000.0,65.43,77.637,-1000.0
1742380308.236,-113.77,110.352,83.496,-114.258
1742380308.239,999.512,100.098,76.172,999.512
1742380308.243,366.211,0.488,21.973,312.5
1742380308.247,-938.965,-27.832,14.648,-964.355
1742380308.251,-1000.0,41.016,69.824,-1000.0
1742380308.255,-237.793,109.863,107.91,-225.098
1742380308.258,999.512,106.445,133.789,999.512
1742380308.262,628.418,46.875,134.277,562.012
1742380308.266,-764.648,36.621,106.934,-817.871
1742380308.27,-1000.0,71.289,115.723,-1000.0
1742380308.274,-207.52,126.953,139.16,-216.309
1742380308.278,999.512,153.32,114.746,999.512
1742380308.282,862.305,78.613,72.754,813.965
1742380308.285,-461.426,-1.953,46.875,-525.879
1742380308.289,-1000.0,29.785,68.848,-1000.0
1742380308.293,-179.688,113.281,113.77,-184.57
1742380308.297,999.512,120.605,121.094,999.512
1742380308.301,999.512,61.035,91.797,986.328
1742380308.258,999.512,106.445,133.789,999.512
1742380308.262,628.418,46.875,134.277,562.012
1742380308.266,-764.648,36.621,106.934,-817.871
1742380308.27,-1000.0,71.289,115.723,-1000.0
1742380308.274,-207.52,126.953,139.16,-216.309
1742380308.278,999.512,153.32,114.746,999.512
1742380308.282,862.305,78.613,72.754,813.965
1742380308.285,-461.426,-1.953,46.875,-525.879
1742380308.289,-1000.0,29.785,68.848,-1000.0
1742380308.293,-179.688,113.281,113.77,-184.57
1742380308.297,999.512,120.605,121.094,999.512
1742380308.301,999.512,61.035,91.797,986.328
1742380308.302,-161.133,19.043,62.988,-217.773
1742380308.306,-1000.0,13.184,54.199,-1000.0
1742380308.31,-277.344,82.52,91.797,-261.23
1742380308.314,954.102,109.863,101.074,962.891
1742380308.318,999.512,42.969,43.457,999.512
1742380308.322,45.41,-5.371,27.344,12.695
1742380308.326,-1000.0,-7.812,49.805,-1000.0
1742380308.329,-476.074,41.504,92.285,-451.66
1742380308.333,865.723,80.566,123.047,879.395
1742380308.337,999.512,37.109,114.258,999.512
1742380308.341,139.16,-22.461,95.215,99.609
1742380308.345,-1000.0,-13.184,101.074,-1000.0
1742380308.302,-161.133,19.043,62.988,-217.773
1742380308.306,-1000.0,13.184,54.199,-1000.0
1742380308.31,-277.344,82.52,91.797,-261.23
1742380308.314,954.102,109.863,101.074,962.891
1742380308.318,999.512,42.969,43.457,999.512
1742380308.322,45.41,-5.371,27.344,12.695
1742380308.326,-1000.0,-7.812,49.805,-1000.0
1742380308.329,-476.074,41.504,92.285,-451.66
1742380308.333,865.723,80.566,123.047,879.395
1742380308.337,999.512,37.109,114.258,999.512
1742380308.341,139.16,-22.461,95.215,99.609
1742380308.345,-1000.0,-13.184,101.074,-1000.0
1742380308.363,-742.676,63.477,136.719,-702.637
1742380308.367,623.047,101.562,152.832,657.227
1742380308.371,999.512,51.758,78.613,999.512
1742380308.375,166.504,-22.461,-3.906,155.762
1742380308.379,-1000.0,-21.484,21.484,-1000.0
1742380308.383,-931.152,39.062,61.035,-916.992
1742380308.387,373.535,66.406,67.383,383.789
1742380308.39,999.512,28.809,68.359,999.512
1742380308.394,141.602,-41.992,21.973,145.996
1742380308.398,-1000.0,-36.133,3.418,-1000.0
1742380308.402,-1000.0,20.996,83.008,-1000.0
1742380308.406,78.613,57.617,101.074,117.188
1742380308.363,-742.676,63.477,136.719,-702.637
1742380308.367,623.047,101.562,152.832,657.227
1742380308.371,999.512,51.758,78.613,999.512
1742380308.375,166.504,-22.461,-3.906,155.762
1742380308.379,-1000.0,-21.484,21.484,-1000.0
1742380308.383,-931.152,39.062,61.035,-916.992
1742380308.387,373.535,66.406,67.383,383.789
1742380308.39,999.512,28.809,68.359,999.512
1742380308.394,141.602,-41.992,21.973,145.996
1742380308.398,-1000.0,-36.133,3.418,-1000.0
1742380308.402,-1000.0,20.996,83.008,-1000.0
1742380308.406,78.613,57.617,101.074,117.188
1742380308.392,999.512,24.902,40.527,999.512
1742380308.396,164.062,-128.418,-88.379,163.574
1742380308.4,-1000.0,-197.266,-141.113,-1000.0
1742380308.404,-1000.0,-115.234,-81.543,-1000.0
1742380308.408,-117.676,-35.645,-10.742,-90.82
1742380308.412,999.512,-13.184,44.434,999.512
1742380308.416,421.387,-62.5,41.016,370.605
1742380308.419,-912.109,-93.75,53.711,-936.035
1742380308.423,-1000.0,-17.578,69.824,-1000.0
1742380308.427,-217.773,166.992,99.609,-203.613
1742380308.431,999.512,230.469,135.742,999.512
1742380308.435,640.137,120.605,114.746,589.355
1742380308.392,999.512,24.902,40.527,999.512
1742380308.396,164.062,-128.418,-88.379,163.574
1742380308.4,-1000.0,-197.266,-141.113,-1000.0
1742380308.404,-1000.0,-115.234,-81.543,-1000.0
1742380308.408,-117.676,-35.645,-10.742,-90.82
1742380308.412,999.512,-13.184,44.434,999.512
1742380308.416,421.387,-62.5,41.016,370.605
1742380308.419,-912.109,-93.75,53.711,-936.035
1742380308.423,-1000.0,-17.578,69.824,-1000.0
1742380308.427,-217.773,166.992,99.609,-203.613
1742380308.431,999.512,230.469,135.742,999.512
1742380308.435,640.137,120.605,114.746,589.355
1742380308.452,-748.535,51.27,65.918,-791.016
1742380308.456,-1000.0,62.5,57.129,-1000.0
1742380308.46,-205.566,102.051,68.359,-210.938
1742380308.464,999.512,106.445,60.059,999.512
1742380308.468,875.0,23.438,13.184,821.289
1742380308.472,-441.895,-38.574,-15.137,-513.672
1742380308.476,-1000.0,-42.48,-6.348,-1000.0
1742380308.479,-184.57,-8.301,-1.465,-191.895
1742380308.483,999.512,-55.176,-42.48,999.512
1742380308.487,987.305,-158.203,-128.906,955.566
1742380308.491,-220.215,-269.531,-243.652,-275.391
1742380308.495,-1000.0,-358.887,-345.703,-1000.0
1742380308.452,-748.535,51.27,65.918,-791.016
1742380308.456,-1000.0,62.5,57.129,-1000.0
1742380308.46,-205.566,102.051,68.359,-210.938
1742380308.464,999.512,106.445,60.059,999.512
1742380308.468,875.0,23.438,13.184,821.289
1742380308.472,-441.895,-38.574,-15.137,-513.672
1742380308.476,-1000.0,-42.48,-6.348,-1000.0
1742380308.479,-184.57,-8.301,-1.465,-191.895
1742380308.483,999.512,-55.176,-42.48,999.512
1742380308.487,987.305,-158.203,-128.906,955.566
1742380308.491,-220.215,-269.531,-243.652,-275.391
1742380308.495,-1000.0,-358.887,-345.703,-1000.0
1742380308.497,-366.211,-325.195,-338.379,-346.68
1742380308.501,920.41,-300.781,-314.941,935.547
1742380308.505,999.512,-334.961,-326.66,999.512
1742380308.509,-22.949,-359.375,-327.148,-74.707
1742380308.513,-1000.0,-331.543,-318.848,-1000.0
1742380308.517,-439.941,-187.988,-251.953,-434.082
1742380308.521,872.559,-25.879,-106.445,874.512
1742380308.524,999.512,17.09,-15.137,999.512
1742380308.528,194.824,1.465,25.391,145.996
1742380308.532,-1000.0,42.48,84.961,-1000.0
1742380308.536,-687.5,126.465,134.277,-678.711
1742380308.54,702.637,143.066,128.906,693.359
1742380308.497,-366.211,-325.195,-338.379,-346.68
1742380308.501,920.41,-300.781,-314.941,935.547
1742380308.505,999.512,-334.961,-326.66,999.512
1742380308.509,-22.949,-359.375,-327.148,-74.707
1742380308.513,-1000.0,-331.543,-318.848,-1000.0
1742380308.517,-439.941,-187.988,-251.953,-434.082
1742380308.521,872.559,-25.879,-106.445,874.512
1742380308.524,999.512,17.09,-15.137,999.512
1742380308.528,194.824,1.465,25.391,145.996
1742380308.532,-1000.0,42.48,84.961,-1000.0
1742380308.536,-687.5,126.465,134.277,-678.711
1742380308.54,702.637,143.066,128.906,693.359
1742380308.543,999.512,109.375,112.793,999.512
1742380308.547,168.945,70.801,147.949,168.457
1742380308.551,-1000.0,74.707,194.336,-1000.0
1742380308.555,-926.758,134.766,209.473,-903.32
1742380308.559,380.371,173.828,177.734,409.18
1742380308.563,999.512,173.828,157.715,999.512
1742380308.567,140.137,111.816,121.094,143.555
1742380308.57,-1000.0,78.613,84.473,-1000.0
1742380308.574,-1000.0,113.77,102.539,-1000.0
1742380308.578,54.688,141.602,127.93,85.938
1742380308.582,999.512,147.461,88.867,999.512
1742380308.586,215.332,68.848,83.496,202.148
1742380308.543,999.512,109.375,112.793,999.512
1742380308.547,168.945,70.801,147.949,168.457
1742380308.551,-1000.0,74.707,194.336,-1000.0
1742380308.555,-926.758,134.766,209.473,-903.32
1742380308.559,380.371,173.828,177.734,409.18
1742380308.563,999.512,173.828,157.715,999.512
1742380308.567,140.137,111.816,121.094,143.555
1742380308.57,-1000.0,78.613,84.473,-1000.0
1742380308.574,-1000.0,113.77,102.539,-1000.0
1742380308.578,54.688,141.602,127.93,85.938
1742380308.582,999.512,147.461,88.867,999.512
1742380308.586,215.332,68.848,83.496,202.148
1742380308.587,-999.512,26.367,97.656,-1000.0
1742380308.591,-1000.0,71.289,89.844,-1000.0
1742380308.595,-128.418,109.863,115.723,-90.332
1742380308.599,999.512,111.328,112.305,999.512
1742380308.603,398.438,37.109,67.871,360.84
1742380308.607,-923.828,15.137,62.5,-939.941
1742380308.611,-1000.0,76.66,97.656,-1000.0
1742380308.614,-242.188,215.82,107.91,-215.332
1742380308.618,999.512,325.684,79.102,999.512
1742380308.622,587.891,244.141,50.293,552.246
1742380308.626,-807.617,111.816,140.625,-826.66
1742380308.63,-1000.0,95.703,232.422,-1000.0
1742380308.587,-999.512,26.367,97.656,-1000.0
1742380308.591,-1000.0,71.289,89.844,-1000.0
1742380308.595,-128.418,109.863,115.723,-90.332
1742380308.599,999.512,111.328,112.305,999.512
1742380308.603,398.438,37.109,67.871,360.84
1742380308.607,-923.828,15.137,62.5,-939.941
1742380308.611,-1000.0,76.66,97.656,-1000.0
1742380308.614,-242.188,215.82,107.91,-215.332
1742380308.618,999.512,325.684,79.102,999.512
1742380308.622,587.891,244.141,50.293,552.246
1742380308.626,-807.617,111.816,140.625,-826.66
1742380308.63,-1000.0,95.703,232.422,-1000.0
1742380308.633,-209.961,138.672,159.18,-216.309
1742380308.637,999.512,135.254,66.406,999.512
1742380308.641,862.793,72.754,86.426,814.453
1742380308.645,-460.938,14.16,123.047,-524.902
1742380308.649,-1000.0,22.461,129.395,-1000.0
1742380308.653,-182.617,98.145,190.918,-186.523
1742380308.657,999.512,106.445,214.355,999.512
1742380308.66,998.535,41.504,130.859,973.633
1742380308.664,-197.266,-8.789,41.992,-238.281
1742380308.668,-1000.0,3.906,30.273,-1000.0
1742380308.672,-343.75,73.73,49.316,-310.547
1742380308.676,929.688,94.238,20.508,945.801
1742380308.677,999.512,40.039,2.93,999.512
1742380308.681,-3.418,-32.227,36.133,-18.555
1742380308.685,-1000.0,-67.383,2.93,-1000.0
1742380308.689,-524.902,-30.273,-26.367,-496.582
1742380308.693,823.73,-6.836,10.254,843.262
1742380308.697,999.512,-35.645,27.832,999.512
1742380308.701,176.27,-113.77,-3.906,145.508
1742380308.704,-1000.0,-159.18,-36.133,-1000.0
1742380308.708,-801.758,-109.375,-19.531,-751.465
1742380308.712,559.57,-25.879,7.324,611.328
1742380308.716,999.512,-34.18,9.277,999.512
1742380308.72,166.504,-102.539,-31.738,170.41
1742380308.677,999.512,40.039,2.93,999.512
1742380308.681,-3.418,-32.227,36.133,-18.555
1742380308.685,-1000.0,-67.383,2.93,-1000.0
1742380308.689,-524.902,-30.273,-26.367,-496.582
1742380308.693,823.73,-6.836,10.254,843.262
1742380308.697,999.512,-35.645,27.832,999.512
1742380308.701,176.27,-113.77,-3.906,145.508
1742380308.704,-1000.0,-159.18,-36.133,-1000.0
1742380308.708,-801.758,-109.375,-19.531,-751.465
1742380308.712,559.57,-25.879,7.324,611.328
1742380308.716,999.512,-34.18,9.277,999.512
1742380308.72,166.504,-102.539,-31.738,170.41
1742380308.677,999.512,40.039,2.93,999.512
1742380308.681,-3.418,-32.227,36.133,-18.555
1742380308.685,-1000.0,-67.383,2.93,-1000.0
1742380308.689,-524.902,-30.273,-26.367,-496.582
1742380308.693,823.73,-6.836,10.254,843.262
1742380308.697,999.512,-35.645,27.832,999.512
1742380308.701,176.27,-113.77,-3.906,145.508
1742380308.704,-1000.0,-159.18,-36.133,-1000.0
1742380308.708,-801.758,-109.375,-19.531,-751.465
1742380308.712,559.57,-25.879,7.324,611.328
1742380308.716,999.512,-34.18,9.277,999.512
1742380308.72,166.504,-102.539,-31.738,170.41
1742380308.722,-1000.0,-101.562,-40.527,-1000.0
1742380308.726,-918.457,-33.691,35.156,-874.512
1742380308.73,393.066,24.414,96.68,453.613
1742380308.734,999.512,-1.465,77.637,999.512
1742380308.738,141.602,-90.332,17.578,146.484
1742380308.742,-1000.0,-74.219,3.906,-1000.0
1742380308.746,-1000.0,-6.836,26.855,-1000.0
1742380308.749,69.824,17.09,30.273,121.582
1742380308.753,999.512,12.207,30.273,999.512
1742380308.757,295.898,-45.41,41.016,260.742
1742380308.761,-974.609,-71.289,49.805,-989.258
1742380308.765,-1000.0,-47.852,64.453,-1000.0
1742380308.722,-1000.0,-101.562,-40.527,-1000.0
1742380308.726,-918.457,-33.691,35.156,-874.512
1742380308.73,393.066,24.414,96.68,453.613
1742380308.734,999.512,-1.465,77.637,999.512
1742380308.738,141.602,-90.332,17.578,146.484
1742380308.742,-1000.0,-74.219,3.906,-1000.0
1742380308.746,-1000.0,-6.836,26.855,-1000.0
1742380308.749,69.824,17.09,30.273,121.582
1742380308.753,999.512,12.207,30.273,999.512
1742380308.757,295.898,-45.41,41.016,260.742
1742380308.761,-974.609,-71.289,49.805,-989.258
1742380308.765,-1000.0,-47.852,64.453,-1000.0
1742380308.767,-50.781,-15.625,71.289,-27.832
1742380308.771,999.512,-2.441,50.293,999.512
1742380308.775,438.477,-61.035,5.859,417.48
1742380308.779,-893.066,-98.145,-26.367,-904.297
1742380308.783,-1000.0,-50.293,-0.488,-1000.0
1742380308.787,-219.238,15.625,23.438,-187.012
1742380308.791,999.512,31.25,1.953,999.512
1742380308.794,647.461,-34.668,-23.438,611.328
1742380308.798,-741.699,-70.312,-41.016,-766.113
1742380308.802,-1000.0,-24.902,-36.621,-1000.0
1742380308.806,-204.102,27.832,-17.578,-210.449
1742380308.81,999.512,29.297,-0.488,999.512
1742380308.767,-50.781,-15.625,71.289,-27.832
1742380308.771,999.512,-2.441,50.293,999.512
1742380308.775,438.477,-61.035,5.859,417.48
1742380308.779,-893.066,-98.145,-26.367,-904.297
1742380308.783,-1000.0,-50.293,-0.488,-1000.0
1742380308.787,-219.238,15.625,23.438,-187.012
1742380308.791,999.512,31.25,1.953,999.512
1742380308.794,647.461,-34.668,-23.438,611.328
1742380308.798,-741.699,-70.312,-41.016,-766.113
1742380308.802,-1000.0,-24.902,-36.621,-1000.0
1742380308.806,-204.102,27.832,-17.578,-210.449
1742380308.81,999.512,29.297,-0.488,999.512
1742380308.83,887.207,-37.109,-35.156,839.844
1742380308.834,-422.852,-88.867,-67.383,-487.305
1742380308.838,-1000.0,-61.523,-44.922,-1000.0
1742380308.842,-175.293,0.488,-12.695,-194.824
1742380308.846,999.512,7.812,10.254,999.512
1742380308.85,999.512,-24.902,-3.906,999.512
1742380308.854,-97.168,-66.895,-19.043,-145.508
1742380308.857,-1000.0,-77.637,-34.18,-1000.0
1742380308.861,-347.656,-11.719,-27.344,-327.637
1742380308.865,926.27,19.531,10.254,936.523
1742380308.869,999.512,-19.043,-24.414,999.512
1742380308.873,67.871,-60.059,-52.734,29.297
1742380308.83,887.207,-37.109,-35.156,839.844
1742380308.834,-422.852,-88.867,-67.383,-487.305
1742380308.838,-1000.0,-61.523,-44.922,-1000.0
1742380308.842,-175.293,0.488,-12.695,-194.824
1742380308.846,999.512,7.812,10.254,999.512
1742380308.85,999.512,-24.902,-3.906,999.512
1742380308.854,-97.168,-66.895,-19.043,-145.508
1742380308.857,-1000.0,-77.637,-34.18,-1000.0
1742380308.861,-347.656,-11.719,-27.344,-327.637
1742380308.865,926.27,19.531,10.254,936.523
1742380308.869,999.512,-19.043,-24.414,999.512
1742380308.873,67.871,-60.059,-52.734,29.297
1742380308.872,-1000.0,-70.801,-27.344,-1000.0
1742380308.876,-521.973,-22.949,-70.801,-480.469
1742380308.88,834.961,-7.324,-109.863,856.934
1742380308.884,999.512,-40.527,-105.957,999.512
1742380308.888,195.312,-69.824,-99.609,166.992
1742380308.892,-1000.0,-84.473,-84.961,-1000.0
1742380308.896,-692.871,-33.691,-75.195,-667.969
1742380308.899,698.73,15.137,-61.523,709.961
1742380308.903,999.512,-35.645,-88.867,999.512
1742380308.907,166.016,-105.469,-134.766,169.922
1742380308.911,-1000.0,-92.285,-112.305,-1000.0
1742380308.915,-951.172,-40.039,-70.312,-925.293
1742380308.872,-1000.0,-70.801,-27.344,-1000.0
1742380308.876,-521.973,-22.949,-70.801,-480.469
1742380308.88,834.961,-7.324,-109.863,856.934
1742380308.884,999.512,-40.527,-105.957,999.512
1742380308.888,195.312,-69.824,-99.609,166.992
1742380308.892,-1000.0,-84.473,-84.961,-1000.0
1742380308.896,-692.871,-33.691,-75.195,-667.969
1742380308.899,698.73,15.137,-61.523,709.961
1742380308.903,999.512,-35.645,-88.867,999.512
1742380308.907,166.016,-105.469,-134.766,169.922
1742380308.911,-1000.0,-92.285,-112.305,-1000.0
1742380308.915,-951.172,-40.039,-70.312,-925.293
1742380308.872,-1000.0,-70.801,-27.344,-1000.0
1742380308.876,-521.973,-22.949,-70.801,-480.469
1742380308.88,834.961,-7.324,-109.863,856.934
1742380308.884,999.512,-40.527,-105.957,999.512
1742380308.888,195.312,-69.824,-99.609,166.992
1742380308.892,-1000.0,-84.473,-84.961,-1000.0
1742380308.896,-692.871,-33.691,-75.195,-667.969
1742380308.899,698.73,15.137,-61.523,709.961
1742380308.903,999.512,-35.645,-88.867,999.512
1742380308.907,166.016,-105.469,-134.766,169.922
1742380308.911,-1000.0,-92.285,-112.305,-1000.0
1742380308.915,-951.172,-40.039,-70.312,-925.293
1742380308.918,339.355,-14.16,-49.805,373.047
1742380308.922,999.512,-9.277,-45.41,999.512
1742380308.926,143.066,-59.082,-83.984,148.438
1742380308.93,-1000.0,-84.961,-84.473,-1000.0
1742380308.934,-1000.0,-26.367,-19.043,-1000.0
1742380308.938,84.961,29.785,8.789,137.207
1742380308.942,999.512,23.438,-11.719,999.512
1742380308.945,309.082,-55.664,-30.273,278.32
1742380308.949,-959.473,-87.891,4.395,-974.121
1742380308.953,-1000.0,-37.109,38.574,-1000.0
1742380308.957,-105.957,15.625,46.875,-71.777
1742380308.961,999.512,15.137,47.363,999.512
1742380308.918,339.355,-14.16,-49.805,373.047
1742380308.922,999.512,-9.277,-45.41,999.512
1742380308.926,143.066,-59.082,-83.984,148.438
1742380308.93,-1000.0,-84.961,-84.473,-1000.0
1742380308.934,-1000.0,-26.367,-19.043,-1000.0
1742380308.938,84.961,29.785,8.789,137.207
1742380308.942,999.512,23.438,-11.719,999.512
1742380308.945,309.082,-55.664,-30.273,278.32
1742380308.949,-959.473,-87.891,4.395,-974.121
1742380308.953,-1000.0,-37.109,38.574,-1000.0
1742380308.957,-105.957,15.625,46.875,-71.777
1742380308.961,999.512,15.137,47.363,999.512
1742380308.962,452.148,-71.289,0.977,421.387
1742380308.966,-891.602,-118.652,-46.387,-906.25
1742380308.97,-1000.0,-78.613,-29.297,-1000.0
1742380308.974,-222.168,-20.508,0.488,-198.73
1742380308.978,999.512,-9.277,-7.324,999.512
1742380308.982,761.719,-68.848,-21.484,706.543
1742380308.986,-604.004,-97.168,-35.156,-660.645
1742380308.989,-1000.0,-61.035,-42.969,-1000.0
1742380308.993,-197.754,-15.137,0.0,-202.637
1742380308.997,999.512,21.484,33.691,999.512
1742380309.001,908.203,-29.297,-1.465,877.93
1742380309.005,-389.648,-82.52,-31.25,-428.711
1742380308.962,452.148,-71.289,0.977,421.387
1742380308.966,-891.602,-118.652,-46.387,-906.25
1742380308.97,-1000.0,-78.613,-29.297,-1000.0
1742380308.974,-222.168,-20.508,0.488,-198.73
1742380308.978,999.512,-9.277,-7.324,999.512
1742380308.982,761.719,-68.848,-21.484,706.543
1742380308.986,-604.004,-97.168,-35.156,-660.645
1742380308.989,-1000.0,-61.035,-42.969,-1000.0
1742380308.993,-197.754,-15.137,0.0,-202.637
1742380308.997,999.512,21.484,33.691,999.512
1742380309.001,908.203,-29.297,-1.465,877.93
1742380309.005,-389.648,-82.52,-31.25,-428.711
1742380309.007,-1000.0,-47.852,-18.066,-1000.0
1742380309.011,-175.781,27.344,24.902,-187.012
1742380309.015,999.512,43.457,31.25,999.512
1742380309.019,999.512,-5.859,-9.277,999.512
1742380309.023,-103.027,-37.598,-36.621,-151.855
1742380309.027,-1000.0,-25.879,-36.621,-1000.0
1742380309.031,-324.219,23.926,-19.043,-293.945
1742380309.034,937.5,29.297,-6.348,952.637
1742380309.038,999.512,-22.949,-20.996,999.512
1742380309.042,58.594,-54.199,-46.875,18.555
1742380309.046,-1000.0,-39.551,-42.969,-1000.0
1742380309.05,-492.188,30.273,-6.836,-461.426
1742380309.053,851.074,64.941,8.789,865.234
1742380309.057,999.512,26.855,-10.742,999.512
1742380309.061,195.312,-14.648,-30.762,173.34
1742380309.065,-1000.0,9.766,-29.297,-1000.0
1742380309.069,-772.949,79.102,-8.301,-719.238
1742380309.073,600.586,113.281,12.207,652.344
1742380309.077,999.512,87.402,-12.207,999.512
1742380309.08,163.086,0.0,-52.246,167.969
1742380309.084,-1000.0,-24.902,-46.387,-1000.0
1742380309.088,-953.125,51.758,-12.207,-926.758
1742380309.092,335.938,97.168,-0.977,370.605
1742380309.096,999.512,99.609,-26.855,999.512
1742380309.053,851.074,64.941,8.789,865.234
1742380309.057,999.512,26.855,-10.742,999.512
1742380309.061,195.312,-14.648,-30.762,173.34
1742380309.065,-1000.0,9.766,-29.297,-1000.0
1742380309.069,-772.949,79.102,-8.301,-719.238
1742380309.073,600.586,113.281,12.207,652.344
1742380309.077,999.512,87.402,-12.207,999.512
1742380309.08,163.086,0.0,-52.246,167.969
1742380309.084,-1000.0,-24.902,-46.387,-1000.0
1742380309.088,-953.125,51.758,-12.207,-926.758
1742380309.092,335.938,97.168,-0.977,370.605
1742380309.096,999.512,99.609,-26.855,999.512
1742380309.097,142.578,41.504,-79.102,156.25
1742380309.101,-1000.0,-6.836,-100.586,-1000.0
1742380309.105,-1000.0,9.277,-75.195,-1000.0
1742380309.109,73.73,19.531,-51.27,127.93
1742380309.113,999.512,-3.418,-62.012,999.512
1742380309.117,356.934,-67.383,-88.867,321.777
1742380309.121,-940.918,-95.215,-100.098,-957.52
1742380309.124,-1000.0,-50.293,-74.707,-1000.0
1742380309.128,-78.125,-10.254,-54.688,-48.34
1742380309.132,999.512,-26.855,-69.824,999.512
1742380309.136,501.465,-98.633,-87.891,473.633
1742380309.14,-857.91,-130.371,-85.449,-871.582
1742380309.097,142.578,41.504,-79.102,156.25
1742380309.101,-1000.0,-6.836,-100.586,-1000.0
1742380309.105,-1000.0,9.277,-75.195,-1000.0
1742380309.109,73.73,19.531,-51.27,127.93
1742380309.113,999.512,-3.418,-62.012,999.512
1742380309.117,356.934,-67.383,-88.867,321.777
1742380309.121,-940.918,-95.215,-100.098,-957.52
1742380309.124,-1000.0,-50.293,-74.707,-1000.0
1742380309.128,-78.125,-10.254,-54.688,-48.34
1742380309.132,999.512,-26.855,-69.824,999.512
1742380309.136,501.465,-98.633,-87.891,473.633
1742380309.14,-857.91,-130.371,-85.449,-871.582
1742380309.142,-1000.0,-98.145,-67.383,-1000.0
1742380309.146,-214.355,-67.871,-54.688,-190.43
1742380309.15,999.512,-73.73,-62.012,999.512
1742380309.154,758.301,-103.516,-64.941,698.242
1742380309.158,-607.422,-107.91,-48.34,-668.457
1742380309.162,-1000.0,-55.176,-13.184,-1000.0
1742380309.166,-199.219,26.855,46.387,-203.613
1742380309.169,999.512,51.758,65.43,999.512
1742380309.173,899.414,8.301,23.926,870.605
1742380309.177,-401.367,-38.574,-17.578,-438.965
1742380309.181,-1000.0,-23.926,-16.113,-1000.0
1742380309.185,-192.871,43.457,12.695,-197.754
1742380309.142,-1000.0,-98.145,-67.383,-1000.0
1742380309.146,-214.355,-67.871,-54.688,-190.43
1742380309.15,999.512,-73.73,-62.012,999.512
1742380309.154,758.301,-103.516,-64.941,698.242
1742380309.158,-607.422,-107.91,-48.34,-668.457
1742380309.162,-1000.0,-55.176,-13.184,-1000.0
1742380309.166,-199.219,26.855,46.387,-203.613
1742380309.169,999.512,51.758,65.43,999.512
1742380309.173,899.414,8.301,23.926,870.605
1742380309.177,-401.367,-38.574,-17.578,-438.965
1742380309.181,-1000.0,-23.926,-16.113,-1000.0
1742380309.185,-192.871,43.457,12.695,-197.754
1742380309.142,-1000.0,-98.145,-67.383,-1000.0
1742380309.146,-214.355,-67.871,-54.688,-190.43
1742380309.15,999.512,-73.73,-62.012,999.512
1742380309.154,758.301,-103.516,-64.941,698.242
1742380309.158,-607.422,-107.91,-48.34,-668.457
1742380309.162,-1000.0,-55.176,-13.184,-1000.0
1742380309.166,-199.219,26.855,46.387,-203.613
1742380309.169,999.512,51.758,65.43,999.512
1742380309.173,899.414,8.301,23.926,870.605
1742380309.177,-401.367,-38.574,-17.578,-438.965
1742380309.181,-1000.0,-23.926,-16.113,-1000.0
1742380309.185,-192.871,43.457,12.695,-197.754
1742380309.202,995.117,50.781,18.555,998.535
1742380309.206,999.512,-5.371,-45.41,999.512
1742380309.21,-97.168,-26.367,-97.656,-119.629
1742380309.214,-1000.0,-8.789,-91.309,-1000.0
1742380309.218,-330.078,42.48,-58.105,-292.969
1742380309.222,930.664,64.453,-43.945,948.242
1742380309.226,999.512,6.836,-74.707,999.512
1742380309.229,95.215,-62.988,-106.934,74.219
1742380309.233,-1000.0,-69.824,-99.121,-1000.0
1742380309.237,-498.535,-4.395,-41.016,-470.215
1742380309.241,852.539,37.598,-15.625,867.188
1742380309.245,999.512,-7.324,-41.016,999.512
1742380309.202,995.117,50.781,18.555,998.535
1742380309.206,999.512,-5.371,-45.41,999.512
1742380309.21,-97.168,-26.367,-97.656,-119.629
1742380309.214,-1000.0,-8.789,-91.309,-1000.0
1742380309.218,-330.078,42.48,-58.105,-292.969
1742380309.222,930.664,64.453,-43.945,948.242
1742380309.226,999.512,6.836,-74.707,999.512
1742380309.229,95.215,-62.988,-106.934,74.219
1742380309.233,-1000.0,-69.824,-99.121,-1000.0
1742380309.237,-498.535,-4.395,-41.016,-470.215
1742380309.241,852.539,37.598,-15.625,867.188
1742380309.245,999.512,-7.324,-41.016,999.512
1742380309.247,203.125,-58.594,-41.504,185.059
1742380309.251,-1000.0,-62.012,-7.324,-1000.0
1742380309.255,-672.363,18.555,46.875,-641.113
1742380309.259,722.168,62.5,61.035,744.141
1742380309.263,999.512,26.367,36.133,999.512
1742380309.267,166.992,-19.043,0.977,171.387
1742380309.271,-1000.0,-27.344,-1.465,-1000.0
1742380309.274,-948.73,15.137,34.18,-923.828
1742380309.278,338.867,34.18,52.246,371.094
1742380309.282,999.512,41.504,53.223,999.512
1742380309.286,172.363,5.371,38.574,172.363
1742380309.29,-1000.0,-20.02,26.367,-1000.0
1742380309.247,203.125,-58.594,-41.504,185.059
1742380309.251,-1000.0,-62.012,-7.324,-1000.0
1742380309.255,-672.363,18.555,46.875,-641.113
1742380309.259,722.168,62.5,61.035,744.141
1742380309.263,999.512,26.367,36.133,999.512
1742380309.267,166.992,-19.043,0.977,171.387
1742380309.271,-1000.0,-27.344,-1.465,-1000.0
1742380309.274,-948.73,15.137,34.18,-923.828
1742380309.278,338.867,34.18,52.246,371.094
1742380309.282,999.512,41.504,53.223,999.512
1742380309.286,172.363,5.371,38.574,172.363
1742380309.29,-1000.0,-20.02,26.367,-1000.0
1742380309.247,203.125,-58.594,-41.504,185.059
1742380309.251,-1000.0,-62.012,-7.324,-1000.0
1742380309.255,-672.363,18.555,46.875,-641.113
1742380309.259,722.168,62.5,61.035,744.141
1742380309.263,999.512,26.367,36.133,999.512
1742380309.267,166.992,-19.043,0.977,171.387
1742380309.271,-1000.0,-27.344,-1.465,-1000.0
1742380309.274,-948.73,15.137,34.18,-923.828
1742380309.278,338.867,34.18,52.246,371.094
1742380309.282,999.512,41.504,53.223,999.512
1742380309.286,172.363,5.371,38.574,172.363
1742380309.29,-1000.0,-20.02,26.367,-1000.0
1742380309.293,-1000.0,29.785,45.898,-1000.0
1742380309.297,66.406,87.891,59.57,98.145
1742380309.301,999.512,98.633,32.715,999.512
1742380309.305,309.57,36.133,20.996,277.832
1742380309.309,-960.449,25.391,48.34,-976.074
1742380309.313,-1000.0,81.055,64.941,-1000.0
1742380309.317,-114.746,126.465,71.777,-82.031
1742380309.32,999.512,131.836,82.52,999.512
1742380309.324,441.895,57.129,44.922,413.574
1742380309.328,-898.438,27.832,14.16,-909.18
1742380309.332,-1000.0,74.707,37.598,-1000.0
1742380309.336,-233.887,107.422,58.105,-222.656
1742380309.293,-1000.0,29.785,45.898,-1000.0
1742380309.297,66.406,87.891,59.57,98.145
1742380309.301,999.512,98.633,32.715,999.512
1742380309.305,309.57,36.133,20.996,277.832
1742380309.309,-960.449,25.391,48.34,-976.074
1742380309.313,-1000.0,81.055,64.941,-1000.0
1742380309.317,-114.746,126.465,71.777,-82.031
1742380309.32,999.512,131.836,82.52,999.512
1742380309.324,441.895,57.129,44.922,413.574
1742380309.328,-898.438,27.832,14.16,-909.18
1742380309.332,-1000.0,74.707,37.598,-1000.0
1742380309.336,-233.887,107.422,58.105,-222.656
1742380309.337,999.512,91.797,41.992,999.512
1742380309.341,700.195,13.672,12.207,663.574
1742380309.345,-682.129,-26.855,3.906,-714.355
1742380309.349,-1000.0,-8.789,-2.441,-1000.0
1742380309.353,-198.73,24.902,13.672,-204.102
1742380309.357,999.512,31.738,11.23,999.512
1742380309.361,911.621,-9.277,-21.484,877.441
1742380309.364,-374.023,-52.246,-30.762,-422.852
1742380309.368,-1000.0,-67.871,-29.297,-1000.0
1742380309.372,-238.77,6.836,10.254,-233.398
1742380309.376,984.863,38.086,20.508,999.512
1742380309.38,999.512,-21.484,-32.227,998.535
1742380309.382,-125.488,-52.246,-55.664,-196.289
1742380309.386,-1000.0,-38.574,-40.039,-1000.0
1742380309.39,-398.438,31.738,-6.348,-371.582
1742380309.394,900.391,57.617,7.324,915.527
1742380309.398,999.512,0.977,-32.715,999.512
1742380309.402,50.293,-21.484,-60.059,7.812
1742380309.406,-1000.0,-7.324,-36.621,-1000.0
1742380309.409,-582.52,45.41,4.395,-556.641
1742380309.413,780.762,59.082,16.602,793.457
1742380309.417,999.512,15.137,-13.672,999.512
1742380309.421,173.34,-31.25,-57.617,144.531
1742380309.425,-1000.0,-44.922,-56.152,-1000.0
1742380309.382,-125.488,-52.246,-55.664,-196.289
1742380309.386,-1000.0,-38.574,-40.039,-1000.0
1742380309.39,-398.438,31.738,-6.348,-371.582
1742380309.394,900.391,57.617,7.324,915.527
1742380309.398,999.512,0.977,-32.715,999.512
1742380309.402,50.293,-21.484,-60.059,7.812
1742380309.406,-1000.0,-7.324,-36.621,-1000.0
1742380309.409,-582.52,45.41,4.395,-556.641
1742380309.413,780.762,59.082,16.602,793.457
1742380309.417,999.512,15.137,-13.672,999.512
1742380309.421,173.34,-31.25,-57.617,144.531
1742380309.425,-1000.0,-44.922,-56.152,-1000.0
1742380309.427,-812.012,1.465,-16.113,-770.996
1742380309.431,546.387,40.039,0.0,584.961
1742380309.435,999.512,36.621,2.441,999.512
1742380309.439,162.109,-14.648,-32.227,166.992
1742380309.443,-1000.0,-36.133,-62.012,-1000.0
1742380309.447,-949.707,33.691,-31.25,-919.922
1742380309.451,341.797,77.637,-11.719,381.836
1742380309.454,999.512,38.574,-19.531,999.512
1742380309.458,140.137,-38.086,-67.383,143.066
1742380309.462,-1000.0,-41.016,-80.078,-1000.0
1742380309.466,-1000.0,32.715,-13.672,-1000.0
1742380309.47,43.945,71.289,13.184,75.195
1742380309.427,-812.012,1.465,-16.113,-770.996
1742380309.431,546.387,40.039,0.0,584.961
1742380309.435,999.512,36.621,2.441,999.512
1742380309.439,162.109,-14.648,-32.227,166.992
1742380309.443,-1000.0,-36.133,-62.012,-1000.0
1742380309.447,-949.707,33.691,-31.25,-919.922
1742380309.451,341.797,77.637,-11.719,381.836
1742380309.454,999.512,38.574,-19.531,999.512
1742380309.458,140.137,-38.086,-67.383,143.066
1742380309.462,-1000.0,-41.016,-80.078,-1000.0
1742380309.466,-1000.0,32.715,-13.672,-1000.0
1742380309.47,43.945,71.289,13.184,75.195
1742380309.427,-812.012,1.465,-16.113,-770.996
1742380309.431,546.387,40.039,0.0,584.961
1742380309.435,999.512,36.621,2.441,999.512
1742380309.439,162.109,-14.648,-32.227,166.992
1742380309.443,-1000.0,-36.133,-62.012,-1000.0
1742380309.447,-949.707,33.691,-31.25,-919.922
1742380309.451,341.797,77.637,-11.719,381.836
1742380309.454,999.512,38.574,-19.531,999.512
1742380309.458,140.137,-38.086,-67.383,143.066
1742380309.462,-1000.0,-41.016,-80.078,-1000.0
1742380309.466,-1000.0,32.715,-13.672,-1000.0
1742380309.47,43.945,71.289,13.184,75.195
1742380309.472,999.512,49.316,-17.578,999.512
1742380309.476,300.781,-13.672,-50.781,268.066
1742380309.48,-958.984,-27.832,-86.914,-974.609
1742380309.484,-1000.0,2.93,-90.332,-1000.0
1742380309.488,-174.316,40.527,-79.102,-141.602
1742380309.492,999.512,63.965,-77.637,999.512
1742380309.496,493.652,-10.254,-90.332,452.148
1742380309.499,-875.977,-59.57,-79.59,-895.508
1742380309.503,-1000.0,-12.695,-35.156,-1000.0
1742380309.507,-229.98,30.273,-10.742,-223.145
1742380309.511,999.512,36.133,-14.16,999.512
1742380309.515,704.59,-23.438,-41.992,660.156
1742380309.472,999.512,49.316,-17.578,999.512
1742380309.476,300.781,-13.672,-50.781,268.066
1742380309.48,-958.984,-27.832,-86.914,-974.609
1742380309.484,-1000.0,2.93,-90.332,-1000.0
1742380309.488,-174.316,40.527,-79.102,-141.602
1742380309.492,999.512,63.965,-77.637,999.512
1742380309.496,493.652,-10.254,-90.332,452.148
1742380309.499,-875.977,-59.57,-79.59,-895.508
1742380309.503,-1000.0,-12.695,-35.156,-1000.0
1742380309.507,-229.98,30.273,-10.742,-223.145
1742380309.511,999.512,36.133,-14.16,999.512
1742380309.515,704.59,-23.438,-41.992,660.156
1742380309.517,-677.246,-55.664,-73.242,-718.262
1742380309.521,-1000.0,-6.348,-64.453,-1000.0
1742380309.525,-196.777,62.5,-23.926,-202.148
1742380309.529,999.512,90.82,-35.156,999.512
1742380309.533,925.781,55.664,-97.168,894.531
1742380309.537,-350.098,37.598,-126.953,-395.508
1742380309.541,-1000.0,43.457,-107.422,-1000.0
1742380309.544,-221.191,79.59,-106.934,-213.379
1742380309.548,981.934,108.887,-104.98,991.699
1742380309.552,999.512,61.523,-100.586,999.512
1742380309.556,-62.988,7.324,-105.469,-101.074
1742380309.56,-1000.0,1.953,-59.082,-1000.0
1742380309.517,-677.246,-55.664,-73.242,-718.262
1742380309.521,-1000.0,-6.348,-64.453,-1000.0
1742380309.525,-196.777,62.5,-23.926,-202.148
1742380309.529,999.512,90.82,-35.156,999.512
1742380309.533,925.781,55.664,-97.168,894.531
1742380309.537,-350.098,37.598,-126.953,-395.508
1742380309.541,-1000.0,43.457,-107.422,-1000.0
1742380309.544,-221.191,79.59,-106.934,-213.379
1742380309.548,981.934,108.887,-104.98,991.699
1742380309.552,999.512,61.523,-100.586,999.512
1742380309.556,-62.988,7.324,-105.469,-101.074
1742380309.56,-1000.0,1.953,-59.082,-1000.0
1742380309.517,-677.246,-55.664,-73.242,-718.262
1742380309.521,-1000.0,-6.348,-64.453,-1000.0
1742380309.525,-196.777,62.5,-23.926,-202.148
1742380309.529,999.512,90.82,-35.156,999.512
1742380309.533,925.781,55.664,-97.168,894.531
1742380309.537,-350.098,37.598,-126.953,-395.508
1742380309.541,-1000.0,43.457,-107.422,-1000.0
1742380309.544,-221.191,79.59,-106.934,-213.379
1742380309.548,981.934,108.887,-104.98,991.699
1742380309.552,999.512,61.523,-100.586,999.512
1742380309.556,-62.988,7.324,-105.469,-101.074
1742380309.56,-1000.0,1.953,-59.082,-1000.0
1742380309.579,-366.699,40.527,-0.977,-338.867
1742380309.583,909.668,37.109,15.625,923.34
1742380309.587,999.512,-6.348,5.859,999.512
1742380309.591,160.645,-43.945,-7.812,119.141
1742380309.595,-1000.0,-61.035,-30.762,-1000.0
1742380309.599,-489.746,6.836,-50.781,-456.055
1742380309.603,868.652,44.434,-54.688,881.348
1742380309.606,999.512,-10.254,-69.824,999.512
1742380309.61,200.684,-65.918,-91.797,190.918
1742380309.614,-1000.0,-61.523,-58.105,-1000.0
1742380309.618,-722.656,7.324,10.742,-686.523
1742380309.622,662.598,27.832,38.574,693.848
1742380309.579,-366.699,40.527,-0.977,-338.867
1742380309.583,909.668,37.109,15.625,923.34
1742380309.587,999.512,-6.348,5.859,999.512
1742380309.591,160.645,-43.945,-7.812,119.141
1742380309.595,-1000.0,-61.035,-30.762,-1000.0
1742380309.599,-489.746,6.836,-50.781,-456.055
1742380309.603,868.652,44.434,-54.688,881.348
1742380309.606,999.512,-10.254,-69.824,999.512
1742380309.61,200.684,-65.918,-91.797,190.918
1742380309.614,-1000.0,-61.523,-58.105,-1000.0
1742380309.618,-722.656,7.324,10.742,-686.523
1742380309.622,662.598,27.832,38.574,693.848
1742380309.622,999.512,5.371,18.066,999.512
1742380309.626,165.039,-42.48,-5.859,170.41
1742380309.63,-1000.0,-82.031,-4.883,-1000.0
1742380309.634,-945.312,-32.227,22.949,-914.062
1742380309.638,339.355,9.277,48.34,384.277
1742380309.642,999.512,0.488,41.992,999.512
1742380309.646,202.637,-45.898,24.414,190.43
1742380309.649,-1000.0,-73.242,14.648,-1000.0
1742380309.653,-1000.0,-50.781,28.32,-1000.0
1742380309.657,8.301,-23.438,40.527,45.898
1742380309.661,999.512,-25.879,21.484,999.512
1742380309.665,379.395,-83.984,24.414,336.426
1742380309.622,999.512,5.371,18.066,999.512
1742380309.626,165.039,-42.48,-5.859,170.41
1742380309.63,-1000.0,-82.031,-4.883,-1000.0
1742380309.634,-945.312,-32.227,22.949,-914.062
1742380309.638,339.355,9.277,48.34,384.277
1742380309.642,999.512,0.488,41.992,999.512
1742380309.646,202.637,-45.898,24.414,190.43
1742380309.649,-1000.0,-73.242,14.648,-1000.0
1742380309.653,-1000.0,-50.781,28.32,-1000.0
1742380309.657,8.301,-23.438,40.527,45.898
1742380309.661,999.512,-25.879,21.484,999.512
1742380309.665,379.395,-83.984,24.414,336.426
1742380309.622,999.512,5.371,18.066,999.512
1742380309.626,165.039,-42.48,-5.859,170.41
1742380309.63,-1000.0,-82.031,-4.883,-1000.0
1742380309.634,-945.312,-32.227,22.949,-914.062
1742380309.638,339.355,9.277,48.34,384.277
1742380309.642,999.512,0.488,41.992,999.512
1742380309.646,202.637,-45.898,24.414,190.43
1742380309.649,-1000.0,-73.242,14.648,-1000.0
1742380309.653,-1000.0,-50.781,28.32,-1000.0
1742380309.657,8.301,-23.438,40.527,45.898
1742380309.661,999.512,-25.879,21.484,999.512
1742380309.665,379.395,-83.984,24.414,336.426
1742380309.667,-933.105,-113.281,41.016,-954.59
1742380309.671,-1000.0,-65.43,60.547,-1000.0
1742380309.675,-104.98,-20.996,67.383,-70.312
1742380309.679,999.512,-26.855,42.48,999.512
1742380309.683,554.199,-96.68,17.09,526.367
1742380309.687,-811.035,-118.164,14.648,-826.172
1742380309.691,-1000.0,-72.266,28.32,-1000.0
1742380309.694,-218.262,-40.039,17.09,-187.012
1742380309.698,999.512,-43.457,-6.348,999.512
1742380309.702,789.551,-82.031,-20.02,756.348
1742380309.706,-567.871,-103.027,-20.02,-595.215
1742380309.71,-1000.0,-78.125,-8.789,-1000.0
1742380309.667,-933.105,-113.281,41.016,-954.59
1742380309.671,-1000.0,-65.43,60.547,-1000.0
1742380309.675,-104.98,-20.996,67.383,-70.312
1742380309.679,999.512,-26.855,42.48,999.512
1742380309.683,554.199,-96.68,17.09,526.367
1742380309.687,-811.035,-118.164,14.648,-826.172
1742380309.691,-1000.0,-72.266,28.32,-1000.0
1742380309.694,-218.262,-40.039,17.09,-187.012
1742380309.698,999.512,-43.457,-6.348,999.512
1742380309.702,789.551,-82.031,-20.02,756.348
1742380309.706,-567.871,-103.027,-20.02,-595.215
1742380309.71,-1000.0,-78.125,-8.789,-1000.0
1742380309.712,-194.336,-15.625,0.488,-199.219
1742380309.716,999.512,8.789,-18.555,999.512
1742380309.72,928.711,-34.18,-43.945,890.137
1742380309.724,-344.238,-68.359,-42.969,-401.855
1742380309.728,-1000.0,-46.875,-13.672,-1000.0
1742380309.732,-233.398,26.855,40.527,-225.586
1742380309.736,984.375,36.621,46.875,995.605
1742380309.739,999.512,-19.043,-5.371,999.512
1742380309.743,-102.051,-75.195,-48.34,-148.438
1742380309.747,-1000.0,-82.52,-30.273,-1000.0
1742380309.751,-459.961,12.695,2.93,-436.035
1742380309.755,867.676,37.109,-19.531,883.301
1742380309.712,-194.336,-15.625,0.488,-199.219
1742380309.716,999.512,8.789,-18.555,999.512
1742380309.72,928.711,-34.18,-43.945,890.137
1742380309.724,-344.238,-68.359,-42.969,-401.855
1742380309.728,-1000.0,-46.875,-13.672,-1000.0
1742380309.732,-233.398,26.855,40.527,-225.586
1742380309.736,984.375,36.621,46.875,995.605
1742380309.739,999.512,-19.043,-5.371,999.512
1742380309.743,-102.051,-75.195,-48.34,-148.438
1742380309.747,-1000.0,-82.52,-30.273,-1000.0
1742380309.751,-459.961,12.695,2.93,-436.035
1742380309.755,867.676,37.109,-19.531,883.301
1742380309.757,999.512,-29.297,-38.574,999.512
1742380309.761,54.688,-67.871,-54.199,10.742
1742380309.765,-1000.0,-66.895,-49.316,-1000.0
1742380309.769,-642.578,-7.812,-18.066,-601.562
1742380309.773,720.215,26.367,-10.742,750.977
1742380309.777,999.512,0.488,-11.719,999.512
1742380309.781,176.27,-63.965,-21.973,157.227
1742380309.784,-1000.0,-93.75,-35.645,-1000.0
1742380309.788,-872.07,-24.414,2.93,-830.078
1742380309.792,462.891,15.625,44.922,508.789
1742380309.796,999.512,-19.043,33.203,999.512
1742380309.8,155.762,-85.449,5.371,161.621
1742380309.802,-1000.0,-99.121,7.812,-1000.0
1742380309.806,-993.652,-36.133,34.668,-954.102
1742380309.81,256.348,9.277,72.266,318.848
1742380309.814,999.512,-10.742,81.543,999.512
1742380309.818,190.918,-82.031,19.531,185.059
1742380309.822,-1000.0,-92.773,13.672,-1000.0
1742380309.826,-1000.0,-35.156,62.012,-1000.0
1742380309.829,53.223,-3.418,72.754,89.844
1742380309.833,999.512,-16.113,56.641,999.512
1742380309.837,311.523,-72.754,19.531,291.016
1742380309.841,-953.613,-77.637,24.414,-962.891
1742380309.845,-1000.0,-44.434,74.707,-1000.0
1742380309.802,-1000.0,-99.121,7.812,-1000.0
1742380309.806,-993.652,-36.133,34.668,-954.102
1742380309.81,256.348,9.277,72.266,318.848
1742380309.814,999.512,-10.742,81.543,999.512
1742380309.818,190.918,-82.031,19.531,185.059
1742380309.822,-1000.0,-92.773,13.672,-1000.0
1742380309.826,-1000.0,-35.156,62.012,-1000.0
1742380309.829,53.223,-3.418,72.754,89.844
1742380309.833,999.512,-16.113,56.641,999.512
1742380309.837,311.523,-72.754,19.531,291.016
1742380309.841,-953.613,-77.637,24.414,-962.891
1742380309.845,-1000.0,-44.434,74.707,-1000.0
1742380309.848,-174.316,-18.066,100.586,-140.137
1742380309.852,999.512,-7.324,85.449,999.512
1742380309.856,545.898,-70.801,32.715,519.531
1742380309.86,-833.008,-101.074,16.602,-842.773
1742380309.864,-1000.0,-63.477,44.922,-1000.0
1742380309.868,-221.191,-3.418,53.711,-208.496
1742380309.872,999.512,4.395,42.48,999.512
1742380309.875,770.996,-72.754,5.371,722.168
1742380309.879,-593.262,-98.145,-23.438,-645.02
1742380309.883,-1000.0,-49.805,-17.578,-1000.0
1742380309.887,-187.5,3.418,-10.254,-195.801
1742380309.891,999.512,5.371,-18.066,999.512
1742380309.892,979.004,-45.41,-26.367,927.734
1742380309.896,-253.418,-73.73,-33.203,-338.867
1742380309.9,-1000.0,-62.012,-44.922,-1000.0
1742380309.904,-230.957,-7.324,-41.504,-221.68
1742380309.908,974.609,19.531,-27.344,985.352
1742380309.912,999.512,-8.789,-59.57,999.512
1742380309.916,-11.23,-46.387,-98.145,-65.918
1742380309.919,-1000.0,-47.363,-71.289,-1000.0
1742380309.923,-419.434,2.93,-30.273,-381.348
1742380309.927,888.184,32.715,-29.297,906.738
1742380309.931,999.512,11.23,-55.176,999.512
1742380309.935,166.016,-19.043,-75.195,118.652
1742380309.892,979.004,-45.41,-26.367,927.734
1742380309.896,-253.418,-73.73,-33.203,-338.867
1742380309.9,-1000.0,-62.012,-44.922,-1000.0
1742380309.904,-230.957,-7.324,-41.504,-221.68
1742380309.908,974.609,19.531,-27.344,985.352
1742380309.912,999.512,-8.789,-59.57,999.512
1742380309.916,-11.23,-46.387,-98.145,-65.918
1742380309.919,-1000.0,-47.363,-71.289,-1000.0
1742380309.923,-419.434,2.93,-30.273,-381.348
1742380309.927,888.184,32.715,-29.297,906.738
1742380309.931,999.512,11.23,-55.176,999.512
1742380309.935,166.016,-19.043,-75.195,118.652
1742380309.892,979.004,-45.41,-26.367,927.734
1742380309.896,-253.418,-73.73,-33.203,-338.867
1742380309.9,-1000.0,-62.012,-44.922,-1000.0
1742380309.904,-230.957,-7.324,-41.504,-221.68
1742380309.908,974.609,19.531,-27.344,985.352
1742380309.912,999.512,-8.789,-59.57,999.512
1742380309.916,-11.23,-46.387,-98.145,-65.918
1742380309.919,-1000.0,-47.363,-71.289,-1000.0
1742380309.923,-419.434,2.93,-30.273,-381.348
1742380309.927,888.184,32.715,-29.297,906.738
1742380309.931,999.512,11.23,-55.176,999.512
1742380309.935,166.016,-19.043,-75.195,118.652
1742380309.953,-1000.0,-40.527,-84.473,-1000.0
1742380309.957,-544.434,14.16,-60.547,-506.348
1742380309.961,836.426,56.152,-53.223,852.051
1742380309.965,999.512,10.742,-99.121,999.512
1742380309.969,193.359,-51.758,-118.652,190.918
1742380309.973,-1000.0,-49.805,-104.004,-1000.0
1742380309.977,-755.859,15.625,-66.406,-707.031
1742380309.98,621.582,31.738,-34.18,670.898
1742380309.984,999.512,-4.395,-47.363,999.512
1742380309.988,166.992,-53.223,-98.633,174.316
1742380309.992,-1000.0,-72.754,-113.281,-1000.0
1742380309.996,-916.992,-21.484,-49.805,-872.559
1742380309.953,-1000.0,-40.527,-84.473,-1000.0
1742380309.957,-544.434,14.16,-60.547,-506.348
1742380309.961,836.426,56.152,-53.223,852.051
1742380309.965,999.512,10.742,-99.121,999.512
1742380309.969,193.359,-51.758,-118.652,190.918
1742380309.973,-1000.0,-49.805,-104.004,-1000.0
1742380309.977,-755.859,15.625,-66.406,-707.031
1742380309.98,621.582,31.738,-34.18,670.898
1742380309.984,999.512,-4.395,-47.363,999.512
1742380309.988,166.992,-53.223,-98.633,174.316
1742380309.992,-1000.0,-72.754,-113.281,-1000.0
1742380309.996,-916.992,-21.484,-49.805,-872.559
1742380309.953,-1000.0,-40.527,-84.473,-1000.0
1742380309.957,-544.434,14.16,-60.547,-506.348
1742380309.961,836.426,56.152,-53.223,852.051
1742380309.965,999.512,10.742,-99.121,999.512
1742380309.969,193.359,-51.758,-118.652,190.918
1742380309.973,-1000.0,-49.805,-104.004,-1000.0
1742380309.977,-755.859,15.625,-66.406,-707.031
1742380309.98,621.582,31.738,-34.18,670.898
1742380309.984,999.512,-4.395,-47.363,999.512
1742380309.988,166.992,-53.223,-98.633,174.316
1742380309.992,-1000.0,-72.754,-113.281,-1000.0
1742380309.996,-916.992,-21.484,-49.805,-872.559
1742380309.997,377.93,13.184,-22.461,443.848
1742380310.001,999.512,-7.812,-43.945,999.512
1742380310.005,270.508,-49.316,-52.734,245.117
1742380310.009,-989.746,-57.129,-43.945,-1000.0
1742380310.013,-1000.0,6.836,-28.809,-1000.0
1742380310.017,83.984,55.664,-10.254,137.207
1742380310.021,999.512,41.504,0.488,999.512
1742380310.024,440.918,-20.508,-11.719,403.809
1742380310.028,-887.695,-62.988,-25.879,-908.691
1742380310.032,-1000.0,-7.324,-12.207,-1000.0
1742380310.036,-111.328,69.336,21.973,-82.031
1742380310.04,999.512,80.078,18.066,999.512
1742380309.997,377.93,13.184,-22.461,443.848
1742380310.001,999.512,-7.812,-43.945,999.512
1742380310.005,270.508,-49.316,-52.734,245.117
1742380310.009,-989.746,-57.129,-43.945,-1000.0
1742380310.013,-1000.0,6.836,-28.809,-1000.0
1742380310.017,83.984,55.664,-10.254,137.207
1742380310.021,999.512,41.504,0.488,999.512
1742380310.024,440.918,-20.508,-11.719,403.809
1742380310.028,-887.695,-62.988,-25.879,-908.691
1742380310.032,-1000.0,-7.324,-12.207,-1000.0
1742380310.036,-111.328,69.336,21.973,-82.031
1742380310.04,999.512,80.078,18.066,999.512
1742380310.042,621.582,33.203,-17.09,570.312
1742380310.046,-746.094,-15.137,-25.879,-789.551
1742380310.05,-1000.0,0.977,-8.301,-1000.0
1742380310.054,-199.219,38.086,0.0,-175.293
1742380310.058,999.512,22.949,-16.602,999.512
1742380310.062,886.23,-20.02,-38.574,825.195
1742380310.066,-423.34,-60.547,-54.199,-499.023
1742380310.069,-1000.0,-54.688,-32.227,-1000.0
1742380310.073,-181.641,0.977,-2.93,-187.5
1742380310.077,999.512,11.719,2.93,999.512
1742380310.081,999.512,-31.738,-27.832,973.633
1742380310.085,-194.336,-83.008,-44.434,-257.324
1742380310.042,621.582,33.203,-17.09,570.312
1742380310.046,-746.094,-15.137,-25.879,-789.551
1742380310.05,-1000.0,0.977,-8.301,-1000.0
1742380310.054,-199.219,38.086,0.0,-175.293
1742380310.058,999.512,22.949,-16.602,999.512
1742380310.062,886.23,-20.02,-38.574,825.195
1742380310.066,-423.34,-60.547,-54.199,-499.023
1742380310.069,-1000.0,-54.688,-32.227,-1000.0
1742380310.073,-181.641,0.977,-2.93,-187.5
1742380310.077,999.512,11.719,2.93,999.512
1742380310.081,999.512,-31.738,-27.832,973.633
1742380310.085,-194.336,-83.008,-44.434,-257.324
1742380310.087,-1000.0,-78.613,10.742,-1000.0
1742380310.091,-171.387,-15.625,46.387,-177.246
1742380310.095,994.141,-9.766,23.438,995.605
1742380310.099,999.512,-47.852,5.371,999.512
1742380310.103,20.996,-82.031,-11.719,-13.184
1742380310.107,-1000.0,-86.914,-25.879,-1000.0
1742380310.111,-334.961,-19.043,-14.16,-298.34
1742380310.114,931.641,-11.719,-24.414,948.73
1742380310.118,999.512,-78.613,-53.711,999.512
1742380310.122,178.711,-108.887,-42.48,135.742
1742380310.126,-1000.0,-94.238,-24.902,-1000.0
1742380310.13,-536.621,-23.926,-3.418,-494.629
1742380310.087,-1000.0,-78.613,10.742,-1000.0
1742380310.091,-171.387,-15.625,46.387,-177.246
1742380310.095,994.141,-9.766,23.438,995.605
1742380310.099,999.512,-47.852,5.371,999.512
1742380310.103,20.996,-82.031,-11.719,-13.184
1742380310.107,-1000.0,-86.914,-25.879,-1000.0
1742380310.111,-334.961,-19.043,-14.16,-298.34
1742380310.114,931.641,-11.719,-24.414,948.73
1742380310.118,999.512,-78.613,-53.711,999.512
1742380310.122,178.711,-108.887,-42.48,135.742
1742380310.126,-1000.0,-94.238,-24.902,-1000.0
1742380310.13,-536.621,-23.926,-3.418,-494.629
1742380310.132,842.773,2.441,-3.418,860.352
1742380310.136,999.512,-33.203,-37.109,999.512
1742380310.14,194.336,-72.754,-54.688,195.801
1742380310.144,-1000.0,-83.984,-61.035,-1000.0
1742380310.148,-754.395,-23.926,-34.668,-709.961
1742380310.152,623.535,35.156,7.812,668.945
1742380310.156,999.512,2.441,10.742,999.512
1742380310.159,166.504,-73.242,-30.273,174.316
1742380310.163,-1000.0,-72.266,-29.785,-1000.0
1742380310.167,-923.828,-7.324,17.09,-873.047
1742380310.171,371.094,5.859,15.137,443.848
1742380310.175,999.512,-23.438,-5.859,999.512
1742380310.177,243.164,-76.66,-27.344,237.793
1742380310.181,-995.605,-77.637,-17.578,-1000.0
1742380310.185,-1000.0,-15.137,49.805,-1000.0
1742380310.189,48.828,21.973,75.195,95.215
1742380310.193,999.512,15.625,51.27,999.512
1742380310.197,389.648,-50.781,8.789,351.074
1742380310.201,-909.18,-85.938,-20.996,-929.199
1742380310.204,-1000.0,-61.035,-32.227,-1000.0
1742380310.208,-220.215,-38.086,-46.387,-178.711
1742380310.212,999.512,-36.133,-62.012,999.512
1742380310.216,544.434,-97.168,-87.402,514.648
1742380310.22,-845.703,-122.559,-80.078,-854.492
1742380310.177,243.164,-76.66,-27.344,237.793
1742380310.181,-995.605,-77.637,-17.578,-1000.0
1742380310.185,-1000.0,-15.137,49.805,-1000.0
1742380310.189,48.828,21.973,75.195,95.215
1742380310.193,999.512,15.625,51.27,999.512
1742380310.197,389.648,-50.781,8.789,351.074
1742380310.201,-909.18,-85.938,-20.996,-929.199
1742380310.204,-1000.0,-61.035,-32.227,-1000.0
1742380310.208,-220.215,-38.086,-46.387,-178.711
1742380310.212,999.512,-36.133,-62.012,999.512
1742380310.216,544.434,-97.168,-87.402,514.648
1742380310.22,-845.703,-122.559,-80.078,-854.492
1742380310.222,-1000.0,-85.449,-35.156,-1000.0
1742380310.226,-213.379,-40.039,9.766,-208.496
1742380310.23,999.512,-23.926,40.527,999.512
1742380310.234,847.656,-57.129,14.16,790.039
1742380310.238,-481.934,-92.285,-15.137,-553.711
1742380310.242,-1000.0,-48.828,31.738,-1000.0
1742380310.246,-186.035,16.113,41.504,-192.871
1742380310.249,999.512,-1.953,0.488,999.512
1742380310.253,984.375,-55.176,-40.039,939.453
1742380310.257,-245.605,-82.031,-57.129,-320.312
1742380310.261,-1000.0,-62.988,-24.414,-1000.0
1742380310.265,-218.75,-13.672,0.977,-209.961
1742380310.222,-1000.0,-85.449,-35.156,-1000.0
1742380310.226,-213.379,-40.039,9.766,-208.496
1742380310.23,999.512,-23.926,40.527,999.512
1742380310.234,847.656,-57.129,14.16,790.039
1742380310.238,-481.934,-92.285,-15.137,-553.711
1742380310.242,-1000.0,-48.828,31.738,-1000.0
1742380310.246,-186.035,16.113,41.504,-192.871
1742380310.249,999.512,-1.953,0.488,999.512
1742380310.253,984.375,-55.176,-40.039,939.453
1742380310.257,-245.605,-82.031,-57.129,-320.312
1742380310.261,-1000.0,-62.988,-24.414,-1000.0
1742380310.265,-218.75,-13.672,0.977,-209.961
1742380310.222,-1000.0,-85.449,-35.156,-1000.0
1742380310.226,-213.379,-40.039,9.766,-208.496
1742380310.23,999.512,-23.926,40.527,999.512
1742380310.234,847.656,-57.129,14.16,790.039
1742380310.238,-481.934,-92.285,-15.137,-553.711
1742380310.242,-1000.0,-48.828,31.738,-1000.0
1742380310.246,-186.035,16.113,41.504,-192.871
1742380310.249,999.512,-1.953,0.488,999.512
1742380310.253,984.375,-55.176,-40.039,939.453
1742380310.257,-245.605,-82.031,-57.129,-320.312
1742380310.261,-1000.0,-62.988,-24.414,-1000.0
1742380310.265,-218.75,-13.672,0.977,-209.961
1742380310.267,976.074,-11.719,-12.207,983.887
1742380310.271,999.512,-44.434,-4.395,999.512
1742380310.275,9.277,-62.012,-20.508,-28.32
1742380310.279,-1000.0,-68.848,-36.133,-1000.0
1742380310.283,-398.438,-12.695,-1.953,-362.305
1742380310.287,898.926,33.203,-41.016,916.504
1742380310.291,999.512,-12.695,-93.75,999.512
1742380310.294,184.082,-63.477,-98.633,139.648
1742380310.298,-1000.0,-69.824,-83.008,-1000.0
1742380310.302,-584.961,-9.277,-42.48,-558.594
1742380310.306,804.199,13.672,-26.367,810.059
1742380310.31,999.512,-30.762,-27.344,999.512
1742380310.267,976.074,-11.719,-12.207,983.887
1742380310.271,999.512,-44.434,-4.395,999.512
1742380310.275,9.277,-62.012,-20.508,-28.32
1742380310.279,-1000.0,-68.848,-36.133,-1000.0
1742380310.283,-398.438,-12.695,-1.953,-362.305
1742380310.287,898.926,33.203,-41.016,916.504
1742380310.291,999.512,-12.695,-93.75,999.512
1742380310.294,184.082,-63.477,-98.633,139.648
1742380310.298,-1000.0,-69.824,-83.008,-1000.0
1742380310.302,-584.961,-9.277,-42.48,-558.594
1742380310.306,804.199,13.672,-26.367,810.059
1742380310.31,999.512,-30.762,-27.344,999.512
1742380310.327,182.617,-72.754,-25.391,175.781
1742380310.331,-1000.0,-84.961,-23.438,-1000.0
1742380310.335,-846.191,-27.344,-23.438,-811.035
1742380310.339,500.488,28.32,-39.551,538.574
1742380310.343,999.512,9.766,-61.035,999.512
1742380310.347,147.461,-47.852,-107.91,153.809
1742380310.351,-1000.0,-83.008,-136.23,-1000.0
1742380310.354,-1000.0,-51.27,-125.0,-1000.0
1742380310.358,149.414,11.23,-112.793,208.984
1742380310.362,999.512,-10.742,-118.652,999.512
1742380310.366,200.684,-80.566,-121.582,188.477
1742380310.37,-1000.0,-74.219,-111.816,-1000.0
1742380310.327,182.617,-72.754,-25.391,175.781
1742380310.331,-1000.0,-84.961,-23.438,-1000.0
1742380310.335,-846.191,-27.344,-23.438,-811.035
1742380310.339,500.488,28.32,-39.551,538.574
1742380310.343,999.512,9.766,-61.035,999.512
1742380310.347,147.461,-47.852,-107.91,153.809
1742380310.351,-1000.0,-83.008,-136.23,-1000.0
1742380310.354,-1000.0,-51.27,-125.0,-1000.0
1742380310.358,149.414,11.23,-112.793,208.984
1742380310.362,999.512,-10.742,-118.652,999.512
1742380310.366,200.684,-80.566,-121.582,188.477
1742380310.37,-1000.0,-74.219,-111.816,-1000.0
1742380310.36,-1000.0,-35.645,-110.352,-1000.0
1742380310.364,1.953,-8.301,-110.84,48.828
1742380310.368,999.512,-8.301,-89.355,999.512
1742380310.372,419.434,-78.125,-89.355,391.113
1742380310.376,-912.109,-103.516,-77.148,-927.734
1742380310.38,-1000.0,-36.621,-71.289,-1000.0
1742380310.384,-100.586,10.254,-76.66,-58.105
1742380310.387,999.512,4.395,-79.102,999.512
1742380310.391,614.746,-72.266,-120.117,562.012
1742380310.395,-751.953,-126.953,-113.77,-792.969
1742380310.399,-1000.0,-68.359,-53.711,-1000.0
1742380310.403,-194.336,14.16,-46.875,-169.434
1742380310.36,-1000.0,-35.645,-110.352,-1000.0
1742380310.364,1.953,-8.301,-110.84,48.828
1742380310.368,999.512,-8.301,-89.355,999.512
1742380310.372,419.434,-78.125,-89.355,391.113
1742380310.376,-912.109,-103.516,-77.148,-927.734
1742380310.38,-1000.0,-36.621,-71.289,-1000.0
1742380310.384,-100.586,10.254,-76.66,-58.105
1742380310.387,999.512,4.395,-79.102,999.512
1742380310.391,614.746,-72.266,-120.117,562.012
1742380310.395,-751.953,-126.953,-113.77,-792.969
1742380310.399,-1000.0,-68.359,-53.711,-1000.0
1742380310.403,-194.336,14.16,-46.875,-169.434
1742380310.36,-1000.0,-35.645,-110.352,-1000.0
1742380310.364,1.953,-8.301,-110.84,48.828
1742380310.368,999.512,-8.301,-89.355,999.512
1742380310.372,419.434,-78.125,-89.355,391.113
1742380310.376,-912.109,-103.516,-77.148,-927.734
1742380310.38,-1000.0,-36.621,-71.289,-1000.0
1742380310.384,-100.586,10.254,-76.66,-58.105
1742380310.387,999.512,4.395,-79.102,999.512
1742380310.391,614.746,-72.266,-120.117,562.012
1742380310.395,-751.953,-126.953,-113.77,-792.969
1742380310.399,-1000.0,-68.359,-53.711,-1000.0
1742380310.403,-194.336,14.16,-46.875,-169.434
1742380310.417,999.512,13.672,-70.801,999.512
1742380310.421,884.277,-6.348,-120.117,821.777
1742380310.425,-424.805,-21.484,-146.973,-501.953
1742380310.429,-1000.0,-25.391,-115.723,-1000.0
1742380310.433,-176.758,12.207,-106.445,-183.105
1742380310.437,999.512,19.043,-106.445,999.512
1742380310.441,999.512,-41.992,-139.16,999.512
1742380310.444,-125.977,-97.656,-158.691,-199.219
1742380310.448,-1000.0,-89.355,-125.0,-1000.0
1742380310.452,-171.387,-30.762,-84.961,-172.363
1742380310.456,990.723,-18.555,-46.875,994.629
1742380310.46,999.512,-65.918,-67.383,999.512
1742380310.417,999.512,13.672,-70.801,999.512
1742380310.421,884.277,-6.348,-120.117,821.777
1742380310.425,-424.805,-21.484,-146.973,-501.953
1742380310.429,-1000.0,-25.391,-115.723,-1000.0
1742380310.433,-176.758,12.207,-106.445,-183.105
1742380310.437,999.512,19.043,-106.445,999.512
1742380310.441,999.512,-41.992,-139.16,999.512
1742380310.444,-125.977,-97.656,-158.691,-199.219
1742380310.448,-1000.0,-89.355,-125.0,-1000.0
1742380310.452,-171.387,-30.762,-84.961,-172.363
1742380310.456,990.723,-18.555,-46.875,994.629
1742380310.46,999.512,-65.918,-67.383,999.512
1742380310.463,83.496,-109.375,-95.215,33.203
1742380310.467,-1000.0,-93.75,-71.777,-1000.0
1742380310.471,-341.797,-27.344,-32.227,-302.246
1742380310.475,932.617,-30.273,-25.391,947.266
1742380310.479,999.512,-79.59,-47.363,999.512
1742380310.483,211.426,-100.586,-49.316,174.316
1742380310.487,-1000.0,-87.402,-34.18,-1000.0
1742380310.49,-557.129,-31.738,-11.23,-527.832
1742380310.494,834.961,-29.297,-19.531,843.75
1742380310.498,999.512,-76.66,-69.824,999.512
1742380310.502,177.734,-109.863,-97.656,161.621
1742380310.506,-1000.0,-104.98,-58.105,-1000.0
1742380310.463,83.496,-109.375,-95.215,33.203
1742380310.467,-1000.0,-93.75,-71.777,-1000.0
1742380310.471,-341.797,-27.344,-32.227,-302.246
1742380310.475,932.617,-30.273,-25.391,947.266
1742380310.479,999.512,-79.59,-47.363,999.512
1742380310.483,211.426,-100.586,-49.316,174.316
1742380310.487,-1000.0,-87.402,-34.18,-1000.0
1742380310.49,-557.129,-31.738,-11.23,-527.832
1742380310.494,834.961,-29.297,-19.531,843.75
1742380310.498,999.512,-76.66,-69.824,999.512
1742380310.502,177.734,-109.863,-97.656,161.621
1742380310.506,-1000.0,-104.98,-58.105,-1000.0
1742380310.508,-911.133,-47.852,-2.93,-860.84
1742380310.512,404.297,0.0,13.672,466.797
1742380310.516,999.512,-20.508,-4.883,999.512
1742380310.52,150.879,-83.008,-53.223,156.738
1742380310.524,-1000.0,-87.402,-61.523,-1000.0
1742380310.528,-1000.0,-35.645,-16.113,-988.281
1742380310.532,194.336,1.953,20.508,254.883
1742380310.535,999.512,-18.066,43.945,999.512
1742380310.539,218.262,-89.355,41.016,209.473
1742380310.543,-1000.0,-96.191,53.711,-1000.0
1742380310.547,-1000.0,-47.363,86.914,-1000.0
1742380310.551,83.496,-31.738,82.031,145.508
1742380310.508,-911.133,-47.852,-2.93,-860.84
1742380310.512,404.297,0.0,13.672,466.797
1742380310.516,999.512,-20.508,-4.883,999.512
1742380310.52,150.879,-83.008,-53.223,156.738
1742380310.524,-1000.0,-87.402,-61.523,-1000.0
1742380310.528,-1000.0,-35.645,-16.113,-988.281
1742380310.532,194.336,1.953,20.508,254.883
1742380310.535,999.512,-18.066,43.945,999.512
1742380310.539,218.262,-89.355,41.016,209.473
1742380310.543,-1000.0,-96.191,53.711,-1000.0
1742380310.547,-1000.0,-47.363,86.914,-1000.0
1742380310.551,83.496,-31.738,82.031,145.508
1742380310.552,999.512,-47.852,45.898,999.512
1742380310.556,529.297,-84.473,-13.184,500.977
1742380310.56,-840.332,-102.539,-65.918,-860.84
1742380310.564,-1000.0,-74.707,-69.336,-1000.0
1742380310.568,48.34,-23.926,-50.781,89.844
1742380310.572,999.512,-32.227,-4.883,999.512
1742380310.576,960.938,-79.102,25.879,895.02
1742380310.579,-244.141,-109.375,26.855,-349.121
1742380310.583,-1000.0,-115.723,8.789,-1000.0
1742380310.587,-62.988,-66.406,-12.207,-33.203
1742380310.591,999.512,-44.434,-24.414,999.512
1742380310.595,999.512,-76.66,-36.621,964.355
1742380310.597,-142.09,-108.398,-31.25,-221.191
1742380310.601,-1000.0,-86.426,-11.719,-1000.0
1742380310.605,-183.594,-23.438,-12.207,-176.758
1742380310.609,999.512,-30.762,-33.691,999.512
1742380310.613,999.512,-64.941,-61.035,999.512
1742380310.617,-109.863,-68.359,-76.66,-178.223
1742380310.621,-1000.0,-61.523,-55.664,-1000.0
1742380310.624,-227.539,-22.461,-29.297,-221.68
1742380310.628,991.211,-7.324,-38.574,999.512
1742380310.632,999.512,-55.176,-83.008,999.512
1742380310.636,-46.387,-95.215,-82.031,-97.656
1742380310.64,-1000.0,-86.426,-51.27,-1000.0
1742380310.597,-142.09,-108.398,-31.25,-221.191
1742380310.601,-1000.0,-86.426,-11.719,-1000.0
1742380310.605,-183.594,-23.438,-12.207,-176.758
1742380310.609,999.512,-30.762,-33.691,999.512
1742380310.613,999.512,-64.941,-61.035,999.512
1742380310.617,-109.863,-68.359,-76.66,-178.223
1742380310.621,-1000.0,-61.523,-55.664,-1000.0
1742380310.624,-227.539,-22.461,-29.297,-221.68
1742380310.628,991.211,-7.324,-38.574,999.512
1742380310.632,999.512,-55.176,-83.008,999.512
1742380310.636,-46.387,-95.215,-82.031,-97.656
1742380310.64,-1000.0,-86.426,-51.27,-1000.0
1742380310.642,-470.703,-29.785,-56.641,-434.57
1742380310.646,866.211,3.906,-73.242,886.23
1742380310.65,999.512,-24.414,-77.637,999.512
1742380310.654,60.547,-62.988,-82.52,24.414
1742380310.658,-1000.0,-57.129,-55.176,-1000.0
1742380310.662,-734.863,22.949,-30.273,-677.246
1742380310.666,626.953,43.457,-53.223,685.547
1742380310.669,999.512,-12.207,-73.242,999.512
1742380310.673,57.129,-62.988,-94.238,33.691
1742380310.677,-1000.0,-51.27,-101.562,-1000.0
1742380310.681,-1000.0,0.977,-61.035,-1000.0
1742380310.685,96.191,41.016,-26.855,187.5
1742380310.642,-470.703,-29.785,-56.641,-434.57
1742380310.646,866.211,3.906,-73.242,886.23
1742380310.65,999.512,-24.414,-77.637,999.512
1742380310.654,60.547,-62.988,-82.52,24.414
1742380310.658,-1000.0,-57.129,-55.176,-1000.0
1742380310.662,-734.863,22.949,-30.273,-677.246
1742380310.666,626.953,43.457,-53.223,685.547
1742380310.669,999.512,-12.207,-73.242,999.512
1742380310.673,57.129,-62.988,-94.238,33.691
1742380310.677,-1000.0,-51.27,-101.562,-1000.0
1742380310.681,-1000.0,0.977,-61.035,-1000.0
1742380310.685,96.191,41.016,-26.855,187.5
1742380310.642,-470.703,-29.785,-56.641,-434.57
1742380310.646,866.211,3.906,-73.242,886.23
1742380310.65,999.512,-24.414,-77.637,999.512
1742380310.654,60.547,-62.988,-82.52,24.414
1742380310.658,-1000.0,-57.129,-55.176,-1000.0
1742380310.662,-734.863,22.949,-30.273,-677.246
1742380310.666,626.953,43.457,-53.223,685.547
1742380310.669,999.512,-12.207,-73.242,999.512
1742380310.673,57.129,-62.988,-94.238,33.691
1742380310.677,-1000.0,-51.27,-101.562,-1000.0
1742380310.681,-1000.0,0.977,-61.035,-1000.0
1742380310.685,96.191,41.016,-26.855,187.5
1742380310.702,999.512,30.273,-24.414,999.512
1742380310.706,136.23,-37.109,-39.062,106.934
1742380310.71,-1000.0,-37.598,-44.434,-1000.0
1742380310.714,-1000.0,14.16,-24.902,-1000.0
1742380310.718,-116.699,52.246,-22.461,-61.523
1742380310.722,999.512,62.5,-45.898,999.512
1742380310.726,150.391,-17.09,-46.875,147.461
1742380310.729,-1000.0,-45.41,-35.645,-1000.0
1742380310.733,-1000.0,-3.906,-40.039,-1000.0
1742380310.737,-259.277,26.855,-28.809,-217.285
1742380310.741,999.512,41.016,-8.301,999.512
1742380310.745,217.773,-27.344,-36.133,201.172
1742380310.702,999.512,30.273,-24.414,999.512
1742380310.706,136.23,-37.109,-39.062,106.934
1742380310.71,-1000.0,-37.598,-44.434,-1000.0
1742380310.714,-1000.0,14.16,-24.902,-1000.0
1742380310.718,-116.699,52.246,-22.461,-61.523
1742380310.722,999.512,62.5,-45.898,999.512
1742380310.726,150.391,-17.09,-46.875,147.461
1742380310.729,-1000.0,-45.41,-35.645,-1000.0
1742380310.733,-1000.0,-3.906,-40.039,-1000.0
1742380310.737,-259.277,26.855,-28.809,-217.285
1742380310.741,999.512,41.016,-8.301,999.512
1742380310.745,217.773,-27.344,-36.133,201.172
1742380310.748,-1000.0,-61.035,-52.734,-1000.0
1742380310.752,-1000.0,-16.113,-16.602,-1000.0
1742380310.756,-264.16,25.879,14.648,-237.305
1742380310.76,999.512,17.09,-1.953,999.512
1742380310.764,432.617,-47.363,-33.691,386.719
1742380310.768,-925.293,-66.895,-37.598,-942.871
1742380310.772,-1000.0,-22.461,-25.391,-1000.0
1742380310.775,-234.375,29.785,-20.508,-239.258
1742380310.779,999.512,23.926,-14.16,999.512
1742380310.783,720.703,-42.48,-22.949,668.945
1742380310.787,-656.738,-74.219,-33.691,-709.961
1742380310.791,-1000.0,-51.27,-38.086,-1000.0
1742380310.748,-1000.0,-61.035,-52.734,-1000.0
1742380310.752,-1000.0,-16.113,-16.602,-1000.0
1742380310.756,-264.16,25.879,14.648,-237.305
1742380310.76,999.512,17.09,-1.953,999.512
1742380310.764,432.617,-47.363,-33.691,386.719
1742380310.768,-925.293,-66.895,-37.598,-942.871
1742380310.772,-1000.0,-22.461,-25.391,-1000.0
1742380310.775,-234.375,29.785,-20.508,-239.258
1742380310.779,999.512,23.926,-14.16,999.512
1742380310.783,720.703,-42.48,-22.949,668.945
1742380310.787,-656.738,-74.219,-33.691,-709.961
1742380310.791,-1000.0,-51.27,-38.086,-1000.0
1742380310.793,-185.059,-17.578,-35.645,-191.895
1742380310.797,999.512,-22.461,-41.016,999.512
1742380310.801,999.512,-73.242,-62.012,969.238
1742380310.805,-208.008,-119.629,-60.059,-266.602
1742380310.809,-1000.0,-112.305,-62.988,-1000.0
1742380310.813,-168.945,-49.316,-50.293,-171.387
1742380310.817,989.746,-43.945,-48.828,994.629
1742380310.82,999.512,-83.008,-106.445,999.512
1742380310.824,50.781,-105.957,-150.879,5.859
1742380310.828,-1000.0,-97.168,-139.16,-1000.0
1742380310.832,-300.293,-25.879,-110.352,-275.391
1742380310.836,944.824,-2.93,-104.004,953.125
1742380310.793,-185.059,-17.578,-35.645,-191.895
1742380310.797,999.512,-22.461,-41.016,999.512
1742380310.801,999.512,-73.242,-62.012,969.238
1742380310.805,-208.008,-119.629,-60.059,-266.602
1742380310.809,-1000.0,-112.305,-62.988,-1000.0
1742380310.813,-168.945,-49.316,-50.293,-171.387
1742380310.817,989.746,-43.945,-48.828,994.629
1742380310.82,999.512,-83.008,-106.445,999.512
1742380310.824,50.781,-105.957,-150.879,5.859
1742380310.828,-1000.0,-97.168,-139.16,-1000.0
1742380310.832,-300.293,-25.879,-110.352,-275.391
1742380310.836,944.824,-2.93,-104.004,953.125
1742380310.837,999.512,-48.828,-102.539,999.512
1742380310.841,223.633,-80.078,-112.305,192.383
1742380310.845,-1000.0,-67.871,-120.605,-1000.0
1742380310.849,-447.266,2.441,-99.121,-398.438
1742380310.853,923.34,41.992,-78.613,940.918
1742380310.857,999.512,18.066,-73.242,999.512
1742380310.861,117.676,-27.832,-90.332,123.047
1742380310.864,-1000.0,-47.363,-96.68,-1000.0
1742380310.868,-718.262,-12.695,-65.918,-676.758
1742380310.872,666.016,22.461,-26.855,705.566
1742380310.876,999.512,3.418,-32.227,999.512
1742380310.88,160.645,-57.617,-72.754,167.969
1742380310.837,999.512,-48.828,-102.539,999.512
1742380310.841,223.633,-80.078,-112.305,192.383
1742380310.845,-1000.0,-67.871,-120.605,-1000.0
1742380310.849,-447.266,2.441,-99.121,-398.438
1742380310.853,923.34,41.992,-78.613,940.918
1742380310.857,999.512,18.066,-73.242,999.512
1742380310.861,117.676,-27.832,-90.332,123.047
1742380310.864,-1000.0,-47.363,-96.68,-1000.0
1742380310.868,-718.262,-12.695,-65.918,-676.758
1742380310.872,666.016,22.461,-26.855,705.566
1742380310.876,999.512,3.418,-32.227,999.512
1742380310.88,160.645,-57.617,-72.754,167.969
1742380310.837,999.512,-48.828,-102.539,999.512
1742380310.841,223.633,-80.078,-112.305,192.383
1742380310.845,-1000.0,-67.871,-120.605,-1000.0
1742380310.849,-447.266,2.441,-99.121,-398.438
1742380310.853,923.34,41.992,-78.613,940.918
1742380310.857,999.512,18.066,-73.242,999.512
1742380310.861,117.676,-27.832,-90.332,123.047
1742380310.864,-1000.0,-47.363,-96.68,-1000.0
1742380310.868,-718.262,-12.695,-65.918,-676.758
1742380310.872,666.016,22.461,-26.855,705.566
1742380310.876,999.512,3.418,-32.227,999.512
1742380310.88,160.645,-57.617,-72.754,167.969
1742380310.898,-1000.0,-72.266,-54.688,-1000.0
1742380310.902,-979.004,-24.414,3.906,-937.5
1742380310.906,280.273,16.113,32.715,344.727
1742380310.91,999.512,-0.488,11.719,999.512
1742380310.914,197.266,-62.012,-25.879,186.035
1742380310.918,-1000.0,-59.082,-26.367,-1000.0
1742380310.922,-1000.0,-7.324,5.859,-1000.0
1742380310.925,0.0,15.137,19.531,53.223
1742380310.929,999.512,-1.465,3.418,999.512
1742380310.933,367.676,-38.574,-7.812,327.637
1742380310.937,-927.246,-49.805,11.23,-946.777
1742380310.941,-1000.0,-21.973,27.832,-1000.0
1742380310.927,-207.52,22.949,9.277,-158.691
1742380310.931,999.512,26.367,19.043,999.512
1742380310.935,484.375,-29.785,23.926,437.5
1742380310.939,-887.695,-55.664,31.738,-905.273
1742380310.943,-1000.0,-25.391,58.594,-1000.0
1742380310.947,-242.188,30.762,71.777,-245.117
1742380310.951,999.512,45.41,43.945,999.512
1742380310.954,507.324,-27.832,5.371,468.75
1742380310.958,-867.188,-69.336,-1.953,-892.578
1742380310.962,-1000.0,-25.391,-0.977,-1000.0
1742380310.966,-390.625,20.02,10.742,-349.609
1742380310.97,999.512,30.273,8.789,999.512
1742380310.927,-207.52,22.949,9.277,-158.691
1742380310.931,999.512,26.367,19.043,999.512
1742380310.935,484.375,-29.785,23.926,437.5
1742380310.939,-887.695,-55.664,31.738,-905.273
1742380310.943,-1000.0,-25.391,58.594,-1000.0
1742380310.947,-242.188,30.762,71.777,-245.117
1742380310.951,999.512,45.41,43.945,999.512
1742380310.954,507.324,-27.832,5.371,468.75
1742380310.958,-867.188,-69.336,-1.953,-892.578
1742380310.962,-1000.0,-25.391,-0.977,-1000.0
1742380310.966,-390.625,20.02,10.742,-349.609
1742380310.97,999.512,30.273,8.789,999.512
1742380310.973,654.785,-36.133,-4.883,598.145
1742380310.977,-751.465,-93.75,-7.324,-793.457
1742380310.981,-1000.0,-75.684,17.09,-1000.0
1742380310.985,-556.641,-13.672,13.184,-520.996
1742380310.989,883.789,21.484,-30.273,920.41
1742380310.993,944.824,-5.859,-49.805,883.789
1742380310.997,-446.289,-50.293,-47.363,-509.277
1742380311.0,-1000.0,-56.152,-45.41,-1000.0
1742380311.004,-773.438,7.324,-5.371,-710.449
1742380311.008,574.707,53.711,33.203,664.062
1742380311.012,999.512,21.973,7.324,999.512
1742380311.016,-208.984,-26.855,-31.25,-272.949
1742380310.973,654.785,-36.133,-4.883,598.145
1742380310.977,-751.465,-93.75,-7.324,-793.457
1742380310.981,-1000.0,-75.684,17.09,-1000.0
1742380310.985,-556.641,-13.672,13.184,-520.996
1742380310.989,883.789,21.484,-30.273,920.41
1742380310.993,944.824,-5.859,-49.805,883.789
1742380310.997,-446.289,-50.293,-47.363,-509.277
1742380311.0,-1000.0,-56.152,-45.41,-1000.0
1742380311.004,-773.438,7.324,-5.371,-710.449
1742380311.008,574.707,53.711,33.203,664.062
1742380311.012,999.512,21.973,7.324,999.512
1742380311.016,-208.984,-26.855,-31.25,-272.949
1742380311.018,-1000.0,-27.832,-20.996,-1000.0
1742380311.022,-852.051,8.301,-6.836,-793.945
1742380311.026,417.48,41.504,3.418,497.559
1742380311.03,999.512,9.277,0.488,999.512
1742380311.034,77.148,-40.039,1.953,41.016
1742380311.038,-1000.0,-32.715,2.441,-1000.0
1742380311.042,-900.879,9.766,-2.441,-838.379
1742380311.045,394.531,26.855,35.645,468.75
1742380311.049,999.512,-19.531,20.508,999.512
1742380311.053,165.527,-68.848,-36.133,171.875
1742380311.057,-1000.0,-68.848,-24.414,-1000.0
1742380311.061,-911.133,-21.484,14.16,-861.328
1742380311.018,-1000.0,-27.832,-20.996,-1000.0
1742380311.022,-852.051,8.301,-6.836,-793.945
1742380311.026,417.48,41.504,3.418,497.559
1742380311.03,999.512,9.277,0.488,999.512
1742380311.034,77.148,-40.039,1.953,41.016
1742380311.038,-1000.0,-32.715,2.441,-1000.0
1742380311.042,-900.879,9.766,-2.441,-838.379
1742380311.045,394.531,26.855,35.645,468.75
1742380311.049,999.512,-19.531,20.508,999.512
1742380311.053,165.527,-68.848,-36.133,171.875
1742380311.057,-1000.0,-68.848,-24.414,-1000.0
1742380311.061,-911.133,-21.484,14.16,-861.328
1742380311.018,-1000.0,-27.832,-20.996,-1000.0
1742380311.022,-852.051,8.301,-6.836,-793.945
1742380311.026,417.48,41.504,3.418,497.559
1742380311.03,999.512,9.277,0.488,999.512
1742380311.034,77.148,-40.039,1.953,41.016
1742380311.038,-1000.0,-32.715,2.441,-1000.0
1742380311.042,-900.879,9.766,-2.441,-838.379
1742380311.045,394.531,26.855,35.645,468.75
1742380311.049,999.512,-19.531,20.508,999.512
1742380311.053,165.527,-68.848,-36.133,171.875
1742380311.057,-1000.0,-68.848,-24.414,-1000.0
1742380311.061,-911.133,-21.484,14.16,-861.328
1742380311.077,379.883,1.953,11.719,453.613
1742380311.081,999.512,-9.766,9.277,999.512
1742380311.085,359.863,-51.27,-22.949,326.66
1742380311.089,-998.047,-82.52,-47.363,-1000.0
1742380311.093,-984.375,-28.32,-18.555,-941.406
1742380311.097,323.242,14.648,2.93,373.535
1742380311.101,999.512,-16.602,16.113,999.512
1742380311.104,578.125,-62.988,20.508,527.832
1742380311.108,-793.457,-71.289,23.926,-843.75
1742380311.112,-1000.0,-26.855,36.133,-1000.0
1742380311.116,134.277,20.02,40.039,177.246
1742380311.12,999.512,11.23,35.156,999.512
1742380311.077,379.883,1.953,11.719,453.613
1742380311.081,999.512,-9.766,9.277,999.512
1742380311.085,359.863,-51.27,-22.949,326.66
1742380311.089,-998.047,-82.52,-47.363,-1000.0
1742380311.093,-984.375,-28.32,-18.555,-941.406
1742380311.097,323.242,14.648,2.93,373.535
1742380311.101,999.512,-16.602,16.113,999.512
1742380311.104,578.125,-62.988,20.508,527.832
1742380311.108,-793.457,-71.289,23.926,-843.75
1742380311.112,-1000.0,-26.855,36.133,-1000.0
1742380311.116,134.277,20.02,40.039,177.246
1742380311.12,999.512,11.23,35.156,999.512
1742380311.077,379.883,1.953,11.719,453.613
1742380311.081,999.512,-9.766,9.277,999.512
1742380311.085,359.863,-51.27,-22.949,326.66
1742380311.089,-998.047,-82.52,-47.363,-1000.0
1742380311.093,-984.375,-28.32,-18.555,-941.406
1742380311.097,323.242,14.648,2.93,373.535
1742380311.101,999.512,-16.602,16.113,999.512
1742380311.104,578.125,-62.988,20.508,527.832
1742380311.108,-793.457,-71.289,23.926,-843.75
1742380311.112,-1000.0,-26.855,36.133,-1000.0
1742380311.116,134.277,20.02,40.039,177.246
1742380311.12,999.512,11.23,35.156,999.512
1742380311.122,845.215,-33.691,16.113,766.113
1742380311.126,-428.711,-61.035,-1.953,-537.598
1742380311.13,-1000.0,-39.062,0.977,-1000.0
1742380311.134,-30.273,0.977,2.441,-0.977
1742380311.138,999.512,-14.648,-6.348,999.512
1742380311.142,990.723,-53.223,-29.297,937.988
1742380311.146,-180.664,-92.285,-55.176,-266.602
1742380311.149,-1000.0,-75.684,-40.527,-1000.0
1742380311.153,-180.664,-25.879,-7.324,-156.25
1742380311.157,999.512,-25.879,-17.578,999.512
1742380311.161,999.512,-44.922,-53.711,999.512
1742380311.165,-109.375,-62.988,-73.73,-160.645
1742380311.122,845.215,-33.691,16.113,766.113
1742380311.126,-428.711,-61.035,-1.953,-537.598
1742380311.13,-1000.0,-39.062,0.977,-1000.0
1742380311.134,-30.273,0.977,2.441,-0.977
1742380311.138,999.512,-14.648,-6.348,999.512
1742380311.142,990.723,-53.223,-29.297,937.988
1742380311.146,-180.664,-92.285,-55.176,-266.602
1742380311.149,-1000.0,-75.684,-40.527,-1000.0
1742380311.153,-180.664,-25.879,-7.324,-156.25
1742380311.157,999.512,-25.879,-17.578,999.512
1742380311.161,999.512,-44.922,-53.711,999.512
1742380311.165,-109.375,-62.988,-73.73,-160.645
1742380311.122,845.215,-33.691,16.113,766.113
1742380311.126,-428.711,-61.035,-1.953,-537.598
1742380311.13,-1000.0,-39.062,0.977,-1000.0
1742380311.134,-30.273,0.977,2.441,-0.977
1742380311.138,999.512,-14.648,-6.348,999.512
1742380311.142,990.723,-53.223,-29.297,937.988
1742380311.146,-180.664,-92.285,-55.176,-266.602
1742380311.149,-1000.0,-75.684,-40.527,-1000.0
1742380311.153,-180.664,-25.879,-7.324,-156.25
1742380311.157,999.512,-25.879,-17.578,999.512
1742380311.161,999.512,-44.922,-53.711,999.512
1742380311.165,-109.375,-62.988,-73.73,-160.645
1742380311.167,-1000.0,-45.898,-40.527,-1000.0
1742380311.171,-172.852,17.578,1.953,-174.805
1742380311.175,991.699,32.715,1.465,996.582
1742380311.179,999.512,11.719,-3.906,999.512
1742380311.183,81.543,-11.719,-6.836,26.367
1742380311.187,-1000.0,-5.371,-2.93,-1000.0
1742380311.191,-263.672,57.617,19.531,-250.488
1742380311.194,965.332,67.383,31.25,969.238
1742380311.198,999.512,23.926,7.812,999.512
1742380311.202,212.402,13.672,-8.789,166.504
1742380311.206,-1000.0,7.812,-9.766,-1000.0
1742380311.21,-456.055,57.617,7.324,-407.227
1742380311.167,-1000.0,-45.898,-40.527,-1000.0
1742380311.171,-172.852,17.578,1.953,-174.805
1742380311.175,991.699,32.715,1.465,996.582
1742380311.179,999.512,11.719,-3.906,999.512
1742380311.183,81.543,-11.719,-6.836,26.367
1742380311.187,-1000.0,-5.371,-2.93,-1000.0
1742380311.191,-263.672,57.617,19.531,-250.488
1742380311.194,965.332,67.383,31.25,969.238
1742380311.198,999.512,23.926,7.812,999.512
1742380311.202,212.402,13.672,-8.789,166.504
1742380311.206,-1000.0,7.812,-9.766,-1000.0
1742380311.21,-456.055,57.617,7.324,-407.227
1742380311.212,895.02,89.844,15.625,912.598
1742380311.216,999.512,59.082,-8.301,999.512
1742380311.22,200.684,18.555,-30.273,198.242
1742380311.224,-1000.0,0.488,-51.27,-1000.0
1742380311.228,-760.254,51.27,-50.781,-708.008
1742380311.232,615.723,86.426,-54.199,669.434
1742380311.236,999.512,62.988,-68.359,999.512
1742380311.239,158.691,-2.93,-86.914,166.504
1742380311.243,-1000.0,-44.922,-97.168,-1000.0
1742380311.247,-983.398,-4.395,-74.707,-936.523
1742380311.251,270.02,37.109,-65.43,344.238
1742380311.255,999.512,30.762,-59.57,999.512
1742380311.212,895.02,89.844,15.625,912.598
1742380311.216,999.512,59.082,-8.301,999.512
1742380311.22,200.684,18.555,-30.273,198.242
1742380311.224,-1000.0,0.488,-51.27,-1000.0
1742380311.228,-760.254,51.27,-50.781,-708.008
1742380311.232,615.723,86.426,-54.199,669.434
1742380311.236,999.512,62.988,-68.359,999.512
1742380311.239,158.691,-2.93,-86.914,166.504
1742380311.243,-1000.0,-44.922,-97.168,-1000.0
1742380311.247,-983.398,-4.395,-74.707,-936.523
1742380311.251,270.02,37.109,-65.43,344.238
1742380311.255,999.512,30.762,-59.57,999.512
1742380311.723,-267.09,27.344,34.18,-247.07
1742380311.727,950.195,48.34,62.988,960.938
1742380311.731,999.512,18.066,57.617,999.512
1742380311.735,151.367,-24.414,32.227,110.84
1742380311.739,-1000.0,-38.086,30.762,-1000.0
1742380311.743,-414.062,38.574,46.875,-371.582
1742380311.747,907.227,66.895,19.043,922.852
1742380311.75,999.512,13.184,-6.836,999.512
1742380311.754,216.309,-27.344,-2.441,198.73
1742380311.758,-1000.0,-23.926,3.418,-1000.0
1742380311.762,-561.035,49.316,11.719,-526.367
1742380311.766,834.473,68.848,10.254,846.68
1742380311.767,999.512,32.715,-3.906,999.512
1742380311.771,202.148,-14.16,-27.832,206.055
1742380311.775,-1000.0,-23.438,-15.625,-1000.0
1742380311.779,-682.129,19.531,5.859,-649.902
1742380311.783,723.633,30.273,-0.488,752.441
1742380311.787,999.512,4.395,-36.621,999.512
1742380311.791,331.055,-55.176,-49.316,300.781
1742380311.794,-1000.0,-82.52,-18.066,-1000.0
1742380311.798,-964.355,-26.855,7.324,-921.387
1742380311.802,342.773,9.277,18.555,394.531
1742380311.806,999.512,-12.207,-12.207,999.512
1742380311.81,480.469,-51.27,-40.527,436.035
1742380311.767,999.512,32.715,-3.906,999.512
1742380311.771,202.148,-14.16,-27.832,206.055
1742380311.775,-1000.0,-23.438,-15.625,-1000.0
1742380311.779,-682.129,19.531,5.859,-649.902
1742380311.783,723.633,30.273,-0.488,752.441
1742380311.787,999.512,4.395,-36.621,999.512
1742380311.791,331.055,-55.176,-49.316,300.781
1742380311.794,-1000.0,-82.52,-18.066,-1000.0
1742380311.798,-964.355,-26.855,7.324,-921.387
1742380311.802,342.773,9.277,18.555,394.531
1742380311.806,999.512,-12.207,-12.207,999.512
1742380311.81,480.469,-51.27,-40.527,436.035
1742380311.767,999.512,32.715,-3.906,999.512
1742380311.771,202.148,-14.16,-27.832,206.055
1742380311.775,-1000.0,-23.438,-15.625,-1000.0
1742380311.779,-682.129,19.531,5.859,-649.902
1742380311.783,723.633,30.273,-0.488,752.441
1742380311.787,999.512,4.395,-36.621,999.512
1742380311.791,331.055,-55.176,-49.316,300.781
1742380311.794,-1000.0,-82.52,-18.066,-1000.0
1742380311.798,-964.355,-26.855,7.324,-921.387
1742380311.802,342.773,9.277,18.555,394.531
1742380311.806,999.512,-12.207,-12.207,999.512
1742380311.81,480.469,-51.27,-40.527,436.035
1742380311.812,-882.812,-56.152,-15.137,-918.457
1742380311.816,-1000.0,-27.344,20.508,-1000.0
1742380311.82,104.98,-10.742,28.32,157.227
1742380311.824,999.512,-10.742,14.16,999.512
1742380311.828,598.633,-56.641,-10.254,542.48
1742380311.832,-754.395,-85.449,-15.625,-803.711
1742380311.836,-1000.0,-63.477,-14.648,-1000.0
1742380311.839,-69.336,-39.551,-0.977,-33.203
1742380311.843,999.512,-37.109,9.277,999.512
1742380311.847,750.488,-71.777,-10.742,692.871
1742380311.851,-582.031,-112.305,-20.02,-641.113
1742380311.855,-1000.0,-97.168,-16.602,-1000.0
1742380311.812,-882.812,-56.152,-15.137,-918.457
1742380311.816,-1000.0,-27.344,20.508,-1000.0
1742380311.82,104.98,-10.742,28.32,157.227
1742380311.824,999.512,-10.742,14.16,999.512
1742380311.828,598.633,-56.641,-10.254,542.48
1742380311.832,-754.395,-85.449,-15.625,-803.711
1742380311.836,-1000.0,-63.477,-14.648,-1000.0
1742380311.839,-69.336,-39.551,-0.977,-33.203
1742380311.843,999.512,-37.109,9.277,999.512
1742380311.847,750.488,-71.777,-10.742,692.871
1742380311.851,-582.031,-112.305,-20.02,-641.113
1742380311.855,-1000.0,-97.168,-16.602,-1000.0
1742380311.872,-201.66,-38.574,-17.578,-197.266
1742380311.876,999.512,-23.438,-49.805,999.512
1742380311.88,873.535,-72.754,-93.75,811.035
1742380311.884,-443.848,-117.188,-109.863,-524.414
1742380311.888,-1000.0,-102.051,-107.422,-1000.0
1742380311.892,-182.129,-30.762,-100.586,-189.941
1742380311.896,999.512,-21.973,-87.402,999.512
1742380311.899,999.512,-73.242,-83.008,951.66
1742380311.903,-192.383,-120.605,-84.961,-278.32
1742380311.907,-1000.0,-97.656,-62.012,-1000.0
1742380311.911,-336.914,-5.371,-37.109,-311.035
1742380311.915,941.406,8.789,-42.48,961.426
1742380311.872,-201.66,-38.574,-17.578,-197.266
1742380311.876,999.512,-23.438,-49.805,999.512
1742380311.88,873.535,-72.754,-93.75,811.035
1742380311.884,-443.848,-117.188,-109.863,-524.414
1742380311.888,-1000.0,-102.051,-107.422,-1000.0
1742380311.892,-182.129,-30.762,-100.586,-189.941
1742380311.896,999.512,-21.973,-87.402,999.512
1742380311.899,999.512,-73.242,-83.008,951.66
1742380311.903,-192.383,-120.605,-84.961,-278.32
1742380311.907,-1000.0,-97.656,-62.012,-1000.0
1742380311.911,-336.914,-5.371,-37.109,-311.035
1742380311.915,941.406,8.789,-42.48,961.426
1742380311.872,-201.66,-38.574,-17.578,-197.266
1742380311.876,999.512,-23.438,-49.805,999.512
1742380311.88,873.535,-72.754,-93.75,811.035
1742380311.884,-443.848,-117.188,-109.863,-524.414
1742380311.888,-1000.0,-102.051,-107.422,-1000.0
1742380311.892,-182.129,-30.762,-100.586,-189.941
1742380311.896,999.512,-21.973,-87.402,999.512
1742380311.899,999.512,-73.242,-83.008,951.66
1742380311.903,-192.383,-120.605,-84.961,-278.32
1742380311.907,-1000.0,-97.656,-62.012,-1000.0
1742380311.911,-336.914,-5.371,-37.109,-311.035
1742380311.915,941.406,8.789,-42.48,961.426
1742380311.917,999.512,-48.828,-66.895,999.512
1742380311.921,-55.664,-82.031,-103.516,-122.559
1742380311.925,-1000.0,-69.824,-114.746,-1000.0
1742380311.929,-577.148,1.465,-74.219,-557.129
1742380311.933,784.18,28.32,-54.199,795.898
1742380311.937,999.512,-4.395,-66.406,999.512
1742380311.941,40.527,-29.297,-65.43,-9.277
1742380311.944,-1000.0,-44.922,-81.055,-1000.0
1742380311.948,-910.156,-43.457,-108.398,-863.281
1742380311.952,372.07,-21.484,-107.422,431.152
1742380311.956,999.512,-29.785,-98.145,999.512
1742380311.96,122.07,-67.383,-119.141,80.078
1742380311.917,999.512,-48.828,-66.895,999.512
1742380311.921,-55.664,-82.031,-103.516,-122.559
1742380311.925,-1000.0,-69.824,-114.746,-1000.0
1742380311.929,-577.148,1.465,-74.219,-557.129
1742380311.933,784.18,28.32,-54.199,795.898
1742380311.937,999.512,-4.395,-66.406,999.512
1742380311.941,40.527,-29.297,-65.43,-9.277
1742380311.944,-1000.0,-44.922,-81.055,-1000.0
1742380311.948,-910.156,-43.457,-108.398,-863.281
1742380311.952,372.07,-21.484,-107.422,431.152
1742380311.956,999.512,-29.785,-98.145,999.512
1742380311.96,122.07,-67.383,-119.141,80.078
1742380311.962,-1000.0,-56.152,-130.859,-1000.0
1742380311.966,-1000.0,-10.254,-97.168,-1000.0
1742380311.97,151.367,23.438,-87.402,208.984
1742380311.974,999.512,-3.906,-120.605,999.512
1742380311.978,141.113,-84.473,-136.719,137.695
1742380311.982,-1000.0,-90.332,-128.418,-1000.0
1742380311.986,-1000.0,-45.41,-99.121,-1000.0
1742380311.989,-0.977,-8.301,-87.891,44.434
1742380311.993,999.512,-32.715,-111.816,999.512
1742380311.997,145.02,-119.141,-114.258,144.531
1742380312.001,-1000.0,-121.094,-88.379,-1000.0
1742380312.005,-1000.0,-72.754,-62.988,-1000.0
1742380311.962,-1000.0,-56.152,-130.859,-1000.0
1742380311.966,-1000.0,-10.254,-97.168,-1000.0
1742380311.97,151.367,23.438,-87.402,208.984
1742380311.974,999.512,-3.906,-120.605,999.512
1742380311.978,141.113,-84.473,-136.719,137.695
1742380311.982,-1000.0,-90.332,-128.418,-1000.0
1742380311.986,-1000.0,-45.41,-99.121,-1000.0
1742380311.989,-0.977,-8.301,-87.891,44.434
1742380311.993,999.512,-32.715,-111.816,999.512
1742380311.997,145.02,-119.141,-114.258,144.531
1742380312.001,-1000.0,-121.094,-88.379,-1000.0
1742380312.005,-1000.0,-72.754,-62.988,-1000.0
1742380312.008,-135.254,-35.645,-50.293,-97.656
1742380312.012,999.512,-26.855,-64.453,999.512
1742380312.016,379.883,-97.168,-96.191,327.148
1742380312.02,-936.523,-118.652,-106.445,-959.961
1742380312.024,-1000.0,-77.148,-100.098,-1000.0
1742380312.028,-213.379,-33.203,-84.961,-182.617
1742380312.032,999.512,-22.949,-92.285,999.512
1742380312.035,610.352,-98.145,-131.348,549.316
1742380312.039,-778.809,-122.07,-142.09,-819.824
1742380312.043,-1000.0,-71.777,-108.887,-1000.0
1742380312.047,-209.961,-4.395,-90.82,-214.844
1742380312.051,999.512,16.113,-91.309,999.512
1742380312.052,849.121,-57.617,-97.168,785.156
1742380312.056,-479.98,-98.145,-81.055,-561.035
1742380312.06,-1000.0,-71.777,-68.848,-1000.0
1742380312.064,-175.781,-24.414,-84.473,-183.594
1742380312.068,999.512,-25.391,-90.82,999.512
1742380312.072,999.512,-68.359,-72.266,996.582
1742380312.076,-108.887,-109.863,-80.566,-189.453
1742380312.079,-1000.0,-102.539,-99.609,-1000.0
1742380312.083,-305.664,-30.273,-66.406,-279.785
1742380312.087,947.266,1.953,-40.039,962.402
1742380312.091,999.512,-32.227,-21.484,999.512
1742380312.095,40.039,-56.641,-19.043,-19.043
1742380312.052,849.121,-57.617,-97.168,785.156
1742380312.056,-479.98,-98.145,-81.055,-561.035
1742380312.06,-1000.0,-71.777,-68.848,-1000.0
1742380312.064,-175.781,-24.414,-84.473,-183.594
1742380312.068,999.512,-25.391,-90.82,999.512
1742380312.072,999.512,-68.359,-72.266,996.582
1742380312.076,-108.887,-109.863,-80.566,-189.453
1742380312.079,-1000.0,-102.539,-99.609,-1000.0
1742380312.083,-305.664,-30.273,-66.406,-279.785
1742380312.087,947.266,1.953,-40.039,962.402
1742380312.091,999.512,-32.227,-21.484,999.512
1742380312.095,40.039,-56.641,-19.043,-19.043
1742380312.052,849.121,-57.617,-97.168,785.156
1742380312.056,-479.98,-98.145,-81.055,-561.035
1742380312.06,-1000.0,-71.777,-68.848,-1000.0
1742380312.064,-175.781,-24.414,-84.473,-183.594
1742380312.068,999.512,-25.391,-90.82,999.512
1742380312.072,999.512,-68.359,-72.266,996.582
1742380312.076,-108.887,-109.863,-80.566,-189.453
1742380312.079,-1000.0,-102.539,-99.609,-1000.0
1742380312.083,-305.664,-30.273,-66.406,-279.785
1742380312.087,947.266,1.953,-40.039,962.402
1742380312.091,999.512,-32.227,-21.484,999.512
1742380312.095,40.039,-56.641,-19.043,-19.043
1742380312.098,-1000.0,-56.641,-39.062,-1000.0
1742380312.102,-452.637,-12.207,-20.996,-432.129
1742380312.106,880.859,-9.766,-28.32,890.137
1742380312.11,999.512,-49.316,-27.832,999.512
1742380312.114,123.535,-83.008,-10.254,74.707
1742380312.118,-1000.0,-101.562,-42.48,-1000.0
1742380312.122,-775.879,-83.008,-41.016,-718.262
1742380312.125,583.984,-75.684,-42.48,644.043
1742380312.129,999.512,-94.727,-86.426,999.512
1742380312.133,103.027,-124.023,-97.656,60.059
1742380312.137,-1000.0,-119.629,-97.168,-1000.0
1742380312.141,-1000.0,-93.75,-121.582,-1000.0
1742380312.098,-1000.0,-56.641,-39.062,-1000.0
1742380312.102,-452.637,-12.207,-20.996,-432.129
1742380312.106,880.859,-9.766,-28.32,890.137
1742380312.11,999.512,-49.316,-27.832,999.512
1742380312.114,123.535,-83.008,-10.254,74.707
1742380312.118,-1000.0,-101.562,-42.48,-1000.0
1742380312.122,-775.879,-83.008,-41.016,-718.262
1742380312.125,583.984,-75.684,-42.48,644.043
1742380312.129,999.512,-94.727,-86.426,999.512
1742380312.133,103.027,-124.023,-97.656,60.059
1742380312.137,-1000.0,-119.629,-97.168,-1000.0
1742380312.141,-1000.0,-93.75,-121.582,-1000.0
1742380312.098,-1000.0,-56.641,-39.062,-1000.0
1742380312.102,-452.637,-12.207,-20.996,-432.129
1742380312.106,880.859,-9.766,-28.32,890.137
1742380312.11,999.512,-49.316,-27.832,999.512
1742380312.114,123.535,-83.008,-10.254,74.707
1742380312.118,-1000.0,-101.562,-42.48,-1000.0
1742380312.122,-775.879,-83.008,-41.016,-718.262
1742380312.125,583.984,-75.684,-42.48,644.043
1742380312.129,999.512,-94.727,-86.426,999.512
1742380312.133,103.027,-124.023,-97.656,60.059
1742380312.137,-1000.0,-119.629,-97.168,-1000.0
1742380312.141,-1000.0,-93.75,-121.582,-1000.0
1742380312.142,72.266,-80.566,-134.277,124.023
1742380312.146,999.512,-82.52,-139.16,999.512
1742380312.15,124.023,-106.934,-157.227,69.336
1742380312.154,-1000.0,-85.938,-138.672,-1000.0
1742380312.158,-1000.0,-57.129,-108.887,-1000.0
1742380312.162,-143.066,-28.32,-92.285,-120.117
1742380312.166,999.512,-20.02,-96.68,999.512
1742380312.169,153.809,-88.867,-119.629,126.953
1742380312.173,-1000.0,-86.914,-105.469,-1000.0
1742380312.177,-1000.0,-41.016,-87.402,-1000.0
1742380312.181,-262.207,-7.812,-78.613,-226.074
1742380312.185,999.512,8.789,-77.148,999.512
1742380312.142,72.266,-80.566,-134.277,124.023
1742380312.146,999.512,-82.52,-139.16,999.512
1742380312.15,124.023,-106.934,-157.227,69.336
1742380312.154,-1000.0,-85.938,-138.672,-1000.0
1742380312.158,-1000.0,-57.129,-108.887,-1000.0
1742380312.162,-143.066,-28.32,-92.285,-120.117
1742380312.166,999.512,-20.02,-96.68,999.512
1742380312.169,153.809,-88.867,-119.629,126.953
1742380312.173,-1000.0,-86.914,-105.469,-1000.0
1742380312.177,-1000.0,-41.016,-87.402,-1000.0
1742380312.181,-262.207,-7.812,-78.613,-226.074
1742380312.185,999.512,8.789,-77.148,999.512
1742380312.202,268.555,-49.805,-68.359,248.047
1742380312.206,-1000.0,-89.844,-71.777,-1000.0
1742380312.21,-1000.0,-48.828,-74.707,-1000.0
1742380312.214,-232.91,35.156,-55.176,-200.195
1742380312.218,999.512,55.176,-62.5,999.512
1742380312.222,751.465,11.719,-63.477,684.57
1742380312.226,-615.234,-7.812,-52.734,-682.129
1742380312.229,-1000.0,1.953,-24.414,-1000.0
1742380312.233,-194.824,42.969,32.715,-183.594
1742380312.237,999.512,64.453,46.875,999.512
1742380312.241,932.617,20.996,13.184,879.883
1742380312.245,-345.215,6.348,8.301,-416.016
1742380312.202,268.555,-49.805,-68.359,248.047
1742380312.206,-1000.0,-89.844,-71.777,-1000.0
1742380312.21,-1000.0,-48.828,-74.707,-1000.0
1742380312.214,-232.91,35.156,-55.176,-200.195
1742380312.218,999.512,55.176,-62.5,999.512
1742380312.222,751.465,11.719,-63.477,684.57
1742380312.226,-615.234,-7.812,-52.734,-682.129
1742380312.229,-1000.0,1.953,-24.414,-1000.0
1742380312.233,-194.824,42.969,32.715,-183.594
1742380312.237,999.512,64.453,46.875,999.512
1742380312.241,932.617,20.996,13.184,879.883
1742380312.245,-345.215,6.348,8.301,-416.016
1742380312.202,268.555,-49.805,-68.359,248.047
1742380312.206,-1000.0,-89.844,-71.777,-1000.0
1742380312.21,-1000.0,-48.828,-74.707,-1000.0
1742380312.214,-232.91,35.156,-55.176,-200.195
1742380312.218,999.512,55.176,-62.5,999.512
1742380312.222,751.465,11.719,-63.477,684.57
1742380312.226,-615.234,-7.812,-52.734,-682.129
1742380312.229,-1000.0,1.953,-24.414,-1000.0
1742380312.233,-194.824,42.969,32.715,-183.594
1742380312.237,999.512,64.453,46.875,999.512
1742380312.241,932.617,20.996,13.184,879.883
1742380312.245,-345.215,6.348,8.301,-416.016
1742380312.247,-1000.0,38.086,27.832,-1000.0
1742380312.251,-175.781,94.238,62.5,-181.152
1742380312.255,999.512,103.027,60.547,999.512
1742380312.259,999.512,62.012,47.852,999.512
1742380312.263,-101.562,33.203,61.035,-163.574
1742380312.267,-1000.0,35.156,27.832,-1000.0
1742380312.271,-232.91,70.312,22.949,-224.609
1742380312.274,989.258,78.125,41.016,999.023
1742380312.278,999.512,25.879,-9.766,999.512
1742380312.282,-41.504,-33.691,-52.734,-94.727
1742380312.286,-1000.0,-47.363,-44.922,-1000.0
1742380312.29,-443.848,16.113,-10.254,-416.016
1742380312.247,-1000.0,38.086,27.832,-1000.0
1742380312.251,-175.781,94.238,62.5,-181.152
1742380312.255,999.512,103.027,60.547,999.512
1742380312.259,999.512,62.012,47.852,999.512
1742380312.263,-101.562,33.203,61.035,-163.574
1742380312.267,-1000.0,35.156,27.832,-1000.0
1742380312.271,-232.91,70.312,22.949,-224.609
1742380312.274,989.258,78.125,41.016,999.023
1742380312.278,999.512,25.879,-9.766,999.512
1742380312.282,-41.504,-33.691,-52.734,-94.727
1742380312.286,-1000.0,-47.363,-44.922,-1000.0
1742380312.29,-443.848,16.113,-10.254,-416.016
1742380312.247,-1000.0,38.086,27.832,-1000.0
1742380312.251,-175.781,94.238,62.5,-181.152
1742380312.255,999.512,103.027,60.547,999.512
1742380312.259,999.512,62.012,47.852,999.512
1742380312.263,-101.562,33.203,61.035,-163.574
1742380312.267,-1000.0,35.156,27.832,-1000.0
1742380312.271,-232.91,70.312,22.949,-224.609
1742380312.274,989.258,78.125,41.016,999.023
1742380312.278,999.512,25.879,-9.766,999.512
1742380312.282,-41.504,-33.691,-52.734,-94.727
1742380312.286,-1000.0,-47.363,-44.922,-1000.0
1742380312.29,-443.848,16.113,-10.254,-416.016
1742380312.292,873.535,32.715,-4.883,887.695
1742380312.296,999.512,-14.648,-23.438,999.512
1742380312.3,142.09,-33.691,-36.621,100.098
1742380312.304,-1000.0,-9.277,-24.414,-1000.0
1742380312.308,-654.785,73.73,14.16,-606.934
1742380312.312,726.562,125.977,31.25,760.742
1742380312.316,999.512,87.891,4.883,999.512
1742380312.319,175.293,27.832,3.418,164.551
1742380312.323,-1000.0,29.297,13.672,-1000.0
1742380312.327,-878.906,83.984,1.953,-829.59
1742380312.331,452.637,130.859,-0.488,510.742
1742380312.335,999.512,123.047,-20.02,999.512
1742380312.292,873.535,32.715,-4.883,887.695
1742380312.296,999.512,-14.648,-23.438,999.512
1742380312.3,142.09,-33.691,-36.621,100.098
1742380312.304,-1000.0,-9.277,-24.414,-1000.0
1742380312.308,-654.785,73.73,14.16,-606.934
1742380312.312,726.562,125.977,31.25,760.742
1742380312.316,999.512,87.891,4.883,999.512
1742380312.319,175.293,27.832,3.418,164.551
1742380312.323,-1000.0,29.297,13.672,-1000.0
1742380312.327,-878.906,83.984,1.953,-829.59
1742380312.331,452.637,130.859,-0.488,510.742
1742380312.335,999.512,123.047,-20.02,999.512
1742380312.337,150.879,61.523,-29.785,157.715
1742380312.341,-1000.0,37.598,-22.949,-1000.0
1742380312.345,-1000.0,75.195,-4.883,-979.98
1742380312.349,195.312,114.258,7.812,264.648
1742380312.353,999.512,95.215,-21.973,999.512
1742380312.357,277.344,21.484,-61.035,246.094
1742380312.361,-977.051,0.0,-74.707,-994.141
1742380312.364,-1000.0,38.574,-67.383,-1000.0
1742380312.368,-23.926,58.105,-54.199,20.996
1742380312.372,999.512,57.129,-46.387,999.512
1742380312.376,380.859,-2.93,-75.195,333.984
1742380312.38,-926.758,-23.926,-97.168,-947.754
1742380312.337,150.879,61.523,-29.785,157.715
1742380312.341,-1000.0,37.598,-22.949,-1000.0
1742380312.345,-1000.0,75.195,-4.883,-979.98
1742380312.349,195.312,114.258,7.812,264.648
1742380312.353,999.512,95.215,-21.973,999.512
1742380312.357,277.344,21.484,-61.035,246.094
1742380312.361,-977.051,0.0,-74.707,-994.141
1742380312.364,-1000.0,38.574,-67.383,-1000.0
1742380312.368,-23.926,58.105,-54.199,20.996
1742380312.372,999.512,57.129,-46.387,999.512
1742380312.376,380.859,-2.93,-75.195,333.984
1742380312.38,-926.758,-23.926,-97.168,-947.754
1742380312.337,150.879,61.523,-29.785,157.715
1742380312.341,-1000.0,37.598,-22.949,-1000.0
1742380312.345,-1000.0,75.195,-4.883,-979.98
1742380312.349,195.312,114.258,7.812,264.648
1742380312.353,999.512,95.215,-21.973,999.512
1742380312.357,277.344,21.484,-61.035,246.094
1742380312.361,-977.051,0.0,-74.707,-994.141
1742380312.364,-1000.0,38.574,-67.383,-1000.0
1742380312.368,-23.926,58.105,-54.199,20.996
1742380312.372,999.512,57.129,-46.387,999.512
1742380312.376,380.859,-2.93,-75.195,333.984
1742380312.38,-926.758,-23.926,-97.168,-947.754
1742380312.383,-1000.0,-2.93,-84.961,-1000.0
1742380312.387,-185.547,37.598,-55.664,-148.926
1742380312.391,999.512,47.852,-48.34,999.512
1742380312.395,550.781,-21.973,-87.891,516.113
1742380312.399,-831.055,-29.297,-96.68,-843.262
1742380312.403,-1000.0,2.441,-87.891,-1000.0
1742380312.407,-222.656,9.277,-92.285,-221.191
1742380312.41,999.512,-2.93,-74.707,999.512
1742380312.414,750.0,-73.242,-98.145,690.918
1742380312.418,-620.117,-99.121,-90.332,-682.617
1742380312.422,-1000.0,-96.68,-70.801,-1000.0
1742380312.426,-186.035,-78.613,-85.449,-194.336
1742380312.383,-1000.0,-2.93,-84.961,-1000.0
1742380312.387,-185.547,37.598,-55.664,-148.926
1742380312.391,999.512,47.852,-48.34,999.512
1742380312.395,550.781,-21.973,-87.891,516.113
1742380312.399,-831.055,-29.297,-96.68,-843.262
1742380312.403,-1000.0,2.441,-87.891,-1000.0
1742380312.407,-222.656,9.277,-92.285,-221.191
1742380312.41,999.512,-2.93,-74.707,999.512
1742380312.414,750.0,-73.242,-98.145,690.918
1742380312.418,-620.117,-99.121,-90.332,-682.617
1742380312.422,-1000.0,-96.68,-70.801,-1000.0
1742380312.426,-186.035,-78.613,-85.449,-194.336
1742380312.427,999.512,-74.707,-84.473,999.512
1742380312.431,992.188,-126.465,-73.73,943.359
1742380312.435,-227.051,-130.371,-26.367,-306.152
1742380312.439,-1000.0,-68.359,36.133,-1000.0
1742380312.443,-240.234,9.277,39.551,-229.492
1742380312.447,971.68,18.555,3.418,983.887
1742380312.451,999.512,-24.902,-17.09,999.512
1742380312.454,-6.836,-80.078,-20.996,-63.965
1742380312.458,-1000.0,-93.75,-11.719,-1000.0
1742380312.462,-449.707,-11.23,10.742,-429.688
1742380312.466,880.371,16.113,25.879,889.648
1742380312.47,999.512,-34.668,9.277,999.512
1742380312.427,999.512,-74.707,-84.473,999.512
1742380312.431,992.188,-126.465,-73.73,943.359
1742380312.435,-227.051,-130.371,-26.367,-306.152
1742380312.439,-1000.0,-68.359,36.133,-1000.0
1742380312.443,-240.234,9.277,39.551,-229.492
1742380312.447,971.68,18.555,3.418,983.887
1742380312.451,999.512,-24.902,-17.09,999.512
1742380312.454,-6.836,-80.078,-20.996,-63.965
1742380312.458,-1000.0,-93.75,-11.719,-1000.0
1742380312.462,-449.707,-11.23,10.742,-429.688
1742380312.466,880.371,16.113,25.879,889.648
1742380312.47,999.512,-34.668,9.277,999.512
1742380312.427,999.512,-74.707,-84.473,999.512
1742380312.431,992.188,-126.465,-73.73,943.359
1742380312.435,-227.051,-130.371,-26.367,-306.152
1742380312.439,-1000.0,-68.359,36.133,-1000.0
1742380312.443,-240.234,9.277,39.551,-229.492
1742380312.447,971.68,18.555,3.418,983.887
1742380312.451,999.512,-24.902,-17.09,999.512
1742380312.454,-6.836,-80.078,-20.996,-63.965
1742380312.458,-1000.0,-93.75,-11.719,-1000.0
1742380312.462,-449.707,-11.23,10.742,-429.688
1742380312.466,880.371,16.113,25.879,889.648
1742380312.47,999.512,-34.668,9.277,999.512
1742380312.472,94.727,-82.031,-33.691,58.105
1742380312.476,-1000.0,-96.68,-20.996,-1000.0
1742380312.48,-653.32,-53.711,2.93,-612.305
1742380312.484,717.285,-34.668,-6.836,749.023
1742380312.488,999.512,-80.566,0.977,999.512
1742380312.492,170.41,-123.047,-6.836,152.344
1742380312.496,-1000.0,-136.719,-20.02,-1000.0
1742380312.499,-923.828,-117.676,-23.926,-876.953
1742380312.503,384.766,-104.98,-41.992,443.359
1742380312.507,999.512,-124.512,-56.641,999.512
1742380312.511,144.531,-174.805,-61.035,146.973
1742380312.515,-1000.0,-177.246,-52.734,-1000.0
1742380312.472,94.727,-82.031,-33.691,58.105
1742380312.476,-1000.0,-96.68,-20.996,-1000.0
1742380312.48,-653.32,-53.711,2.93,-612.305
1742380312.484,717.285,-34.668,-6.836,749.023
1742380312.488,999.512,-80.566,0.977,999.512
1742380312.492,170.41,-123.047,-6.836,152.344
1742380312.496,-1000.0,-136.719,-20.02,-1000.0
1742380312.499,-923.828,-117.676,-23.926,-876.953
1742380312.503,384.766,-104.98,-41.992,443.359
1742380312.507,999.512,-124.512,-56.641,999.512
1742380312.511,144.531,-174.805,-61.035,146.973
1742380312.515,-1000.0,-177.246,-52.734,-1000.0
1742380312.472,94.727,-82.031,-33.691,58.105
1742380312.476,-1000.0,-96.68,-20.996,-1000.0
1742380312.48,-653.32,-53.711,2.93,-612.305
1742380312.484,717.285,-34.668,-6.836,749.023
1742380312.488,999.512,-80.566,0.977,999.512
1742380312.492,170.41,-123.047,-6.836,152.344
1742380312.496,-1000.0,-136.719,-20.02,-1000.0
1742380312.499,-923.828,-117.676,-23.926,-876.953
1742380312.503,384.766,-104.98,-41.992,443.359
1742380312.507,999.512,-124.512,-56.641,999.512
1742380312.511,144.531,-174.805,-61.035,146.973
1742380312.515,-1000.0,-177.246,-52.734,-1000.0
1742380312.517,-1000.0,-124.023,-31.738,-1000.0
1742380312.521,120.605,-92.285,-20.996,181.641
1742380312.525,999.512,-86.426,-8.301,999.512
1742380312.529,159.18,-133.301,-1.953,165.039
1742380312.533,-1000.0,-150.391,11.23,-1000.0
1742380312.537,-1000.0,-83.008,43.457,-1000.0
1742380312.541,-20.02,-44.922,43.945,19.043
1742380312.544,999.512,-77.637,4.395,999.512
1742380312.548,269.531,-151.367,-18.555,238.77
1742380312.552,-970.215,-168.457,-16.113,-981.445
1742380312.556,-1000.0,-140.625,-33.691,-1000.0
1742380312.56,-257.324,-102.051,-39.062,-224.609
1742380312.517,-1000.0,-124.023,-31.738,-1000.0
1742380312.521,120.605,-92.285,-20.996,181.641
1742380312.525,999.512,-86.426,-8.301,999.512
1742380312.529,159.18,-133.301,-1.953,165.039
1742380312.533,-1000.0,-150.391,11.23,-1000.0
1742380312.537,-1000.0,-83.008,43.457,-1000.0
1742380312.541,-20.02,-44.922,43.945,19.043
1742380312.544,999.512,-77.637,4.395,999.512
1742380312.548,269.531,-151.367,-18.555,238.77
1742380312.552,-970.215,-168.457,-16.113,-981.445
1742380312.556,-1000.0,-140.625,-33.691,-1000.0
1742380312.56,-257.324,-102.051,-39.062,-224.609
