timestamps,TP9,AF7,AF8,TP10
1742380062.872,966.309,228.516,755.371,967.285
1742380062.876,966.309,-579.102,299.805,967.285
1742380062.88,966.309,-27.344,222.656,967.285
1742380062.884,966.309,613.77,677.246,967.285
1742380062.888,966.309,663.574,958.496,967.285
1742380062.892,966.309,703.125,908.691,966.797
1742380062.896,966.309,332.031,604.492,966.797
1742380062.899,966.309,-585.938,213.379,966.797
1742380062.903,966.309,-91.797,498.535,966.797
1742380062.907,966.309,599.609,893.066,966.797
1742380062.911,966.309,241.699,650.879,966.797
1742380062.915,966.309,-240.723,182.617,966.797
1742380063.1,-1000.0,396.973,-52.734,-1000.0
1742380063.104,-1000.0,325.195,-80.566,-1000.0
1742380063.108,-1000.0,-124.023,-276.367,-1000.0
1742380063.112,-1000.0,-709.473,-608.398,-1000.0
1742380063.116,-1000.0,-276.367,-502.441,-1000.0
1742380063.12,-1000.0,628.418,-134.766,-1000.0
1742380063.124,-1000.0,295.41,-123.047,-1000.0
1742380063.127,-1000.0,-574.707,-400.879,-1000.0
1742380063.131,-1000.0,-950.195,-750.488,-1000.0
1742380063.135,-1000.0,-342.285,-560.059,-1000.0
1742380063.139,-1000.0,438.477,-54.199,-1000.0
1742380063.143,-1000.0,502.93,195.801,-1000.0
1742380063.757,139.648,-669.434,-231.934,966.797
1742380063.761,450.195,345.703,130.859,970.215
1742380063.765,999.512,557.129,243.652,952.148
1742380063.769,999.512,-0.977,86.914,924.805
1742380063.773,475.098,-690.918,-403.32,999.512
1742380063.777,-1000.0,-1000.0,-382.812,-188.965
1742380063.781,-421.875,222.656,79.102,-412.109
1742380063.784,961.914,814.453,249.512,993.164
1742380063.788,999.512,-235.84,76.66,999.512
1742380063.792,27.344,-1000.0,-359.863,137.207
1742380063.796,-1000.0,-764.16,-478.516,-1000.0
1742380063.8,-1000.0,163.086,-158.691,-1000.0
1742380064.358,-131.348,710.938,256.836,-148.438
1742380064.362,999.512,459.961,101.074,999.512
1742380064.366,152.832,-795.41,-390.625,156.25
1742380064.37,-1000.0,-608.887,-295.898,-1000.0
1742380064.374,-1000.0,152.832,166.992,-1000.0
1742380064.378,-250.488,655.762,354.004,-248.535
1742380064.382,999.512,592.773,195.312,999.512
1742380064.385,168.945,-689.453,-304.199,166.016
1742380064.389,-1000.0,-990.723,-287.598,-1000.0
1742380064.393,-1000.0,-91.309,166.016,-1000.0
1742380064.397,-260.742,829.102,416.992,-313.477
1742380064.401,999.512,621.094,244.629,999.512
1742380065.153,438.477,451.172,74.219,973.633
1742380065.157,999.512,451.66,139.648,936.523
1742380065.161,999.512,-63.965,1.465,968.75
1742380065.165,540.039,-687.012,-364.258,999.512
1742380065.169,-1000.0,-766.113,-322.266,-323.73
1742380065.173,-148.926,622.559,159.18,-96.68
1742380065.177,999.512,792.48,291.016,999.512
1742380065.18,999.512,-570.801,44.922,943.359
1742380065.184,495.117,-977.539,-329.102,955.078
1742380065.188,-1000.0,-813.477,-318.848,-592.285
1742380065.192,-506.836,211.914,120.605,-503.906
1742380065.196,920.898,999.512,284.18,999.512
1742380065.635,900.391,-185.059,223.633,895.508
1742380065.639,952.148,-856.445,-167.969,969.238
1742380065.643,895.508,-201.66,-65.43,967.285
1742380065.647,969.238,577.637,288.086,976.562
1742380065.651,901.367,201.66,377.441,929.199
1742380065.655,999.512,176.27,189.941,976.562
1742380065.659,628.418,-261.23,-275.879,999.512
1742380065.662,-1000.0,-1000.0,-347.656,-495.117
1742380065.666,-304.688,121.094,66.895,-343.262
1742380065.67,999.512,999.512,204.59,999.512
1742380065.674,986.816,94.727,-5.371,934.082
1742380065.678,855.957,-581.055,-345.215,999.512
1742380067.403,999.512,654.297,171.875,999.512
1742380067.407,861.816,-271.973,-212.891,821.289
1742380067.411,-454.59,-736.816,-62.5,-503.906
1742380067.415,-1000.0,180.664,377.93,-1000.0
1742380067.419,-239.258,832.52,517.578,-269.531
1742380067.423,999.512,875.488,274.414,999.023
1742380067.427,997.07,79.59,-153.809,977.051
1742380067.43,-249.512,-946.777,-128.418,-275.879
1742380067.434,-1000.0,-480.469,360.352,-1000.0
1742380067.438,-189.941,688.965,857.91,-251.465
1742380067.442,999.512,698.73,724.121,999.512
1742380067.446,969.727,-367.676,32.715,954.102
1742380067.823,999.512,20.508,249.023,999.512
1742380067.827,197.754,-1000.0,-256.836,261.23
1742380067.831,-1000.0,-607.91,-120.605,-990.723
1742380067.835,-1000.0,210.938,394.531,-1000.0
1742380067.839,-2.93,730.469,590.332,29.297
1742380067.843,999.512,540.527,376.465,999.512
1742380067.847,397.461,-708.984,-177.734,431.641
1742380067.85,-907.715,-850.098,-218.262,-884.766
1742380067.854,-1000.0,-206.543,188.965,-1000.0
1742380067.858,-240.723,631.348,439.453,-219.238
1742380067.862,999.512,407.715,184.57,999.512
1742380067.866,664.062,-657.227,-424.805,726.074
1742380068.441,-1000.0,-478.027,-220.215,-1000.0
1742380068.445,-1000.0,189.941,113.281,-1000.0
1742380068.449,-140.625,699.219,94.238,-159.18
1742380068.453,627.441,433.594,-161.621,604.492
1742380068.457,-892.578,-1000.0,-640.137,-888.184
1742380068.461,-1000.0,-72.754,-443.359,-1000.0
1742380068.465,-935.547,540.039,6.836,-936.523
1742380068.468,-1000.0,-387.695,82.031,-1000.0
1742380068.472,-1000.0,-347.168,-80.078,-1000.0
1742380068.476,-1000.0,-600.586,-502.93,-1000.0
1742380068.48,-1000.0,-340.82,-494.629,-1000.0
1742380068.484,-1000.0,293.945,-93.262,-1000.0
1742380068.528,-1000.0,-626.953,-262.695,-1000.0
1742380068.532,-971.68,-332.031,-364.258,-1000.0
1742380068.536,-1000.0,384.277,-18.066,-1000.0
1742380068.54,-1000.0,474.609,331.055,-1000.0
1742380068.544,230.957,621.582,326.66,-1000.0
1742380068.548,-8.789,9.766,11.719,-1000.0
1742380068.552,-1000.0,-744.141,-221.68,-1000.0
1742380068.555,-952.148,-209.473,-35.645,-1000.0
1742380068.559,-1000.0,628.418,314.941,-1000.0
1742380068.563,356.934,731.934,250.977,-1000.0
1742380068.567,163.574,-361.816,-59.57,-1000.0
1742380068.571,-1000.0,-746.094,-224.121,-1000.0
1742380068.949,-1000.0,-1000.0,-369.141,-1000.0
1742380068.953,-933.594,-16.602,-228.516,-935.059
1742380068.957,-1000.0,184.57,104.98,-1000.0
1742380068.961,-254.395,329.102,308.105,-759.277
1742380068.965,850.586,503.418,201.172,183.594
1742380068.969,-614.746,-928.711,-274.414,-690.43
1742380068.973,-1000.0,-458.496,-300.293,-1000.0
1742380068.976,-983.398,292.969,33.691,-894.531
1742380068.98,-913.574,-107.91,235.352,-1000.0
1742380068.984,689.453,612.793,197.754,14.16
1742380068.988,216.309,-131.836,-182.129,55.176
1742380068.992,-1000.0,-929.688,-285.156,-1000.0
1742380069.712,-1000.0,356.445,304.199,-1000.0
1742380069.716,-12.207,578.125,557.129,-156.738
1742380069.72,999.512,457.031,319.824,877.93
1742380069.724,-462.891,-992.188,-195.801,-606.445
1742380069.728,-1000.0,-573.242,-64.941,-1000.0
1742380069.732,-1000.0,652.832,386.719,-1000.0
1742380069.736,-27.832,961.914,516.113,-231.934
1742380069.739,999.512,275.879,281.738,999.512
1742380069.743,140.625,-904.297,-264.648,134.277
1742380069.747,-1000.0,-502.93,-184.57,-1000.0
1742380069.751,-1000.0,375.0,300.781,-1000.0
1742380069.755,-212.402,726.074,512.695,-245.117
1742380071.528,948.73,390.625,183.105,945.801
1742380071.532,999.512,-330.078,-212.891,999.512
1742380071.536,26.855,-612.305,-372.07,26.367
1742380071.54,-1000.0,-330.078,-161.133,-1000.0
1742380071.544,-505.859,652.344,199.219,-491.211
1742380071.548,849.121,813.965,216.309,854.004
1742380071.552,999.512,89.355,-199.707,999.512
1742380071.555,110.84,-877.441,-534.18,135.254
1742380071.559,-1000.0,-606.934,-273.926,-1000.0
1742380071.563,-654.785,494.141,160.156,-651.367
1742380071.567,720.215,723.145,178.711,718.262
1742380071.571,999.512,-76.66,-93.262,999.512
1742380073.028,25.391,576.66,113.77,54.688
1742380073.032,999.512,367.188,-28.32,999.512
1742380073.036,407.715,-608.398,-347.168,416.016
1742380073.04,-931.152,-637.207,-213.867,-920.41
1742380073.044,-1000.0,44.922,189.453,-1000.0
1742380073.048,-5.371,779.297,441.406,-17.578
1742380073.052,999.512,323.242,261.23,999.512
1742380073.055,480.957,-1000.0,-274.414,506.348
1742380073.059,-860.352,-726.074,-208.008,-832.52
1742380073.063,-1000.0,76.172,214.844,-1000.0
1742380073.067,-212.402,666.016,422.852,-208.008
1742380073.071,999.512,468.75,245.117,999.512
1742380075.803,-685.059,-658.203,-431.641,-679.199
1742380075.807,-1000.0,20.996,-19.531,-1000.0
1742380075.811,256.836,869.629,312.988,268.066
1742380075.815,999.512,303.711,89.355,999.512
1742380075.819,784.18,-872.07,-360.352,770.996
1742380075.823,-550.293,-774.902,-382.812,-566.406
1742380075.827,-1000.0,-151.367,-64.453,-1000.0
1742380075.83,-219.238,446.289,116.211,-226.562
1742380075.834,999.512,444.824,-71.289,999.512
1742380075.838,837.891,-619.141,-421.875,841.309
1742380075.842,-555.664,-714.844,-483.398,-558.105
1742380075.846,-1000.0,75.195,-112.305,-1000.0
1742380076.6,761.23,-490.723,-472.656,762.695
1742380076.604,-659.668,-788.086,-419.922,-659.18
1742380076.608,-1000.0,202.148,-23.926,-1000.0
1742380076.612,210.938,838.867,229.98,163.574
1742380076.616,999.512,396.484,49.316,999.512
1742380076.62,787.598,-82.52,-224.609,794.922
1742380076.624,-531.738,-711.426,-318.359,-535.645
1742380076.627,-1000.0,-507.812,-84.473,-1000.0
1742380076.631,-374.023,624.023,145.02,-390.137
1742380076.635,982.422,695.801,108.887,971.68
1742380076.639,858.887,-652.344,-239.258,864.746
1742380076.643,-565.918,-980.957,-420.898,-569.336
1742380076.794,-1000.0,3.906,-83.496,-1000.0
1742380076.798,-506.348,590.82,-9.277,-466.309
1742380076.802,927.734,503.418,-216.309,938.965
1742380076.806,880.371,-449.707,-479.98,875.488
1742380076.81,-580.566,-760.254,-537.109,-578.125
1742380076.814,-1000.0,159.18,-149.902,-1000.0
1742380076.818,-720.703,282.227,106.445,-726.074
1742380076.821,751.953,427.734,44.434,742.188
1742380076.825,985.352,-373.047,-298.34,988.281
1742380076.829,-505.371,-1000.0,-452.148,-502.441
1742380076.833,-1000.0,-284.18,-160.156,-1000.0
1742380076.837,-778.809,628.906,125.488,-783.691
1742380077.123,925.781,648.926,-21.484,923.828
1742380077.127,891.113,-413.086,-319.336,899.414
1742380077.131,-561.523,-751.465,-422.852,-546.387
1742380077.135,-1000.0,1.465,-103.027,-1000.0
1742380077.139,-712.891,231.934,105.957,-717.773
1742380077.143,752.93,652.832,200.684,742.188
1742380077.147,999.512,-74.219,-63.477,999.512
1742380077.15,-480.469,-989.258,-397.461,-471.68
1742380077.154,-1000.0,-520.508,-146.973,-1000.0
1742380077.158,-802.246,304.199,162.109,-793.457
1742380077.162,598.145,772.949,147.949,601.562
1742380077.166,999.512,28.809,-169.434,999.512
1742380077.634,-820.312,489.258,164.551,-805.664
1742380077.638,546.387,639.648,83.496,566.895
1742380077.642,999.512,-325.195,-248.535,999.512
1742380077.646,-110.352,-857.422,-452.148,-104.98
1742380077.65,-1000.0,-350.586,-221.68,-1000.0
1742380077.654,-845.703,676.758,134.766,-833.008
1742380077.658,579.102,985.352,231.934,588.379
1742380077.661,999.512,-168.457,-151.855,999.512
1742380077.665,-182.129,-1000.0,-467.285,-133.301
1742380077.669,-1000.0,-555.176,-250.0,-1000.0
1742380077.673,-823.242,266.602,47.852,-830.566
1742380077.677,495.605,821.289,198.242,501.465
1742380077.962,999.512,-70.801,-66.406,999.512
1742380077.966,-120.605,-998.535,-313.965,-103.516
1742380077.97,-1000.0,-458.984,-16.113,-1000.0
1742380077.974,-838.867,819.824,292.969,-807.129
1742380077.978,544.434,810.059,273.926,576.66
1742380077.982,999.512,-142.09,17.578,999.512
1742380077.986,48.34,-900.879,-254.395,114.258
1742380077.989,-1000.0,-608.398,31.25,-1000.0
1742380077.993,-844.238,674.805,476.562,-830.566
1742380077.997,518.066,779.785,560.059,551.27
1742380078.001,999.512,-315.918,291.016,999.512
1742380078.005,676.758,-223.633,16.602,681.152
1742380078.385,850.098,-437.012,-191.406,853.027
1742380078.389,-564.941,-911.621,-299.316,-556.152
1742380078.393,-1000.0,-277.832,74.219,-1000.0
1742380078.397,-391.113,500.488,343.75,-377.441
1742380078.401,961.914,677.734,281.25,955.078
1742380078.405,897.461,25.879,-55.664,916.992
1742380078.409,-512.695,-795.41,-270.508,-484.375
1742380078.412,-1000.0,-403.809,82.52,-1000.0
1742380078.416,-602.051,591.309,439.941,-547.363
1742380078.42,793.945,645.02,423.34,811.523
1742380078.424,999.512,-416.992,48.34,999.512
1742380078.428,-253.418,-875.0,-220.215,-202.148
1742380078.714,-1000.0,-59.082,-124.023,-1000.0
1742380078.718,-437.988,541.992,128.418,-430.176
1742380078.722,913.086,898.438,146.484,902.344
1742380078.726,913.086,-149.414,-244.629,929.199
1742380078.73,-514.648,-970.703,-534.18,-484.375
1742380078.734,-1000.0,18.066,-158.203,-1000.0
1742380078.738,-762.695,514.16,113.281,-753.906
1742380078.741,663.574,536.621,39.551,668.945
1742380078.745,999.512,-242.676,-265.137,999.512
1742380078.749,-347.168,-951.172,-489.258,-337.402
1742380078.753,-1000.0,-455.078,-186.523,-1000.0
1742380078.757,-825.684,434.57,175.781,-819.336
1742380079.225,-238.281,-863.281,-422.363,-161.621
1742380079.229,-1000.0,-329.102,-109.375,-1000.0
1742380079.233,-753.906,603.027,262.695,-745.605
1742380079.237,585.938,704.102,282.715,603.027
1742380079.241,999.512,-150.391,-23.926,999.512
1742380079.245,301.758,-547.852,-288.086,328.613
1742380079.249,-1000.0,-524.414,-153.32,-1000.0
1742380079.252,-890.137,-36.133,129.395,-895.508
1742380079.256,530.762,759.277,288.574,534.668
1742380079.26,999.512,70.801,26.855,999.512
1742380079.264,472.656,-915.527,-321.777,483.887
1742380079.268,-961.426,-613.281,-229.98,-948.73
1742380079.282,-914.551,435.059,140.625,-917.969
1742380079.286,549.805,791.992,309.57,552.734
1742380079.29,999.512,115.234,58.105,999.512
1742380079.294,748.535,-297.363,-248.535,763.672
1742380079.298,-749.023,-615.723,-211.426,-731.934
1742380079.302,-973.633,351.074,159.18,-970.703
1742380079.306,576.66,951.172,308.594,584.961
1742380079.309,999.512,-154.785,41.016,999.512
1742380079.313,828.125,-672.363,-283.203,826.66
1742380079.317,-622.559,-718.262,-311.523,-627.93
1742380079.321,-1000.0,-34.668,63.965,-1000.0
1742380079.325,486.816,883.301,358.398,494.141
1742380079.749,999.512,506.348,-147.949,999.512
1742380079.753,9.766,-859.863,-508.301,-22.461
1742380079.757,-1000.0,-475.098,-267.578,-1000.0
1742380079.761,-999.023,559.57,134.277,-1000.0
1742380079.765,220.215,684.082,278.809,208.008
1742380079.769,999.512,613.281,70.312,999.512
1742380079.773,461.426,-571.777,-353.027,426.27
1742380079.776,-876.953,-878.906,-330.566,-876.953
1742380079.78,-1000.0,118.652,20.02,-1000.0
1742380079.784,25.391,686.523,206.055,-46.387
1742380079.788,999.512,292.969,32.227,999.512
1742380079.792,719.238,-521.484,-321.289,714.355
1742380081.337,-903.809,370.117,137.207,-875.977
1742380081.341,569.824,751.465,271.973,617.188
1742380081.345,999.512,10.742,-41.992,999.512
1742380081.349,760.254,-204.59,-371.094,786.621
1742380081.353,-746.094,-676.758,-356.445,-721.68
1742380081.357,-951.66,314.453,27.832,-931.641
1742380081.361,604.492,999.512,197.266,633.789
1742380081.364,999.512,-100.098,-63.477,999.512
1742380081.368,793.457,-649.414,-365.234,812.5
1742380081.372,-682.129,-746.094,-403.809,-661.621
1742380081.376,-1000.0,56.152,-79.102,-1000.0
1742380081.38,536.621,944.336,184.082,541.504
1742380083.167,999.512,278.809,72.754,999.512
1742380083.171,658.691,-661.621,-310.547,663.574
1742380083.175,-826.66,-781.25,-502.441,-805.176
1742380083.179,-978.516,503.906,40.039,-1000.0
1742380083.183,519.531,999.512,180.664,487.305
1742380083.187,999.512,586.426,-29.785,999.512
1742380083.191,647.461,-675.781,-369.629,680.664
1742380083.194,-780.762,-1000.0,-616.211,-736.328
1742380083.198,-1000.0,6.348,-132.324,-1000.0
1742380083.202,318.848,830.566,165.039,290.039
1742380083.206,999.512,488.281,24.414,999.512
1742380083.21,770.02,-308.594,-277.832,777.344
1742380083.453,999.512,36.621,100.098,999.512
1742380083.457,8.301,-876.953,-257.812,60.547
1742380083.461,-1000.0,-626.953,-247.559,-1000.0
1742380083.465,-946.777,542.969,121.094,-938.477
1742380083.469,325.684,956.543,178.223,360.84
1742380083.473,999.512,534.668,65.43,999.512
1742380083.477,590.332,-565.43,-259.766,564.941
1742380083.48,-872.559,-879.395,-303.223,-865.234
1742380083.484,-1000.0,140.137,185.059,-1000.0
1742380083.488,437.012,907.227,279.297,400.391
1742380083.492,999.512,496.582,145.02,999.512
1742380083.496,553.223,-663.086,-211.426,534.18
1742380083.738,963.379,-142.578,-68.359,966.797
1742380083.742,-462.402,-1000.0,-440.918,-437.5
1742380083.746,-1000.0,-424.805,-124.512,-1000.0
1742380083.75,-238.281,860.84,309.57,-367.188
1742380083.754,967.773,871.094,289.551,912.109
1742380083.758,994.141,190.918,133.789,999.512
1742380083.762,-273.926,-778.809,-284.668,-245.117
1742380083.765,-1000.0,-487.793,-135.742,-1000.0
1742380083.769,-819.336,498.535,243.164,-821.289
1742380083.773,496.582,829.102,231.445,497.07
1742380083.777,999.512,232.91,85.449,999.512
1742380083.781,299.316,-807.129,-328.613,325.195
1742380084.474,-860.352,427.734,-38.086,-1000.0
1742380084.478,575.684,939.941,204.102,-494.141
1742380084.482,999.512,594.238,152.832,870.117
1742380084.486,999.512,-116.699,-124.512,999.512
1742380084.49,-75.684,-857.91,-356.934,-204.59
1742380084.494,-1000.0,-187.988,17.578,-1000.0
1742380084.498,181.641,924.805,354.004,-68.848
1742380084.501,999.512,387.207,231.445,950.195
1742380084.505,999.512,-336.914,-154.297,999.512
1742380084.509,566.895,-624.023,-401.367,552.246
1742380084.513,-1000.0,-649.902,-119.629,-983.887
1742380084.517,-83.496,667.969,353.516,-100.098
1742380084.941,999.512,144.043,32.227,999.512
1742380084.945,665.527,-556.641,-334.473,659.668
1742380084.949,-635.254,-808.594,-624.023,-644.043
1742380084.953,-1000.0,279.297,-100.586,-1000.0
1742380084.957,-744.141,664.551,150.391,-709.961
1742380084.961,750.488,738.281,48.34,749.023
1742380084.965,967.285,-55.664,-335.938,957.52
1742380084.968,-640.137,-1000.0,-722.168,-628.418
1742380084.972,-1000.0,-92.773,-170.898,-1000.0
1742380084.976,108.398,913.086,216.309,11.719
1742380084.98,999.512,770.02,137.207,999.512
1742380084.984,834.961,-399.902,-172.363,873.535
1742380084.998,-461.914,-905.273,-530.762,-429.199
1742380085.002,-1000.0,-220.703,-196.777,-1000.0
1742380085.006,-651.367,422.363,172.363,-617.188
1742380085.01,691.895,662.109,130.859,708.496
1742380085.014,999.512,-181.641,-107.422,999.512
1742380085.018,99.121,-618.652,-419.922,120.117
1742380085.022,-1000.0,-339.844,-273.926,-1000.0
1742380085.025,-1000.0,0.488,39.062,-1000.0
1742380085.029,192.871,558.105,85.449,191.895
1742380085.033,999.512,376.953,-57.129,999.512
1742380085.037,-88.379,-890.625,-533.691,-52.246
1742380085.041,-1000.0,-607.91,-400.879,-1000.0
1742380086.065,-401.367,-731.445,-276.855,194.336
1742380086.069,-1000.0,-1000.0,-535.156,-985.84
1742380086.073,-932.129,-199.219,-159.18,-1000.0
1742380086.077,-1000.0,251.465,180.176,-964.844
1742380086.081,-1000.0,42.969,144.531,-1000.0
1742380086.085,-1000.0,-81.055,-136.23,-1000.0
1742380086.089,-1000.0,-547.852,-372.559,-1000.0
1742380086.092,-1000.0,-498.535,-214.844,-1000.0
1742380086.096,-1000.0,237.305,41.504,-1000.0
1742380086.1,-1000.0,149.414,44.434,-1000.0
1742380086.104,-1000.0,-474.121,-237.793,-1000.0
1742380086.108,-1000.0,-457.52,-486.328,-1000.0
1742380088.268,797.363,-340.332,-245.605,812.5
1742380088.272,-536.133,-996.094,-397.461,-527.344
1742380088.276,-1000.0,88.867,5.371,-1000.0
1742380088.28,-518.066,695.801,222.168,-456.543
1742380088.284,889.16,446.777,71.289,905.273
1742380088.288,967.773,15.625,-216.797,962.891
1742380088.292,-449.707,-744.629,-472.168,-434.082
1742380088.295,-1000.0,-573.242,-191.406,-1000.0
1742380088.299,-796.875,355.469,101.562,-786.133
1742380088.303,603.516,637.207,67.871,609.863
1742380088.307,999.512,-318.848,-256.836,999.512
1742380088.311,-253.906,-897.949,-465.82,-217.285
1742380088.315,-1000.0,-403.809,-177.246,-1000.0
1742380088.319,-749.512,456.543,122.07,-750.977
1742380088.323,618.652,763.184,145.508,616.211
1742380088.327,999.512,-117.188,-149.902,999.512
1742380088.331,97.168,-775.391,-437.988,146.484
1742380088.335,-1000.0,-244.629,-263.672,-1000.0
1742380088.339,-854.492,120.117,-19.531,-861.816
1742380088.342,513.184,600.586,76.66,521.484
1742380088.346,999.512,106.445,-198.73,999.512
1742380088.35,607.91,-707.031,-468.262,623.535
1742380088.354,-900.391,-607.422,-296.387,-886.23
1742380088.358,-889.648,229.98,47.852,-867.676
1742380089.018,-1000.0,216.309,79.102,-1000.0
1742380089.022,145.02,671.387,264.16,80.078
1742380089.026,999.512,416.504,98.633,999.512
1742380089.03,648.438,-439.453,-252.441,644.531
1742380089.034,-726.562,-771.484,-302.246,-731.934
1742380089.038,-1000.0,360.84,70.801,-1000.0
1742380089.042,-156.25,773.438,184.57,-204.102
1742380089.045,999.512,194.824,-24.414,999.512
1742380089.049,820.312,-596.68,-333.984,809.082
1742380089.053,-563.965,-683.105,-357.91,-591.797
1742380089.057,-1000.0,96.68,24.902,-1000.0
1742380089.061,-478.516,392.578,262.695,-484.863
1742380089.212,999.512,429.688,124.512,999.512
1742380089.216,790.039,-516.602,-278.32,791.992
1742380089.22,-530.273,-583.984,-287.598,-537.109
1742380089.224,-1000.0,95.703,60.547,-1000.0
1742380089.228,-504.883,332.031,226.562,-467.285
1742380089.232,928.223,696.289,88.867,935.059
1742380089.236,880.859,-431.152,-347.656,887.207
1742380089.239,-576.66,-1000.0,-480.957,-560.059
1742380089.243,-1000.0,-281.738,-116.699,-1000.0
1742380089.247,-626.465,504.883,156.738,-614.258
1742380089.251,820.312,555.176,97.656,814.941
1742380089.255,995.605,-246.094,-235.84,999.512
1742380090.427,523.438,861.328,74.707,500.977
1742380090.431,999.512,156.25,-134.277,999.512
1742380090.435,606.445,-376.465,-323.242,591.309
1742380090.439,-866.699,-581.055,-300.781,-863.281
1742380090.443,-981.934,-26.855,-43.945,-990.723
1742380090.447,490.723,831.055,201.172,472.656
1742380090.451,999.512,354.004,9.277,999.512
1742380090.454,596.68,-825.684,-268.066,604.004
1742380090.458,-851.074,-704.102,-151.855,-832.031
1742380090.462,-1000.0,306.641,173.828,-1000.0
1742380090.466,403.809,871.582,422.363,385.742
1742380090.47,999.512,437.012,210.449,999.512
1742380090.577,532.227,765.137,318.359,537.598
1742380090.581,999.512,-17.09,-18.555,999.512
1742380090.585,-141.602,-918.945,-312.012,-117.188
1742380090.589,-1000.0,-306.152,-178.711,-1000.0
1742380090.593,-831.055,832.52,187.988,-835.449
1742380090.597,501.953,837.891,326.66,506.348
1742380090.601,999.512,-350.586,-118.164,999.512
1742380090.604,393.066,-759.277,-414.551,384.766
1742380090.608,-950.684,-502.441,-251.953,-952.148
1742380090.612,-1000.0,211.426,101.562,-1000.0
1742380090.616,354.004,786.133,286.621,360.352
1742380090.62,999.512,398.438,-20.508,999.512
1742380091.418,999.512,316.895,-10.254,999.512
1742380091.422,663.086,-554.199,-329.102,666.504
1742380091.426,-772.949,-634.277,-329.59,-763.672
1742380091.43,-1000.0,238.77,82.52,-1000.0
1742380091.434,329.102,860.352,335.449,316.406
1742380091.438,999.512,645.02,128.418,999.512
1742380091.442,785.645,-283.691,-261.23,777.832
1742380091.445,-557.129,-844.727,-355.469,-572.754
1742380091.449,-1000.0,-225.586,6.348,-1000.0
1742380091.453,-100.098,655.762,246.582,-91.797
1742380091.457,999.512,564.941,58.594,999.512
1742380091.461,819.336,-460.449,-291.504,818.848
1742380091.689,999.512,44.922,-100.098,999.512
1742380091.693,71.289,-803.711,-438.477,71.777
1742380091.697,-1000.0,-542.969,-193.359,-1000.0
1742380091.701,-853.027,348.145,208.008,-854.98
1742380091.705,512.207,835.449,402.832,514.648
1742380091.709,999.512,326.66,160.645,999.512
1742380091.713,535.645,-551.758,-175.293,528.32
1742380091.716,-889.648,-801.27,-68.848,-888.184
1742380091.72,-1000.0,-110.84,249.023,-1000.0
1742380091.724,400.879,797.363,406.738,405.762
1742380091.728,999.512,321.777,151.855,999.512
1742380091.732,631.836,-719.238,-170.898,628.418
1742380092.498,519.531,798.828,248.535,523.438
1742380092.502,999.512,-112.793,-23.926,999.512
1742380092.506,99.609,-852.539,-223.633,114.746
1742380092.51,-1000.0,-252.441,13.672,-1000.0
1742380092.514,-864.746,252.93,275.391,-881.836
1742380092.518,520.996,694.824,397.949,500.488
1742380092.522,999.512,101.562,15.625,999.512
1742380092.525,350.098,-946.289,-336.426,378.418
1742380092.529,-977.051,-687.988,-145.508,-963.867
1742380092.533,-983.887,230.957,187.012,-983.887
1742380092.537,389.16,790.039,332.031,397.461
1742380092.541,999.512,255.371,-22.949,999.512
1742380093.759,999.512,107.91,-73.242,999.512
1742380093.763,-161.133,-886.23,-302.734,-175.293
1742380093.767,-1000.0,-607.422,-81.543,-1000.0
1742380093.771,-840.82,434.082,238.77,-841.309
1742380093.775,515.137,812.988,256.348,516.602
1742380093.779,999.512,264.16,-42.969,999.512
1742380093.783,157.715,-588.867,-268.555,150.879
1742380093.786,-1000.0,-797.363,-149.414,-1000.0
1742380093.79,-952.637,121.582,153.32,-957.031
1742380093.794,379.883,774.902,288.574,375.488
1742380093.798,999.512,90.82,-3.418,999.512
1742380093.802,456.055,-596.191,-267.578,411.133
1742380093.849,-341.309,564.453,270.508,-399.414
1742380093.853,995.117,490.723,153.32,968.262
1742380093.857,855.469,-226.562,-141.113,867.188
1742380093.861,-563.965,-795.41,-327.637,-570.312
1742380093.865,-1000.0,-237.305,-51.27,-1000.0
1742380093.869,-542.969,728.516,236.816,-548.34
1742380093.873,910.156,394.043,158.691,891.602
1742380093.876,888.184,-568.848,-135.742,908.691
1742380093.88,-590.82,-833.008,-291.016,-564.941
1742380093.884,-1000.0,-197.266,10.254,-1000.0
1742380093.888,-831.543,268.066,202.637,-824.219
1742380093.892,627.441,658.203,184.082,632.812
1742380094.689,599.121,696.289,229.004,610.84
1742380094.693,999.512,-81.055,-88.379,999.512
1742380094.697,-397.949,-907.715,-334.473,-400.391
1742380094.701,-1000.0,-118.164,-20.508,-1000.0
1742380094.705,-843.262,494.629,255.859,-842.285
1742380094.709,533.691,673.34,296.875,535.645
1742380094.713,999.512,-219.238,-26.367,999.512
1742380094.716,-179.199,-1000.0,-317.383,-169.922
1742380094.72,-1000.0,-270.02,-82.031,-1000.0
1742380094.724,-827.637,385.254,238.77,-831.055
1742380094.728,500.0,746.094,297.363,503.418
1742380094.732,999.512,205.566,-18.555,999.512
1742380096.893,932.129,676.27,141.113,875.977
1742380096.897,824.707,-325.195,-179.688,842.773
1742380096.901,-535.645,-841.309,-343.75,-545.898
1742380096.905,-1000.0,-10.742,29.785,-1000.0
1742380096.909,-878.418,366.211,258.789,-869.629
1742380096.913,613.281,638.184,154.297,633.301
1742380096.917,971.68,-266.602,-207.52,949.219
1742380096.92,-677.246,-1000.0,-450.684,-701.66
1742380096.924,-1000.0,-133.789,-171.387,-1000.0
1742380096.928,-925.781,233.398,28.809,-926.758
1742380096.932,-1000.0,-34.18,-8.301,-1000.0
1742380096.936,-1000.0,-291.504,-275.879,-1000.0
1742380097.143,-23.438,545.41,117.188,69.336
1742380097.147,999.512,969.727,176.27,999.512
1742380097.151,979.004,-255.371,-121.582,975.098
1742380097.155,865.234,-555.664,-365.723,870.117
1742380097.159,-692.383,-725.098,-270.508,-657.227
1742380097.163,-5.371,476.074,108.887,72.266
1742380097.167,999.512,999.512,226.562,999.512
1742380097.17,950.684,-333.008,-32.227,949.707
1742380097.174,910.645,-721.191,-294.922,917.48
1742380097.178,-715.332,-856.445,-256.836,-677.246
1742380097.182,-405.273,131.348,198.242,-251.465
1742380097.186,999.512,945.801,466.797,999.512
1742380097.314,999.512,245.605,-2.93,999.512
1742380097.318,802.246,-510.742,-286.621,807.129
1742380097.322,-618.652,-617.188,-255.859,-623.535
1742380097.326,-1000.0,179.688,84.473,-1000.0
1742380097.33,356.934,919.434,275.391,395.02
1742380097.334,999.512,593.262,101.562,999.512
1742380097.338,791.504,-618.164,-225.586,793.457
1742380097.341,-540.039,-909.668,-253.906,-542.48
1742380097.345,-1000.0,-39.551,108.398,-1000.0
1742380097.349,-146.973,609.863,320.312,-118.652
1742380097.353,999.512,474.121,148.926,999.512
1742380097.357,822.754,-122.559,-192.871,821.289
1742380098.814,766.113,737.793,69.336,753.906
1742380098.818,978.516,-244.629,-257.812,988.281
1742380098.822,-517.578,-875.977,-478.516,-500.0
1742380098.826,-1000.0,35.156,-125.977,-1000.0
1742380098.83,-820.801,391.113,168.457,-807.617
1742380098.834,572.266,613.281,186.523,583.496
1742380098.838,999.512,-347.656,-175.781,999.512
1742380098.841,-266.113,-1000.0,-419.434,-231.934
1742380098.845,-1000.0,-411.133,-216.797,-1000.0
1742380098.849,-821.777,285.156,33.691,-823.73
1742380098.853,498.535,711.914,97.656,503.418
1742380098.857,999.512,38.574,-193.359,999.512
1742380098.921,-1000.0,96.191,4.883,-1000.0
1742380098.925,469.238,841.797,183.594,481.445
1742380098.929,999.512,118.652,1.953,999.512
1742380098.933,822.266,-478.027,-305.664,824.219
1742380098.937,-593.75,-741.211,-349.609,-604.98
1742380098.941,-1000.0,160.156,14.16,-1000.0
1742380098.945,353.027,889.648,199.707,396.973
1742380098.948,999.512,113.281,3.418,999.512
1742380098.952,782.227,-329.102,-272.949,785.645
1742380098.956,-527.832,-773.438,-334.961,-531.25
1742380098.96,-1000.0,-364.746,-24.902,-1000.0
1742380098.964,-318.359,672.363,157.227,-258.789
1742380099.19,-884.277,281.738,126.953,-887.207
1742380099.194,528.32,752.441,251.953,531.738
1742380099.198,999.512,100.098,-89.844,999.512
1742380099.202,611.816,-518.066,-404.297,622.559
1742380099.206,-879.395,-630.371,-277.344,-866.699
1742380099.21,-942.383,517.09,102.539,-932.617
1742380099.214,563.965,914.551,254.395,581.055
1742380099.217,999.512,-206.543,-17.09,999.512
1742380099.221,768.066,-400.879,-267.578,773.438
1742380099.225,-652.344,-706.055,-267.578,-645.02
1742380099.229,-1000.0,-271.484,-5.371,-1000.0
1742380099.233,326.172,823.242,200.195,328.125
1742380100.268,-1000.0,-317.871,33.203,-1000.0
1742380100.272,-848.633,297.852,319.824,-835.449
1742380100.276,541.992,787.109,439.941,553.711
1742380100.28,999.512,-56.152,98.633,999.512
1742380100.284,-242.188,-914.551,-235.352,-195.312
1742380100.288,-1000.0,-100.586,34.668,-1000.0
1742380100.292,-823.242,197.266,295.41,-829.59
1742380100.295,499.023,535.156,340.332,503.418
1742380100.299,999.512,10.742,24.902,999.512
1742380100.303,326.66,-769.531,-258.789,340.332
1742380100.307,-1000.0,-614.746,-98.633,-1000.0
1742380100.311,-906.738,297.852,257.324,-919.434
1742380100.691,-1000.0,155.273,98.633,-1000.0
1742380100.695,-419.434,464.844,211.914,-377.93
1742380100.699,963.867,400.879,95.703,975.586
1742380100.703,867.676,-244.629,-197.266,864.746
1742380100.707,-569.824,-770.508,-365.723,-569.336
1742380100.711,-1000.0,166.992,2.93,-1000.0
1742380100.715,-569.336,625.0,243.652,-540.527
1742380100.718,875.488,448.73,149.414,876.465
1742380100.722,939.941,-375.977,-199.707,951.66
1742380100.726,-512.695,-874.512,-419.434,-482.422
1742380100.73,-1000.0,-187.012,-46.875,-1000.0
1742380100.734,-735.352,425.293,208.008,-718.75
1742380101.017,868.164,594.727,119.141,859.375
1742380101.021,900.391,-295.898,-243.164,902.832
1742380101.025,-589.355,-752.93,-415.527,-589.844
1742380101.029,-1000.0,234.375,-24.902,-1000.0
1742380101.033,-739.258,437.5,212.402,-740.234
1742380101.037,751.953,646.973,126.465,744.629
1742380101.041,948.242,-321.777,-250.0,956.543
1742380101.044,-570.312,-1000.0,-454.102,-560.547
1742380101.048,-1000.0,-109.863,-115.723,-1000.0
1742380101.052,-746.094,528.809,207.031,-749.023
1742380101.056,659.18,680.176,239.746,651.855
1742380101.06,999.512,-112.305,-77.637,999.512
1742380101.064,-260.742,-804.199,-329.59,-241.211
1742380101.068,-1000.0,-377.441,-77.637,-1000.0
1742380101.072,-807.617,351.074,221.191,-803.223
1742380101.076,518.555,665.039,242.676,533.203
1742380101.08,999.512,109.375,-68.359,999.512
1742380101.084,295.898,-492.676,-339.355,289.062
1742380101.088,-1000.0,-652.832,-152.344,-1000.0
1742380101.091,-894.043,383.789,153.32,-893.066
1742380101.095,535.645,890.137,189.453,535.156
1742380101.099,999.512,12.207,-42.48,999.512
1742380101.103,369.141,-827.148,-335.449,392.578
1742380101.107,-995.117,-489.258,-189.941,-981.445
1742380101.122,-920.41,396.484,161.133,-928.223
1742380101.126,506.348,747.559,276.367,505.371
1742380101.13,999.512,284.18,92.285,999.512
1742380101.134,739.258,-224.121,-127.93,747.07
1742380101.138,-700.195,-695.801,-96.191,-693.359
1742380101.142,-1000.0,269.043,159.18,-1000.0
1742380101.146,365.723,894.043,330.078,384.277
1742380101.149,999.512,113.281,95.703,999.512
1742380101.153,772.949,-351.074,-305.664,776.367
1742380101.157,-612.793,-749.512,-364.258,-609.375
1742380101.161,-1000.0,-148.926,-23.438,-1000.0
1742380101.165,141.602,776.367,241.211,141.602
1742380101.392,-813.477,472.168,339.355,-805.176
1742380101.396,489.746,585.449,354.004,504.883
1742380101.4,999.512,91.309,84.961,999.512
1742380101.404,309.57,-487.305,-137.207,302.246
1742380101.408,-1000.0,-625.0,44.434,-1000.0
1742380101.412,-825.195,631.348,395.02,-820.312
1742380101.416,607.422,862.793,434.57,608.887
1742380101.419,999.512,-265.137,75.684,999.512
1742380101.423,570.312,-463.379,-246.582,552.734
1742380101.427,-893.555,-622.07,-196.777,-899.414
1742380101.431,-966.797,113.281,104.98,-962.402
1742380101.435,503.418,854.98,253.418,505.859
1742380101.767,-697.266,-697.754,-168.457,-692.383
1742380101.771,-824.219,70.312,178.223,-741.211
1742380101.775,769.531,999.512,368.652,823.242
1742380101.779,999.512,183.105,142.578,999.512
1742380101.783,856.934,-628.418,-255.371,865.723
1742380101.787,-661.621,-804.199,-335.449,-673.34
1742380101.791,-892.09,78.613,29.297,-837.891
1742380101.794,706.543,815.918,195.312,762.207
1742380101.798,999.512,75.684,0.488,999.512
1742380101.802,855.957,-392.578,-303.223,916.016
1742380101.806,-620.605,-796.387,-470.215,-545.898
1742380101.81,-986.328,-52.734,-94.727,-948.242
1742380102.007,989.258,-295.898,-231.934,988.77
1742380102.011,-167.48,-794.922,-355.469,-108.887
1742380102.015,-1000.0,-520.508,-178.223,-1000.0
1742380102.019,-698.242,400.879,91.309,-650.879
1742380102.023,737.793,751.465,169.922,764.16
1742380102.027,999.512,102.539,-109.375,999.512
1742380102.031,-265.625,-764.16,-364.258,-187.5
1742380102.034,-1000.0,-607.91,-120.605,-1000.0
1742380102.038,-817.871,276.367,187.988,-826.66
1742380102.042,493.652,641.602,270.508,502.441
1742380102.046,999.512,46.387,42.48,999.512
1742380102.05,373.535,-385.742,-210.938,365.234
1742380102.292,795.898,-483.398,-218.262,798.34
1742380102.296,-542.969,-835.938,-347.656,-545.898
1742380102.3,-1000.0,-283.203,38.086,-1000.0
1742380102.304,-179.199,653.809,332.031,-144.531
1742380102.308,999.512,562.988,180.664,999.512
1742380102.312,869.141,-63.965,-113.281,884.766
1742380102.316,-493.652,-719.727,-314.941,-457.52
1742380102.319,-1000.0,-507.324,-63.965,-1000.0
1742380102.323,-749.512,293.457,209.961,-734.863
1742380102.327,696.289,579.59,192.871,711.914
1742380102.331,999.512,-291.504,-145.508,999.512
1742380102.335,-414.551,-843.262,-349.609,-416.504
1742380102.517,497.559,779.785,205.566,516.602
1742380102.521,999.512,-20.508,-126.953,999.512
1742380102.525,496.582,-703.613,-274.414,476.074
1742380102.529,-952.148,-511.719,-6.348,-958.008
1742380102.533,-916.504,193.848,299.805,-890.137
1742380102.537,548.828,800.781,406.738,578.125
1742380102.541,999.512,-33.203,-2.441,999.512
1742380102.544,654.785,-819.336,-327.637,666.016
1742380102.548,-863.281,-650.391,-132.324,-853.516
1742380102.552,-890.137,514.648,193.848,-870.117
1742380102.556,643.555,899.902,235.352,662.109
1742380102.56,999.512,-76.172,20.508,999.512
1742380103.794,999.512,-69.336,9.277,999.512
1742380103.798,128.906,-761.23,-281.25,183.105
1742380103.802,-1000.0,-619.629,-88.867,-1000.0
1742380103.806,-777.832,536.133,275.879,-773.926
1742380103.81,628.906,834.961,326.66,634.766
1742380103.814,999.512,152.832,-0.977,999.512
1742380103.818,403.32,-498.047,-381.348,442.383
1742380103.821,-989.746,-742.676,-285.645,-973.633
1742380103.825,-919.922,150.391,129.395,-925.781
1742380103.829,609.863,814.453,177.734,614.258
1742380103.833,999.512,146.484,-119.141,999.512
1742380103.837,891.602,-197.266,-236.816,892.578
1742380104.213,925.293,-228.027,0.0,937.012
1742380104.217,-556.152,-892.09,-197.266,-528.32
1742380104.221,-1000.0,-157.227,80.078,-1000.0
1742380104.225,507.812,905.273,351.562,507.324
1742380104.229,999.512,342.285,236.816,999.512
1742380104.233,877.93,-144.043,-91.797,910.645
1742380104.237,-349.121,-663.086,-393.066,-308.105
1742380104.24,-1000.0,-465.82,-167.969,-1000.0
1742380104.244,-275.391,617.676,102.539,-136.719
1742380104.248,897.949,567.383,74.707,932.617
1742380104.252,999.512,-205.566,-125.977,999.512
1742380104.256,217.285,-429.688,-305.176,282.227
1742380104.768,-538.086,-780.762,-461.914,-586.426
1742380104.772,-1000.0,-478.516,-323.73,-1000.0
1742380104.776,-1000.0,204.59,40.039,-1000.0
1742380104.78,80.078,770.996,256.348,-398.926
1742380104.784,944.336,161.133,-0.488,714.844
1742380104.788,-678.223,-823.242,-260.254,-682.617
1742380104.792,-1000.0,-244.141,-179.688,-1000.0
1742380104.795,-1000.0,-104.98,49.316,-1000.0
1742380104.799,-727.539,300.293,206.543,-865.234
1742380104.803,599.609,747.07,7.812,434.57
1742380104.807,-523.438,-735.352,-340.82,-495.117
1742380104.811,-1000.0,-564.941,-266.602,-1000.0
1742380106.268,840.82,-329.102,-250.488,844.238
1742380106.272,-568.848,-871.582,-410.645,-571.289
1742380106.276,-1000.0,-111.816,-28.809,-1000.0
1742380106.28,-172.363,830.078,275.879,-173.828
1742380106.284,999.512,565.918,111.328,999.512
1742380106.288,837.891,-270.02,-222.656,852.051
1742380106.292,-539.062,-822.754,-421.387,-521.484
1742380106.295,-1000.0,-404.297,-176.27,-1000.0
1742380106.299,-748.535,397.949,72.754,-741.211
1742380106.303,707.031,682.617,14.648,712.891
1742380106.307,999.512,-172.363,-312.988,999.512
1742380106.311,-455.078,-865.234,-487.793,-452.148
1742380107.303,-811.523,438.965,-46.387,-814.941
1742380107.307,488.281,582.52,60.059,492.676
1742380107.311,999.512,171.875,-180.664,999.512
1742380107.315,419.922,-433.105,-427.246,389.648
1742380107.319,-983.398,-634.766,-215.332,-992.676
1742380107.323,-908.691,391.602,145.996,-905.273
1742380107.327,539.062,927.734,246.582,539.551
1742380107.33,999.512,-15.625,-54.688,999.512
1742380107.334,494.629,-729.98,-345.703,485.352
1742380107.338,-874.512,-550.781,-224.609,-875.488
1742380107.342,-1000.0,243.164,69.824,-1000.0
1742380107.346,225.098,702.148,175.781,247.559
1742380109.841,999.512,-81.543,-156.25,999.512
1742380109.845,-220.215,-920.41,-307.617,-170.898
1742380109.849,-1000.0,-430.664,16.113,-1000.0
1742380109.853,-696.289,746.582,251.465,-659.668
1742380109.857,730.469,631.836,141.602,743.652
1742380109.861,999.512,-52.734,-119.629,999.512
1742380109.865,-229.98,-760.254,-411.621,-173.34
1742380109.868,-1000.0,-562.988,-229.004,-1000.0
1742380109.872,-855.469,243.652,57.617,-866.211
1742380109.876,457.031,766.113,76.172,462.891
1742380109.88,999.512,319.336,-168.457,999.512
1742380109.884,271.973,-689.453,-421.387,235.84
1742380110.138,876.465,-153.32,-36.133,886.23
1742380110.142,-577.148,-886.719,-200.684,-558.105
1742380110.146,-1000.0,-208.984,87.891,-1000.0
1742380110.15,-701.172,754.395,269.531,-691.406
1742380110.154,791.992,601.074,171.387,789.551
1742380110.158,932.129,-160.156,-83.984,944.824
1742380110.162,-589.844,-794.922,-340.332,-566.406
1742380110.165,-1000.0,-277.344,-155.273,-1000.0
1742380110.169,-851.074,404.785,16.113,-835.938
1742380110.173,546.875,626.953,-39.062,567.383
1742380110.177,999.512,-119.629,-370.117,999.512
1742380110.181,-328.613,-810.059,-575.684,-326.66
1742380110.257,824.707,-318.848,-109.863,812.5
1742380110.261,-551.758,-780.273,-88.867,-577.637
1742380110.265,-1000.0,-87.402,294.922,-1000.0
1742380110.269,-414.551,622.07,508.789,-437.5
1742380110.273,965.332,595.703,474.121,953.613
1742380110.277,864.746,17.09,178.711,870.117
1742380110.281,-572.754,-698.242,-19.043,-575.195
1742380110.284,-1000.0,-312.5,189.453,-1000.0
1742380110.288,-709.961,384.766,312.988,-709.473
1742380110.292,747.07,654.297,257.812,740.723
1742380110.296,999.512,120.605,26.367,999.512
1742380110.3,-450.195,-759.277,-162.109,-441.406
1742380110.677,665.039,-512.695,-344.727,660.645
1742380110.681,-835.449,-665.527,-199.707,-843.262
1742380110.685,-946.289,95.703,159.18,-923.828
1742380110.689,577.637,823.242,305.176,603.027
1742380110.693,999.512,-28.32,26.855,999.512
1742380110.697,764.16,-505.859,-216.309,770.996
1742380110.701,-634.766,-600.586,-156.25,-635.254
1742380110.704,-1000.0,-181.152,35.645,-1000.0
1742380110.708,239.746,646.973,200.684,276.855
1742380110.712,999.512,388.672,62.988,999.512
1742380110.716,786.133,-477.539,-278.809,781.738
1742380110.72,-591.797,-783.691,-238.77,-594.727
1742380111.564,-553.223,580.566,449.707,-512.207
1742380111.568,843.75,579.59,446.289,854.492
1742380111.572,999.512,-267.578,181.641,999.512
1742380111.576,-332.031,-788.086,-32.227,-315.918
1742380111.58,-1000.0,-228.027,236.328,-1000.0
1742380111.584,-719.238,676.758,463.867,-698.73
1742380111.588,704.102,794.922,366.211,710.938
1742380111.591,999.512,-205.566,29.785,999.512
1742380111.595,-275.879,-905.273,-174.316,-228.027
1742380111.599,-1000.0,-390.625,98.633,-1000.0
1742380111.603,-827.148,256.348,413.574,-821.289
1742380111.607,505.859,696.289,495.605,522.461
1742380111.983,216.797,825.684,414.062,130.859
1742380111.987,999.512,237.305,247.07,999.512
1742380111.991,776.855,-333.008,-4.883,753.906
1742380111.995,-572.754,-711.426,-55.176,-604.98
1742380111.999,-1000.0,-225.586,233.398,-1000.0
1742380112.003,-152.832,780.762,484.375,-236.328
1742380112.007,999.512,613.77,305.664,999.512
1742380112.01,738.281,-675.293,-95.215,732.91
1742380112.014,-656.738,-857.91,-148.926,-673.34
1742380112.018,-1000.0,-74.707,174.316,-1000.0
1742380112.022,-708.984,222.168,305.664,-709.961
1742380112.026,791.504,618.164,268.066,790.039
1742380112.417,582.52,700.684,308.105,316.406
1742380112.421,955.566,124.023,64.453,884.277
1742380112.425,-626.465,-926.758,-222.168,-720.215
1742380112.429,-1000.0,-127.441,-54.199,-1000.0
1742380112.433,-834.961,358.398,212.891,-915.039
1742380112.437,516.602,749.512,328.613,419.434
1742380112.441,999.512,208.496,53.223,999.512
1742380112.444,-101.074,-911.621,-248.047,-228.027
1742380112.448,-1000.0,-689.941,-155.762,-1000.0
1742380112.452,-892.578,100.586,120.117,-905.273
1742380112.456,409.668,729.98,260.254,354.98
1742380112.46,999.512,256.836,50.781,999.512
1742380113.724,-844.727,-608.887,-207.52,-854.98
1742380113.728,-1000.0,135.254,131.836,-1000.0
1742380113.732,313.477,715.82,306.641,325.195
1742380113.736,999.512,457.031,101.562,999.512
1742380113.74,720.215,-229.98,-203.125,722.656
1742380113.744,-649.902,-512.695,-174.316,-644.531
1742380113.748,-1000.0,55.176,114.258,-1000.0
1742380113.751,-42.48,502.93,276.855,-37.109
1742380113.755,999.512,395.508,145.996,999.512
1742380113.759,821.777,-365.723,-193.359,810.059
1742380113.763,-567.383,-658.203,-248.535,-585.449
1742380113.767,-1000.0,115.723,121.094,-1000.0
1742380114.428,-1000.0,-137.207,-55.664,-1000.0
1742380114.432,76.66,646.484,192.871,196.289
1742380114.436,999.512,511.23,125.977,999.512
1742380114.44,863.77,-113.281,-166.992,892.578
1742380114.444,-525.879,-833.008,-416.992,-463.379
1742380114.448,-1000.0,-147.949,-110.84,-1000.0
1742380114.452,101.074,836.426,198.73,137.695
1742380114.455,999.512,214.355,69.824,999.512
1742380114.459,893.066,-531.25,-277.344,899.902
1742380114.463,-372.07,-810.059,-428.223,-349.121
1742380114.467,-1000.0,-466.797,-140.625,-1000.0
1742380114.471,-856.445,318.848,144.531,-853.027
1742380115.03,999.512,666.016,103.027,999.512
1742380115.034,597.168,-448.242,-246.094,552.734
1742380115.038,-804.199,-793.457,-306.152,-835.449
1742380115.042,-1000.0,-3.418,77.637,-1000.0
1742380115.046,-586.426,404.785,261.23,-609.375
1742380115.05,889.648,697.266,145.996,875.488
1742380115.054,893.555,-87.402,-179.199,895.508
1742380115.057,-587.891,-850.586,-353.516,-594.238
1742380115.061,-1000.0,-338.867,-44.922,-1000.0
1742380115.065,-761.719,319.824,155.762,-778.32
1742380115.069,736.816,642.09,69.824,716.797
1742380115.073,933.594,-69.336,-250.0,938.477
1742380115.132,-854.98,317.383,137.207,-877.441
1742380115.136,471.68,688.477,192.383,451.172
1742380115.14,999.512,193.848,-60.059,999.512
1742380115.144,1.953,-673.828,-332.031,-78.613
1742380115.148,-1000.0,-344.238,-188.477,-1000.0
1742380115.152,-1000.0,257.324,72.266,-1000.0
1742380115.156,169.434,649.414,168.457,135.254
1742380115.159,999.512,433.105,-37.598,999.512
1742380115.163,-53.711,-815.918,-352.051,-102.051
1742380115.167,-1000.0,-665.039,-219.727,-1000.0
1742380115.171,-1000.0,160.645,85.449,-1000.0
1742380115.175,83.496,643.555,178.223,42.48
1742380115.78,-1000.0,-493.164,-220.215,-1000.0
1742380115.784,-975.586,146.484,84.473,-980.957
1742380115.788,234.863,588.867,235.352,229.004
1742380115.792,999.512,393.555,47.363,999.512
1742380115.796,562.988,-482.422,-233.887,498.047
1742380115.8,-833.984,-475.586,-181.152,-862.305
1742380115.804,-1000.0,87.891,23.438,-1000.0
1742380115.807,150.879,564.941,95.215,123.535
1742380115.811,999.512,303.223,-107.422,999.512
1742380115.815,646.973,-583.496,-384.766,633.789
1742380115.819,-731.445,-595.215,-336.914,-743.164
1742380115.823,-1000.0,98.633,-46.875,-1000.0
1742380115.78,-1000.0,-493.164,-220.215,-1000.0
1742380115.784,-975.586,146.484,84.473,-980.957
1742380115.788,234.863,588.867,235.352,229.004
1742380115.792,999.512,393.555,47.363,999.512
1742380115.796,562.988,-482.422,-233.887,498.047
1742380115.8,-833.984,-475.586,-181.152,-862.305
1742380115.804,-1000.0,87.891,23.438,-1000.0
1742380115.807,150.879,564.941,95.215,123.535
1742380115.811,999.512,303.223,-107.422,999.512
1742380115.815,646.973,-583.496,-384.766,633.789
1742380115.819,-731.445,-595.215,-336.914,-743.164
1742380115.823,-1000.0,98.633,-46.875,-1000.0
1742380116.155,797.852,-458.496,-192.383,790.039
1742380116.159,-547.363,-689.453,-221.191,-565.918
1742380116.163,-1000.0,-190.918,86.426,-1000.0
1742380116.167,-273.926,437.012,237.793,-250.0
1742380116.171,999.512,516.602,82.52,999.512
1742380116.175,648.438,-201.172,-224.121,647.949
1742380116.179,-634.766,-807.129,-349.609,-635.254
1742380116.182,-1000.0,-425.293,-76.66,-1000.0
1742380116.186,-646.484,360.84,144.531,-611.328
1742380116.19,855.469,588.867,114.258,864.258
1742380116.194,920.898,-250.0,-161.133,925.781
1742380116.198,-563.965,-860.352,-364.746,-547.852
1742380116.767,-1000.0,109.375,219.238,-1000.0
1742380116.771,342.285,696.289,356.445,353.516
1742380116.775,999.512,418.945,174.316,999.512
1742380116.779,697.266,-295.898,-95.215,683.594
1742380116.783,-668.945,-607.91,-72.266,-687.012
1742380116.787,-1000.0,203.125,227.051,-1000.0
1742380116.791,-64.453,569.336,320.312,-33.691
1742380116.794,999.512,187.988,123.535,999.512
1742380116.798,818.848,-488.77,-164.062,794.922
1742380116.802,-588.867,-783.203,-169.922,-609.863
1742380116.806,-1000.0,-174.805,127.441,-1000.0
1742380116.81,-123.535,675.781,334.473,-143.555
1742380116.905,-862.305,299.316,350.586,-883.789
1742380116.909,516.602,738.281,462.891,496.582
1742380116.913,999.512,259.277,211.914,999.512
1742380116.917,573.242,-559.57,-75.195,539.062
1742380116.921,-852.539,-587.402,73.73,-869.141
1742380116.925,-1000.0,297.852,437.012,-1000.0
1742380116.929,345.215,743.164,549.316,358.887
1742380116.932,999.512,98.633,269.531,999.512
1742380116.936,711.426,-548.828,4.883,710.449
1742380116.94,-674.316,-644.043,34.18,-679.199
1742380116.944,-1000.0,-135.742,268.066,-1000.0
1742380116.948,69.824,709.961,410.156,104.004
1742380117.234,999.512,501.465,152.832,999.512
1742380117.238,338.379,-496.582,-146.484,320.312
1742380117.242,-941.406,-472.656,-41.016,-948.73
1742380117.246,-1000.0,259.766,270.508,-1000.0
1742380117.25,217.773,634.766,365.723,239.258
1742380117.254,999.512,647.949,176.758,999.512
1742380117.258,639.648,-291.504,-153.32,642.09
1742380117.261,-732.91,-797.852,-178.223,-729.98
1742380117.265,-1000.0,-66.895,101.562,-1000.0
1742380117.269,-98.145,566.895,224.121,-77.148
1742380117.273,999.512,409.18,64.941,999.512
1742380117.277,839.355,-257.812,-164.551,826.172
1742380117.578,-813.477,-530.273,37.109,-824.707
1742380117.582,-1000.0,150.391,277.832,-1000.0
1742380117.586,425.781,853.027,442.871,431.152
1742380117.59,999.512,480.469,224.609,999.512
1742380117.594,677.246,-458.008,-70.801,676.758
1742380117.598,-710.938,-449.707,-22.461,-714.355
1742380117.602,-1000.0,11.23,189.941,-1000.0
1742380117.605,106.445,508.789,320.801,125.488
1742380117.609,999.512,580.078,187.5,999.512
1742380117.613,816.406,-265.625,-138.184,804.688
1742380117.617,-561.523,-686.523,-164.551,-581.055
1742380117.621,-1000.0,32.227,181.152,-1000.0
1742380117.623,-60.059,696.777,321.777,-34.18
1742380117.627,999.512,490.723,160.156,999.512
1742380117.631,822.266,-119.141,-70.801,820.801
1742380117.635,-551.758,-750.0,-179.199,-551.27
1742380117.639,-1000.0,-288.574,27.344,-1000.0
1742380117.643,-361.328,697.266,225.098,-363.77
1742380117.647,987.305,624.023,172.852,980.469
1742380117.65,855.469,-344.727,-169.434,858.398
1742380117.654,-570.312,-862.305,-321.289,-570.801
1742380117.658,-1000.0,-171.875,25.879,-1000.0
1742380117.662,-727.051,419.434,220.215,-724.609
1742380117.666,714.355,618.652,200.195,718.75
1742380118.177,498.047,723.633,224.609,508.301
1742380118.181,999.512,95.215,-67.383,999.512
1742380118.185,294.434,-512.695,-284.668,223.145
1742380118.189,-1000.0,-620.117,-140.625,-1000.0
1742380118.193,-886.23,66.895,101.074,-888.672
1742380118.197,528.809,701.172,201.172,516.602
1742380118.201,999.512,24.902,-65.918,999.512
1742380118.204,559.082,-465.332,-316.895,528.32
1742380118.208,-878.418,-669.434,-222.656,-894.531
1742380118.212,-1000.0,30.762,83.496,-1000.0
1742380118.216,417.48,770.02,237.793,433.105
1742380118.22,999.512,242.676,10.742,999.512
1742380118.268,-1000.0,-93.262,53.223,-1000.0
1742380118.272,-593.262,373.047,167.969,-558.105
1742380118.276,879.883,662.598,62.988,892.09
1742380118.28,897.461,-102.539,-242.188,894.043
1742380118.284,-584.473,-857.422,-412.598,-583.496
1742380118.288,-1000.0,95.703,-54.688,-1000.0
1742380118.292,-659.18,556.641,140.625,-622.559
1742380118.295,792.969,425.781,30.762,808.594
1742380118.299,999.512,-256.836,-251.465,993.652
1742380118.303,-445.312,-797.363,-403.32,-440.43
1742380118.307,-1000.0,-181.152,-77.637,-1000.0
1742380118.311,-696.289,508.789,210.938,-682.129
1742380118.598,999.512,441.895,258.789,999.512
1742380118.602,840.82,-387.695,-93.75,845.703
1742380118.606,-562.012,-756.836,-233.887,-563.965
1742380118.61,-1000.0,-99.609,75.684,-1000.0
1742380118.614,-725.586,411.621,286.621,-715.82
1742380118.618,760.742,783.203,279.785,758.301
1742380118.622,957.52,1.953,-32.715,970.215
1742380118.625,-560.059,-914.062,-302.734,-533.691
1742380118.629,-1000.0,-260.742,-3.906,-1000.0
1742380118.633,-838.379,385.742,244.629,-823.73
1742380118.637,554.199,640.137,185.059,579.102
1742380118.641,999.512,13.672,-97.656,999.512
1742380119.302,999.512,167.48,-82.52,999.512
1742380119.306,60.547,-625.488,-291.016,62.012
1742380119.31,-1000.0,-315.918,-95.215,-1000.0
1742380119.314,-880.371,254.883,104.004,-889.16
1742380119.318,503.418,698.73,135.254,498.047
1742380119.322,999.512,309.082,-109.375,999.512
1742380119.326,204.59,-709.473,-361.328,179.199
1742380119.329,-1000.0,-470.703,-170.41,-1000.0
1742380119.333,-960.938,58.594,73.73,-957.031
1742380119.337,376.465,563.965,152.832,372.559
1742380119.341,999.512,215.82,-69.824,999.512
1742380119.345,646.973,-423.828,-295.898,627.441
1742380120.007,793.945,-332.52,-234.863,781.738
1742380120.011,-559.082,-692.383,-201.172,-579.59
1742380120.015,-1000.0,-225.098,101.562,-1000.0
1742380120.019,-14.648,600.586,258.789,5.371
1742380120.023,999.512,510.254,94.238,999.512
1742380120.027,813.965,-76.66,-169.922,814.941
1742380120.031,-545.898,-692.383,-244.629,-547.363
1742380120.034,-1000.0,-396.973,-15.137,-1000.0
1742380120.038,-406.25,381.836,149.414,-384.277
1742380120.042,969.238,529.785,54.199,973.145
1742380120.046,866.699,-339.355,-250.0,866.699
1742380120.05,-569.336,-822.266,-284.18,-570.801
1742380121.732,535.156,746.582,255.859,555.664
1742380121.736,999.512,10.742,-51.27,999.512
1742380121.74,580.566,-568.359,-326.66,571.289
1742380121.744,-884.277,-579.59,-253.418,-879.883
1742380121.748,-972.656,29.297,22.949,-969.238
1742380121.752,497.559,764.16,191.895,502.441
1742380121.756,999.512,100.586,-91.309,999.512
1742380121.759,648.926,-707.031,-388.672,672.852
1742380121.763,-737.305,-676.758,-340.82,-718.262
1742380121.767,-1000.0,-95.215,-82.031,-1000.0
1742380121.771,110.84,527.832,56.641,145.996
1742380121.775,999.512,399.414,-97.656,999.512
1742380122.108,-1000.0,-110.84,-97.656,-1000.0
1742380122.112,92.285,565.43,66.895,129.883
1742380122.116,999.512,347.168,-69.824,999.512
1742380122.12,797.852,-254.395,-379.883,798.34
1742380122.124,-536.133,-784.668,-543.457,-537.598
1742380122.128,-1000.0,-121.094,-172.363,-1000.0
1742380122.132,-456.543,478.516,46.387,-408.203
1742380122.135,948.242,265.137,-109.375,963.379
1742380122.139,872.07,-480.957,-407.715,865.723
1742380122.143,-579.102,-811.523,-523.438,-574.707
1742380122.147,-1000.0,-48.34,-165.039,-1000.0
1742380122.151,-759.277,243.652,37.109,-747.07
1742380122.439,990.723,470.215,16.113,987.793
1742380122.443,842.773,-319.336,-258.301,809.082
1742380122.447,-584.961,-764.648,-344.727,-632.324
1742380122.451,-1000.0,-88.867,16.113,-1000.0
1742380122.455,-722.168,412.109,211.914,-755.859
1742380122.459,796.875,722.168,129.883,773.438
1742380122.463,873.535,-225.586,-218.262,832.52
1742380122.466,-671.875,-912.109,-419.434,-717.773
1742380122.47,-1000.0,-118.652,-39.551,-1000.0
1742380122.474,-870.117,297.363,189.941,-872.559
1742380122.478,608.398,699.219,137.695,615.723
1742380122.482,958.496,-71.289,-173.828,945.312
1742380122.678,-864.258,271.484,453.125,-891.113
1742380122.682,468.262,598.633,482.422,443.848
1742380122.686,999.512,206.543,211.914,999.512
1742380122.69,-92.285,-629.395,-48.34,-182.129
1742380122.694,-1000.0,-635.742,90.82,-1000.0
1742380122.698,-916.992,295.41,407.227,-926.27
1742380122.702,444.336,836.914,480.957,421.387
1742380122.705,999.512,160.156,211.914,999.512
1742380122.709,-28.809,-789.062,-59.082,-86.914
1742380122.713,-1000.0,-591.309,93.262,-1000.0
1742380122.717,-870.117,207.52,425.781,-886.23
1742380122.721,456.055,746.582,564.941,420.41
1742380122.768,-550.781,-705.566,4.883,-557.617
1742380122.772,-1000.0,44.922,364.258,-1000.0
1742380122.776,-461.914,502.441,554.688,-428.223
1742380122.78,932.129,421.387,417.969,940.918
1742380122.784,911.621,-342.285,67.871,913.086
1742380122.788,-515.137,-832.52,-49.805,-507.324
1742380122.792,-1000.0,-344.238,267.578,-1000.0
1742380122.795,-611.328,333.008,443.848,-551.27
1742380122.799,810.059,586.426,372.559,834.473
1742380122.803,999.512,-137.207,97.656,999.512
1742380122.807,-363.77,-812.012,-95.703,-361.328
1742380122.811,-1000.0,-254.395,177.246,-1000.0
1742380122.857,999.512,46.875,182.129,999.512
1742380122.861,673.828,-567.383,-123.535,723.145
1742380122.865,-901.367,-478.516,30.762,-839.844
1742380122.869,-345.703,631.348,401.367,-223.633
1742380122.873,988.281,676.27,484.375,999.512
1742380122.877,994.629,142.578,261.719,972.656
1742380122.881,856.445,-201.172,2.93,886.719
1742380122.884,-674.316,-820.801,21.973,-669.922
1742380122.888,-987.305,-96.68,320.312,-939.941
1742380122.892,581.543,810.547,487.305,641.602
1742380122.896,999.512,176.758,295.898,999.512
1742380122.9,840.82,-428.711,6.836,847.168
1742380123.473,-1000.0,-326.172,216.797,-1000.0
1742380123.477,-846.68,326.172,489.746,-848.633
1742380123.481,538.086,729.492,516.113,543.457
1742380123.485,999.512,100.098,221.191,999.512
1742380123.489,-220.215,-774.902,-65.43,-244.629
1742380123.493,-1000.0,-204.102,176.758,-1000.0
1742380123.497,-905.762,339.844,475.098,-912.109
1742380123.5,370.605,613.77,494.141,370.117
1742380123.504,999.512,269.043,246.094,999.512
1742380123.508,295.898,-509.277,35.156,218.262
1742380123.512,-984.375,-607.91,135.742,-1000.0
1742380123.516,-1000.0,131.836,375.488,-1000.0
1742380123.608,-1000.0,-245.605,217.285,-1000.0
1742380123.612,-777.832,344.727,461.426,-760.254
1742380123.616,654.785,720.703,530.762,662.598
1742380123.62,999.512,-30.762,220.215,999.512
1742380123.624,-360.84,-875.977,-70.801,-324.219
1742380123.628,-1000.0,-158.203,264.648,-1000.0
1742380123.632,-832.031,434.082,537.109,-805.176
1742380123.635,523.926,581.543,506.348,559.082
1742380123.639,999.512,16.602,222.656,999.512
1742380123.643,-28.809,-769.043,-59.57,-10.254
1742380123.647,-1000.0,-530.762,143.555,-1000.0
1742380123.651,-855.469,386.23,443.359,-860.84
1742380124.178,-1000.0,59.082,144.043,-1000.0
1742380124.182,219.238,585.449,243.164,208.496
1742380124.186,999.512,354.004,82.031,999.512
1742380124.19,794.434,-69.824,-180.176,783.691
1742380124.194,-584.473,-666.504,-233.887,-604.98
1742380124.198,-1000.0,19.043,134.277,-1000.0
1742380124.202,51.758,721.68,306.152,47.852
1742380124.205,999.512,192.383,103.516,999.512
1742380124.209,810.059,-505.371,-202.148,803.223
1742380124.213,-547.363,-704.59,-243.164,-569.824
1742380124.217,-1000.0,-69.336,85.449,-1000.0
1742380124.221,-302.246,534.18,230.957,-238.77
1742380124.897,-453.613,539.062,303.223,-398.438
1742380124.901,901.855,527.344,256.348,918.457
1742380124.905,999.512,-204.102,-71.289,999.512
1742380124.909,-428.223,-812.5,-305.176,-423.34
1742380124.913,-1000.0,-291.992,-4.883,-1000.0
1742380124.917,87.891,801.27,320.801,113.281
1742380124.921,999.512,646.973,277.832,999.512
1742380124.924,960.938,-383.301,-68.848,969.727
1742380124.928,-190.43,-789.062,-257.812,-143.066
1742380124.932,-1000.0,-359.375,55.664,-1000.0
1742380124.936,-586.426,367.676,393.066,-518.555
1742380124.94,753.906,660.156,398.926,787.109
1742380125.588,775.391,750.977,233.398,831.543
1742380125.592,999.512,-44.434,-49.316,999.512
1742380125.596,625.0,-419.922,-282.715,635.742
1742380125.6,-951.172,-573.73,-127.93,-937.988
1742380125.604,-656.25,372.559,215.332,-549.316
1742380125.608,831.543,854.004,287.109,876.465
1742380125.612,999.512,-148.438,-2.93,999.512
1742380125.615,655.273,-656.738,-254.883,691.406
1742380125.619,-854.98,-682.129,-191.895,-835.449
1742380125.623,-948.73,96.68,114.258,-934.082
1742380125.627,567.871,814.453,256.348,595.703
1742380125.631,999.512,222.656,44.922,999.512
1742380126.427,999.512,505.371,80.566,927.246
1742380126.431,-495.605,-886.719,-265.625,-527.344
1742380126.435,-1000.0,-555.176,-161.621,-1000.0
1742380126.439,-1000.0,390.137,180.176,-1000.0
1742380126.443,-734.863,282.715,254.883,-788.574
1742380126.447,825.195,668.945,133.301,721.191
1742380126.451,-187.012,-487.793,-222.656,-259.277
1742380126.454,-1000.0,-869.629,-296.387,-1000.0
1742380126.458,-1000.0,3.418,13.672,-1000.0
1742380126.462,-778.809,361.816,181.641,-863.281
1742380126.466,854.492,605.957,73.242,714.355
1742380126.47,156.25,-486.816,-224.609,-12.695
1742380127.029,-1000.0,-491.211,-235.352,-1000.0
1742380127.033,-874.512,262.207,96.68,-846.191
1742380127.037,525.879,761.23,190.918,562.012
1742380127.041,999.512,155.762,-70.801,999.512
1742380127.045,549.805,-562.5,-381.836,549.805
1742380127.049,-919.434,-360.84,-236.816,-919.922
1742380127.053,-929.199,316.895,48.828,-908.203
1742380127.056,553.711,742.676,124.023,580.566
1742380127.06,999.512,291.992,-53.711,999.512
1742380127.064,717.773,-560.059,-328.125,729.98
1742380127.068,-781.25,-731.934,-243.164,-770.02
1742380127.072,-966.797,202.148,155.762,-963.379
1742380127.314,-1000.0,-291.016,-48.828,-1000.0
1742380127.318,-547.363,424.805,195.312,-455.566
1742380127.322,820.312,514.16,137.695,852.051
1742380127.326,999.512,-78.125,-113.281,999.512
1742380127.33,-137.207,-698.242,-321.289,-115.723
1742380127.334,-1000.0,-244.629,-14.16,-1000.0
1742380127.338,-469.727,615.234,307.617,-385.254
1742380127.341,854.492,432.129,271.484,876.465
1742380127.345,999.512,-91.309,7.812,999.512
1742380127.349,63.965,-657.227,-251.465,131.348
1742380127.353,-1000.0,-705.566,-84.473,-1000.0
1742380127.357,-851.074,254.883,235.84,-847.656
1742380129.758,-276.855,-755.859,-313.965,-294.434
1742380129.762,-1000.0,-387.695,-71.289,-1000.0
1742380129.766,-831.543,233.887,208.984,-829.59
1742380129.77,511.719,654.297,280.273,515.625
1742380129.774,999.512,180.664,6.348,999.512
1742380129.778,108.398,-594.238,-252.441,114.258
1742380129.782,-1000.0,-577.637,-83.496,-1000.0
1742380129.785,-874.023,408.203,219.238,-875.977
1742380129.789,531.25,824.219,262.207,533.203
1742380129.793,999.512,77.148,-18.066,999.512
1742380129.797,197.266,-707.52,-274.414,204.59
1742380129.801,-1000.0,-459.473,-109.375,-1000.0
1742380130.404,999.512,46.875,109.863,999.512
1742380130.408,318.848,-625.977,-139.648,381.836
1742380130.412,-1000.0,-582.031,42.48,-1000.0
1742380130.416,-617.676,381.836,376.953,-517.09
1742380130.42,821.777,791.504,456.543,859.863
1742380130.424,999.512,139.16,103.516,999.512
1742380130.428,264.648,-688.477,-285.645,410.645
1742380130.431,-1000.0,-740.234,-166.992,-1000.0
1742380130.435,-878.418,191.895,185.547,-875.0
1742380130.439,539.062,710.938,332.031,581.055
1742380130.443,999.512,77.637,119.629,999.512
1742380130.447,820.801,-247.559,-104.98,819.824
1742380131.392,688.965,-400.879,-141.113,766.602
1742380131.396,-960.938,-571.289,-35.645,-895.996
1742380131.4,-691.406,341.797,252.441,-568.848
1742380131.404,814.453,779.785,403.809,886.23
1742380131.408,999.512,35.645,68.359,999.512
1742380131.412,707.52,-209.961,-212.891,769.043
1742380131.416,-783.203,-537.109,-88.379,-738.281
1742380131.419,-1000.0,44.434,208.496,-1000.0
1742380131.423,493.164,762.695,354.98,522.461
1742380131.427,999.512,265.625,143.066,999.512
1742380131.431,726.562,-493.164,-175.293,750.0
1742380131.435,-677.246,-652.344,-137.695,-648.926
1742380131.513,881.348,623.535,276.367,866.699
1742380131.517,946.289,-234.375,-119.141,949.219
1742380131.521,-553.711,-735.84,-271.484,-562.012
1742380131.525,-1000.0,-147.949,55.176,-1000.0
1742380131.529,-128.906,506.348,308.105,-107.422
1742380131.533,974.609,813.477,340.82,972.168
1742380131.537,999.512,61.523,27.344,999.512
1742380131.54,-222.168,-852.539,-275.391,-183.594
1742380131.544,-1000.0,-379.883,42.48,-1000.0
1742380131.548,386.23,784.18,376.465,406.738
1742380131.552,999.512,690.918,332.52,999.512
1742380131.556,999.512,-82.52,12.695,999.512
1742380131.814,-1000.0,-922.363,-209.961,-1000.0
1742380131.818,-1000.0,-12.695,133.789,-993.652
1742380131.822,-918.457,195.312,372.559,-943.848
1742380131.826,691.406,728.516,386.23,673.828
1742380131.83,720.215,-133.301,32.715,570.801
1742380131.834,-863.281,-739.746,-184.57,-940.918
1742380131.838,-1000.0,-173.828,69.824,-1000.0
1742380131.841,-889.16,63.965,323.73,-937.012
1742380131.845,606.934,749.512,380.859,576.172
1742380131.849,937.988,4.883,40.527,881.836
1742380131.853,-647.949,-930.176,-235.352,-724.121
1742380131.857,-1000.0,-227.539,29.297,-1000.0
1742380132.052,996.582,-97.168,144.531,984.375
1742380132.056,596.191,-553.223,-116.699,639.648
1742380132.06,-771.973,-553.711,-3.906,-667.48
1742380132.064,257.812,573.242,324.707,326.66
1742380132.068,999.512,504.395,423.34,999.512
1742380132.072,952.637,92.773,202.148,961.426
1742380132.076,895.996,-262.695,-96.68,888.672
1742380132.079,-712.402,-895.508,-85.449,-669.922
1742380132.083,-162.109,312.988,320.801,14.16
1742380132.087,999.512,762.695,484.863,999.512
1742380132.091,978.027,-100.098,250.0,947.266
1742380132.095,890.625,-104.004,-4.395,950.195
1742380132.39,-1000.0,-493.652,-431.641,-1000.0
1742380132.394,-974.609,161.133,-101.562,-1000.0
1742380132.398,335.449,727.539,96.191,154.297
1742380132.402,999.512,283.691,-153.32,999.512
1742380132.406,-406.25,-823.242,-485.352,-498.535
1742380132.41,-1000.0,-245.117,-306.641,-1000.0
1742380132.414,-992.676,283.203,36.133,-1000.0
1742380132.417,35.156,499.512,162.109,-169.922
1742380132.421,999.512,551.758,-8.789,999.512
1742380132.425,533.203,-411.621,-346.191,331.543
1742380132.429,-925.293,-620.117,-329.102,-970.703
1742380132.433,-1000.0,360.352,58.105,-1000.0
1742380132.713,876.953,744.629,396.973,992.676
1742380132.717,999.512,-134.277,199.219,997.559
1742380132.721,649.902,-389.648,-46.875,839.355
1742380132.725,-908.203,-812.012,-72.754,-770.996
1742380132.729,-814.453,-28.809,258.301,-715.332
1742380132.733,709.961,854.004,471.191,826.172
1742380132.737,999.512,-156.738,186.523,999.512
1742380132.74,729.98,-639.16,-89.355,836.914
1742380132.744,-770.996,-655.273,-67.871,-670.898
1742380132.748,-968.262,162.598,268.066,-959.473
1742380132.752,574.219,904.297,521.484,615.723
1742380132.756,999.512,320.801,328.125,999.512
1742380134.258,937.988,-322.754,-170.41,951.66
1742380134.262,-529.297,-901.367,-427.246,-484.375
1742380134.266,-1000.0,-324.219,-109.375,-1000.0
1742380134.27,-642.09,346.191,245.605,-605.469
1742380134.274,778.809,656.25,265.625,793.945
1742380134.278,999.512,50.781,-75.684,999.512
1742380134.282,-330.078,-794.922,-356.934,-300.781
1742380134.285,-1000.0,-739.746,-68.359,-1000.0
1742380134.289,-794.922,253.906,324.707,-792.48
1742380134.293,582.52,694.824,402.832,583.496
1742380134.297,999.512,-106.934,45.41,999.512
1742380134.301,-84.961,-651.855,-329.102,-51.758
1742380134.722,-1000.0,460.938,95.703,-1000.0
1742380134.726,-713.379,611.816,324.707,-737.793
1742380134.73,786.621,458.008,284.668,769.043
1742380134.734,922.852,-198.73,-58.594,909.18
1742380134.738,-603.516,-810.059,-325.195,-629.883
1742380134.742,-1000.0,3.906,-15.625,-1000.0
1742380134.746,-835.938,185.547,230.957,-845.215
1742380134.749,650.879,642.578,269.531,635.742
1742380134.753,950.195,85.449,-74.219,960.938
1742380134.757,-604.98,-902.344,-382.324,-594.727
1742380134.761,-1000.0,-299.316,-41.504,-1000.0
1742380134.765,-744.629,432.617,246.094,-754.883
1742380134.782,645.996,711.914,222.656,629.883
1742380134.786,999.512,-180.176,-127.93,999.512
1742380134.79,-180.176,-798.34,-442.383,-163.574
1742380134.794,-1000.0,-152.344,-187.012,-1000.0
1742380134.798,-755.859,236.328,147.461,-743.164
1742380134.802,579.59,575.195,270.996,596.191
1742380134.806,999.512,1.953,-58.594,999.512
1742380134.809,487.305,-530.762,-381.348,480.469
1742380134.813,-1000.0,-544.922,-139.16,-1000.0
1742380134.817,-747.559,242.676,243.164,-677.734
1742380134.821,733.398,678.223,325.195,770.508
1742380134.825,999.512,156.25,81.543,999.512
1742380134.814,584.961,-580.566,-242.188,634.766
1742380134.818,-900.879,-796.387,-162.598,-878.906
1742380134.822,-937.988,97.656,210.938,-905.273
1742380134.826,574.219,737.793,398.438,627.93
1742380134.83,999.512,59.082,166.504,999.512
1742380134.834,719.727,-294.922,-143.555,738.281
1742380134.838,-696.289,-725.586,-187.988,-676.758
1742380134.841,-973.145,-315.918,141.602,-973.145
1742380134.845,571.777,798.828,413.086,578.125
1742380134.849,999.512,239.258,152.344,999.512
1742380134.853,820.312,-414.062,-271.973,831.055
1742380134.857,-598.633,-690.918,-309.57,-610.84
1742380134.963,-571.289,-895.02,-358.887,-583.008
1742380134.967,-1000.0,-300.781,-118.164,-1000.0
1742380134.971,-875.0,465.82,258.789,-937.5
1742380134.975,586.914,937.5,438.477,489.258
1742380134.979,999.512,280.762,111.816,999.512
1742380134.983,-617.676,-310.547,-306.641,-652.832
1742380134.987,-1000.0,590.82,-197.754,-1000.0
1742380134.99,-1000.0,65.918,62.5,-1000.0
1742380134.994,-28.809,375.977,300.781,-292.969
1742380134.998,944.336,619.141,183.594,854.98
1742380135.002,-603.516,-796.875,-245.117,-601.074
1742380135.006,-1000.0,-370.117,-186.523,-1000.0
1742380135.097,433.594,-205.566,-193.359,641.113
1742380135.101,-816.895,-348.633,6.348,-679.688
1742380135.105,541.992,867.676,407.715,507.812
1742380135.109,999.512,808.105,452.148,999.512
1742380135.113,979.004,134.277,134.766,955.078
1742380135.117,730.469,-0.977,-147.949,865.234
1742380135.121,-930.176,-856.934,-263.184,-745.117
1742380135.124,-324.219,-64.941,-45.41,-120.117
1742380135.128,982.422,720.215,154.297,999.512
1742380135.132,999.512,-458.496,-159.18,989.746
1742380135.136,708.984,-919.922,-496.582,764.648
1742380135.14,-838.867,-678.223,-297.363,-810.059
1742380135.427,-78.613,723.633,215.332,-73.242
1742380135.431,959.473,399.902,208.984,948.73
1742380135.435,999.512,-238.281,-28.809,999.512
1742380135.439,291.992,-541.016,-281.25,379.395
1742380135.443,-1000.0,-600.586,-135.254,-1000.0
1742380135.447,-327.148,624.023,293.945,-233.887
1742380135.451,926.758,739.746,418.457,961.426
1742380135.454,999.512,-342.773,69.336,999.512
1742380135.458,519.043,-632.324,-238.77,606.445
1742380135.462,-962.402,-532.227,-120.605,-920.41
1742380135.466,-916.992,140.625,231.445,-921.387
1742380135.47,543.457,795.898,351.074,565.43
1742380136.222,-1000.0,-291.016,-153.809,-1000.0
1742380136.226,-830.078,297.363,162.598,-829.59
1742380136.23,573.242,679.199,165.039,580.078
1742380136.234,999.512,65.918,-163.574,999.512
1742380136.238,-308.594,-766.602,-425.293,-332.031
1742380136.242,-1000.0,-249.512,-138.672,-1000.0
1742380136.246,-841.797,421.387,165.527,-838.379
1742380136.249,527.832,573.73,187.5,528.32
1742380136.253,999.512,-157.227,-114.258,999.512
1742380136.257,-90.82,-845.215,-438.477,-65.918
1742380136.261,-1000.0,-547.852,-284.18,-1000.0
1742380136.265,-840.82,297.852,56.152,-843.262
1742380136.598,271.484,-618.164,-356.445,266.113
1742380136.602,-1000.0,-599.609,-232.91,-1000.0
1742380136.606,-898.438,128.418,110.352,-907.715
1742380136.61,501.953,729.98,297.852,489.746
1742380136.614,999.512,123.047,33.203,999.512
1742380136.618,609.375,-480.469,-289.551,594.727
1742380136.622,-793.945,-611.816,-257.812,-802.246
1742380136.625,-1000.0,-159.18,45.898,-1000.0
1742380136.629,220.215,559.082,283.691,227.051
1742380136.633,999.512,407.227,90.332,999.512
1742380136.637,668.457,-560.547,-295.41,666.992
1742380136.641,-737.305,-746.582,-296.875,-734.375
1742380136.779,-1000.0,60.059,151.367,-1000.0
1742380136.783,385.742,706.543,329.102,375.977
1742380136.787,999.512,324.707,85.449,999.512
1742380136.791,736.816,-361.328,-220.703,731.934
1742380136.795,-703.613,-686.523,-214.844,-705.078
1742380136.799,-1000.0,277.344,135.742,-1000.0
1742380136.803,346.191,912.109,349.121,335.938
1742380136.806,999.512,77.637,97.168,999.512
1742380136.81,783.691,-532.227,-255.859,772.949
1742380136.814,-545.898,-690.43,-312.988,-561.035
1742380136.818,-1000.0,-162.598,23.926,-1000.0
1742380136.822,-181.641,568.848,265.137,-195.312
1742380137.212,-777.832,496.094,291.504,-779.297
1742380137.216,600.098,623.535,266.113,602.539
1742380137.22,999.512,76.66,-29.297,999.512
1742380137.224,-143.555,-600.098,-263.184,-164.062
1742380137.228,-1000.0,-526.855,-51.27,-1000.0
1742380137.232,-865.234,461.426,295.898,-853.516
1742380137.236,550.781,833.496,344.727,559.57
1742380137.239,999.512,-33.203,-2.441,999.512
1742380137.243,-205.566,-880.859,-322.266,-177.734
1742380137.247,-1000.0,-686.523,-112.305,-1000.0
1742380137.251,-827.637,161.133,248.535,-832.52
1742380137.255,501.465,800.293,387.207,505.859
1742380137.814,854.004,-303.711,-180.176,855.469
1742380137.818,-563.965,-854.004,-280.273,-564.941
1742380137.822,-1000.0,-274.414,49.316,-1000.0
1742380137.826,-511.719,502.93,285.156,-499.023
1742380137.83,914.062,605.957,228.027,912.109
1742380137.834,911.133,-160.645,-105.957,914.551
1742380137.838,-535.645,-685.547,-351.074,-528.809
1742380137.841,-1000.0,-94.238,-41.504,-1000.0
1742380137.845,-713.379,282.715,262.695,-713.379
1742380137.849,724.609,600.586,268.555,721.191
1742380137.853,999.512,-90.332,-60.547,999.512
1742380137.857,-378.906,-850.586,-333.008,-375.488
1742380138.143,-1000.0,-198.73,98.145,-1000.0
1742380138.147,-521.973,450.195,343.75,-519.531
1742380138.151,920.898,584.473,285.156,914.062
1742380138.155,883.301,-74.707,-65.918,884.766
1742380138.159,-580.566,-789.062,-278.32,-581.055
1742380138.163,-1000.0,-87.891,92.773,-1000.0
1742380138.167,-706.543,343.262,333.496,-709.473
1742380138.17,766.113,461.914,263.184,757.812
1742380138.174,985.84,-143.555,-86.426,990.723
1742380138.178,-512.207,-873.047,-366.699,-504.395
1742380138.182,-1000.0,-378.906,-62.988,-1000.0
1742380138.186,-668.457,437.988,262.695,-670.41
1742380138.849,-862.305,296.875,206.055,-865.234
1742380138.853,571.289,685.059,221.68,579.59
1742380138.857,999.512,59.082,-89.844,999.512
1742380138.861,-466.309,-883.301,-377.93,-503.906
1742380138.865,-1000.0,-317.383,-126.953,-1000.0
1742380138.869,-848.145,484.375,212.402,-862.793
1742380138.873,543.457,844.727,298.828,534.18
1742380138.876,999.512,268.066,15.137,999.512
1742380138.88,-286.621,-810.547,-323.73,-335.938
1742380138.884,-1000.0,-625.977,-154.297,-1000.0
1742380138.888,-868.652,88.379,191.895,-892.09
1742380138.892,453.613,764.16,331.543,421.875
1742380139.132,-324.219,491.211,301.27,-290.527
1742380139.136,999.512,542.48,215.82,999.512
1742380139.14,861.816,-285.645,-129.883,868.652
1742380139.144,-571.777,-857.422,-325.195,-556.152
1742380139.148,-1000.0,-187.5,12.207,-1000.0
1742380139.152,-345.703,698.73,313.477,-348.145
1742380139.156,973.633,712.402,239.746,960.938
1742380139.159,906.738,-355.469,-140.137,920.898
1742380139.163,-493.652,-851.074,-381.836,-471.68
1742380139.167,-1000.0,94.238,-93.75,-1000.0
1742380139.171,-815.918,317.871,177.734,-799.316
1742380139.175,577.637,573.73,210.938,592.285
1742380139.177,999.512,92.773,-76.172,999.512
1742380139.181,-262.695,-828.613,-360.84,-226.562
1742380139.185,-1000.0,-329.59,-92.773,-1000.0
1742380139.189,-843.75,353.027,209.473,-838.379
1742380139.193,528.809,689.453,247.07,538.086
1742380139.197,999.512,199.707,-13.672,999.512
1742380139.201,-79.102,-847.168,-334.473,-20.996
1742380139.204,-1000.0,-550.781,-166.504,-1000.0
1742380139.208,-843.262,823.73,181.152,-847.656
1742380139.212,511.23,862.793,224.121,522.461
1742380139.216,999.512,-211.426,-65.918,999.512
1742380139.22,283.203,-607.422,-312.988,292.969
1742380139.507,-1000.0,-282.227,-179.688,-1000.0
1742380139.511,-841.309,431.152,146.973,-832.031
1742380139.515,529.785,775.879,196.289,545.41
1742380139.519,999.512,198.73,-115.234,999.512
1742380139.523,-156.25,-650.879,-395.508,-162.598
1742380139.527,-1000.0,-137.207,-152.832,-1000.0
1742380139.531,-833.984,512.207,149.414,-835.938
1742380139.534,505.859,669.922,216.309,509.277
1742380139.538,999.512,270.508,-46.875,999.512
1742380139.542,296.875,-354.004,-327.148,270.996
1742380139.546,-1000.0,-555.176,-205.566,-1000.0
1742380139.55,-929.199,302.246,109.863,-935.059
1742380140.678,999.512,448.242,-55.664,999.512
1742380140.682,-143.066,-610.84,-377.441,-106.934
1742380140.686,-1000.0,-473.145,-206.543,-1000.0
1742380140.69,-873.535,186.035,71.777,-886.719
1742380140.694,446.289,689.941,167.969,441.406
1742380140.698,999.512,545.898,-19.531,999.512
1742380140.702,269.043,-776.367,-339.844,245.605
1742380140.705,-1000.0,-790.527,-281.738,-1000.0
1742380140.709,-965.332,664.551,41.504,-967.773
1742380140.713,389.648,966.309,233.887,375.977
1742380140.717,999.512,-25.391,14.16,999.512
1742380140.721,632.812,-610.84,-287.598,609.375
1742380141.712,-1000.0,-118.652,107.91,-1000.0
1742380141.716,503.418,704.59,265.137,498.047
1742380141.72,999.512,179.688,70.312,999.512
1742380141.724,834.961,-416.016,-218.262,833.984
1742380141.728,-638.672,-856.445,-291.016,-648.438
1742380141.732,-884.277,400.391,70.312,-865.234
1742380141.736,627.93,999.512,273.926,649.902
1742380141.739,999.512,-267.09,64.941,999.512
1742380141.743,836.914,-711.914,-200.195,841.309
1742380141.747,-609.375,-891.113,-262.207,-616.699
1742380141.751,-1000.0,-346.68,66.406,-1000.0
1742380141.755,441.406,660.156,308.105,481.934
1742380142.598,937.012,253.418,43.945,945.801
1742380142.602,-608.887,-875.0,-270.996,-609.863
1742380142.606,-1000.0,-457.031,-10.254,-1000.0
1742380142.61,-835.449,356.934,283.203,-824.707
1742380142.614,563.965,703.125,295.898,576.66
1742380142.618,999.512,297.852,31.738,999.512
1742380142.622,-316.895,-768.555,-234.375,-313.965
1742380142.625,-1000.0,-543.945,-59.082,-1000.0
1742380142.629,-834.961,706.055,176.758,-835.938
1742380142.633,517.578,841.797,180.664,523.438
1742380142.637,999.512,216.309,-28.32,999.512
1742380142.641,11.719,-486.816,-270.02,-17.578
1742380143.858,-1000.0,-791.016,-347.168,-1000.0
1742380143.862,-1000.0,-98.633,-61.035,-1000.0
1742380143.866,-856.934,273.926,80.078,-859.375
1742380143.87,571.289,558.594,-40.039,531.25
1742380143.874,-327.148,-697.754,-391.113,-373.047
1742380143.878,-1000.0,-633.301,-406.738,-1000.0
1742380143.882,-910.645,-60.059,-137.695,-910.156
1742380143.885,-1000.0,-89.844,-17.09,-1000.0
1742380143.889,-1000.0,160.156,-39.062,-1000.0
1742380143.893,-1000.0,-332.031,-289.062,-1000.0
1742380143.897,-942.383,-557.129,-422.852,-945.801
1742380143.901,-1000.0,-124.023,-220.703,-1000.0
1742380143.962,971.68,104.004,-144.043,979.98
1742380143.966,-632.812,-1000.0,-440.43,-638.672
1742380143.97,-1000.0,-193.848,-252.93,-1000.0
1742380143.974,-972.656,421.387,-30.762,-1000.0
1742380143.978,322.266,644.043,16.602,272.461
1742380143.982,999.512,480.957,-156.738,999.512
1742380143.986,-337.891,-768.066,-409.668,-392.578
1742380143.989,-1000.0,-750.488,-282.715,-1000.0
1742380143.993,-940.43,54.199,-5.859,-947.754
1742380143.997,238.281,599.121,144.043,208.984
1742380144.001,999.512,158.691,-34.18,999.512
1742380144.005,604.98,-589.844,-280.273,617.188
1742380145.032,999.512,539.062,181.152,999.512
1742380145.036,839.844,-261.23,-61.035,841.309
1742380145.04,-558.594,-795.41,-168.457,-555.176
1742380145.044,-1000.0,-226.562,95.215,-1000.0
1742380145.048,-432.129,505.371,275.391,-377.441
1742380145.052,946.289,699.707,202.637,959.473
1742380145.056,900.391,-366.211,-122.07,900.879
1742380145.059,-526.855,-952.637,-272.949,-508.301
1742380145.063,-1000.0,-269.531,-0.488,-1000.0
1742380145.067,-732.91,315.43,166.016,-719.238
1742380145.071,669.434,566.895,123.047,682.129
1742380145.075,999.512,21.484,-90.332,999.512
1742380145.073,-233.887,-672.852,-240.723,-220.703
1742380145.077,-1000.0,-644.531,-54.688,-1000.0
1742380145.081,-726.562,244.141,195.801,-729.492
1742380145.085,643.555,706.543,202.637,649.902
1742380145.089,999.512,-38.086,-80.566,999.512
1742380145.093,111.328,-549.805,-224.121,77.637
1742380145.097,-1000.0,-570.312,-103.516,-1000.0
1742380145.1,-865.234,-20.508,41.504,-863.77
1742380145.104,520.996,695.312,121.582,522.461
1742380145.108,999.512,166.992,-85.449,999.512
1742380145.112,373.535,-608.887,-290.039,336.426
1742380145.116,-993.164,-599.609,-160.645,-1000.0
1742380145.132,-923.828,165.527,64.453,-920.898
1742380145.136,497.559,668.457,124.023,492.188
1742380145.14,999.512,145.996,-67.383,999.512
1742380145.144,656.25,-360.84,-258.789,635.254
1742380145.148,-798.828,-632.324,-218.75,-813.965
1742380145.152,-1000.0,210.449,7.324,-1000.0
1742380145.156,405.273,800.781,130.371,409.18
1742380145.159,999.512,135.254,-66.406,999.512
1742380145.163,663.574,-545.41,-335.938,659.18
1742380145.167,-715.332,-658.691,-291.504,-712.891
1742380145.171,-1000.0,-11.719,-15.625,-1000.0
1742380145.175,41.992,619.629,83.496,0.0
1742380145.927,-1000.0,-411.621,-140.625,-1000.0
1742380145.931,-753.418,439.941,94.727,-756.348
1742380145.935,553.223,815.918,117.676,556.152
1742380145.939,999.512,159.668,-129.395,999.512
1742380145.943,229.492,-663.574,-364.746,209.961
1742380145.947,-1000.0,-433.594,-203.125,-1000.0
1742380145.951,-934.082,198.242,20.996,-930.176
1742380145.954,427.734,657.227,62.5,432.617
1742380145.958,999.512,206.055,-125.977,999.512
1742380145.962,579.59,-552.734,-336.914,542.48
1742380145.966,-847.168,-642.578,-239.746,-865.234
1742380145.97,-1000.0,59.082,34.668,-1000.0
1742380146.198,-1000.0,-235.84,-87.891,-1000.0
1742380146.202,-580.566,506.348,111.328,-568.848
1742380146.206,853.516,581.055,36.621,857.91
1742380146.21,978.516,-84.961,-187.988,969.238
1742380146.214,-459.473,-769.531,-315.43,-469.727
1742380146.218,-1000.0,-99.121,-78.125,-1000.0
1742380146.222,-809.082,437.012,132.324,-790.039
1742380146.225,577.148,532.227,127.93,597.656
1742380146.229,999.512,-4.395,-100.586,999.512
1742380146.233,-207.52,-754.395,-310.059,-196.289
1742380146.237,-1000.0,-506.348,-141.113,-1000.0
1742380146.241,-831.543,330.078,87.891,-829.59
1742380146.347,-1000.0,-132.812,-10.254,-1000.0
1742380146.351,-445.801,427.246,116.699,-416.504
1742380146.355,941.895,431.641,34.668,950.684
1742380146.359,899.902,-132.812,-190.918,897.949
1742380146.363,-527.344,-730.469,-301.758,-528.32
1742380146.367,-1000.0,-92.285,-21.484,-1000.0
1742380146.371,-605.469,522.949,102.051,-558.594
1742380146.374,816.406,391.602,-1.953,840.332
1742380146.378,999.512,-170.41,-169.434,999.512
1742380146.382,-353.027,-738.281,-314.453,-366.699
1742380146.386,-1000.0,-509.277,-119.629,-1000.0
1742380146.39,-710.449,368.652,135.254,-696.777
1742380147.053,-681.641,365.234,208.984,-718.262
1742380147.057,623.535,591.797,199.707,589.355
1742380147.061,999.512,315.43,-13.672,999.512
1742380147.065,208.496,-517.578,-239.258,179.199
1742380147.069,-908.691,-628.418,-63.965,-915.527
1742380147.073,487.305,725.098,222.168,484.375
1742380147.077,999.512,556.152,211.426,999.512
1742380147.08,880.859,-448.73,-61.523,882.324
1742380147.084,980.469,-374.512,-229.004,980.957
1742380147.088,966.309,-114.746,-57.617,966.797
1742380147.092,981.934,83.008,163.086,966.797
1742380147.096,893.555,294.434,219.238,966.797
1742380147.697,-1000.0,-229.004,0.0,-1000.0
1742380147.701,-820.312,276.367,202.148,-813.965
1742380147.705,620.605,712.891,194.336,625.488
1742380147.709,999.512,149.902,-58.594,999.512
1742380147.713,-443.359,-815.43,-296.387,-440.43
1742380147.717,-1000.0,-211.426,-52.734,-1000.0
1742380147.721,-845.215,331.543,163.574,-842.285
1742380147.724,537.109,641.113,161.621,544.434
1742380147.728,999.512,203.613,-53.223,999.512
1742380147.732,-229.004,-815.43,-292.969,-224.121
1742380147.736,-1000.0,-639.648,-119.629,-1000.0
1742380147.74,-833.496,277.832,144.531,-837.891
1742380148.732,999.512,122.07,-97.168,999.512
1742380148.736,86.914,-752.93,-317.871,68.359
1742380148.74,-1000.0,-431.152,-134.277,-1000.0
1742380148.744,-869.141,221.191,98.633,-878.906
1742380148.748,516.113,704.102,174.316,496.582
1742380148.752,999.512,262.207,-28.809,999.512
1742380148.756,310.547,-755.859,-295.41,338.867
1742380148.759,-1000.0,-732.91,-175.293,-987.305
1742380148.763,-954.102,59.57,110.84,-958.008
1742380148.767,425.293,700.684,221.68,430.176
1742380148.771,999.512,197.754,12.207,999.512
1742380148.775,644.531,-513.672,-230.957,644.531
1742380149.063,-1000.0,-474.121,-101.562,-1000.0
1742380149.067,-855.957,196.777,146.484,-857.422
1742380149.071,523.926,736.816,206.543,526.367
1742380149.075,999.512,119.629,-46.875,999.512
1742380149.079,146.973,-656.738,-290.527,141.113
1742380149.083,-1000.0,-382.812,-144.531,-1000.0
1742380149.087,-889.648,225.586,107.91,-895.996
1742380149.09,477.051,660.645,177.734,473.145
1742380149.094,999.512,2.93,-42.969,999.512
1742380149.098,553.223,-590.332,-243.652,517.09
1742380149.102,-862.793,-581.055,-166.992,-880.859
1742380149.106,-1000.0,-42.48,70.312,-1000.0
1742380149.438,658.691,-435.059,-154.297,656.738
1742380149.442,-769.531,-661.133,-116.699,-768.066
1742380149.446,-1000.0,-105.469,143.066,-1000.0
1742380149.45,308.105,712.891,307.617,305.664
1742380149.454,999.512,410.645,149.902,999.512
1742380149.458,794.922,-186.035,-62.988,790.039
1742380149.462,-544.434,-655.762,-82.52,-560.547
1742380149.465,-1000.0,-339.844,143.066,-1000.0
1742380149.469,-116.211,499.023,303.711,-79.59
1742380149.473,999.512,471.191,197.266,999.512
1742380149.477,822.754,-309.57,-55.176,819.336
1742380149.481,-548.34,-713.379,-145.02,-551.758
1742380152.497,-1000.0,-429.688,-100.586,-1000.0
1742380152.501,-706.055,269.043,89.355,-689.941
1742380152.505,774.902,639.648,67.871,780.762
1742380152.509,963.867,11.23,-172.363,969.727
1742380152.513,-541.992,-810.547,-351.562,-521.973
1742380152.517,-1000.0,-125.0,-72.266,-1000.0
1742380152.521,-836.914,409.18,102.539,-818.359
1742380152.524,569.824,547.363,56.641,595.215
1742380152.528,999.512,-19.043,-145.996,999.512
1742380152.532,-339.355,-772.949,-313.965,-345.703
1742380152.536,-1000.0,-368.164,-92.285,-1000.0
1742380152.54,-851.562,248.047,132.812,-847.656
1742380152.572,660.156,-362.793,-216.309,638.184
1742380152.576,-789.551,-641.113,-154.297,-805.176
1742380152.58,-1000.0,51.27,83.984,-1000.0
1742380152.584,389.16,830.078,218.75,387.207
1742380152.588,999.512,310.547,34.668,999.512
1742380152.592,779.297,-271.973,-180.664,764.16
1742380152.596,-564.941,-645.996,-191.895,-588.379
1742380152.599,-1000.0,-350.586,20.996,-1000.0
1742380152.603,-70.312,540.039,206.055,-51.758
1742380152.607,999.512,435.059,69.336,999.512
1742380152.611,821.289,-427.734,-185.059,814.453
1742380152.615,-550.293,-733.887,-211.914,-560.059
1742380152.814,862.305,609.375,107.91,877.93
1742380152.818,902.832,-24.414,-119.141,908.203
1742380152.822,-593.262,-774.902,-271.973,-569.824
1742380152.826,-1000.0,-281.738,-28.809,-1000.0
1742380152.83,-767.09,306.152,153.809,-760.742
1742380152.834,667.969,661.133,141.113,678.223
1742380152.838,999.512,11.719,-97.168,999.512
1742380152.841,-387.207,-779.785,-310.547,-408.691
1742380152.845,-1000.0,-451.172,-109.375,-1000.0
1742380152.849,-853.027,217.773,103.516,-850.098
1742380152.853,551.27,703.125,123.535,560.547
1742380152.857,999.512,47.852,-94.727,999.512
1742380154.073,652.344,-422.852,-292.969,617.188
1742380154.077,-769.531,-718.75,-279.297,-788.574
1742380154.081,-1000.0,-8.301,-13.184,-1000.0
1742380154.085,225.586,744.141,112.793,171.875
1742380154.089,999.512,269.531,-89.355,999.512
1742380154.093,778.809,-212.891,-304.688,766.602
1742380154.097,-541.016,-687.988,-355.957,-567.383
1742380154.1,-1000.0,-443.359,-130.371,-1000.0
1742380154.104,-367.676,416.016,49.316,-400.879
1742380154.108,985.84,583.008,-48.828,976.074
1742380154.112,853.516,-451.66,-316.406,836.426
1742380154.116,-570.801,-818.359,-372.559,-604.492
1742380154.508,-326.66,-767.09,-479.004,-311.035
1742380154.512,-1000.0,-470.703,-294.922,-1000.0
1742380154.516,-721.191,240.723,-41.504,-703.125
1742380154.52,630.859,571.777,27.344,647.461
1742380154.524,999.512,-60.547,-209.473,999.512
1742380154.528,170.41,-493.164,-388.184,195.312
1742380154.532,-1000.0,-517.578,-213.379,-1000.0
1742380154.535,-872.559,-19.043,-3.418,-869.141
1742380154.539,523.438,675.293,67.383,537.109
1742380154.543,999.512,102.051,-140.625,999.512
1742380154.547,413.574,-648.926,-346.68,410.645
1742380154.551,-985.84,-546.875,-252.93,-984.375
1742380154.869,999.512,362.305,-124.512,999.512
1742380154.873,-484.375,-803.223,-400.879,-583.008
1742380154.877,-1000.0,-417.48,-296.387,-1000.0
1742380154.881,-794.922,340.332,-41.992,-861.816
1742380154.885,487.793,753.906,164.062,375.488
1742380154.889,999.512,518.066,31.738,999.512
1742380154.893,698.242,-327.148,-273.926,599.609
1742380154.896,-837.402,-755.859,-248.535,-881.348
1742380154.9,-852.539,177.734,84.473,-939.453
1742380154.904,696.777,820.801,253.906,569.824
1742380154.908,999.512,125.977,111.816,999.512
1742380154.912,860.84,-340.332,-120.117,853.516
1742380155.619,-829.102,-232.422,5.859,-564.941
1742380155.623,853.027,716.797,227.051,900.879
1742380155.627,999.512,98.145,184.57,999.512
1742380155.631,910.156,-226.074,-1.953,909.668
1742380155.635,940.918,-147.461,-73.242,980.957
1742380155.639,930.176,33.691,147.949,966.797
1742380155.643,961.426,-146.973,310.059,978.027
1742380155.646,909.668,-170.898,306.641,920.41
1742380155.65,999.512,-161.621,64.453,999.512
1742380155.654,-104.98,-800.293,-177.734,776.367
1742380155.658,-807.617,-575.684,-26.855,270.996
1742380155.662,809.082,530.762,217.285,875.0
1742380156.097,999.512,285.645,118.652,999.512
1742380156.101,999.512,-348.633,-100.098,997.559
1742380156.105,-372.07,-756.836,-130.371,-394.531
1742380156.109,-876.953,-178.223,133.789,-834.473
1742380156.113,806.152,791.992,312.012,845.215
1742380156.117,973.633,315.43,246.094,953.613
1742380156.121,999.512,-157.227,44.434,999.512
1742380156.124,168.457,-753.418,-102.051,391.113
1742380156.128,-818.359,-401.367,95.215,-627.441
1742380156.132,694.824,658.203,239.258,718.75
1742380156.136,999.512,176.27,150.391,999.512
1742380156.14,999.512,-155.762,-4.395,887.695
1742380156.428,-555.176,-697.266,-121.094,-564.453
1742380156.432,-1000.0,-265.137,89.355,-1000.0
1742380156.436,72.754,621.582,244.141,153.809
1742380156.44,999.512,666.504,157.227,999.512
1742380156.444,805.176,-372.559,-103.027,818.359
1742380156.448,-542.969,-860.352,-158.203,-520.508
1742380156.452,-1000.0,-421.387,68.359,-1000.0
1742380156.455,-340.82,324.219,237.793,-267.09
1742380156.459,983.398,502.93,157.227,999.023
1742380156.463,886.23,-292.48,-85.938,890.625
1742380156.467,-515.137,-794.922,-212.891,-485.84
1742380156.471,-1000.0,-292.969,-25.391,-1000.0
1742380156.655,999.512,267.09,-62.988,999.512
1742380156.659,-520.02,-803.711,-260.254,-536.133
1742380156.663,-1000.0,-468.75,-78.613,-1000.0
1742380156.667,-846.191,288.086,160.156,-856.934
1742380156.671,538.574,750.977,202.148,534.18
1742380156.675,999.512,396.973,-13.672,999.512
1742380156.679,-274.902,-660.645,-250.0,-308.594
1742380156.682,-1000.0,-632.324,-146.484,-1000.0
1742380156.686,-898.926,113.77,66.895,-905.273
1742380156.69,400.879,709.961,148.438,398.438
1742380156.694,999.512,266.602,-55.176,999.512
1742380156.698,96.191,-636.23,-274.414,47.852
1742380156.697,-1000.0,-493.652,-169.434,-1000.0
1742380156.701,-990.234,88.867,38.574,-987.793
1742380156.705,270.02,652.344,138.672,261.719
1742380156.709,999.512,406.738,-29.785,999.512
1742380156.713,566.895,-501.465,-249.512,511.719
1742380156.717,-837.402,-550.293,-163.574,-858.887
1742380156.721,-1000.0,-148.438,56.641,-1000.0
1742380156.724,206.543,501.953,195.312,167.48
1742380156.728,999.512,469.238,80.078,999.512
1742380156.732,736.816,-419.434,-179.688,739.746
1742380156.736,-644.531,-661.621,-178.711,-650.391
1742380156.74,-1000.0,10.742,63.965,-1000.0
1742380156.744,-24.414,610.84,174.805,-12.695
1742380156.748,999.512,417.48,42.969,999.512
1742380156.752,820.801,-322.266,-161.133,813.477
1742380156.756,-553.223,-721.191,-205.566,-567.871
1742380156.76,-1000.0,-95.215,-2.441,-1000.0
1742380156.764,-290.039,624.023,157.715,-253.906
1742380156.768,999.512,530.762,55.664,999.512
1742380156.771,844.727,-311.035,-217.773,842.285
1742380156.775,-560.059,-814.941,-301.758,-558.594
1742380156.779,-1000.0,-300.293,-66.406,-1000.0
1742380156.783,-630.371,294.922,98.633,-612.305
1742380156.787,816.895,582.031,78.613,820.312
1742380157.119,-1000.0,-344.727,1.953,-1000.0
1742380157.123,-678.223,310.547,161.621,-648.926
1742380157.127,752.93,469.238,100.586,772.949
1742380157.131,999.512,-88.379,-95.215,999.512
1742380157.135,-359.375,-645.508,-216.309,-356.445
1742380157.139,-1000.0,-189.453,3.418,-1000.0
1742380157.143,-781.738,223.145,153.809,-770.996
1742380157.146,612.305,477.051,130.371,622.07
1742380157.15,999.512,-28.32,-69.336,999.512
1742380157.154,-167.969,-758.301,-221.191,-159.668
1742380157.158,-1000.0,-476.074,-8.789,-1000.0
1742380157.162,-847.168,236.328,232.422,-840.332
1742380157.404,-1000.0,-42.969,60.547,-1000.0
1742380157.408,-63.965,549.805,187.012,-34.668
1742380157.412,999.512,366.699,41.992,999.512
1742380157.416,813.965,-293.945,-187.012,806.152
1742380157.42,-542.969,-670.41,-193.848,-554.688
1742380157.424,-1000.0,87.891,73.73,-1000.0
1742380157.428,-542.48,498.535,131.836,-515.625
1742380157.431,910.645,329.102,-5.859,914.062
1742380157.435,887.207,-266.113,-159.18,882.812
1742380157.439,-587.402,-785.156,-252.93,-588.379
1742380157.443,-1000.0,-153.32,-30.273,-1000.0
1742380157.447,-793.945,296.875,115.723,-794.922
1742380157.732,999.512,120.117,-19.043,999.512
1742380157.736,811.523,-460.449,-243.652,813.477
1742380157.74,-569.824,-547.363,-198.242,-580.078
1742380157.744,-1000.0,-51.758,27.832,-1000.0
1742380157.748,228.516,627.93,122.07,266.113
1742380157.752,999.512,596.191,58.594,999.512
1742380157.756,791.992,-280.273,-170.41,795.41
1742380157.759,-538.086,-833.984,-293.945,-541.992
1742380157.763,-1000.0,-262.207,-40.527,-1000.0
1742380157.767,-259.766,519.531,151.855,-196.777
1742380157.771,999.512,479.492,70.312,999.512
1742380157.775,882.324,-245.117,-166.992,885.742
1742380157.869,999.512,284.668,12.207,999.512
1742380157.873,651.367,-455.566,-237.305,636.719
1742380157.877,-770.02,-636.23,-188.477,-782.715
1742380157.881,-1000.0,-29.785,33.203,-1000.0
1742380157.885,280.273,715.82,146.973,298.34
1742380157.889,999.512,467.773,-10.742,999.512
1742380157.893,810.059,-472.168,-259.766,804.688
1742380157.896,-585.938,-821.289,-253.418,-598.145
1742380157.9,-1000.0,-307.129,10.742,-1000.0
1742380157.904,201.66,550.293,187.5,216.309
1742380157.908,999.512,324.707,41.016,999.512
1742380157.912,791.992,-395.02,-208.496,797.363
1742380158.064,-668.945,-694.336,-199.219,-678.223
1742380158.068,-1000.0,-56.641,27.344,-1000.0
1742380158.072,63.477,628.906,161.133,40.039
1742380158.076,999.512,378.418,28.32,999.512
1742380158.08,799.805,-388.184,-183.105,795.41
1742380158.084,-536.621,-637.207,-198.242,-553.711
1742380158.088,-1000.0,-125.488,-17.578,-1000.0
1742380158.091,-479.004,290.527,68.848,-461.914
1742380158.095,938.965,387.695,4.395,941.895
1742380158.099,876.465,-309.082,-187.012,875.977
1742380158.103,-574.219,-789.062,-252.93,-574.707
1742380158.107,-1000.0,-224.609,-8.789,-1000.0
1742380158.108,-627.441,394.043,132.324,-624.023
1742380158.112,825.195,456.055,61.035,825.195
1742380158.116,982.91,-212.402,-100.098,969.727
1742380158.12,-463.867,-742.188,-203.613,-486.328
1742380158.124,-1000.0,-305.176,5.371,-1000.0
1742380158.128,-745.117,393.555,217.285,-744.141
1742380158.132,708.984,432.129,179.688,710.449
1742380158.135,999.512,-240.723,-21.484,999.512
1742380158.139,-436.035,-787.598,-169.434,-443.359
1742380158.143,-1000.0,-428.711,20.508,-1000.0
1742380158.147,-842.285,149.902,229.492,-838.867
1742380158.151,532.227,629.883,263.672,543.945
1742380158.392,317.383,724.609,211.914,318.848
1742380158.396,999.512,386.23,45.41,999.512
1742380158.4,814.941,-327.148,-153.809,807.617
1742380158.404,-576.172,-744.141,-174.316,-585.449
1742380158.408,-1000.0,-45.41,43.945,-1000.0
1742380158.412,208.496,757.324,195.801,184.082
1742380158.416,999.512,261.719,66.895,999.512
1742380158.419,802.246,-374.023,-166.016,810.547
1742380158.423,-549.805,-757.812,-244.629,-557.617
1742380158.427,-1000.0,-193.359,1.953,-1000.0
1742380158.431,-117.676,630.859,191.406,-66.406
1742380158.435,999.512,522.461,106.445,999.512
1742380158.723,697.266,-401.855,-117.188,688.477
1742380158.727,-713.867,-687.012,-155.273,-716.309
1742380158.731,-1000.0,-111.328,69.336,-1000.0
1742380158.735,203.613,650.391,231.934,169.922
1742380158.739,999.512,368.164,90.82,999.512
1742380158.743,767.09,-258.301,-140.625,752.441
1742380158.747,-633.301,-647.461,-180.664,-657.715
1742380158.75,-1000.0,-233.398,23.438,-1000.0
1742380158.754,-926.758,-73.242,109.375,-927.734
1742380158.758,-1000.0,-287.109,44.434,-1000.0
1742380158.762,-942.383,-369.629,-64.453,-950.684
1742380158.766,-1000.0,-226.562,-32.715,-1000.0
1742380158.947,690.43,646.484,180.664,645.02
1742380158.951,943.848,-98.633,-61.035,960.449
1742380158.955,-610.84,-762.207,-212.891,-598.633
1742380158.959,-1000.0,-192.871,-22.461,-1000.0
1742380158.963,-840.332,191.406,139.16,-831.543
1742380158.967,570.801,597.656,146.973,583.496
1742380158.971,999.512,-89.355,-95.703,999.512
1742380158.974,-364.746,-854.492,-291.992,-368.652
1742380158.978,-1000.0,-447.754,-81.055,-1000.0
1742380158.982,-829.59,226.562,140.137,-829.102
1742380158.986,511.23,685.059,138.672,523.438
1742380158.99,999.512,121.094,-68.848,999.512
1742380159.053,-1000.0,-9.277,198.242,-1000.0
1742380159.057,242.188,593.75,286.621,261.719
1742380159.061,999.512,404.785,143.555,999.512
1742380159.065,710.449,-253.418,-100.098,715.332
1742380159.069,-641.602,-635.742,-120.117,-638.184
1742380159.073,-1000.0,12.207,115.723,-1000.0
1742380159.077,-231.934,409.668,200.195,-187.5
1742380159.08,999.512,325.195,103.027,999.512
1742380159.084,840.82,-338.867,-83.496,833.008
1742380159.088,-558.105,-775.879,-134.766,-564.453
1742380159.092,-1000.0,-255.371,79.102,-1000.0
1742380159.096,-483.398,398.926,199.219,-444.824
1742380159.188,164.062,593.75,155.273,250.0
1742380159.192,999.512,583.008,178.223,999.512
1742380159.196,971.191,-40.039,14.16,976.562
1742380159.2,860.352,-212.402,-158.691,849.609
1742380159.204,-640.625,-729.492,-114.746,-593.75
1742380159.208,173.828,489.746,167.969,265.625
1742380159.212,999.512,711.914,240.234,999.512
1742380159.215,953.125,-225.098,39.062,927.246
1742380159.219,904.297,-396.484,-132.324,979.492
1742380159.223,-644.043,-760.254,-107.422,-419.434
1742380159.227,22.461,323.242,147.949,156.25
1742380159.231,999.512,670.41,252.441,999.512
1742380159.383,999.512,355.957,42.969,999.512
1742380159.387,-170.898,-686.035,-194.336,-237.793
1742380159.391,-1000.0,-675.781,-124.512,-1000.0
1742380159.395,-1000.0,144.043,134.766,-1000.0
1742380159.399,-689.941,425.781,225.586,-711.426
1742380159.403,794.434,687.5,110.84,723.633
1742380159.407,-292.969,-589.844,-161.133,-354.98
1742380159.41,-1000.0,-904.297,-188.965,-1000.0
1742380159.414,-1000.0,55.176,72.754,-966.797
1742380159.418,-904.785,251.465,183.594,-992.188
1742380159.422,581.543,608.398,104.98,316.895
1742380159.426,-228.516,-456.543,-118.652,-311.035
1742380159.744,21.484,686.035,204.102,51.27
1742380159.748,999.512,511.23,92.773,999.512
1742380159.752,842.285,-248.047,-146.484,858.887
1742380159.756,-566.406,-762.207,-201.66,-549.316
1742380159.76,-1000.0,-218.262,28.809,-1000.0
1742380159.764,64.453,662.598,185.547,103.516
1742380159.768,999.512,417.969,112.305,999.512
1742380159.771,872.559,-350.586,-122.07,886.719
1742380159.775,-413.086,-760.254,-240.723,-399.902
1742380159.779,-1000.0,-321.289,-11.719,-1000.0
1742380159.783,-484.863,374.023,154.297,-357.91
1742380159.787,848.633,592.285,105.957,889.648
1742380160.072,834.473,-275.391,-120.605,835.938
1742380160.076,-556.152,-793.945,-204.102,-563.965
1742380160.08,-1000.0,-164.551,27.344,-1000.0
1742380160.084,-436.523,567.871,169.922,-407.715
1742380160.088,956.543,437.988,63.477,963.867
1742380160.092,868.652,-94.238,-141.602,865.234
1742380160.096,-574.707,-702.148,-261.719,-573.242
1742380160.099,-1000.0,-481.934,-90.332,-1000.0
1742380160.103,-718.75,219.238,83.496,-720.215
1742380160.107,755.371,595.215,82.031,749.512
1742380160.111,981.934,-188.965,-137.207,982.91
1742380160.115,-515.625,-834.473,-270.996,-511.719
1742380160.447,761.719,625.0,128.906,779.297
1742380160.451,999.512,-112.793,-81.055,999.512
1742380160.455,-381.348,-743.164,-217.285,-381.348
1742380160.459,-1000.0,-344.727,-42.969,-1000.0
1742380160.463,-826.66,154.297,113.281,-803.223
1742380160.467,571.289,628.906,124.023,590.82
1742380160.471,999.512,39.062,-79.59,999.512
1742380160.474,-253.906,-851.074,-287.598,-203.613
1742380160.478,-1000.0,-478.027,-116.699,-1000.0
1742380160.482,-832.031,290.527,124.512,-833.496
1742380160.486,511.23,708.008,149.902,521.484
1742380160.49,999.512,221.191,-61.523,999.512
1742380161.017,999.512,309.57,5.371,999.512
1742380161.021,480.957,-535.645,-192.871,451.66
1742380161.025,-876.953,-426.27,-98.633,-892.09
1742380161.029,-1000.0,160.645,67.383,-1000.0
1742380161.033,315.918,676.27,143.555,334.961
1742380161.037,999.512,588.379,26.855,999.512
1742380161.041,715.82,-293.945,-187.5,693.359
1742380161.044,-677.734,-730.469,-162.598,-700.195
1742380161.048,-1000.0,-88.867,62.5,-1000.0
1742380161.052,105.469,612.793,162.598,105.957
1742380161.056,999.512,355.469,26.855,999.512
1742380161.06,799.316,-266.602,-149.902,786.621
1742380161.108,-734.375,371.582,145.02,-729.492
1742380161.112,694.824,528.809,100.098,703.125
1742380161.116,999.512,-54.688,-116.211,999.512
1742380161.12,-356.934,-654.785,-249.512,-375.488
1742380161.124,-1000.0,-444.336,-71.289,-1000.0
1742380161.128,-850.098,365.234,138.672,-840.332
1742380161.132,574.219,659.668,130.371,594.727
1742380161.135,999.512,-137.207,-99.609,999.512
1742380161.139,-370.605,-814.941,-247.559,-399.902
1742380161.143,-1000.0,-372.07,-70.801,-1000.0
1742380161.147,-836.426,292.48,115.234,-837.402
1742380161.151,521.484,688.965,129.883,524.414
1742380161.393,240.723,722.656,219.727,252.93
1742380161.397,999.512,453.125,83.984,999.512
1742380161.401,797.852,-240.723,-111.816,800.781
1742380161.405,-545.41,-688.965,-147.461,-548.828
1742380161.409,-1000.0,-284.18,37.598,-1000.0
1742380161.413,-145.508,535.645,170.41,-120.605
1742380161.417,999.512,376.465,72.266,999.512
1742380161.42,823.242,-407.227,-130.371,824.219
1742380161.424,-548.828,-753.418,-203.125,-548.828
1742380161.428,-1000.0,-271.973,3.906,-1000.0
1742380161.432,-619.141,301.27,150.879,-568.848
1742380161.436,833.008,551.27,113.281,857.91
1742380161.482,-1000.0,-441.406,-65.43,-1000.0
1742380161.486,-855.469,188.477,118.164,-854.98
1742380161.49,520.02,790.039,162.598,523.926
1742380161.494,999.512,311.523,-24.902,999.512
1742380161.498,250.488,-686.035,-239.746,229.492
1742380161.502,-1000.0,-366.211,-98.633,-1000.0
1742380161.506,-906.25,291.016,92.773,-902.344
1742380161.509,483.398,672.363,130.371,486.816
1742380161.513,999.512,183.594,-41.016,999.512
1742380161.517,612.793,-546.387,-227.051,597.656
1742380161.521,-836.426,-614.258,-140.625,-840.332
1742380161.525,-1000.0,63.965,75.195,-1000.0
1742380161.573,819.336,-369.141,-178.223,828.613
1742380161.577,-561.035,-788.086,-211.914,-571.289
1742380161.581,-1000.0,-206.055,18.555,-1000.0
1742380161.585,-96.191,689.941,152.832,-21.484
1742380161.589,999.512,358.887,39.551,999.512
1742380161.593,844.238,-182.129,-139.648,844.727
1742380161.597,-503.418,-682.617,-247.07,-488.281
1742380161.6,-1000.0,-427.734,-56.641,-1000.0
1742380161.604,-652.832,375.488,112.305,-617.188
1742380161.608,761.719,556.641,55.176,784.18
1742380161.612,999.512,-179.688,-138.184,999.512
1742380161.616,-301.758,-686.035,-223.145,-312.012
1742380161.813,512.207,710.449,156.738,530.273
1742380161.817,999.512,137.695,-49.805,999.512
1742380161.821,41.504,-697.266,-214.355,3.418
1742380161.825,-1000.0,-472.656,-75.684,-1000.0
1742380161.829,-853.516,228.027,137.695,-851.074
1742380161.833,513.184,730.469,203.125,513.672
1742380161.837,999.512,170.41,-24.414,999.512
1742380161.84,436.035,-621.582,-220.215,402.344
1742380161.844,-976.562,-573.73,-97.656,-984.863
1742380161.848,-908.203,208.008,126.953,-909.668
1742380161.852,542.48,799.316,187.988,532.227
1742380161.856,999.512,287.598,5.371,999.512
1742380161.948,797.363,589.844,78.125,837.402
1742380161.952,999.512,-112.305,-124.023,999.512
1742380161.956,-262.207,-666.992,-219.238,-245.605
1742380161.96,-1000.0,-348.633,-49.316,-1000.0
1742380161.964,-838.867,306.641,121.582,-812.988
1742380161.968,535.156,639.648,124.512,568.848
1742380161.972,999.512,-127.93,-92.285,999.512
1742380161.975,-86.914,-810.059,-227.539,-59.082
1742380161.979,-1000.0,-395.996,-48.34,-1000.0
1742380161.983,-834.961,222.168,126.465,-841.797
1742380161.987,502.93,701.172,160.645,509.277
1742380161.991,999.512,232.91,-10.742,999.512
1742380162.369,999.512,410.645,83.008,999.512
1742380162.373,701.172,-378.906,-155.762,664.062
1742380162.377,-682.129,-605.469,-171.875,-717.773
1742380162.381,-1000.0,60.059,56.152,-1000.0
1742380162.385,-123.047,617.188,141.602,-143.066
1742380162.389,999.512,585.938,31.25,999.512
1742380162.393,822.754,-205.566,-182.129,812.988
1742380162.396,-548.34,-768.066,-251.465,-571.289
1742380162.4,-1000.0,-201.66,-15.137,-1000.0
1742380162.404,-520.996,376.953,119.629,-507.324
1742380162.408,921.387,511.719,72.754,919.434
1742380162.412,883.301,-71.777,-116.699,883.789
1742380163.972,-831.055,187.5,84.961,-829.102
1742380163.976,510.742,625.0,88.379,518.066
1742380163.98,999.512,62.012,-108.887,999.512
1742380163.984,122.559,-634.277,-275.879,113.77
1742380163.988,-1000.0,-513.184,-139.648,-1000.0
1742380163.992,-865.723,371.094,86.426,-867.676
1742380163.996,520.508,751.465,124.023,524.414
1742380163.999,999.512,15.137,-70.312,999.512
1742380164.003,402.832,-558.105,-235.84,367.188
1742380164.007,-962.402,-613.281,-138.672,-974.121
1742380164.011,-975.586,-8.789,87.402,-968.262
1742380164.015,421.875,728.516,178.711,423.828
1742380164.302,999.512,122.07,-80.078,999.512
1742380164.306,-210.449,-749.023,-249.023,-224.609
1742380164.31,-1000.0,-405.762,-71.289,-1000.0
1742380164.314,-830.078,387.695,129.395,-834.961
1742380164.318,504.883,710.449,125.488,511.719
1742380164.322,999.512,292.969,-38.086,999.512
1742380164.326,253.906,-534.668,-211.914,179.688
1742380164.329,-1000.0,-676.27,-115.234,-1000.0
1742380164.333,-953.125,31.738,88.867,-941.406
1742380164.337,405.762,644.043,139.16,409.18
1742380164.341,999.512,262.207,-33.203,999.512
1742380164.345,558.105,-396.973,-186.523,496.094
1742380164.437,999.512,-41.992,-103.027,999.512
1742380164.441,-365.234,-769.043,-249.023,-380.859
1742380164.445,-1000.0,-376.465,-37.109,-1000.0
1742380164.449,-753.906,383.789,151.855,-728.027
1742380164.453,643.555,603.516,131.836,667.48
1742380164.457,999.512,139.648,-60.547,999.512
1742380164.461,-162.598,-626.953,-224.121,-173.34
1742380164.464,-1000.0,-652.832,-82.031,-1000.0
1742380164.468,-842.285,202.148,124.512,-841.797
1742380164.472,517.09,700.195,152.344,523.438
1742380164.476,999.512,79.102,-50.781,999.512
1742380164.48,128.906,-597.168,-227.051,109.863
1742380168.562,-534.668,-768.555,-208.984,-531.25
1742380168.566,-1000.0,-363.281,0.0,-1000.0
1742380168.57,-540.527,351.562,178.711,-513.672
1742380168.574,853.027,586.914,132.324,861.328
1742380168.578,999.512,-196.777,-98.633,999.512
1742380168.582,-342.285,-737.793,-201.172,-349.121
1742380168.586,-1000.0,-408.203,0.0,-1000.0
1742380168.589,-734.375,130.371,137.207,-709.961
1742380168.593,656.738,540.039,108.398,679.688
1742380168.597,999.512,-1.465,-76.66,999.512
1742380168.601,-111.816,-682.129,-226.562,-104.004
1742380168.605,-1000.0,-479.492,-83.008,-1000.0
1742380170.137,-822.754,289.062,126.953,-812.988
1742380170.141,507.324,627.93,148.926,528.32
1742380170.145,999.512,165.039,-15.625,999.512
1742380170.149,229.98,-472.656,-212.891,222.168
1742380170.153,-1000.0,-596.191,-121.094,-1000.0
1742380170.157,-882.812,310.059,116.211,-876.465
1742380170.161,529.297,770.02,164.551,537.598
1742380170.164,999.512,-39.551,-55.176,999.512
1742380170.168,392.578,-615.234,-225.586,395.996
1742380170.172,-985.352,-533.203,-112.305,-980.957
1742380170.176,-925.781,121.094,110.352,-926.758
1742380170.18,501.465,773.438,216.309,503.418
1742380170.812,493.164,768.066,150.879,465.82
1742380170.816,999.512,245.117,-38.086,999.512
1742380170.82,665.527,-509.277,-233.887,628.418
1742380170.824,-813.477,-577.637,-145.508,-836.426
1742380170.828,-1000.0,190.43,83.496,-998.047
1742380170.832,500.977,721.191,165.527,486.328
1742380170.836,999.512,192.383,-10.254,999.512
1742380170.839,802.734,-318.359,-208.984,798.34
1742380170.843,-606.445,-688.965,-224.609,-621.582
1742380170.847,-1000.0,-163.574,-4.883,-1000.0
1742380170.851,313.965,684.082,145.02,343.75
1742380170.855,999.512,422.363,25.391,999.512
1742380171.053,-1000.0,-175.781,-7.324,-1000.0
1742380171.057,-518.066,348.633,112.793,-495.605
1742380171.061,916.016,499.512,55.664,917.969
1742380171.065,899.902,-41.992,-146.484,902.344
1742380171.069,-555.176,-736.816,-267.578,-546.875
1742380171.073,-1000.0,-210.449,-36.621,-1000.0
1742380171.077,-722.656,192.871,95.703,-716.309
1742380171.08,727.051,437.012,58.105,732.91
1742380171.084,999.512,-63.965,-133.789,999.512
1742380171.088,-419.922,-838.379,-279.297,-427.246
1742380171.092,-1000.0,-418.945,-64.941,-1000.0
1742380171.096,-743.164,327.637,125.977,-728.516
1742380171.517,999.512,137.207,-2.93,999.512
1742380171.521,618.164,-467.773,-176.758,624.023
1742380171.525,-649.902,-597.168,-143.555,-668.457
1742380171.529,-1000.0,-95.215,44.434,-1000.0
1742380171.533,242.188,646.973,143.555,329.102
1742380171.537,999.512,565.43,51.27,999.512
1742380171.541,809.57,-378.418,-169.434,814.453
1742380171.544,-564.453,-830.078,-213.379,-574.707
1742380171.548,-1000.0,-197.754,21.973,-1000.0
1742380171.552,78.125,575.684,161.133,181.152
1742380171.556,999.512,435.547,99.609,999.512
1742380171.56,846.68,-250.488,-79.102,854.492
1742380172.928,-455.566,-769.043,-261.23,-399.414
1742380172.932,-1000.0,-510.254,-105.469,-1000.0
1742380172.936,-829.102,186.523,67.871,-799.316
1742380172.94,544.922,614.258,63.965,582.52
1742380172.944,999.512,30.762,-153.809,999.512
1742380172.948,-166.504,-632.324,-270.996,-145.02
1742380172.952,-1000.0,-650.879,-125.977,-1000.0
1742380172.955,-850.098,13.184,59.082,-853.516
1742380172.959,528.32,716.309,145.02,532.227
1742380172.963,999.512,99.609,-57.617,999.512
1742380172.967,1.465,-752.441,-239.746,-2.93
1742380172.971,-1000.0,-475.098,-82.52,-1000.0
1742380173.244,-697.266,336.914,40.527,-679.688
1742380173.248,700.684,499.512,2.93,711.426
1742380173.252,999.512,-97.168,-175.781,999.512
1742380173.256,-199.219,-666.992,-290.039,-179.199
1742380173.26,-1000.0,-564.453,-112.305,-1000.0
1742380173.264,-754.883,361.816,115.723,-714.844
1742380173.268,647.461,642.09,134.766,682.129
1742380173.271,999.512,-234.863,-97.656,999.512
1742380173.275,-65.43,-707.031,-264.16,-23.438
1742380173.279,-1000.0,-531.25,-111.328,-1000.0
1742380173.283,-841.797,58.105,92.773,-846.68
1742380173.287,508.789,681.641,149.414,513.672
1742380173.71,856.445,-363.77,-198.73,861.816
1742380173.714,-565.43,-821.289,-268.066,-568.359
1742380173.718,-1000.0,-235.84,-36.621,-1000.0
1742380173.722,-632.324,388.672,93.75,-613.281
1742380173.726,827.637,556.152,31.738,832.52
1742380173.73,970.703,46.387,-145.508,963.867
1742380173.734,-491.211,-748.535,-276.855,-495.605
1742380173.737,-1000.0,-537.598,-107.91,-1000.0
1742380173.741,-782.715,223.633,67.871,-782.715
1742380173.745,625.488,568.359,46.875,630.371
1742380173.749,999.512,-43.945,-141.113,999.512
1742380173.753,-275.879,-712.891,-277.344,-305.176
1742380174.038,-1000.0,-178.711,-11.23,-1000.0
1742380174.042,-259.277,566.406,152.832,-235.84
1742380174.046,999.512,530.273,78.125,999.512
1742380174.05,839.844,-254.395,-173.34,838.867
1742380174.054,-558.594,-801.27,-295.41,-558.105
1742380174.058,-1000.0,-197.754,-42.969,-1000.0
1742380174.062,-662.598,322.754,118.164,-645.996
1742380174.065,789.062,485.84,66.406,797.852
1742380174.069,999.512,-130.859,-128.906,995.117
1742380174.073,-449.707,-772.949,-258.301,-454.102
1742380174.077,-1000.0,-325.195,-57.617,-1000.0
1742380174.081,-819.336,255.859,115.234,-804.199
1742380175.96,-858.887,224.609,113.77,-854.004
1742380175.964,516.113,679.199,173.828,516.602
1742380175.968,999.512,58.105,-30.273,999.512
1742380175.972,401.855,-534.668,-206.543,340.82
1742380175.976,-925.781,-458.984,-98.145,-948.242
1742380175.98,-1000.0,198.73,110.84,-1000.0
1742380175.984,251.465,615.723,154.785,255.859
1742380175.987,999.512,292.48,-20.996,999.512
1742380175.991,617.188,-449.219,-227.539,580.078
1742380175.995,-789.551,-627.93,-184.57,-808.594
1742380175.999,-1000.0,11.23,35.156,-1000.0
1742380176.003,149.414,625.0,137.695,130.859
1742380176.062,-583.984,-770.996,-229.004,-582.52
1742380176.066,-1000.0,-319.336,-36.621,-1000.0
1742380176.07,-704.59,260.742,103.516,-700.195
1742380176.074,749.023,589.844,79.59,751.465
1742380176.078,999.512,11.719,-103.516,999.512
1742380176.082,-442.871,-727.539,-224.609,-448.73
1742380176.086,-1000.0,-266.602,-29.297,-1000.0
1742380176.089,-830.566,293.457,107.422,-813.477
1742380176.093,557.617,490.234,52.246,588.379
1742380176.097,999.512,-12.207,-155.762,999.512
1742380176.101,-317.383,-724.609,-301.758,-348.145
1742380176.105,-1000.0,-458.496,-142.578,-1000.0
1742380177.142,307.129,-496.582,-248.535,283.691
1742380177.146,-1000.0,-567.383,-132.324,-1000.0
1742380177.15,-890.137,191.895,89.844,-904.297
1742380177.154,524.902,785.645,163.574,501.953
1742380177.158,999.512,348.633,0.977,999.512
1742380177.162,579.102,-291.016,-156.738,558.594
1742380177.166,-815.918,-553.223,-96.68,-818.848
1742380177.169,-1000.0,-131.348,58.105,-1000.0
1742380177.173,202.148,553.223,116.211,168.945
1742380177.177,999.512,438.477,-42.969,999.512
1742380177.181,672.852,-314.941,-270.508,661.621
1742380177.185,-711.426,-650.879,-273.438,-727.051
1742380177.294,-153.32,-652.832,-233.398,-178.223
1742380177.298,-1000.0,-465.332,-90.332,-1000.0
1742380177.302,-830.566,213.379,91.797,-830.566
1742380177.306,501.953,668.457,144.043,504.883
1742380177.31,999.512,228.027,-20.02,999.512
1742380177.314,382.324,-348.145,-188.965,343.262
1742380177.318,-989.746,-531.738,-111.816,-1000.0
1742380177.321,-926.758,40.039,56.641,-925.293
1742380177.325,499.023,734.375,118.652,498.047
1742380177.329,999.512,226.074,-70.312,999.512
1742380177.333,485.84,-597.656,-244.141,447.266
1742380177.337,-904.785,-457.52,-138.672,-916.504
1742380178.267,-1000.0,-292.969,-24.902,-1000.0
1742380178.271,-875.488,228.516,133.789,-895.508
1742380178.275,607.422,777.832,71.777,593.262
1742380178.279,961.914,189.453,-153.809,925.293
1742380178.283,-690.43,-880.371,-341.309,-737.305
1742380178.287,-1000.0,-203.613,-124.512,-1000.0
1742380178.291,-926.27,251.465,83.496,-928.223
1742380178.294,-1000.0,18.555,18.066,-1000.0
1742380178.298,-1000.0,-281.738,-195.801,-1000.0
1742380178.302,-967.285,-382.324,-319.824,-1000.0
1742380178.306,-982.91,-106.934,-170.898,-921.875
1742380178.31,-1000.0,107.422,35.156,-1000.0
1742380179.662,414.062,746.582,208.008,423.34
1742380179.666,999.512,330.566,52.734,999.512
1742380179.67,802.734,-284.18,-213.379,789.551
1742380179.674,-616.211,-668.945,-242.676,-635.254
1742380179.678,-1000.0,-108.887,-20.508,-1000.0
1742380179.682,332.52,740.723,112.305,340.82
1742380179.686,999.512,236.328,-72.754,999.512
1742380179.689,794.922,-382.324,-293.945,791.016
1742380179.693,-544.434,-672.852,-286.133,-560.059
1742380179.697,-1000.0,-257.812,11.23,-1000.0
1742380179.701,-107.422,456.543,145.508,-53.711
1742380179.705,999.512,496.094,-27.832,999.512
1742380179.722,839.355,-189.941,-199.219,837.891
1742380179.726,-569.336,-781.25,-232.422,-566.406
1742380179.73,-1000.0,-317.383,-62.012,-1000.0
1742380179.734,-142.09,516.602,141.113,-113.77
1742380179.738,999.512,501.465,42.48,999.512
1742380179.742,907.227,-1.465,-126.465,904.297
1742380179.746,-409.18,-692.871,-185.059,-414.551
1742380179.749,-1000.0,-589.844,-87.402,-1000.0
1742380179.753,-608.887,288.086,35.645,-539.062
1742380179.757,810.547,601.562,48.828,840.332
1742380179.761,999.512,-229.492,-151.855,999.512
1742380179.765,-326.66,-812.988,-311.035,-300.293
1742380179.947,966.309,58.594,127.93,966.797
1742380179.951,966.309,-353.027,-180.664,966.797
1742380179.955,972.656,-541.992,-392.09,966.797
1742380179.959,941.406,-227.539,-256.348,984.375
1742380179.963,946.777,-130.371,-64.453,897.949
1742380179.967,999.512,78.613,-29.297,999.512
1742380179.971,-175.781,-507.324,-306.152,703.613
1742380179.974,-1000.0,-990.234,-544.922,-770.996
1742380179.978,-944.824,-513.672,-407.227,-1000.0
1742380179.982,-997.559,-146.484,-180.176,-933.105
1742380179.986,-1000.0,-41.992,-81.543,-1000.0
1742380179.99,-1000.0,-229.004,-231.445,-1000.0
1742380180.188,-1000.0,34.18,-11.719,-1000.0
1742380180.192,-700.684,178.223,79.102,-996.094
1742380180.196,589.355,109.863,-93.262,-994.141
1742380180.2,-526.855,-530.762,-267.578,-1000.0
1742380180.204,-1000.0,-400.879,-194.824,-934.57
1742380180.208,-986.328,127.441,-2.93,-1000.0
1742380180.212,-79.59,521.484,90.82,-477.051
1742380180.215,999.512,311.523,39.551,978.516
1742380180.219,851.562,-508.301,-171.387,905.762
1742380180.223,-605.469,-846.191,-293.457,-636.23
1742380180.227,-1000.0,-258.301,-91.309,-1000.0
1742380180.231,289.062,661.621,67.383,236.816
1742380180.732,999.512,335.938,18.555,999.512
1742380180.736,740.234,-341.309,-181.152,773.438
1742380180.74,-667.969,-514.16,-103.027,-638.672
1742380180.744,-1000.0,6.348,92.285,-1000.0
1742380180.748,255.859,657.227,180.176,303.711
1742380180.752,999.512,536.621,76.172,999.512
1742380180.756,790.527,-306.641,-226.074,788.086
1742380180.759,-559.082,-705.078,-298.828,-570.312
1742380180.763,-1000.0,-106.934,-18.066,-1000.0
1742380180.767,-104.98,479.004,133.301,-38.574
1742380180.771,999.512,443.359,46.875,999.512
1742380180.775,824.219,-288.086,-191.895,819.336
1742380180.834,-861.328,-625.488,-186.523,-852.539
1742380180.838,-963.867,75.195,66.895,-959.473
1742380180.842,627.441,808.105,167.48,636.719
1742380180.846,999.512,203.613,3.418,999.512
1742380180.85,891.602,-285.645,-231.934,892.578
1742380180.854,981.934,60.059,-201.172,982.91
1742380180.858,966.309,251.465,16.602,966.797
1742380180.861,966.309,145.508,90.82,966.797
1742380180.865,966.309,52.246,-26.367,966.797
1742380180.869,966.309,-104.98,-200.684,966.797
1742380180.873,966.309,-50.293,-192.871,967.285
1742380180.877,966.309,280.762,45.41,966.797
1742380181.687,-963.867,125.0,19.043,-971.191
1742380181.691,574.707,778.809,121.094,582.031
1742380181.695,999.512,263.672,-26.855,999.512
1742380181.699,840.332,-353.027,-250.977,840.82
1742380181.703,-635.742,-711.914,-258.789,-636.23
1742380181.707,-994.141,95.215,0.488,-992.676
1742380181.711,580.566,825.684,131.348,583.496
1742380181.714,999.512,105.957,-19.531,999.512
1742380181.718,830.078,-385.254,-232.422,837.402
1742380181.722,-610.352,-773.926,-271.973,-614.258
1742380181.726,-1000.0,-242.188,-22.949,-1000.0
1742380181.73,459.473,801.758,138.672,507.324
1742380182.244,-627.93,328.613,147.461,-597.168
1742380182.248,846.191,501.465,105.469,857.91
1742380182.252,935.059,-204.59,-122.07,932.129
1742380182.256,-541.016,-834.961,-246.582,-537.109
1742380182.26,-1000.0,-331.055,2.93,-1000.0
1742380182.264,-691.406,410.156,191.895,-687.012
1742380182.268,747.559,478.027,123.047,750.488
1742380182.271,999.512,-244.141,-126.953,999.512
1742380182.275,-385.254,-800.781,-272.949,-395.508
1742380182.279,-1000.0,-433.594,-59.57,-1000.0
1742380182.283,-821.777,161.621,150.879,-807.617
1742380182.287,543.457,637.695,193.359,555.664
1742380182.334,-854.004,-508.789,-205.566,-853.516
1742380182.338,-1000.0,5.371,11.23,-1000.0
1742380182.342,391.113,707.52,168.457,400.391
1742380182.346,999.512,397.461,19.531,999.512
1742380182.35,732.91,-415.039,-206.055,733.398
1742380182.354,-674.316,-591.309,-139.648,-667.48
1742380182.358,-1000.0,-244.629,55.664,-1000.0
1742380182.361,215.332,511.23,186.523,188.477
1742380182.365,999.512,450.195,75.684,999.512
1742380182.369,793.945,-330.078,-171.387,787.109
1742380182.373,-548.828,-676.758,-201.172,-568.359
1742380182.377,-1000.0,-161.133,33.691,-1000.0
1742380183.084,970.703,451.66,111.328,987.793
1742380183.088,911.621,-209.961,-113.281,914.551
1742380183.092,-475.098,-755.859,-261.23,-445.801
1742380183.096,-1000.0,-244.629,-25.391,-1000.0
1742380183.1,-664.551,367.676,162.109,-626.465
1742380183.104,761.719,660.156,149.414,780.762
1742380183.108,999.512,-11.23,-93.75,999.512
1742380183.111,-337.402,-795.898,-287.598,-309.082
1742380183.115,-1000.0,-390.137,-80.566,-1000.0
1742380183.119,-775.391,266.113,140.625,-762.207
1742380183.123,580.566,605.957,177.734,599.121
1742380183.127,999.512,104.004,-20.508,999.512
1742380183.459,-833.008,290.039,162.109,-826.66
1742380183.463,516.113,636.23,167.969,527.344
1742380183.467,999.512,111.816,-51.758,999.512
1742380183.471,0.977,-583.984,-237.793,-4.395
1742380183.475,-1000.0,-354.492,-99.121,-1000.0
1742380183.479,-853.516,346.191,110.84,-853.516
1742380183.483,516.602,666.016,142.578,517.578
1742380183.486,999.512,14.648,-79.102,999.512
1742380183.49,309.082,-560.059,-263.672,319.336
1742380183.494,-1000.0,-524.902,-158.203,-1000.0
1742380183.498,-912.109,109.375,86.426,-919.922
1742380183.502,493.164,745.117,198.73,488.77
1742380183.52,999.512,334.961,10.742,999.512
1742380183.524,626.953,-420.898,-229.004,611.328
1742380183.528,-804.688,-569.824,-182.129,-817.383
1742380183.532,-1000.0,146.973,60.059,-1000.0
1742380183.536,337.402,732.91,165.527,357.422
1742380183.54,999.512,466.797,20.996,999.512
1742380183.544,791.504,-261.719,-199.707,777.344
1742380183.547,-593.262,-739.746,-210.449,-611.328
1742380183.551,-1000.0,-275.391,16.602,-1000.0
1742380183.555,150.391,571.777,180.664,152.344
1742380183.559,999.512,385.254,73.242,999.512
1742380183.563,796.387,-283.203,-140.625,792.969
1742380184.312,519.531,678.711,253.418,517.09
1742380184.316,999.512,197.266,65.43,999.512
1742380184.32,-122.559,-706.543,-143.066,-186.035
1742380184.324,-1000.0,-410.156,-2.93,-1000.0
1742380184.328,-825.684,446.777,244.141,-820.801
1742380184.332,498.047,724.609,294.922,497.559
1742380184.336,999.512,-22.949,40.039,999.512
1742380184.339,595.703,-506.348,-154.785,560.547
