timestamps,TP9,AF7,AF8,TP10
1742380307.513,-1000.0,240.234,-27.832,-1000.0
1742380307.516,-1000.0,-757.324,-417.48,-1000.0
1742380307.52,-1000.0,-550.781,-469.238,-1000.0
1742380307.524,-1000.0,-463.379,-592.285,-1000.0
1742380307.528,-1000.0,30.762,-349.609,-1000.0
1742380307.532,-1000.0,119.141,-196.777,-1000.0
1742380307.513,-1000.0,240.234,-27.832,-1000.0
1742380307.516,-1000.0,-757.324,-417.48,-1000.0
1742380307.52,-1000.0,-550.781,-469.238,-1000.0
1742380307.524,-1000.0,-463.379,-592.285,-1000.0
1742380307.528,-1000.0,30.762,-349.609,-1000.0
1742380307.532,-1000.0,119.141,-196.777,-1000.0
1742380307.534,-1000.0,-734.863,-566.895,-1000.0
1742380307.538,-1000.0,-380.859,-555.176,-1000.0
1742380307.542,-1000.0,-398.926,-515.137,-1000.0
1742380307.546,-1000.0,-365.234,-170.41,-1000.0
1742380307.55,-1000.0,280.273,139.648,-1000.0
1742380307.554,-1000.0,-46.875,-132.812,-1000.0
1742380307.558,-1000.0,-246.094,-227.051,-1000.0
1742380307.561,-1000.0,-393.066,-357.422,-1000.0
1742380307.565,-1000.0,-305.176,-248.047,-1000.0
1742380307.569,-1000.0,356.445,92.285,-1000.0
1742380307.573,-1000.0,-0.977,-102.051,-1000.0
1742380307.577,-1000.0,-242.676,-150.879,-1000.0
1742380307.534,-1000.0,-734.863,-566.895,-1000.0
1742380307.538,-1000.0,-380.859,-555.176,-1000.0
1742380307.542,-1000.0,-398.926,-515.137,-1000.0
1742380307.546,-1000.0,-365.234,-170.41,-1000.0
1742380307.55,-1000.0,280.273,139.648,-1000.0
1742380307.554,-1000.0,-46.875,-132.812,-1000.0
1742380307.558,-1000.0,-246.094,-227.051,-1000.0
1742380307.561,-1000.0,-393.066,-357.422,-1000.0
1742380307.565,-1000.0,-305.176,-248.047,-1000.0
1742380307.569,-1000.0,356.445,92.285,-1000.0
1742380307.573,-1000.0,-0.977,-102.051,-1000.0
1742380307.577,-1000.0,-242.676,-150.879,-1000.0
1742380307.58,-1000.0,-293.945,-212.891,-1000.0
1742380307.584,-1000.0,-44.434,-174.805,-1000.0
1742380307.588,-1000.0,608.398,286.621,-1000.0
1742380307.592,-1000.0,-5.371,195.312,-1000.0
1742380307.596,-1000.0,-190.918,62.5,-1000.0
1742380307.6,-1000.0,-47.852,127.93,-1000.0
1742380307.604,-1000.0,-290.039,216.797,-1000.0
1742380307.607,-1000.0,168.457,623.535,-1000.0
1742380307.611,-1000.0,-122.07,408.691,-1000.0
1742380307.615,-1000.0,-372.559,43.945,-1000.0
1742380307.619,-1000.0,-83.496,33.203,-1000.0
1742380307.623,-1000.0,-208.984,-1.953,-1000.0
1742380307.58,-1000.0,-293.945,-212.891,-1000.0
1742380307.584,-1000.0,-44.434,-174.805,-1000.0
1742380307.588,-1000.0,608.398,286.621,-1000.0
1742380307.592,-1000.0,-5.371,195.312,-1000.0
1742380307.596,-1000.0,-190.918,62.5,-1000.0
1742380307.6,-1000.0,-47.852,127.93,-1000.0
1742380307.604,-1000.0,-290.039,216.797,-1000.0
1742380307.607,-1000.0,168.457,623.535,-1000.0
1742380307.611,-1000.0,-122.07,408.691,-1000.0
1742380307.615,-1000.0,-372.559,43.945,-1000.0
1742380307.619,-1000.0,-83.496,33.203,-1000.0
1742380307.623,-1000.0,-208.984,-1.953,-1000.0
1742380307.624,-1000.0,266.113,322.266,-1000.0
1742380307.628,-1000.0,170.898,266.113,-1000.0
1742380307.632,-1000.0,-185.059,-22.461,-1000.0
1742380307.636,-964.355,-140.625,-89.355,-1000.0
1742380307.64,-1000.0,-341.797,-135.742,-1000.0
1742380307.644,-1000.0,458.008,271.973,-1000.0
1742380307.648,92.773,726.562,230.469,-1000.0
1742380307.651,-338.867,-371.582,-176.758,-1000.0
1742380307.655,-1000.0,-536.621,-201.172,-1000.0
1742380307.659,-1000.0,-535.156,-289.551,-1000.0
1742380307.663,-539.551,327.637,103.516,-1000.0
1742380307.667,999.512,638.672,266.602,-1000.0
1742380307.624,-1000.0,266.113,322.266,-1000.0
1742380307.628,-1000.0,170.898,266.113,-1000.0
1742380307.632,-1000.0,-185.059,-22.461,-1000.0
1742380307.636,-964.355,-140.625,-89.355,-1000.0
1742380307.64,-1000.0,-341.797,-135.742,-1000.0
1742380307.644,-1000.0,458.008,271.973,-1000.0
1742380307.648,92.773,726.562,230.469,-1000.0
1742380307.651,-338.867,-371.582,-176.758,-1000.0
1742380307.655,-1000.0,-536.621,-201.172,-1000.0
1742380307.659,-1000.0,-535.156,-289.551,-1000.0
1742380307.663,-539.551,327.637,103.516,-1000.0
1742380307.667,999.512,638.672,266.602,-1000.0
1742380307.668,223.633,-494.629,-164.551,-1000.0
1742380307.672,-1000.0,-507.324,-231.934,-1000.0
1742380307.676,-1000.0,-353.027,-262.695,-1000.0
1742380307.68,-199.707,312.988,26.367,-1000.0
1742380307.684,999.512,581.543,238.281,-1000.0
1742380307.688,895.02,5.859,-28.32,-1000.0
1742380307.692,999.512,7.812,-107.91,-997.559
1742380307.695,717.773,-656.25,-293.457,-939.453
1742380307.699,155.273,-189.453,-125.977,-1000.0
1742380307.703,894.043,854.98,181.641,-192.383
1742380307.707,999.512,-11.23,-90.82,999.512
1742380307.711,921.387,-632.324,-145.02,0.0
1742380307.668,223.633,-494.629,-164.551,-1000.0
1742380307.672,-1000.0,-507.324,-231.934,-1000.0
1742380307.676,-1000.0,-353.027,-262.695,-1000.0
1742380307.68,-199.707,312.988,26.367,-1000.0
1742380307.684,999.512,581.543,238.281,-1000.0
1742380307.688,895.02,5.859,-28.32,-1000.0
1742380307.692,999.512,7.812,-107.91,-997.559
1742380307.695,717.773,-656.25,-293.457,-939.453
1742380307.699,155.273,-189.453,-125.977,-1000.0
1742380307.703,894.043,854.98,181.641,-192.383
1742380307.707,999.512,-11.23,-90.82,999.512
1742380307.711,921.387,-632.324,-145.02,0.0
1742380307.714,975.586,-558.105,-166.016,-1000.0
1742380307.718,966.309,182.129,52.734,-616.699
1742380307.722,966.309,804.688,364.258,800.293
1742380307.726,966.309,28.809,80.078,999.512
1742380307.73,966.309,-308.594,-62.012,907.715
1742380307.734,966.309,-38.574,-103.027,981.934
1742380307.738,966.309,198.73,15.137,966.797
1742380307.741,966.309,369.141,341.309,966.797
1742380307.745,966.309,-308.594,20.02,966.797
1742380307.749,966.309,-280.273,-130.371,967.285
1742380307.753,966.309,-108.887,-41.504,966.797
1742380307.757,966.309,110.352,1.953,966.797
1742380307.759,966.309,403.809,251.953,966.797
1742380307.763,966.309,-148.438,-71.777,966.797
1742380307.767,966.309,-44.434,-335.938,966.797
1742380307.771,966.309,15.625,-217.773,966.797
1742380307.775,966.309,-170.41,-165.527,966.797
1742380307.779,966.309,722.656,331.543,966.797
1742380307.783,966.309,407.227,333.984,966.797
1742380307.786,966.309,-500.0,60.059,966.797
1742380307.79,966.309,-91.797,134.277,966.797
1742380307.794,966.309,-136.23,25.391,967.285
1742380307.798,966.309,305.176,349.121,966.797
1742380307.802,966.309,295.898,379.883,966.797
1742380307.759,966.309,403.809,251.953,966.797
1742380307.763,966.309,-148.438,-71.777,966.797
1742380307.767,966.309,-44.434,-335.938,966.797
1742380307.771,966.309,15.625,-217.773,966.797
1742380307.775,966.309,-170.41,-165.527,966.797
1742380307.779,966.309,722.656,331.543,966.797
1742380307.783,966.309,407.227,333.984,966.797
1742380307.786,966.309,-500.0,60.059,966.797
1742380307.79,966.309,-91.797,134.277,966.797
1742380307.794,966.309,-136.23,25.391,967.285
1742380307.798,966.309,305.176,349.121,966.797
1742380307.802,966.309,295.898,379.883,966.797
1742380307.759,966.309,403.809,251.953,966.797
1742380307.763,966.309,-148.438,-71.777,966.797
1742380307.767,966.309,-44.434,-335.938,966.797
1742380307.771,966.309,15.625,-217.773,966.797
1742380307.775,966.309,-170.41,-165.527,966.797
1742380307.779,966.309,722.656,331.543,966.797
1742380307.783,966.309,407.227,333.984,966.797
1742380307.786,966.309,-500.0,60.059,966.797
1742380307.79,966.309,-91.797,134.277,966.797
1742380307.794,966.309,-136.23,25.391,967.285
1742380307.798,966.309,305.176,349.121,966.797
1742380307.802,966.309,295.898,379.883,966.797
1742380307.804,966.309,-397.949,31.738,966.797
1742380307.808,966.309,72.754,25.391,967.285
1742380307.812,966.309,32.715,-60.059,966.797
1742380307.816,966.309,197.266,264.16,966.797
1742380307.82,966.309,317.871,394.043,966.797
1742380307.824,966.309,8.789,41.016,966.797
1742380307.828,966.309,196.289,-52.734,966.797
1742380307.831,966.309,-306.152,-271.973,966.797
1742380307.835,966.309,-198.242,-77.637,966.797
1742380307.839,966.309,261.23,148.926,966.797
1742380307.843,965.82,-86.426,-172.363,966.797
1742380307.847,966.309,-26.367,-139.16,966.797
1742380307.804,966.309,-397.949,31.738,966.797
1742380307.808,966.309,72.754,25.391,967.285
1742380307.812,966.309,32.715,-60.059,966.797
1742380307.816,966.309,197.266,264.16,966.797
1742380307.82,966.309,317.871,394.043,966.797
1742380307.824,966.309,8.789,41.016,966.797
1742380307.828,966.309,196.289,-52.734,966.797
1742380307.831,966.309,-306.152,-271.973,966.797
1742380307.835,966.309,-198.242,-77.637,966.797
1742380307.839,966.309,261.23,148.926,966.797
1742380307.843,965.82,-86.426,-172.363,966.797
1742380307.847,966.309,-26.367,-139.16,966.797
1742380307.849,966.309,-237.793,-213.379,966.797
1742380307.853,966.309,130.371,1.465,966.797
1742380307.857,966.309,624.023,327.148,966.797
1742380307.861,966.309,-116.699,88.867,966.797
1742380307.865,966.309,83.984,42.969,966.797
1742380307.869,966.309,125.488,-108.398,966.797
1742380307.873,966.309,-23.926,1.953,966.797
1742380307.876,966.309,209.961,328.125,966.797
1742380307.88,966.309,-223.145,162.598,966.797
1742380307.884,966.309,-60.547,127.441,966.797
1742380307.888,966.309,-71.777,19.531,966.797
1742380307.892,966.309,-11.719,21.484,967.285
1742380307.924,966.309,421.875,381.348,966.797
1742380307.928,966.309,-91.309,220.215,966.797
1742380307.932,966.309,-205.566,-17.578,966.797
1742380307.936,966.309,-191.895,-98.145,966.797
1742380307.94,966.309,-39.062,-62.012,966.797
1742380307.944,966.309,587.891,262.207,966.797
1742380307.948,966.309,-18.555,75.195,966.797
1742380307.951,966.309,-305.176,-191.406,966.797
1742380307.955,966.309,-406.738,-244.141,966.797
1742380307.959,966.309,-614.258,-310.059,967.285
1742380307.963,966.309,344.727,60.059,966.797
1742380307.967,966.309,71.777,4.883,966.797
1742380307.924,966.309,421.875,381.348,966.797
1742380307.928,966.309,-91.309,220.215,966.797
1742380307.932,966.309,-205.566,-17.578,966.797
1742380307.936,966.309,-191.895,-98.145,966.797
1742380307.94,966.309,-39.062,-62.012,966.797
1742380307.944,966.309,587.891,262.207,966.797
1742380307.948,966.309,-18.555,75.195,966.797
1742380307.951,966.309,-305.176,-191.406,966.797
1742380307.955,966.309,-406.738,-244.141,966.797
1742380307.959,966.309,-614.258,-310.059,967.285
1742380307.963,966.309,344.727,60.059,966.797
1742380307.967,966.309,71.777,4.883,966.797
1742380307.954,966.309,-351.562,-230.469,967.285
1742380307.958,966.309,-162.598,-145.508,966.797
1742380307.962,966.309,-354.004,-229.98,966.797
1742380307.966,965.82,230.469,76.66,966.797
1742380307.97,966.309,7.812,62.5,966.797
1742380307.974,966.309,-260.742,-226.562,966.797
1742380307.978,966.309,-174.316,-229.98,966.797
1742380307.981,966.309,-635.742,-440.43,966.797
1742380307.985,966.309,-84.961,-172.363,966.797
1742380307.989,977.539,251.953,-39.551,966.797
1742380307.993,892.09,-309.082,-395.508,966.797
1742380307.997,999.512,-366.699,-416.016,966.797
1742380307.954,966.309,-351.562,-230.469,967.285
1742380307.958,966.309,-162.598,-145.508,966.797
1742380307.962,966.309,-354.004,-229.98,966.797
1742380307.966,965.82,230.469,76.66,966.797
1742380307.97,966.309,7.812,62.5,966.797
1742380307.974,966.309,-260.742,-226.562,966.797
1742380307.978,966.309,-174.316,-229.98,966.797
1742380307.981,966.309,-635.742,-440.43,966.797
1742380307.985,966.309,-84.961,-172.363,966.797
1742380307.989,977.539,251.953,-39.551,966.797
1742380307.993,892.09,-309.082,-395.508,966.797
1742380307.997,999.512,-366.699,-416.016,966.797
1742380307.954,966.309,-351.562,-230.469,967.285
1742380307.958,966.309,-162.598,-145.508,966.797
1742380307.962,966.309,-354.004,-229.98,966.797
1742380307.966,965.82,230.469,76.66,966.797
1742380307.97,966.309,7.812,62.5,966.797
1742380307.974,966.309,-260.742,-226.562,966.797
1742380307.978,966.309,-174.316,-229.98,966.797
1742380307.981,966.309,-635.742,-440.43,966.797
1742380307.985,966.309,-84.961,-172.363,966.797
1742380307.989,977.539,251.953,-39.551,966.797
1742380307.993,892.09,-309.082,-395.508,966.797
1742380307.997,999.512,-366.699,-416.016,966.797
1742380307.999,293.457,-720.703,-439.941,966.797
1742380308.003,-186.523,-152.344,-137.695,966.797
1742380308.007,932.617,556.152,63.477,966.797
1742380308.011,999.512,-287.109,-266.602,966.797
1742380308.015,396.484,-624.023,-456.055,966.797
1742380308.019,-1000.0,-699.219,-551.758,966.797
1742380308.023,-503.906,225.586,-255.371,966.797
1742380308.026,938.477,634.766,-20.508,966.797
1742380308.03,952.148,-538.086,-221.68,966.797
1742380308.034,-364.746,-800.293,-269.531,966.797
1742380308.038,-1000.0,-493.164,-370.117,966.797
1742380308.042,-945.312,85.449,-207.031,966.797
1742380307.999,293.457,-720.703,-439.941,966.797
1742380308.003,-186.523,-152.344,-137.695,966.797
1742380308.007,932.617,556.152,63.477,966.797
1742380308.011,999.512,-287.109,-266.602,966.797
1742380308.015,396.484,-624.023,-456.055,966.797
1742380308.019,-1000.0,-699.219,-551.758,966.797
1742380308.023,-503.906,225.586,-255.371,966.797
1742380308.026,938.477,634.766,-20.508,966.797
1742380308.03,952.148,-538.086,-221.68,966.797
1742380308.034,-364.746,-800.293,-269.531,966.797
1742380308.038,-1000.0,-493.164,-370.117,966.797
1742380308.042,-945.312,85.449,-207.031,966.797
1742380308.044,544.434,562.5,66.895,967.285
1742380308.048,328.125,-562.5,-249.023,963.379
1742380308.052,-1000.0,-720.703,-414.062,971.191
1742380308.056,-917.48,-339.355,-467.773,966.309
1742380308.06,-1000.0,-277.344,-304.199,895.02
1742380308.064,-12.207,774.902,140.137,940.918
1742380308.068,391.602,52.246,-88.867,916.504
1742380308.071,-1000.0,-867.188,-359.375,999.512
1742380308.075,-947.266,-715.82,-376.465,240.723
1742380308.079,-1000.0,-634.766,-263.672,-1000.0
1742380308.083,-144.531,712.402,153.809,-199.707
1742380308.087,766.113,353.027,-32.227,999.512
1742380308.044,544.434,562.5,66.895,967.285
1742380308.048,328.125,-562.5,-249.023,963.379
1742380308.052,-1000.0,-720.703,-414.062,971.191
1742380308.056,-917.48,-339.355,-467.773,966.309
1742380308.06,-1000.0,-277.344,-304.199,895.02
1742380308.064,-12.207,774.902,140.137,940.918
1742380308.068,391.602,52.246,-88.867,916.504
1742380308.071,-1000.0,-867.188,-359.375,999.512
1742380308.075,-947.266,-715.82,-376.465,240.723
1742380308.079,-1000.0,-634.766,-263.672,-1000.0
1742380308.083,-144.531,712.402,153.809,-199.707
1742380308.087,766.113,353.027,-32.227,999.512
1742380308.09,-766.602,-986.816,-228.516,-45.41
1742380308.094,-1000.0,-455.078,-76.172,-1000.0
1742380308.098,-979.98,97.656,-113.77,-1000.0
1742380308.102,-946.289,429.688,184.57,-706.543
1742380308.106,665.527,539.551,102.539,897.461
1742380308.11,294.922,-510.254,-152.832,235.352
1742380308.114,-1000.0,-706.543,-250.488,-1000.0
1742380308.117,-972.656,-306.641,-409.18,-967.285
1742380308.121,-973.145,-19.043,-38.086,-974.609
1742380308.125,-1000.0,41.016,-42.969,-1000.0
1742380308.129,-1000.0,-241.699,-383.789,-1000.0
1742380308.133,-1000.0,-126.465,-361.328,-1000.0
1742380308.09,-766.602,-986.816,-228.516,-45.41
1742380308.094,-1000.0,-455.078,-76.172,-1000.0
1742380308.098,-979.98,97.656,-113.77,-1000.0
1742380308.102,-946.289,429.688,184.57,-706.543
1742380308.106,665.527,539.551,102.539,897.461
1742380308.11,294.922,-510.254,-152.832,235.352
1742380308.114,-1000.0,-706.543,-250.488,-1000.0
1742380308.117,-972.656,-306.641,-409.18,-967.285
1742380308.121,-973.145,-19.043,-38.086,-974.609
1742380308.125,-1000.0,41.016,-42.969,-1000.0
1742380308.129,-1000.0,-241.699,-383.789,-1000.0
1742380308.133,-1000.0,-126.465,-361.328,-1000.0
1742380308.135,-1000.0,-461.426,-446.777,-1000.0
1742380308.139,-1000.0,81.543,-57.617,-1000.0
1742380308.143,-1000.0,312.988,68.359,-1000.0
1742380308.147,-1000.0,-215.82,-256.836,-1000.0
1742380308.151,-1000.0,-298.34,-252.93,-1000.0
1742380308.155,-1000.0,-199.707,-336.426,-1000.0
1742380308.159,-1000.0,429.688,-43.945,-1000.0
1742380308.162,-1000.0,106.445,115.723,-1000.0
1742380308.166,-1000.0,-498.535,-184.082,-1000.0
1742380308.17,-998.047,-53.223,-169.434,-1000.0
1742380308.174,-940.918,-166.016,-328.613,-1000.0
1742380308.178,-1000.0,16.113,-103.516,-1000.0
1742380308.135,-1000.0,-461.426,-446.777,-1000.0
1742380308.139,-1000.0,81.543,-57.617,-1000.0
1742380308.143,-1000.0,312.988,68.359,-1000.0
1742380308.147,-1000.0,-215.82,-256.836,-1000.0
1742380308.151,-1000.0,-298.34,-252.93,-1000.0
1742380308.155,-1000.0,-199.707,-336.426,-1000.0
1742380308.159,-1000.0,429.688,-43.945,-1000.0
1742380308.162,-1000.0,106.445,115.723,-1000.0
1742380308.166,-1000.0,-498.535,-184.082,-1000.0
1742380308.17,-998.047,-53.223,-169.434,-1000.0
1742380308.174,-940.918,-166.016,-328.613,-1000.0
1742380308.178,-1000.0,16.113,-103.516,-1000.0
1742380308.178,-35.156,691.895,273.438,-1000.0
1742380308.182,267.578,-197.754,23.438,-1000.0
1742380308.186,-1000.0,-526.367,-140.137,-1000.0
1742380308.19,-959.473,-234.863,-312.5,-1000.0
1742380308.194,-1000.0,12.695,-129.883,-1000.0
1742380308.198,81.543,927.246,228.027,-1000.0
1742380308.202,314.941,-93.75,-112.305,-1000.0
1742380308.205,-1000.0,-649.414,-267.578,-1000.0
1742380308.209,-931.152,-337.891,-264.16,-1000.0
1742380308.213,-1000.0,-251.465,-145.02,-1000.0
1742380308.217,-40.039,714.355,183.105,-1000.0
1742380308.221,598.145,53.223,-104.004,-1000.0
1742380308.178,-35.156,691.895,273.438,-1000.0
1742380308.182,267.578,-197.754,23.438,-1000.0
1742380308.186,-1000.0,-526.367,-140.137,-1000.0
1742380308.19,-959.473,-234.863,-312.5,-1000.0
1742380308.194,-1000.0,12.695,-129.883,-1000.0
1742380308.198,81.543,927.246,228.027,-1000.0
1742380308.202,314.941,-93.75,-112.305,-1000.0
1742380308.205,-1000.0,-649.414,-267.578,-1000.0
1742380308.209,-931.152,-337.891,-264.16,-1000.0
1742380308.213,-1000.0,-251.465,-145.02,-1000.0
1742380308.217,-40.039,714.355,183.105,-1000.0
1742380308.221,598.145,53.223,-104.004,-1000.0
1742380308.224,-939.941,-775.879,-292.969,-1000.0
1742380308.228,-990.234,-244.141,-245.117,-915.527
1742380308.232,-1000.0,-69.336,-217.285,-1000.0
1742380308.236,-136.719,728.027,185.059,-363.77
1742380308.24,812.012,261.23,16.602,431.152
1742380308.244,-718.75,-672.852,-270.508,-909.18
1742380308.248,-1000.0,-247.559,-234.375,-1000.0
1742380308.251,-1000.0,-478.027,-293.945,-985.352
1742380308.255,-380.371,336.426,123.047,-970.215
1742380308.259,999.512,937.012,208.984,470.215
1742380308.263,106.445,-395.508,-91.309,-67.871
1742380308.267,-1000.0,-772.949,-108.398,-1000.0
1742380308.224,-939.941,-775.879,-292.969,-1000.0
1742380308.228,-990.234,-244.141,-245.117,-915.527
1742380308.232,-1000.0,-69.336,-217.285,-1000.0
1742380308.236,-136.719,728.027,185.059,-363.77
1742380308.24,812.012,261.23,16.602,431.152
1742380308.244,-718.75,-672.852,-270.508,-909.18
1742380308.248,-1000.0,-247.559,-234.375,-1000.0
1742380308.251,-1000.0,-478.027,-293.945,-985.352
1742380308.255,-380.371,336.426,123.047,-970.215
1742380308.259,999.512,937.012,208.984,470.215
1742380308.263,106.445,-395.508,-91.309,-67.871
1742380308.267,-1000.0,-772.949,-108.398,-1000.0
1742380308.284,-1000.0,-201.172,-102.539,-1000.0
1742380308.288,-302.734,482.91,329.59,-692.871
1742380308.292,999.512,771.973,427.734,916.504
1742380308.296,162.109,-545.898,25.879,151.855
1742380308.3,-1000.0,-769.043,-26.367,-1000.0
1742380308.304,-1000.0,-100.098,-87.402,-980.957
1742380308.308,-677.734,452.148,223.145,-992.188
1742380308.311,929.688,716.797,304.199,523.926
1742380308.315,237.793,-550.781,-95.703,288.086
1742380308.319,-1000.0,-733.398,-169.922,-1000.0
1742380308.323,-1000.0,-251.465,-290.039,-972.656
1742380308.327,-871.582,214.355,23.438,-996.582
1742380308.284,-1000.0,-201.172,-102.539,-1000.0
1742380308.288,-302.734,482.91,329.59,-692.871
1742380308.292,999.512,771.973,427.734,916.504
1742380308.296,162.109,-545.898,25.879,151.855
1742380308.3,-1000.0,-769.043,-26.367,-1000.0
1742380308.304,-1000.0,-100.098,-87.402,-980.957
1742380308.308,-677.734,452.148,223.145,-992.188
1742380308.311,929.688,716.797,304.199,523.926
1742380308.315,237.793,-550.781,-95.703,288.086
1742380308.319,-1000.0,-733.398,-169.922,-1000.0
1742380308.323,-1000.0,-251.465,-290.039,-972.656
1742380308.327,-871.582,214.355,23.438,-996.582
1742380308.794,929.199,-82.031,-71.289,966.797
1742380308.798,972.168,-217.773,-296.875,966.797
1742380308.802,966.309,201.66,-21.484,966.797
1742380308.806,976.562,358.887,246.094,966.797
1742380308.81,919.434,-134.277,70.312,966.797
1742380308.814,999.512,131.348,145.508,966.797
1742380308.818,796.387,-251.953,-37.598,966.797
1742380308.821,275.391,-174.316,147.461,966.797
1742380308.825,873.047,367.188,459.961,968.262
1742380308.829,960.938,-134.277,101.562,960.938
1742380308.833,999.512,60.059,-138.184,976.562
1742380308.837,46.387,-680.176,-333.496,951.172
1742380309.304,989.746,-336.914,-282.715,-1000.0
1742380309.308,904.785,-294.434,-333.008,-1000.0
1742380309.312,-612.793,-595.215,-430.664,-1000.0
1742380309.316,-632.324,-26.855,-242.188,-1000.0
1742380309.32,970.215,656.25,17.578,-1000.0
1742380309.324,917.48,-40.039,-292.969,-1000.0
1742380309.328,999.512,349.609,-373.535,-999.512
1742380309.331,82.52,-414.551,-409.668,-929.199
1742380309.335,-618.164,-479.004,-187.988,-1000.0
1742380309.339,895.508,969.727,243.164,-163.574
1742380309.343,971.68,115.723,28.32,942.383
1742380309.347,999.512,-545.898,-159.18,-481.445
1742380308.838,-516.602,-300.293,-110.352,881.836
1742380308.842,971.68,782.715,263.184,961.426
1742380308.846,931.152,-86.914,111.328,927.246
1742380308.85,999.512,-142.578,75.195,999.512
1742380308.854,232.91,-668.945,-25.391,851.074
1742380308.858,-827.148,-469.727,124.512,80.566
1742380308.862,634.766,881.836,503.906,713.867
1742380308.865,999.512,33.203,272.461,999.512
1742380308.869,891.602,-610.352,110.352,882.812
1742380308.873,999.512,-281.738,77.148,999.512
1742380308.877,-310.059,-571.777,117.188,104.98
1742380308.881,-81.055,264.648,334.473,173.34
1742380308.838,-516.602,-300.293,-110.352,881.836
1742380308.842,971.68,782.715,263.184,961.426
1742380308.846,931.152,-86.914,111.328,927.246
1742380308.85,999.512,-142.578,75.195,999.512
1742380308.854,232.91,-668.945,-25.391,851.074
1742380308.858,-827.148,-469.727,124.512,80.566
1742380308.862,634.766,881.836,503.906,713.867
1742380308.865,999.512,33.203,272.461,999.512
1742380308.869,891.602,-610.352,110.352,882.812
1742380308.873,999.512,-281.738,77.148,999.512
1742380308.877,-310.059,-571.777,117.188,104.98
1742380308.881,-81.055,264.648,334.473,173.34
1742380308.884,999.512,493.164,108.398,999.512
1742380308.888,878.418,-253.418,-70.801,885.254
1742380308.892,999.512,-297.852,-178.223,999.512
1742380308.896,-88.379,-664.551,-160.156,98.145
1742380308.9,-163.574,161.621,295.41,24.902
1742380308.904,999.512,689.941,208.496,999.512
1742380308.908,880.371,-211.426,-75.195,882.324
1742380308.911,999.512,-383.789,-131.348,999.512
1742380308.915,51.27,-804.199,-105.469,383.789
1742380308.919,-291.992,-57.617,255.859,53.711
1742380308.923,999.512,505.371,245.117,999.512
1742380308.927,910.645,-314.453,12.695,979.98
1742380308.884,999.512,493.164,108.398,999.512
1742380308.888,878.418,-253.418,-70.801,885.254
1742380308.892,999.512,-297.852,-178.223,999.512
1742380308.896,-88.379,-664.551,-160.156,98.145
1742380308.9,-163.574,161.621,295.41,24.902
1742380308.904,999.512,689.941,208.496,999.512
1742380308.908,880.371,-211.426,-75.195,882.324
1742380308.911,999.512,-383.789,-131.348,999.512
1742380308.915,51.27,-804.199,-105.469,383.789
1742380308.919,-291.992,-57.617,255.859,53.711
1742380308.923,999.512,505.371,245.117,999.512
1742380308.927,910.645,-314.453,12.695,979.98
1742380308.884,999.512,493.164,108.398,999.512
1742380308.888,878.418,-253.418,-70.801,885.254
1742380308.892,999.512,-297.852,-178.223,999.512
1742380308.896,-88.379,-664.551,-160.156,98.145
1742380308.9,-163.574,161.621,295.41,24.902
1742380308.904,999.512,689.941,208.496,999.512
1742380308.908,880.371,-211.426,-75.195,882.324
1742380308.911,999.512,-383.789,-131.348,999.512
1742380308.915,51.27,-804.199,-105.469,383.789
1742380308.919,-291.992,-57.617,255.859,53.711
1742380308.923,999.512,505.371,245.117,999.512
1742380308.927,910.645,-314.453,12.695,979.98
1742380308.929,999.512,-214.844,7.812,938.965
1742380308.933,463.867,-410.645,-31.25,970.215
1742380308.937,-13.672,239.258,294.922,966.797
1742380308.941,994.141,504.395,374.023,973.145
1742380308.945,930.176,-513.184,46.875,939.941
1742380308.949,999.512,23.438,39.062,999.512
1742380308.953,229.492,-338.379,-62.988,804.199
1742380308.956,-208.984,-218.262,140.625,593.75
1742380308.96,949.219,282.715,286.621,977.051
1742380308.964,999.512,-422.852,0.977,905.273
1742380308.968,521.484,-349.121,-186.035,999.512
1742380308.972,-1000.0,-1000.0,-348.633,381.836
1742380308.929,999.512,-214.844,7.812,938.965
1742380308.933,463.867,-410.645,-31.25,970.215
1742380308.937,-13.672,239.258,294.922,966.797
1742380308.941,994.141,504.395,374.023,973.145
1742380308.945,930.176,-513.184,46.875,939.941
1742380308.949,999.512,23.438,39.062,999.512
1742380308.953,229.492,-338.379,-62.988,804.199
1742380308.956,-208.984,-218.262,140.625,593.75
1742380308.96,949.219,282.715,286.621,977.051
1742380308.964,999.512,-422.852,0.977,905.273
1742380308.968,521.484,-349.121,-186.035,999.512
1742380308.972,-1000.0,-1000.0,-348.633,381.836
1742380308.974,-585.449,-287.109,67.383,-291.504
1742380308.978,859.375,739.746,410.645,910.156
1742380308.982,999.512,-125.488,95.703,982.422
1742380308.986,557.129,-434.082,53.223,999.512
1742380308.99,-866.211,-980.469,-61.523,-125.0
1742380308.994,-1000.0,-230.957,70.801,-847.656
1742380308.998,496.094,937.012,424.316,659.668
1742380309.001,985.84,-187.5,173.828,999.512
1742380309.005,-534.18,-1000.0,-99.609,305.176
1742380309.009,-1000.0,-864.258,-210.938,-947.266
1742380309.013,-1000.0,-241.699,16.602,-1000.0
1742380309.017,-257.324,663.574,312.5,-19.531
1742380308.974,-585.449,-287.109,67.383,-291.504
1742380308.978,859.375,739.746,410.645,910.156
1742380308.982,999.512,-125.488,95.703,982.422
1742380308.986,557.129,-434.082,53.223,999.512
1742380308.99,-866.211,-980.469,-61.523,-125.0
1742380308.994,-1000.0,-230.957,70.801,-847.656
1742380308.998,496.094,937.012,424.316,659.668
1742380309.001,985.84,-187.5,173.828,999.512
1742380309.005,-534.18,-1000.0,-99.609,305.176
1742380309.009,-1000.0,-864.258,-210.938,-947.266
1742380309.013,-1000.0,-241.699,16.602,-1000.0
1742380309.017,-257.324,663.574,312.5,-19.531
1742380309.034,999.512,192.383,40.527,999.512
1742380309.038,393.555,-566.895,-210.449,729.492
1742380309.042,-935.547,-853.516,-301.27,-585.449
1742380309.046,-1000.0,-471.191,-83.496,-1000.0
1742380309.05,-241.211,694.336,304.688,-228.027
1742380309.054,999.512,602.539,83.984,999.512
1742380309.058,219.238,-524.414,-192.383,477.051
1742380309.061,-1000.0,-871.094,-272.461,-900.391
1742380309.065,-966.797,-533.691,-214.844,-1000.0
1742380309.069,-1000.0,112.305,175.293,-869.629
1742380309.073,294.434,551.758,121.582,626.465
1742380309.077,321.289,-367.188,-210.938,273.438
1742380309.034,999.512,192.383,40.527,999.512
1742380309.038,393.555,-566.895,-210.449,729.492
1742380309.042,-935.547,-853.516,-301.27,-585.449
1742380309.046,-1000.0,-471.191,-83.496,-1000.0
1742380309.05,-241.211,694.336,304.688,-228.027
1742380309.054,999.512,602.539,83.984,999.512
1742380309.058,219.238,-524.414,-192.383,477.051
1742380309.061,-1000.0,-871.094,-272.461,-900.391
1742380309.065,-966.797,-533.691,-214.844,-1000.0
1742380309.069,-1000.0,112.305,175.293,-869.629
1742380309.073,294.434,551.758,121.582,626.465
1742380309.077,321.289,-367.188,-210.938,273.438
1742380309.08,-1000.0,-899.902,-311.523,-1000.0
1742380309.084,-984.863,-259.766,-291.504,-972.168
1742380309.088,-972.656,298.828,126.953,-974.121
1742380309.092,-1000.0,44.922,186.035,-1000.0
1742380309.096,-1000.0,-327.148,-59.57,-1000.0
1742380309.1,-1000.0,-56.152,-55.176,-1000.0
1742380309.104,-1000.0,-209.961,-169.434,-1000.0
1742380309.107,-1000.0,-64.941,121.582,-1000.0
1742380309.111,-1000.0,-93.75,187.012,-1000.0
1742380309.115,-1000.0,-283.203,-181.641,-1000.0
1742380309.119,-1000.0,-31.25,-309.082,-1000.0
1742380309.123,-1000.0,-347.656,-428.711,-1000.0
1742380309.08,-1000.0,-899.902,-311.523,-1000.0
1742380309.084,-984.863,-259.766,-291.504,-972.168
1742380309.088,-972.656,298.828,126.953,-974.121
1742380309.092,-1000.0,44.922,186.035,-1000.0
1742380309.096,-1000.0,-327.148,-59.57,-1000.0
1742380309.1,-1000.0,-56.152,-55.176,-1000.0
1742380309.104,-1000.0,-209.961,-169.434,-1000.0
1742380309.107,-1000.0,-64.941,121.582,-1000.0
1742380309.111,-1000.0,-93.75,187.012,-1000.0
1742380309.115,-1000.0,-283.203,-181.641,-1000.0
1742380309.119,-1000.0,-31.25,-309.082,-1000.0
1742380309.123,-1000.0,-347.656,-428.711,-1000.0
1742380309.124,-1000.0,-144.043,-187.5,-1000.0
1742380309.128,-1000.0,188.965,-55.176,-1000.0
1742380309.132,-1000.0,-174.805,-273.926,-1000.0
1742380309.136,-1000.0,-161.133,-254.883,-1000.0
1742380309.14,-1000.0,-256.836,-343.75,-1000.0
1742380309.144,-1000.0,191.406,-118.652,-1000.0
1742380309.148,-1000.0,398.926,71.777,-1000.0
1742380309.151,-1000.0,-215.332,-264.648,-1000.0
1742380309.155,-1000.0,-658.691,-482.422,-1000.0
1742380309.159,-1000.0,-581.055,-659.18,-1000.0
1742380309.163,-1000.0,122.559,-468.262,-1000.0
1742380309.167,-1000.0,264.16,-166.504,-1000.0
1742380309.124,-1000.0,-144.043,-187.5,-1000.0
1742380309.128,-1000.0,188.965,-55.176,-1000.0
1742380309.132,-1000.0,-174.805,-273.926,-1000.0
1742380309.136,-1000.0,-161.133,-254.883,-1000.0
1742380309.14,-1000.0,-256.836,-343.75,-1000.0
1742380309.144,-1000.0,191.406,-118.652,-1000.0
1742380309.148,-1000.0,398.926,71.777,-1000.0
1742380309.151,-1000.0,-215.332,-264.648,-1000.0
1742380309.155,-1000.0,-658.691,-482.422,-1000.0
1742380309.159,-1000.0,-581.055,-659.18,-1000.0
1742380309.163,-1000.0,122.559,-468.262,-1000.0
1742380309.167,-1000.0,264.16,-166.504,-1000.0
1742380309.17,-1000.0,-99.121,-396.973,-1000.0
1742380309.174,-1000.0,-33.691,-490.234,-1000.0
1742380309.178,-1000.0,-395.508,-591.797,-1000.0
1742380309.182,-1000.0,-171.387,-432.129,-1000.0
1742380309.186,-1000.0,260.742,-62.988,-1000.0
1742380309.19,-1000.0,49.316,-242.676,-1000.0
1742380309.194,-1000.0,-82.031,-370.605,-1000.0
1742380309.197,-1000.0,-550.293,-493.652,-1000.0
1742380309.201,-1000.0,-386.23,-472.656,-1000.0
1742380309.205,-1000.0,416.504,-104.98,-1000.0
1742380309.209,-1000.0,20.508,-314.941,-1000.0
1742380309.213,-1000.0,-253.906,-510.254,-1000.0
1742380309.17,-1000.0,-99.121,-396.973,-1000.0
1742380309.174,-1000.0,-33.691,-490.234,-1000.0
1742380309.178,-1000.0,-395.508,-591.797,-1000.0
1742380309.182,-1000.0,-171.387,-432.129,-1000.0
1742380309.186,-1000.0,260.742,-62.988,-1000.0
1742380309.19,-1000.0,49.316,-242.676,-1000.0
1742380309.194,-1000.0,-82.031,-370.605,-1000.0
1742380309.197,-1000.0,-550.293,-493.652,-1000.0
1742380309.201,-1000.0,-386.23,-472.656,-1000.0
1742380309.205,-1000.0,416.504,-104.98,-1000.0
1742380309.209,-1000.0,20.508,-314.941,-1000.0
1742380309.213,-1000.0,-253.906,-510.254,-1000.0
1742380309.679,-195.801,632.324,277.344,-132.812
1742380309.683,999.512,340.332,11.23,999.512
1742380309.687,999.512,-173.34,-157.715,999.512
1742380309.691,262.207,-448.242,-181.152,266.113
1742380309.695,-1000.0,-694.336,-143.066,-1000.0
1742380309.699,-199.707,648.438,305.176,-162.598
1742380309.703,999.512,494.141,183.594,999.512
1742380309.706,999.512,-360.84,-104.98,999.512
1742380309.71,328.125,-710.938,-174.805,347.168
1742380309.714,-1000.0,-777.832,-175.781,-1000.0
1742380309.718,-222.168,567.871,292.969,-215.332
1742380309.722,999.512,533.203,244.141,999.512
1742380309.17,-1000.0,-99.121,-396.973,-1000.0
1742380309.174,-1000.0,-33.691,-490.234,-1000.0
1742380309.178,-1000.0,-395.508,-591.797,-1000.0
1742380309.182,-1000.0,-171.387,-432.129,-1000.0
1742380309.186,-1000.0,260.742,-62.988,-1000.0
1742380309.19,-1000.0,49.316,-242.676,-1000.0
1742380309.194,-1000.0,-82.031,-370.605,-1000.0
1742380309.197,-1000.0,-550.293,-493.652,-1000.0
1742380309.201,-1000.0,-386.23,-472.656,-1000.0
1742380309.205,-1000.0,416.504,-104.98,-1000.0
1742380309.209,-1000.0,20.508,-314.941,-1000.0
1742380309.213,-1000.0,-253.906,-510.254,-1000.0
1742380309.214,-1000.0,-205.078,-475.098,-1000.0
1742380309.218,-1000.0,-142.09,-460.449,-1000.0
1742380309.222,-1000.0,318.359,-140.137,-1000.0
1742380309.226,-1000.0,140.625,-203.125,-1000.0
1742380309.23,-1000.0,-370.605,-403.32,-1000.0
1742380309.234,-1000.0,-265.625,-438.965,-1000.0
1742380309.238,-1000.0,-54.688,-487.793,-1000.0
1742380309.241,-1000.0,-158.203,-134.277,-1000.0
1742380309.245,-1000.0,-681.641,-188.965,-1000.0
1742380309.249,-1000.0,-384.277,-425.293,-1000.0
1742380309.253,-937.5,-91.309,-403.32,-1000.0
1742380309.257,-1000.0,-477.051,-531.25,-1000.0
1742380309.214,-1000.0,-205.078,-475.098,-1000.0
1742380309.218,-1000.0,-142.09,-460.449,-1000.0
1742380309.222,-1000.0,318.359,-140.137,-1000.0
1742380309.226,-1000.0,140.625,-203.125,-1000.0
1742380309.23,-1000.0,-370.605,-403.32,-1000.0
1742380309.234,-1000.0,-265.625,-438.965,-1000.0
1742380309.238,-1000.0,-54.688,-487.793,-1000.0
1742380309.241,-1000.0,-158.203,-134.277,-1000.0
1742380309.245,-1000.0,-681.641,-188.965,-1000.0
1742380309.249,-1000.0,-384.277,-425.293,-1000.0
1742380309.253,-937.5,-91.309,-403.32,-1000.0
1742380309.257,-1000.0,-477.051,-531.25,-1000.0
1742380309.259,-220.215,455.566,-153.32,-1000.0
1742380309.263,974.609,385.254,-104.492,-1000.0
1742380309.267,999.512,-365.723,-448.73,-1000.0
1742380309.271,222.656,-482.422,-410.156,-1000.0
1742380309.275,-1000.0,-916.504,-459.961,-1000.0
1742380309.279,-200.684,384.277,-143.066,-1000.0
1742380309.283,998.535,613.281,21.484,-1000.0
1742380309.286,999.512,-495.605,-332.52,-1000.0
1742380309.29,287.598,-598.145,-418.457,-1000.0
1742380309.294,-1000.0,-716.797,-451.66,-1000.0
1742380309.298,-346.191,217.773,-92.285,-1000.0
1742380309.302,967.285,670.41,105.469,-1000.0
1742380309.259,-220.215,455.566,-153.32,-1000.0
1742380309.263,974.609,385.254,-104.492,-1000.0
1742380309.267,999.512,-365.723,-448.73,-1000.0
1742380309.271,222.656,-482.422,-410.156,-1000.0
1742380309.275,-1000.0,-916.504,-459.961,-1000.0
1742380309.279,-200.684,384.277,-143.066,-1000.0
1742380309.283,998.535,613.281,21.484,-1000.0
1742380309.286,999.512,-495.605,-332.52,-1000.0
1742380309.29,287.598,-598.145,-418.457,-1000.0
1742380309.294,-1000.0,-716.797,-451.66,-1000.0
1742380309.298,-346.191,217.773,-92.285,-1000.0
1742380309.302,967.285,670.41,105.469,-1000.0
1742380309.259,-220.215,455.566,-153.32,-1000.0
1742380309.263,974.609,385.254,-104.492,-1000.0
1742380309.267,999.512,-365.723,-448.73,-1000.0
1742380309.271,222.656,-482.422,-410.156,-1000.0
1742380309.275,-1000.0,-916.504,-459.961,-1000.0
1742380309.279,-200.684,384.277,-143.066,-1000.0
1742380309.283,998.535,613.281,21.484,-1000.0
1742380309.286,999.512,-495.605,-332.52,-1000.0
1742380309.29,287.598,-598.145,-418.457,-1000.0
1742380309.294,-1000.0,-716.797,-451.66,-1000.0
1742380309.298,-346.191,217.773,-92.285,-1000.0
1742380309.302,967.285,670.41,105.469,-1000.0
1742380309.365,24.414,-709.473,-219.727,-1000.0
1742380309.369,-894.531,-339.355,-96.68,-1000.0
1742380309.373,635.742,905.762,251.953,-133.301
1742380309.377,999.512,268.555,-40.039,999.512
1742380309.381,999.512,-386.719,-249.023,889.648
1742380309.385,50.781,-644.043,-196.777,-343.262
1742380309.389,-1000.0,-499.023,-116.699,-1000.0
1742380309.392,20.996,665.527,206.543,-137.695
1742380309.396,999.512,111.816,-19.531,967.773
1742380309.4,999.512,-274.902,-247.559,999.512
1742380309.404,505.859,-221.68,-223.145,355.469
1742380309.408,-1000.0,-957.52,-306.641,-1000.0
1742380309.365,24.414,-709.473,-219.727,-1000.0
1742380309.369,-894.531,-339.355,-96.68,-1000.0
1742380309.373,635.742,905.762,251.953,-133.301
1742380309.377,999.512,268.555,-40.039,999.512
1742380309.381,999.512,-386.719,-249.023,889.648
1742380309.385,50.781,-644.043,-196.777,-343.262
1742380309.389,-1000.0,-499.023,-116.699,-1000.0
1742380309.392,20.996,665.527,206.543,-137.695
1742380309.396,999.512,111.816,-19.531,967.773
1742380309.4,999.512,-274.902,-247.559,999.512
1742380309.404,505.859,-221.68,-223.145,355.469
1742380309.408,-1000.0,-957.52,-306.641,-1000.0
1742380309.365,24.414,-709.473,-219.727,-1000.0
1742380309.369,-894.531,-339.355,-96.68,-1000.0
1742380309.373,635.742,905.762,251.953,-133.301
1742380309.377,999.512,268.555,-40.039,999.512
1742380309.381,999.512,-386.719,-249.023,889.648
1742380309.385,50.781,-644.043,-196.777,-343.262
1742380309.389,-1000.0,-499.023,-116.699,-1000.0
1742380309.392,20.996,665.527,206.543,-137.695
1742380309.396,999.512,111.816,-19.531,967.773
1742380309.4,999.512,-274.902,-247.559,999.512
1742380309.404,505.859,-221.68,-223.145,355.469
1742380309.408,-1000.0,-957.52,-306.641,-1000.0
1742380309.424,-252.441,289.551,35.645,-227.051
1742380309.428,999.512,789.551,20.508,999.512
1742380309.432,936.035,-121.582,-257.812,940.43
1742380309.436,938.965,-286.133,-250.0,939.941
1742380309.44,973.145,-195.801,-245.605,973.633
1742380309.444,965.82,408.203,180.664,966.797
1742380309.448,966.309,184.082,217.285,966.797
1742380309.451,966.309,-378.906,-117.188,966.797
1742380309.455,966.309,-497.07,-141.113,966.797
1742380309.459,966.309,-353.027,-193.848,966.797
1742380309.463,966.309,301.758,190.43,966.797
1742380309.467,970.703,187.012,368.164,966.797
1742380309.454,893.555,-335.449,75.195,966.797
1742380309.458,999.512,-12.695,47.852,966.797
1742380309.462,122.559,-583.984,-112.305,966.797
1742380309.466,-360.352,-204.59,173.34,966.797
1742380309.47,943.359,724.121,395.508,975.586
1742380309.474,999.512,60.059,63.965,917.969
1742380309.478,202.637,-433.105,-2.93,999.512
1742380309.481,-1000.0,-891.113,-140.625,823.73
1742380309.485,-783.203,-193.359,81.055,176.758
1742380309.489,585.938,724.121,379.883,812.5
1742380309.493,999.512,145.02,97.168,999.512
1742380309.497,152.344,-478.027,25.879,985.84
1742380309.499,-1000.0,-543.457,-88.867,892.578
1742380309.503,-1000.0,-94.238,24.902,-134.277
1742380309.507,202.637,618.164,356.934,431.152
1742380309.511,999.512,369.141,93.262,999.512
1742380309.515,115.723,-461.426,-77.148,454.102
1742380309.519,-991.699,-747.07,-171.875,-807.617
1742380309.523,-1000.0,-22.949,-38.574,-1000.0
1742380309.526,-65.43,910.156,394.043,-67.871
1742380309.53,538.086,82.52,121.094,735.84
1742380309.534,-960.938,-812.5,-116.699,-774.902
1742380309.538,-1000.0,-139.648,-31.25,-1000.0
1742380309.542,-942.871,9.277,4.395,-932.129
1742380309.499,-1000.0,-543.457,-88.867,892.578
1742380309.503,-1000.0,-94.238,24.902,-134.277
1742380309.507,202.637,618.164,356.934,431.152
1742380309.511,999.512,369.141,93.262,999.512
1742380309.515,115.723,-461.426,-77.148,454.102
1742380309.519,-991.699,-747.07,-171.875,-807.617
1742380309.523,-1000.0,-22.949,-38.574,-1000.0
1742380309.526,-65.43,910.156,394.043,-67.871
1742380309.53,538.086,82.52,121.094,735.84
1742380309.534,-960.938,-812.5,-116.699,-774.902
1742380309.538,-1000.0,-139.648,-31.25,-1000.0
1742380309.542,-942.871,9.277,4.395,-932.129
1742380309.544,-1000.0,364.746,272.461,-1000.0
1742380309.548,-1000.0,156.25,98.145,-1000.0
1742380309.552,-1000.0,-136.23,-109.863,-1000.0
1742380309.556,-937.5,-17.578,-100.586,-937.012
1742380309.56,-1000.0,-136.23,-134.277,-1000.0
1742380309.564,-220.215,657.227,259.766,-229.492
1742380309.568,974.609,652.344,244.629,972.656
1742380309.571,999.512,-87.891,-33.203,999.512
1742380309.575,226.074,-603.516,-90.82,221.68
1742380309.579,-1000.0,-728.027,-109.375,-1000.0
1742380309.583,-262.695,585.449,327.637,-295.898
1742380309.587,999.512,649.902,322.754,999.512
1742380309.544,-1000.0,364.746,272.461,-1000.0
1742380309.548,-1000.0,156.25,98.145,-1000.0
1742380309.552,-1000.0,-136.23,-109.863,-1000.0
1742380309.556,-937.5,-17.578,-100.586,-937.012
1742380309.56,-1000.0,-136.23,-134.277,-1000.0
1742380309.564,-220.215,657.227,259.766,-229.492
1742380309.568,974.609,652.344,244.629,972.656
1742380309.571,999.512,-87.891,-33.203,999.512
1742380309.575,226.074,-603.516,-90.82,221.68
1742380309.579,-1000.0,-728.027,-109.375,-1000.0
1742380309.583,-262.695,585.449,327.637,-295.898
1742380309.587,999.512,649.902,322.754,999.512
1742380309.589,878.906,-235.84,-45.41,894.043
1742380309.593,999.512,31.25,-36.621,999.512
1742380309.597,60.547,-562.988,-183.594,-7.812
1742380309.601,-514.648,-97.656,145.02,-492.188
1742380309.605,972.168,645.508,293.457,996.094
1742380309.609,928.711,-77.148,-65.918,920.898
1742380309.613,999.512,241.211,-30.762,999.512
1742380309.616,247.07,-513.672,-162.598,220.215
1742380309.62,-617.676,-351.562,68.848,-555.664
1742380309.624,838.379,658.691,360.84,886.23
1742380309.628,978.516,-161.621,35.645,964.355
1742380309.632,999.512,-139.648,-34.668,999.512
1742380309.635,269.531,-595.215,-165.527,248.535
1742380309.639,-855.957,-371.094,48.828,-760.254
1742380309.643,592.773,825.195,347.656,698.73
1742380309.647,999.512,20.02,2.93,999.512
1742380309.651,999.023,-263.672,-94.727,999.512
1742380309.655,702.148,-208.984,-183.594,658.203
1742380309.659,-933.594,-503.906,-53.223,-931.152
1742380309.662,-145.02,388.184,286.133,-35.156
1742380309.666,999.512,206.055,54.199,999.512
1742380309.67,999.512,-243.164,-64.453,999.512
1742380309.674,232.422,-575.195,-128.418,228.027
1742380309.678,-1000.0,-621.094,-31.25,-1000.0
1742380309.725,875.0,-480.957,-70.801,875.977
1742380309.729,999.512,59.082,-16.602,999.512
1742380309.733,54.199,-396.973,-120.605,51.758
1742380309.737,-325.195,-98.145,121.582,-292.48
1742380309.741,999.512,624.023,189.453,999.512
1742380309.745,911.133,-48.828,-10.254,904.297
1742380309.749,999.512,-81.055,24.414,999.512
1742380309.752,125.488,-860.84,-122.559,258.789
1742380309.756,-339.844,-165.039,159.18,-213.867
1742380309.76,999.512,713.867,273.438,999.512
1742380309.764,912.598,-166.992,-81.543,942.871
1742380309.768,999.512,-62.988,-88.379,999.512
1742380309.725,875.0,-480.957,-70.801,875.977
1742380309.729,999.512,59.082,-16.602,999.512
1742380309.733,54.199,-396.973,-120.605,51.758
1742380309.737,-325.195,-98.145,121.582,-292.48
1742380309.741,999.512,624.023,189.453,999.512
1742380309.745,911.133,-48.828,-10.254,904.297
1742380309.749,999.512,-81.055,24.414,999.512
1742380309.752,125.488,-860.84,-122.559,258.789
1742380309.756,-339.844,-165.039,159.18,-213.867
1742380309.76,999.512,713.867,273.438,999.512
1742380309.764,912.598,-166.992,-81.543,942.871
1742380309.768,999.512,-62.988,-88.379,999.512
1742380309.784,345.703,-507.812,-200.684,714.844
1742380309.788,-309.082,-200.684,63.477,224.609
1742380309.792,961.914,719.238,311.035,920.41
1742380309.796,958.984,-63.477,-61.035,999.512
1742380309.8,999.512,-51.758,-123.047,927.734
1742380309.804,630.371,-282.227,-207.52,974.609
1742380309.808,4.395,78.125,36.621,966.797
1742380309.811,915.527,557.129,311.523,966.797
1742380309.815,956.543,-301.758,-20.02,966.797
1742380309.819,999.512,-110.84,-67.871,966.797
1742380309.823,597.168,-308.105,-139.648,966.797
1742380309.827,-259.277,-178.711,21.973,966.797
1742380309.784,345.703,-507.812,-200.684,714.844
1742380309.788,-309.082,-200.684,63.477,224.609
1742380309.792,961.914,719.238,311.035,920.41
1742380309.796,958.984,-63.477,-61.035,999.512
1742380309.8,999.512,-51.758,-123.047,927.734
1742380309.804,630.371,-282.227,-207.52,974.609
1742380309.808,4.395,78.125,36.621,966.797
1742380309.811,915.527,557.129,311.523,966.797
1742380309.815,956.543,-301.758,-20.02,966.797
1742380309.819,999.512,-110.84,-67.871,966.797
1742380309.823,597.168,-308.105,-139.648,966.797
1742380309.827,-259.277,-178.711,21.973,966.797
1742380309.829,817.383,741.211,368.652,966.797
1742380309.833,999.512,30.762,60.059,966.797
1742380309.837,981.445,-164.551,-118.652,966.797
1742380309.841,863.77,-162.109,-149.414,966.797
1742380309.845,-286.621,-347.656,-51.27,966.797
1742380309.849,457.52,613.281,272.949,966.797
1742380309.853,999.512,209.961,63.477,966.797
1742380309.856,999.512,-396.973,-99.609,966.797
1742380309.86,706.543,-528.809,-128.418,966.797
1742380309.864,-721.68,-538.086,-63.477,966.797
1742380309.868,239.258,585.938,298.34,966.797
1742380309.872,999.512,235.84,135.742,966.797
1742380309.829,817.383,741.211,368.652,966.797
1742380309.833,999.512,30.762,60.059,966.797
1742380309.837,981.445,-164.551,-118.652,966.797
1742380309.841,863.77,-162.109,-149.414,966.797
1742380309.845,-286.621,-347.656,-51.27,966.797
1742380309.849,457.52,613.281,272.949,966.797
1742380309.853,999.512,209.961,63.477,966.797
1742380309.856,999.512,-396.973,-99.609,966.797
1742380309.86,706.543,-528.809,-128.418,966.797
1742380309.864,-721.68,-538.086,-63.477,966.797
1742380309.868,239.258,585.938,298.34,966.797
1742380309.872,999.512,235.84,135.742,966.797
1742380309.874,913.574,-253.418,-103.027,966.797
1742380309.878,991.699,-128.418,-141.602,966.797
1742380309.882,-486.816,-562.5,-125.977,966.797
1742380309.886,-124.023,340.332,259.277,966.797
1742380309.89,999.512,313.477,183.105,966.797
1742380309.894,932.129,-163.574,-52.734,966.797
1742380309.898,991.211,-15.625,-75.684,966.797
1742380309.901,-521.973,-666.016,-152.344,966.797
1742380309.905,-342.285,-562.012,200.195,967.285
1742380309.909,999.512,-412.109,132.812,969.238
1742380309.913,999.512,-290.527,-234.375,951.66
1742380309.917,265.625,-416.504,-261.719,999.512
1742380309.874,913.574,-253.418,-103.027,966.797
1742380309.878,991.699,-128.418,-141.602,966.797
1742380309.882,-486.816,-562.5,-125.977,966.797
1742380309.886,-124.023,340.332,259.277,966.797
1742380309.89,999.512,313.477,183.105,966.797
1742380309.894,932.129,-163.574,-52.734,966.797
1742380309.898,991.211,-15.625,-75.684,966.797
1742380309.901,-521.973,-666.016,-152.344,966.797
1742380309.905,-342.285,-562.012,200.195,967.285
1742380309.909,999.512,-412.109,132.812,969.238
1742380309.913,999.512,-290.527,-234.375,951.66
1742380309.917,265.625,-416.504,-261.719,999.512
1742380309.874,913.574,-253.418,-103.027,966.797
1742380309.878,991.699,-128.418,-141.602,966.797
1742380309.882,-486.816,-562.5,-125.977,966.797
1742380309.886,-124.023,340.332,259.277,966.797
1742380309.89,999.512,313.477,183.105,966.797
1742380309.894,932.129,-163.574,-52.734,966.797
1742380309.898,991.211,-15.625,-75.684,966.797
1742380309.901,-521.973,-666.016,-152.344,966.797
1742380309.905,-342.285,-562.012,200.195,967.285
1742380309.909,999.512,-412.109,132.812,969.238
1742380309.913,999.512,-290.527,-234.375,951.66
1742380309.917,265.625,-416.504,-261.719,999.512
1742380309.919,-1000.0,-1000.0,-405.273,796.875
1742380309.923,-210.938,217.773,-88.379,736.816
1742380309.927,999.512,558.594,32.715,999.512
1742380309.931,999.512,-359.863,-288.086,886.719
1742380309.935,234.375,-475.586,-294.434,999.512
1742380309.939,-1000.0,-770.02,-358.398,218.262
1742380309.943,-519.043,146.484,-56.152,-354.98
1742380309.946,845.703,417.48,151.855,904.785
1742380309.95,999.512,-297.852,-111.328,999.512
1742380309.954,355.469,-246.094,-131.836,693.359
1742380309.958,-939.453,-842.285,-265.137,-704.59
1742380309.962,-1000.0,4.395,-21.973,-1000.0
1742380309.919,-1000.0,-1000.0,-405.273,796.875
1742380309.923,-210.938,217.773,-88.379,736.816
1742380309.927,999.512,558.594,32.715,999.512
1742380309.931,999.512,-359.863,-288.086,886.719
1742380309.935,234.375,-475.586,-294.434,999.512
1742380309.939,-1000.0,-770.02,-358.398,218.262
1742380309.943,-519.043,146.484,-56.152,-354.98
1742380309.946,845.703,417.48,151.855,904.785
1742380309.95,999.512,-297.852,-111.328,999.512
1742380309.954,355.469,-246.094,-131.836,693.359
1742380309.958,-939.453,-842.285,-265.137,-704.59
1742380309.962,-1000.0,4.395,-21.973,-1000.0
1742380309.964,40.527,710.449,228.516,252.441
1742380309.968,999.512,136.23,-47.852,999.512
1742380309.972,233.398,-443.848,-123.047,258.301
1742380309.976,-957.52,-828.613,-292.48,-933.594
1742380309.98,-1000.0,-174.805,-159.668,-1000.0
1742380309.984,-461.426,801.758,254.883,-350.586
1742380309.988,996.094,691.895,64.453,898.926
1742380309.991,-162.598,-583.496,-128.906,-385.254
1742380309.995,-1000.0,-938.965,-226.074,-1000.0
1742380309.999,-927.246,-2.93,-88.867,-925.781
1742380310.003,-999.023,597.168,235.352,-1000.0
1742380310.007,-1000.0,145.508,-14.16,-1000.0
1742380309.964,40.527,710.449,228.516,252.441
1742380309.968,999.512,136.23,-47.852,999.512
1742380309.972,233.398,-443.848,-123.047,258.301
1742380309.976,-957.52,-828.613,-292.48,-933.594
1742380309.98,-1000.0,-174.805,-159.668,-1000.0
1742380309.984,-461.426,801.758,254.883,-350.586
1742380309.988,996.094,691.895,64.453,898.926
1742380309.991,-162.598,-583.496,-128.906,-385.254
1742380309.995,-1000.0,-938.965,-226.074,-1000.0
1742380309.999,-927.246,-2.93,-88.867,-925.781
1742380310.003,-999.023,597.168,235.352,-1000.0
1742380310.007,-1000.0,145.508,-14.16,-1000.0
1742380310.01,-1000.0,-176.27,-219.727,-1000.0
1742380310.014,-1000.0,-61.035,-269.531,-1000.0
1742380310.018,-1000.0,116.699,-207.031,-1000.0
1742380310.022,-1000.0,246.094,65.43,-1000.0
1742380310.026,-1000.0,107.91,-134.766,-1000.0
1742380310.03,-1000.0,105.469,-338.379,-1000.0
1742380310.034,-1000.0,-237.793,-369.141,-1000.0
1742380310.037,-1000.0,-595.703,-389.648,-1000.0
1742380310.041,-1000.0,87.891,-117.188,-1000.0
1742380310.045,-1000.0,100.098,-262.207,-1000.0
1742380310.049,-1000.0,-506.836,-527.832,-1000.0
1742380310.053,-1000.0,-612.305,-525.879,-1000.0
1742380310.01,-1000.0,-176.27,-219.727,-1000.0
1742380310.014,-1000.0,-61.035,-269.531,-1000.0
1742380310.018,-1000.0,116.699,-207.031,-1000.0
1742380310.022,-1000.0,246.094,65.43,-1000.0
1742380310.026,-1000.0,107.91,-134.766,-1000.0
1742380310.03,-1000.0,105.469,-338.379,-1000.0
1742380310.034,-1000.0,-237.793,-369.141,-1000.0
1742380310.037,-1000.0,-595.703,-389.648,-1000.0
1742380310.041,-1000.0,87.891,-117.188,-1000.0
1742380310.045,-1000.0,100.098,-262.207,-1000.0
1742380310.049,-1000.0,-506.836,-527.832,-1000.0
1742380310.053,-1000.0,-612.305,-525.879,-1000.0
1742380310.054,-1000.0,-336.426,-554.199,-1000.0
1742380310.058,-1000.0,179.199,-180.664,-1000.0
1742380310.062,-1000.0,165.039,-188.477,-1000.0
1742380310.066,-1000.0,-286.133,-526.855,-1000.0
1742380310.07,-1000.0,-311.523,-581.055,-1000.0
1742380310.074,-1000.0,-166.992,-666.504,-1000.0
1742380310.078,-1000.0,120.117,-304.688,-1000.0
1742380310.081,-1000.0,-555.664,-165.039,-1000.0
1742380310.085,-1000.0,-665.527,-400.391,-1000.0
1742380310.089,-1000.0,-204.59,-399.414,-1000.0
1742380310.093,-1000.0,-315.918,-495.117,-1000.0
1742380310.097,-1000.0,219.727,-222.656,-1000.0
1742380310.054,-1000.0,-336.426,-554.199,-1000.0
1742380310.058,-1000.0,179.199,-180.664,-1000.0
1742380310.062,-1000.0,165.039,-188.477,-1000.0
1742380310.066,-1000.0,-286.133,-526.855,-1000.0
1742380310.07,-1000.0,-311.523,-581.055,-1000.0
1742380310.074,-1000.0,-166.992,-666.504,-1000.0
1742380310.078,-1000.0,120.117,-304.688,-1000.0
1742380310.081,-1000.0,-555.664,-165.039,-1000.0
1742380310.085,-1000.0,-665.527,-400.391,-1000.0
1742380310.089,-1000.0,-204.59,-399.414,-1000.0
1742380310.093,-1000.0,-315.918,-495.117,-1000.0
1742380310.097,-1000.0,219.727,-222.656,-1000.0
1742380310.099,-1000.0,305.664,-57.129,-1000.0
1742380310.103,-1000.0,-169.434,-289.062,-1000.0
1742380310.107,-999.512,112.305,-239.258,-1000.0
1742380310.111,-942.871,-177.734,-348.145,-1000.0
1742380310.115,-1000.0,-114.258,-140.137,-1000.0
1742380310.119,-79.59,607.91,180.664,-1000.0
1742380310.123,176.27,-154.785,-74.219,-1000.0
1742380310.126,-1000.0,-459.473,-137.207,-1000.0
1742380310.13,-999.023,-268.555,-190.918,-1000.0
1742380310.134,-972.656,180.176,10.742,-1000.0
1742380310.138,-1000.0,691.895,376.953,-1000.0
1742380310.142,-1000.0,83.496,135.254,-1000.0
1742380310.099,-1000.0,305.664,-57.129,-1000.0
1742380310.103,-1000.0,-169.434,-289.062,-1000.0
1742380310.107,-999.512,112.305,-239.258,-1000.0
1742380310.111,-942.871,-177.734,-348.145,-1000.0
1742380310.115,-1000.0,-114.258,-140.137,-1000.0
1742380310.119,-79.59,607.91,180.664,-1000.0
1742380310.123,176.27,-154.785,-74.219,-1000.0
1742380310.126,-1000.0,-459.473,-137.207,-1000.0
1742380310.13,-999.023,-268.555,-190.918,-1000.0
1742380310.134,-972.656,180.176,10.742,-1000.0
1742380310.138,-1000.0,691.895,376.953,-1000.0
1742380310.142,-1000.0,83.496,135.254,-1000.0
1742380310.159,-1000.0,-48.34,12.695,-1000.0
1742380310.163,-1000.0,-59.57,-54.199,-1000.0
1742380310.167,-1000.0,93.75,53.223,-1000.0
1742380310.171,-1000.0,522.461,427.734,-1000.0
1742380310.175,-1000.0,37.598,226.562,-1000.0
1742380310.179,-1000.0,50.293,101.562,-1000.0
1742380310.183,-1000.0,51.758,65.918,-1000.0
1742380310.186,-1000.0,-186.523,26.367,-1000.0
1742380310.19,-1000.0,235.84,366.211,-1000.0
1742380310.194,-1000.0,-8.301,229.004,-1000.0
1742380310.198,-1000.0,-490.723,-8.301,-1000.0
1742380310.202,-915.039,-175.781,-34.668,-1000.0
1742380310.159,-1000.0,-48.34,12.695,-1000.0
1742380310.163,-1000.0,-59.57,-54.199,-1000.0
1742380310.167,-1000.0,93.75,53.223,-1000.0
1742380310.171,-1000.0,522.461,427.734,-1000.0
1742380310.175,-1000.0,37.598,226.562,-1000.0
1742380310.179,-1000.0,50.293,101.562,-1000.0
1742380310.183,-1000.0,51.758,65.918,-1000.0
1742380310.186,-1000.0,-186.523,26.367,-1000.0
1742380310.19,-1000.0,235.84,366.211,-1000.0
1742380310.194,-1000.0,-8.301,229.004,-1000.0
1742380310.198,-1000.0,-490.723,-8.301,-1000.0
1742380310.202,-915.039,-175.781,-34.668,-1000.0
1742380310.204,-1000.0,-214.355,-64.453,-1000.0
1742380310.208,-353.027,478.027,325.195,-1000.0
1742380310.212,791.016,583.496,258.301,-1000.0
1742380310.216,-600.586,-433.105,-73.242,-1000.0
1742380310.22,-1000.0,-293.945,-138.672,-1000.0
1742380310.224,-1000.0,16.113,-170.41,-1000.0
1742380310.228,-855.957,348.145,175.293,-1000.0
1742380310.231,388.184,134.766,81.543,-1000.0
1742380310.235,-408.691,-583.496,-200.684,-1000.0
1742380310.239,-1000.0,-432.129,-137.207,-1000.0
1742380310.243,-1000.0,-380.859,-181.152,-1000.0
1742380310.247,-608.887,328.613,201.172,-1000.0
1742380310.204,-1000.0,-214.355,-64.453,-1000.0
1742380310.208,-353.027,478.027,325.195,-1000.0
1742380310.212,791.016,583.496,258.301,-1000.0
1742380310.216,-600.586,-433.105,-73.242,-1000.0
1742380310.22,-1000.0,-293.945,-138.672,-1000.0
1742380310.224,-1000.0,16.113,-170.41,-1000.0
1742380310.228,-855.957,348.145,175.293,-1000.0
1742380310.231,388.184,134.766,81.543,-1000.0
1742380310.235,-408.691,-583.496,-200.684,-1000.0
1742380310.239,-1000.0,-432.129,-137.207,-1000.0
1742380310.243,-1000.0,-380.859,-181.152,-1000.0
1742380310.247,-608.887,328.613,201.172,-1000.0
1742380310.249,975.586,315.918,280.273,-1000.0
1742380310.253,-30.273,-782.715,7.812,-1000.0
1742380310.257,-1000.0,-338.379,-20.02,-1000.0
1742380310.261,-1000.0,-323.73,-142.09,-1000.0
1742380310.265,-750.977,-1.953,187.5,-1000.0
1742380310.269,641.602,620.117,334.473,-1000.0
1742380310.273,999.512,29.785,-7.812,-1000.0
1742380310.276,-67.383,-574.219,-9.766,-1000.0
1742380310.28,-1000.0,-1000.0,-162.598,-1000.0
1742380310.284,-1000.0,-460.449,-70.312,-1000.0
1742380310.288,397.461,541.016,107.422,-1000.0
1742380310.292,640.137,-198.242,-189.453,-1000.0
1742380310.249,975.586,315.918,280.273,-1000.0
1742380310.253,-30.273,-782.715,7.812,-1000.0
1742380310.257,-1000.0,-338.379,-20.02,-1000.0
1742380310.261,-1000.0,-323.73,-142.09,-1000.0
1742380310.265,-750.977,-1.953,187.5,-1000.0
1742380310.269,641.602,620.117,334.473,-1000.0
1742380310.273,999.512,29.785,-7.812,-1000.0
1742380310.276,-67.383,-574.219,-9.766,-1000.0
1742380310.28,-1000.0,-1000.0,-162.598,-1000.0
1742380310.284,-1000.0,-460.449,-70.312,-1000.0
1742380310.288,397.461,541.016,107.422,-1000.0
1742380310.292,640.137,-198.242,-189.453,-1000.0
1742380310.297,-924.316,-901.367,-293.457,-1000.0
1742380310.301,-1000.0,-462.402,-386.23,-1000.0
1742380310.305,-1000.0,177.246,-177.246,-1000.0
1742380310.309,376.953,356.445,63.477,-1000.0
1742380310.313,567.383,-593.262,-270.508,-1000.0
1742380310.317,-1000.0,-558.594,-307.129,-1000.0
1742380310.321,-965.332,-67.871,-289.551,-1000.0
1742380310.324,-1000.0,-727.539,-237.793,-1000.0
1742380310.328,-289.551,-291.504,49.316,-1000.0
1742380310.332,999.512,307.617,-164.062,-1000.0
1742380310.336,455.078,-335.938,-405.273,-1000.0
1742380310.34,-921.387,-590.82,-505.371,-1000.0
1742380310.297,-924.316,-901.367,-293.457,-1000.0
1742380310.301,-1000.0,-462.402,-386.23,-1000.0
1742380310.305,-1000.0,177.246,-177.246,-1000.0
1742380310.309,376.953,356.445,63.477,-1000.0
1742380310.313,567.383,-593.262,-270.508,-1000.0
1742380310.317,-1000.0,-558.594,-307.129,-1000.0
1742380310.321,-965.332,-67.871,-289.551,-1000.0
1742380310.324,-1000.0,-727.539,-237.793,-1000.0
1742380310.328,-289.551,-291.504,49.316,-1000.0
1742380310.332,999.512,307.617,-164.062,-1000.0
1742380310.336,455.078,-335.938,-405.273,-1000.0
1742380310.34,-921.387,-590.82,-505.371,-1000.0
1742380310.339,-1000.0,-220.703,-435.059,-1000.0
1742380310.343,-112.305,583.496,-92.285,-1000.0
1742380310.347,999.512,377.93,-275.879,-1000.0
1742380310.351,526.367,-415.527,-513.184,-1000.0
1742380310.355,-818.848,-344.238,-521.484,-985.352
1742380310.359,-1000.0,-95.215,-513.672,-1000.0
1742380310.363,-165.527,647.461,-152.344,-966.309
1742380310.366,999.512,343.75,-131.348,-761.719
1742380310.37,-252.441,-945.312,-336.914,-947.754
1742380310.374,-1000.0,-393.555,-350.586,-1000.0
1742380310.378,-1000.0,-41.016,-399.414,-985.352
1742380310.382,-252.441,524.902,-58.105,-1000.0
1742380310.384,999.512,540.527,-38.086,-980.957
1742380310.388,960.938,-225.586,-267.09,-996.094
1742380310.392,-237.793,-343.262,-226.562,-1000.0
1742380310.396,-1000.0,-309.082,-286.621,-999.023
1742380310.4,-686.035,250.0,-20.508,-1000.0
1742380310.404,892.09,826.66,46.387,-1000.0
1742380310.408,259.766,-163.574,-264.16,-1000.0
1742380310.411,-1000.0,-885.254,-334.961,-1000.0
1742380310.415,-996.582,-492.188,-518.555,-1000.0
1742380310.419,-989.746,238.281,-230.957,-1000.0
1742380310.423,484.375,696.777,-21.484,-1000.0
1742380310.427,183.105,-246.582,-316.406,-1000.0
1742380310.384,999.512,540.527,-38.086,-980.957
1742380310.388,960.938,-225.586,-267.09,-996.094
1742380310.392,-237.793,-343.262,-226.562,-1000.0
1742380310.396,-1000.0,-309.082,-286.621,-999.023
1742380310.4,-686.035,250.0,-20.508,-1000.0
1742380310.404,892.09,826.66,46.387,-1000.0
1742380310.408,259.766,-163.574,-264.16,-1000.0
1742380310.411,-1000.0,-885.254,-334.961,-1000.0
1742380310.415,-996.582,-492.188,-518.555,-1000.0
1742380310.419,-989.746,238.281,-230.957,-1000.0
1742380310.423,484.375,696.777,-21.484,-1000.0
1742380310.427,183.105,-246.582,-316.406,-1000.0
1742380310.909,-354.98,203.613,230.957,-1000.0
1742380310.913,999.512,811.523,423.828,378.418
1742380310.917,251.465,-343.262,39.551,306.152
1742380310.921,-1000.0,-757.812,3.418,-1000.0
1742380310.925,-1000.0,-349.121,-18.555,-932.129
1742380310.929,-489.746,258.301,237.305,-1000.0
1742380310.933,999.512,987.793,407.715,47.363
1742380310.936,280.273,-263.184,71.289,285.645
1742380310.94,-1000.0,-956.055,-6.836,-1000.0
1742380310.944,-1000.0,-817.871,-122.07,-932.617
1742380310.948,-915.527,-447.754,106.934,-1000.0
1742380310.952,548.34,827.637,405.762,-41.016
1742380310.429,-1000.0,-312.988,-294.922,-1000.0
1742380310.433,-895.996,-126.953,-401.367,-1000.0
1742380310.437,-1000.0,52.734,-177.246,-1000.0
1742380310.441,-110.352,721.68,66.406,-1000.0
1742380310.445,242.676,-9.277,-216.309,-1000.0
1742380310.449,-1000.0,-95.703,-198.73,-1000.0
1742380310.453,-1000.0,76.172,-271.973,-1000.0
1742380310.456,-966.309,-110.352,-119.141,-1000.0
1742380310.46,-1000.0,135.742,164.551,-1000.0
1742380310.464,-1000.0,114.258,-54.199,-1000.0
1742380310.468,-979.004,149.414,-151.367,-1000.0
1742380310.472,-973.633,-237.793,-253.418,-1000.0
1742380310.429,-1000.0,-312.988,-294.922,-1000.0
1742380310.433,-895.996,-126.953,-401.367,-1000.0
1742380310.437,-1000.0,52.734,-177.246,-1000.0
1742380310.441,-110.352,721.68,66.406,-1000.0
1742380310.445,242.676,-9.277,-216.309,-1000.0
1742380310.449,-1000.0,-95.703,-198.73,-1000.0
1742380310.453,-1000.0,76.172,-271.973,-1000.0
1742380310.456,-966.309,-110.352,-119.141,-1000.0
1742380310.46,-1000.0,135.742,164.551,-1000.0
1742380310.464,-1000.0,114.258,-54.199,-1000.0
1742380310.468,-979.004,149.414,-151.367,-1000.0
1742380310.472,-973.633,-237.793,-253.418,-1000.0
1742380310.429,-1000.0,-312.988,-294.922,-1000.0
1742380310.433,-895.996,-126.953,-401.367,-1000.0
1742380310.437,-1000.0,52.734,-177.246,-1000.0
1742380310.441,-110.352,721.68,66.406,-1000.0
1742380310.445,242.676,-9.277,-216.309,-1000.0
1742380310.449,-1000.0,-95.703,-198.73,-1000.0
1742380310.453,-1000.0,76.172,-271.973,-1000.0
1742380310.456,-966.309,-110.352,-119.141,-1000.0
1742380310.46,-1000.0,135.742,164.551,-1000.0
1742380310.464,-1000.0,114.258,-54.199,-1000.0
1742380310.468,-979.004,149.414,-151.367,-1000.0
1742380310.472,-973.633,-237.793,-253.418,-1000.0
1742380310.49,-1000.0,138.672,-62.988,-1000.0
1742380310.494,47.363,755.859,297.363,-1000.0
1742380310.498,999.512,220.215,-9.277,-1000.0
1742380310.502,726.074,-154.297,-185.059,-1000.0
1742380310.506,-693.848,-434.082,-158.203,-1000.0
1742380310.51,-1000.0,78.613,-9.766,-1000.0
1742380310.514,421.387,733.398,308.594,-1000.0
1742380310.517,999.512,-83.008,72.754,-1000.0
1742380310.521,999.512,-232.91,-106.445,-1000.0
1742380310.525,239.258,-276.855,-112.793,-937.5
1742380310.529,-1000.0,-449.707,-93.262,-1000.0
1742380310.533,99.609,702.148,313.477,-224.609
1742380310.49,-1000.0,138.672,-62.988,-1000.0
1742380310.494,47.363,755.859,297.363,-1000.0
1742380310.498,999.512,220.215,-9.277,-1000.0
1742380310.502,726.074,-154.297,-185.059,-1000.0
1742380310.506,-693.848,-434.082,-158.203,-1000.0
1742380310.51,-1000.0,78.613,-9.766,-1000.0
1742380310.514,421.387,733.398,308.594,-1000.0
1742380310.517,999.512,-83.008,72.754,-1000.0
1742380310.521,999.512,-232.91,-106.445,-1000.0
1742380310.525,239.258,-276.855,-112.793,-937.5
1742380310.529,-1000.0,-449.707,-93.262,-1000.0
1742380310.533,99.609,702.148,313.477,-224.609
1742380310.49,-1000.0,138.672,-62.988,-1000.0
1742380310.494,47.363,755.859,297.363,-1000.0
1742380310.498,999.512,220.215,-9.277,-1000.0
1742380310.502,726.074,-154.297,-185.059,-1000.0
1742380310.506,-693.848,-434.082,-158.203,-1000.0
1742380310.51,-1000.0,78.613,-9.766,-1000.0
1742380310.514,421.387,733.398,308.594,-1000.0
1742380310.517,999.512,-83.008,72.754,-1000.0
1742380310.521,999.512,-232.91,-106.445,-1000.0
1742380310.525,239.258,-276.855,-112.793,-937.5
1742380310.529,-1000.0,-449.707,-93.262,-1000.0
1742380310.533,99.609,702.148,313.477,-224.609
1742380310.534,999.512,499.023,195.312,980.469
1742380310.538,999.512,-167.48,-102.051,999.512
1742380310.542,228.516,-432.129,-154.297,140.625
1742380310.546,-1000.0,-730.469,-225.098,-1000.0
1742380310.55,-161.133,494.629,122.07,-317.383
1742380310.554,975.586,656.738,93.75,903.32
1742380310.558,999.512,-98.145,-187.012,999.512
1742380310.561,228.027,-553.711,-239.258,177.734
1742380310.565,-1000.0,-989.258,-386.719,-1000.0
1742380310.569,-666.992,320.801,-35.156,-862.793
1742380310.573,794.922,741.211,76.172,616.699
1742380310.577,999.512,-324.707,-250.0,986.816
1742380310.534,999.512,499.023,195.312,980.469
1742380310.538,999.512,-167.48,-102.051,999.512
1742380310.542,228.516,-432.129,-154.297,140.625
1742380310.546,-1000.0,-730.469,-225.098,-1000.0
1742380310.55,-161.133,494.629,122.07,-317.383
1742380310.554,975.586,656.738,93.75,903.32
1742380310.558,999.512,-98.145,-187.012,999.512
1742380310.561,228.027,-553.711,-239.258,177.734
1742380310.565,-1000.0,-989.258,-386.719,-1000.0
1742380310.569,-666.992,320.801,-35.156,-862.793
1742380310.573,794.922,741.211,76.172,616.699
1742380310.577,999.512,-324.707,-250.0,986.816
1742380311.044,966.309,221.191,338.379,966.797
1742380311.048,966.309,109.375,291.016,966.797
1742380311.052,966.309,-333.496,-31.25,966.797
1742380311.056,966.309,-124.023,-27.832,966.797
1742380311.06,966.309,-233.887,-72.754,966.797
1742380311.064,966.309,355.957,297.852,966.797
1742380311.068,966.309,291.992,360.84,966.797
1742380311.071,966.309,-479.98,7.812,966.797
1742380311.075,966.309,-338.379,61.523,966.797
1742380311.079,966.309,-325.684,68.848,966.797
1742380311.083,967.285,96.191,359.863,966.797
1742380311.087,961.914,147.461,595.703,966.797
1742380310.534,999.512,499.023,195.312,980.469
1742380310.538,999.512,-167.48,-102.051,999.512
1742380310.542,228.516,-432.129,-154.297,140.625
1742380310.546,-1000.0,-730.469,-225.098,-1000.0
1742380310.55,-161.133,494.629,122.07,-317.383
1742380310.554,975.586,656.738,93.75,903.32
1742380310.558,999.512,-98.145,-187.012,999.512
1742380310.561,228.027,-553.711,-239.258,177.734
1742380310.565,-1000.0,-989.258,-386.719,-1000.0
1742380310.569,-666.992,320.801,-35.156,-862.793
1742380310.573,794.922,741.211,76.172,616.699
1742380310.577,999.512,-324.707,-250.0,986.816
1742380310.582,-264.648,-811.523,-329.102,-512.207
1742380310.586,-1000.0,-685.547,-442.871,-1000.0
1742380310.59,-939.941,235.352,-113.281,-937.012
1742380310.594,-999.512,48.828,28.809,-1000.0
1742380310.598,-1000.0,-346.68,-300.781,-1000.0
1742380310.602,-974.121,120.605,-347.656,-998.535
1742380310.606,-968.75,-486.816,-519.531,-931.152
1742380310.609,-1000.0,-501.953,-328.613,-1000.0
1742380310.613,272.461,762.207,-34.668,-49.805
1742380310.617,784.18,295.41,-216.797,474.609
1742380310.621,-836.426,-837.891,-224.121,-1000.0
1742380310.625,-1000.0,-409.18,-312.012,-977.051
1742380310.582,-264.648,-811.523,-329.102,-512.207
1742380310.586,-1000.0,-685.547,-442.871,-1000.0
1742380310.59,-939.941,235.352,-113.281,-937.012
1742380310.594,-999.512,48.828,28.809,-1000.0
1742380310.598,-1000.0,-346.68,-300.781,-1000.0
1742380310.602,-974.121,120.605,-347.656,-998.535
1742380310.606,-968.75,-486.816,-519.531,-931.152
1742380310.609,-1000.0,-501.953,-328.613,-1000.0
1742380310.613,272.461,762.207,-34.668,-49.805
1742380310.617,784.18,295.41,-216.797,474.609
1742380310.621,-836.426,-837.891,-224.121,-1000.0
1742380310.625,-1000.0,-409.18,-312.012,-977.051
1742380310.582,-264.648,-811.523,-329.102,-512.207
1742380310.586,-1000.0,-685.547,-442.871,-1000.0
1742380310.59,-939.941,235.352,-113.281,-937.012
1742380310.594,-999.512,48.828,28.809,-1000.0
1742380310.598,-1000.0,-346.68,-300.781,-1000.0
1742380310.602,-974.121,120.605,-347.656,-998.535
1742380310.606,-968.75,-486.816,-519.531,-931.152
1742380310.609,-1000.0,-501.953,-328.613,-1000.0
1742380310.613,272.461,762.207,-34.668,-49.805
1742380310.617,784.18,295.41,-216.797,474.609
1742380310.621,-836.426,-837.891,-224.121,-1000.0
1742380310.625,-1000.0,-409.18,-312.012,-977.051
1742380310.624,-1000.0,-130.371,-128.418,-1000.0
1742380310.628,113.281,712.891,190.918,-95.703
1742380310.632,594.238,118.652,-122.559,360.352
1742380310.636,-974.609,-850.586,-227.539,-1000.0
1742380310.64,-992.188,-270.02,-229.004,-949.707
1742380310.644,-1000.0,110.84,-76.172,-1000.0
1742380310.648,48.828,831.543,287.598,-169.922
1742380310.651,894.531,333.984,47.852,539.062
1742380310.655,-686.035,-976.562,-168.457,-933.105
1742380310.659,-1000.0,-590.82,-221.191,-1000.0
1742380310.663,-1000.0,49.805,-73.242,-983.398
1742380310.667,-77.148,717.285,305.176,-900.391
1742380310.669,458.008,62.988,59.082,-726.074
1742380310.673,-1000.0,-687.5,-164.551,-994.629
1742380310.677,-967.773,-107.422,-201.66,-1000.0
1742380310.681,-1000.0,-109.863,-182.129,-1000.0
1742380310.685,-183.594,619.141,206.543,-982.422
1742380310.689,904.297,592.773,98.633,-864.258
1742380310.693,-577.637,-475.098,-170.898,-973.633
1742380310.696,-1000.0,-175.781,-134.277,-1000.0
1742380310.7,-1000.0,-178.223,-183.105,-993.164
1742380310.704,-298.828,394.043,138.672,-1000.0
1742380310.708,999.512,669.922,125.488,-975.586
1742380310.712,-277.832,-280.762,-140.137,-995.117
1742380310.669,458.008,62.988,59.082,-726.074
1742380310.673,-1000.0,-687.5,-164.551,-994.629
1742380310.677,-967.773,-107.422,-201.66,-1000.0
1742380310.681,-1000.0,-109.863,-182.129,-1000.0
1742380310.685,-183.594,619.141,206.543,-982.422
1742380310.689,904.297,592.773,98.633,-864.258
1742380310.693,-577.637,-475.098,-170.898,-973.633
1742380310.696,-1000.0,-175.781,-134.277,-1000.0
1742380310.7,-1000.0,-178.223,-183.105,-993.164
1742380310.704,-298.828,394.043,138.672,-1000.0
1742380310.708,999.512,669.922,125.488,-975.586
1742380310.712,-277.832,-280.762,-140.137,-995.117
1742380310.714,-1000.0,-166.504,-72.266,-1000.0
1742380310.718,-1000.0,-37.598,-75.195,-998.535
1742380310.722,-422.852,581.543,264.648,-1000.0
1742380310.726,999.512,689.941,351.562,-1000.0
1742380310.73,36.621,-459.961,53.711,-1000.0
1742380310.734,-1000.0,-191.406,-0.977,-1000.0
1742380310.738,-1000.0,231.445,-125.977,-1000.0
1742380310.741,-754.883,61.523,92.285,-1000.0
1742380310.745,846.68,71.777,185.547,-1000.0
1742380310.749,565.43,-176.27,-81.055,-1000.0
1742380310.753,-896.973,-328.125,-107.91,-999.512
1742380310.757,-1000.0,-360.84,-264.16,-938.477
1742380310.714,-1000.0,-166.504,-72.266,-1000.0
1742380310.718,-1000.0,-37.598,-75.195,-998.535
1742380310.722,-422.852,581.543,264.648,-1000.0
1742380310.726,999.512,689.941,351.562,-1000.0
1742380310.73,36.621,-459.961,53.711,-1000.0
1742380310.734,-1000.0,-191.406,-0.977,-1000.0
1742380310.738,-1000.0,231.445,-125.977,-1000.0
1742380310.741,-754.883,61.523,92.285,-1000.0
1742380310.745,846.68,71.777,185.547,-1000.0
1742380310.749,565.43,-176.27,-81.055,-1000.0
1742380310.753,-896.973,-328.125,-107.91,-999.512
1742380310.757,-1000.0,-360.84,-264.16,-938.477
1742380310.759,-485.84,223.633,-28.32,-1000.0
1742380310.763,999.512,999.512,215.332,-64.941
1742380310.767,391.602,-109.863,-101.074,262.695
1742380310.771,-969.727,-771.973,-120.605,-1000.0
1742380310.775,-1000.0,-350.098,-234.375,-1000.0
1742380310.779,-622.07,342.285,-141.113,-1000.0
1742380310.783,963.379,743.652,64.453,-778.32
1742380310.786,229.492,-595.703,-314.941,-773.926
1742380310.79,-1000.0,-760.742,-446.777,-1000.0
1742380310.794,-1000.0,-286.621,-544.434,-989.746
1742380310.798,-884.277,21.484,-423.828,-999.023
1742380310.802,416.016,561.523,-58.594,-1000.0
1742380310.759,-485.84,223.633,-28.32,-1000.0
1742380310.763,999.512,999.512,215.332,-64.941
1742380310.767,391.602,-109.863,-101.074,262.695
1742380310.771,-969.727,-771.973,-120.605,-1000.0
1742380310.775,-1000.0,-350.098,-234.375,-1000.0
1742380310.779,-622.07,342.285,-141.113,-1000.0
1742380310.783,963.379,743.652,64.453,-778.32
1742380310.786,229.492,-595.703,-314.941,-773.926
1742380310.79,-1000.0,-760.742,-446.777,-1000.0
1742380310.794,-1000.0,-286.621,-544.434,-989.746
1742380310.798,-884.277,21.484,-423.828,-999.023
1742380310.802,416.016,561.523,-58.594,-1000.0
1742380310.759,-485.84,223.633,-28.32,-1000.0
1742380310.763,999.512,999.512,215.332,-64.941
1742380310.767,391.602,-109.863,-101.074,262.695
1742380310.771,-969.727,-771.973,-120.605,-1000.0
1742380310.775,-1000.0,-350.098,-234.375,-1000.0
1742380310.779,-622.07,342.285,-141.113,-1000.0
1742380310.783,963.379,743.652,64.453,-778.32
1742380310.786,229.492,-595.703,-314.941,-773.926
1742380310.79,-1000.0,-760.742,-446.777,-1000.0
1742380310.794,-1000.0,-286.621,-544.434,-989.746
1742380310.798,-884.277,21.484,-423.828,-999.023
1742380310.802,416.016,561.523,-58.594,-1000.0
1742380310.805,999.512,-52.734,-319.824,-1000.0
1742380310.809,28.32,-627.93,-479.004,-1000.0
1742380310.813,-1000.0,-424.316,-520.508,-1000.0
1742380310.817,-1000.0,-34.18,-432.129,-1000.0
1742380310.821,174.805,335.938,-40.527,-1000.0
1742380310.825,999.512,122.07,-177.246,-1000.0
1742380310.829,883.789,128.418,-368.652,-1000.0
1742380310.832,-312.012,-404.785,-416.504,-1000.0
1742380310.836,-1000.0,-680.176,-370.117,-1000.0
1742380310.84,-165.039,462.402,-13.184,-1000.0
1742380310.844,999.512,443.359,-117.676,-1000.0
1742380310.848,-226.562,-491.211,-359.375,-1000.0
1742380310.805,999.512,-52.734,-319.824,-1000.0
1742380310.809,28.32,-627.93,-479.004,-1000.0
1742380310.813,-1000.0,-424.316,-520.508,-1000.0
1742380310.817,-1000.0,-34.18,-432.129,-1000.0
1742380310.821,174.805,335.938,-40.527,-1000.0
1742380310.825,999.512,122.07,-177.246,-1000.0
1742380310.829,883.789,128.418,-368.652,-1000.0
1742380310.832,-312.012,-404.785,-416.504,-1000.0
1742380310.836,-1000.0,-680.176,-370.117,-1000.0
1742380310.84,-165.039,462.402,-13.184,-1000.0
1742380310.844,999.512,443.359,-117.676,-1000.0
1742380310.848,-226.562,-491.211,-359.375,-1000.0
1742380310.849,-1000.0,-452.148,-333.008,-955.078
1742380310.853,-1000.0,-239.258,-269.043,-1000.0
1742380310.857,-213.379,580.078,175.781,-979.98
1742380310.861,999.512,679.688,129.395,397.461
1742380310.865,111.328,-720.703,-183.105,-101.562
1742380310.869,-1000.0,-331.543,-34.18,-1000.0
1742380310.873,-1000.0,145.996,-54.199,-997.07
1742380310.876,-260.254,322.754,225.098,-894.043
1742380310.88,999.512,605.957,231.445,676.27
1742380310.884,165.039,-638.184,-98.145,209.961
1742380310.888,-1000.0,-672.363,-76.66,-1000.0
1742380310.892,-1000.0,-235.352,-133.301,-960.938
1742380310.849,-1000.0,-452.148,-333.008,-955.078
1742380310.853,-1000.0,-239.258,-269.043,-1000.0
1742380310.857,-213.379,580.078,175.781,-979.98
1742380310.861,999.512,679.688,129.395,397.461
1742380310.865,111.328,-720.703,-183.105,-101.562
1742380310.869,-1000.0,-331.543,-34.18,-1000.0
1742380310.873,-1000.0,145.996,-54.199,-997.07
1742380310.876,-260.254,322.754,225.098,-894.043
1742380310.88,999.512,605.957,231.445,676.27
1742380310.884,165.039,-638.184,-98.145,209.961
1742380310.888,-1000.0,-672.363,-76.66,-1000.0
1742380310.892,-1000.0,-235.352,-133.301,-960.938
1742380311.374,886.719,-389.648,-140.625,966.797
1742380311.378,999.512,-60.059,-33.691,966.797
1742380311.382,-227.051,-361.816,-59.082,967.285
1742380311.386,-315.918,243.164,226.074,966.797
1742380311.39,999.512,328.613,262.695,966.797
1742380311.394,929.199,-225.586,-65.918,966.797
1742380311.398,999.512,86.426,-36.133,966.797
1742380311.401,-286.133,-438.477,-124.023,966.797
1742380311.405,-354.492,-130.371,90.332,967.285
1742380311.409,999.512,349.121,208.008,966.797
1742380311.413,999.512,-108.887,-124.023,966.797
1742380311.417,551.758,-204.59,-197.266,967.285
1742380310.849,-1000.0,-452.148,-333.008,-955.078
1742380310.853,-1000.0,-239.258,-269.043,-1000.0
1742380310.857,-213.379,580.078,175.781,-979.98
1742380310.861,999.512,679.688,129.395,397.461
1742380310.865,111.328,-720.703,-183.105,-101.562
1742380310.869,-1000.0,-331.543,-34.18,-1000.0
1742380310.873,-1000.0,145.996,-54.199,-997.07
1742380310.876,-260.254,322.754,225.098,-894.043
1742380310.88,999.512,605.957,231.445,676.27
1742380310.884,165.039,-638.184,-98.145,209.961
1742380310.888,-1000.0,-672.363,-76.66,-1000.0
1742380310.892,-1000.0,-235.352,-133.301,-960.938
1742380310.954,875.488,31.25,76.172,569.824
1742380310.958,-643.555,-833.984,-19.531,-916.992
1742380310.962,-1000.0,-259.277,3.418,-1000.0
1742380310.966,-682.617,133.301,198.242,-1000.0
1742380310.97,671.387,798.828,556.641,141.113
1742380310.974,999.512,456.055,297.363,999.512
1742380310.978,869.141,-321.289,80.566,901.367
1742380310.981,999.512,-166.016,55.176,999.512
1742380310.985,-166.016,-498.047,96.68,-323.242
1742380310.989,-207.52,85.449,428.223,-221.68
1742380310.993,999.512,597.656,274.414,999.512
1742380310.997,942.383,-34.668,58.105,937.012
1742380310.954,875.488,31.25,76.172,569.824
1742380310.958,-643.555,-833.984,-19.531,-916.992
1742380310.962,-1000.0,-259.277,3.418,-1000.0
1742380310.966,-682.617,133.301,198.242,-1000.0
1742380310.97,671.387,798.828,556.641,141.113
1742380310.974,999.512,456.055,297.363,999.512
1742380310.978,869.141,-321.289,80.566,901.367
1742380310.981,999.512,-166.016,55.176,999.512
1742380310.985,-166.016,-498.047,96.68,-323.242
1742380310.989,-207.52,85.449,428.223,-221.68
1742380310.993,999.512,597.656,274.414,999.512
1742380310.997,942.383,-34.668,58.105,937.012
1742380310.999,947.266,-62.012,53.223,948.242
1742380311.003,969.727,116.211,130.371,971.191
1742380311.007,966.309,542.48,534.18,966.797
1742380311.011,966.309,179.688,456.055,966.797
1742380311.015,966.309,-171.875,186.523,967.285
1742380311.019,966.309,94.238,162.598,966.797
1742380311.023,966.309,192.383,249.023,966.797
1742380311.026,966.309,405.273,575.195,966.797
1742380311.03,966.309,-94.727,275.879,966.797
1742380311.034,966.309,-350.586,-37.598,967.285
1742380311.038,966.309,-49.316,2.441,967.285
1742380311.042,966.309,-233.398,-6.348,967.285
1742380310.999,947.266,-62.012,53.223,948.242
1742380311.003,969.727,116.211,130.371,971.191
1742380311.007,966.309,542.48,534.18,966.797
1742380311.011,966.309,179.688,456.055,966.797
1742380311.015,966.309,-171.875,186.523,967.285
1742380311.019,966.309,94.238,162.598,966.797
1742380311.023,966.309,192.383,249.023,966.797
1742380311.026,966.309,405.273,575.195,966.797
1742380311.03,966.309,-94.727,275.879,966.797
1742380311.034,966.309,-350.586,-37.598,967.285
1742380311.038,966.309,-49.316,2.441,967.285
1742380311.042,966.309,-233.398,-6.348,967.285
1742380311.09,907.715,-217.773,294.922,967.285
1742380311.094,999.512,-186.035,145.02,966.797
1742380311.098,-28.32,-761.23,-50.293,966.797
1742380311.102,-354.98,-61.523,149.902,967.285
1742380311.106,999.512,554.688,411.621,966.797
1742380311.11,894.043,-240.723,40.039,966.797
1742380311.114,999.512,-115.234,-38.574,967.285
1742380311.117,496.094,-393.066,-75.195,967.285
1742380311.121,-412.109,-466.797,67.871,966.797
1742380311.125,805.664,379.883,442.383,966.797
1742380311.129,989.258,-183.105,174.316,967.285
1742380311.133,999.512,-337.402,-8.789,966.797
1742380311.134,248.535,-588.867,-89.355,966.797
1742380311.138,-604.004,-374.023,10.254,966.797
1742380311.142,835.938,749.023,365.723,966.797
1742380311.146,999.512,-27.832,116.699,966.797
1742380311.15,888.672,-622.07,-114.258,967.285
1742380311.154,999.512,-135.742,-104.492,966.797
1742380311.158,-25.879,-178.711,-20.996,966.797
1742380311.161,179.688,172.363,331.543,966.797
1742380311.165,999.512,104.492,216.797,967.285
1742380311.169,999.512,-250.0,13.672,967.285
1742380311.173,732.422,-304.199,14.648,966.797
1742380311.177,-774.902,-496.094,39.062,967.285
1742380311.134,248.535,-588.867,-89.355,966.797
1742380311.138,-604.004,-374.023,10.254,966.797
1742380311.142,835.938,749.023,365.723,966.797
1742380311.146,999.512,-27.832,116.699,966.797
1742380311.15,888.672,-622.07,-114.258,967.285
1742380311.154,999.512,-135.742,-104.492,966.797
1742380311.158,-25.879,-178.711,-20.996,966.797
1742380311.161,179.688,172.363,331.543,966.797
1742380311.165,999.512,104.492,216.797,967.285
1742380311.169,999.512,-250.0,13.672,967.285
1742380311.173,732.422,-304.199,14.648,966.797
1742380311.177,-774.902,-496.094,39.062,967.285
1742380311.179,88.379,289.551,371.094,966.797
1742380311.183,999.512,142.578,314.453,966.797
1742380311.187,999.512,-267.578,102.051,966.797
1742380311.191,583.984,-343.262,59.082,966.797
1742380311.195,-996.582,-645.508,-48.828,967.285
1742380311.199,-54.199,477.539,315.918,966.797
1742380311.203,999.512,448.73,317.383,966.797
1742380311.206,999.512,-262.207,17.578,966.797
1742380311.21,642.09,-308.594,31.738,966.797
1742380311.214,-972.168,-708.008,-24.414,967.285
1742380311.218,-254.883,292.969,299.805,966.797
1742380311.222,999.512,430.664,359.863,966.797
1742380311.179,88.379,289.551,371.094,966.797
1742380311.183,999.512,142.578,314.453,966.797
1742380311.187,999.512,-267.578,102.051,966.797
1742380311.191,583.984,-343.262,59.082,966.797
1742380311.195,-996.582,-645.508,-48.828,967.285
1742380311.199,-54.199,477.539,315.918,966.797
1742380311.203,999.512,448.73,317.383,966.797
1742380311.206,999.512,-262.207,17.578,966.797
1742380311.21,642.09,-308.594,31.738,966.797
1742380311.214,-972.168,-708.008,-24.414,967.285
1742380311.218,-254.883,292.969,299.805,966.797
1742380311.222,999.512,430.664,359.863,966.797
1742380311.255,859.863,-339.844,65.43,967.285
1742380311.259,999.512,-26.367,126.953,966.797
1742380311.263,226.562,-257.812,86.426,966.797
1742380311.267,-215.82,97.656,373.535,966.797
1742380311.271,993.652,577.637,512.695,966.797
1742380311.275,982.91,26.367,166.016,966.797
1742380311.279,999.512,-77.148,102.051,966.797
1742380311.282,-387.207,-679.688,-19.531,966.797
1742380311.286,-349.609,130.371,225.098,966.797
1742380311.29,999.512,669.434,439.453,966.797
1742380311.294,869.141,-232.422,59.57,966.797
1742380311.298,999.512,-66.895,-37.109,967.285
1742380311.255,859.863,-339.844,65.43,967.285
1742380311.259,999.512,-26.367,126.953,966.797
1742380311.263,226.562,-257.812,86.426,966.797
1742380311.267,-215.82,97.656,373.535,966.797
1742380311.271,993.652,577.637,512.695,966.797
1742380311.275,982.91,26.367,166.016,966.797
1742380311.279,999.512,-77.148,102.051,966.797
1742380311.282,-387.207,-679.688,-19.531,966.797
1742380311.286,-349.609,130.371,225.098,966.797
1742380311.29,999.512,669.434,439.453,966.797
1742380311.294,869.141,-232.422,59.57,966.797
1742380311.298,999.512,-66.895,-37.109,967.285
1742380311.255,859.863,-339.844,65.43,967.285
1742380311.259,999.512,-26.367,126.953,966.797
1742380311.263,226.562,-257.812,86.426,966.797
1742380311.267,-215.82,97.656,373.535,966.797
1742380311.271,993.652,577.637,512.695,966.797
1742380311.275,982.91,26.367,166.016,966.797
1742380311.279,999.512,-77.148,102.051,966.797
1742380311.282,-387.207,-679.688,-19.531,966.797
1742380311.286,-349.609,130.371,225.098,966.797
1742380311.29,999.512,669.434,439.453,966.797
1742380311.294,869.141,-232.422,59.57,966.797
1742380311.298,999.512,-66.895,-37.109,967.285
1742380311.284,187.5,-463.379,-78.125,966.797
1742380311.288,-459.961,-194.824,122.559,966.797
1742380311.292,952.637,726.562,410.156,966.797
1742380311.296,974.609,-91.797,41.504,966.797
1742380311.3,987.305,-243.652,-129.395,966.797
1742380311.304,875.977,-122.559,-91.309,966.797
1742380311.308,21.484,-16.602,74.707,966.797
1742380311.311,673.34,488.77,344.238,966.797
1742380311.315,999.512,-321.777,31.25,966.797
1742380311.319,913.574,-441.895,-142.578,966.797
1742380311.323,999.512,3.418,-65.918,966.797
1742380311.327,-147.461,-289.062,21.973,966.797
1742380311.284,187.5,-463.379,-78.125,966.797
1742380311.288,-459.961,-194.824,122.559,966.797
1742380311.292,952.637,726.562,410.156,966.797
1742380311.296,974.609,-91.797,41.504,966.797
1742380311.3,987.305,-243.652,-129.395,966.797
1742380311.304,875.977,-122.559,-91.309,966.797
1742380311.308,21.484,-16.602,74.707,966.797
1742380311.311,673.34,488.77,344.238,966.797
1742380311.315,999.512,-321.777,31.25,966.797
1742380311.319,913.574,-441.895,-142.578,966.797
1742380311.323,999.512,3.418,-65.918,966.797
1742380311.327,-147.461,-289.062,21.973,966.797
1742380311.284,187.5,-463.379,-78.125,966.797
1742380311.288,-459.961,-194.824,122.559,966.797
1742380311.292,952.637,726.562,410.156,966.797
1742380311.296,974.609,-91.797,41.504,966.797
1742380311.3,987.305,-243.652,-129.395,966.797
1742380311.304,875.977,-122.559,-91.309,966.797
1742380311.308,21.484,-16.602,74.707,966.797
1742380311.311,673.34,488.77,344.238,966.797
1742380311.315,999.512,-321.777,31.25,966.797
1742380311.319,913.574,-441.895,-142.578,966.797
1742380311.323,999.512,3.418,-65.918,966.797
1742380311.327,-147.461,-289.062,21.973,966.797
1742380311.329,187.5,229.004,313.965,966.797
1742380311.333,999.512,79.102,118.164,966.797
1742380311.337,999.512,-276.367,-136.23,966.797
1742380311.341,321.777,-354.98,-153.32,966.797
1742380311.345,-1000.0,-494.141,-80.566,966.797
1742380311.349,302.734,658.203,301.27,966.797
1742380311.353,999.512,194.824,157.227,966.797
1742380311.356,910.156,-546.875,-62.988,966.797
1742380311.36,999.512,-240.723,56.152,966.797
1742380311.364,-439.453,-431.152,31.738,966.797
1742380311.368,-119.629,383.789,304.199,966.797
1742380311.372,999.512,277.832,191.895,966.797
1742380311.329,187.5,229.004,313.965,966.797
1742380311.333,999.512,79.102,118.164,966.797
1742380311.337,999.512,-276.367,-136.23,966.797
1742380311.341,321.777,-354.98,-153.32,966.797
1742380311.345,-1000.0,-494.141,-80.566,966.797
1742380311.349,302.734,658.203,301.27,966.797
1742380311.353,999.512,194.824,157.227,966.797
1742380311.356,910.156,-546.875,-62.988,966.797
1742380311.36,999.512,-240.723,56.152,966.797
1742380311.364,-439.453,-431.152,31.738,966.797
1742380311.368,-119.629,383.789,304.199,966.797
1742380311.372,999.512,277.832,191.895,966.797
1742380311.329,187.5,229.004,313.965,966.797
1742380311.333,999.512,79.102,118.164,966.797
1742380311.337,999.512,-276.367,-136.23,966.797
1742380311.341,321.777,-354.98,-153.32,966.797
1742380311.345,-1000.0,-494.141,-80.566,966.797
1742380311.349,302.734,658.203,301.27,966.797
1742380311.353,999.512,194.824,157.227,966.797
1742380311.356,910.156,-546.875,-62.988,966.797
1742380311.36,999.512,-240.723,56.152,966.797
1742380311.364,-439.453,-431.152,31.738,966.797
1742380311.368,-119.629,383.789,304.199,966.797
1742380311.372,999.512,277.832,191.895,966.797
1742380311.419,-1000.0,-537.598,-259.766,967.285
1742380311.423,-312.5,291.504,25.879,966.797
1742380311.427,999.023,635.742,255.859,966.797
1742380311.431,999.512,8.789,-28.809,966.797
1742380311.435,420.898,-375.0,-86.426,966.797
1742380311.439,-1000.0,-586.914,-104.492,966.797
1742380311.443,-526.855,229.98,136.719,967.285
1742380311.446,999.512,515.137,291.016,967.773
1742380311.45,610.352,-409.668,-173.34,950.684
1742380311.454,-837.891,-595.703,-314.941,960.938
1742380311.458,-1000.0,-204.59,-327.637,999.512
1742380311.462,-1000.0,-206.543,-226.074,225.098
1742380311.419,-1000.0,-537.598,-259.766,967.285
1742380311.423,-312.5,291.504,25.879,966.797
1742380311.427,999.023,635.742,255.859,966.797
1742380311.431,999.512,8.789,-28.809,966.797
1742380311.435,420.898,-375.0,-86.426,966.797
1742380311.439,-1000.0,-586.914,-104.492,966.797
1742380311.443,-526.855,229.98,136.719,967.285
1742380311.446,999.512,515.137,291.016,967.773
1742380311.45,610.352,-409.668,-173.34,950.684
1742380311.454,-837.891,-595.703,-314.941,960.938
1742380311.458,-1000.0,-204.59,-327.637,999.512
1742380311.462,-1000.0,-206.543,-226.074,225.098
1742380311.419,-1000.0,-537.598,-259.766,967.285
1742380311.423,-312.5,291.504,25.879,966.797
1742380311.427,999.023,635.742,255.859,966.797
1742380311.431,999.512,8.789,-28.809,966.797
1742380311.435,420.898,-375.0,-86.426,966.797
1742380311.439,-1000.0,-586.914,-104.492,966.797
1742380311.443,-526.855,229.98,136.719,967.285
1742380311.446,999.512,515.137,291.016,967.773
1742380311.45,610.352,-409.668,-173.34,950.684
1742380311.454,-837.891,-595.703,-314.941,960.938
1742380311.458,-1000.0,-204.59,-327.637,999.512
1742380311.462,-1000.0,-206.543,-226.074,225.098
1742380311.464,136.23,317.871,35.645,409.18
1742380311.468,999.512,118.652,-219.727,999.512
1742380311.472,983.887,-179.688,-373.047,992.188
1742380311.476,-198.73,-455.566,-384.277,865.723
1742380311.48,-1000.0,-585.449,-271.973,-462.402
1742380311.484,191.406,631.836,141.602,189.941
1742380311.488,999.512,345.703,-80.078,999.512
1742380311.491,999.512,-361.816,-355.957,999.512
1742380311.495,133.301,-655.273,-395.996,310.547
1742380311.499,-1000.0,-787.598,-349.609,-1000.0
1742380311.503,-169.922,530.762,95.703,-93.262
1742380311.507,988.77,362.305,-48.34,999.512
1742380311.464,136.23,317.871,35.645,409.18
1742380311.468,999.512,118.652,-219.727,999.512
1742380311.472,983.887,-179.688,-373.047,992.188
1742380311.476,-198.73,-455.566,-384.277,865.723
1742380311.48,-1000.0,-585.449,-271.973,-462.402
1742380311.484,191.406,631.836,141.602,189.941
1742380311.488,999.512,345.703,-80.078,999.512
1742380311.491,999.512,-361.816,-355.957,999.512
1742380311.495,133.301,-655.273,-395.996,310.547
1742380311.499,-1000.0,-787.598,-349.609,-1000.0
1742380311.503,-169.922,530.762,95.703,-93.262
1742380311.507,988.77,362.305,-48.34,999.512
1742380311.511,999.512,-440.918,-378.906,999.512
1742380311.515,386.719,-459.473,-399.902,709.473
1742380311.519,-1000.0,-828.613,-465.332,-900.391
1742380311.523,-219.727,371.094,-36.133,-280.273
1742380311.527,999.512,482.91,-49.316,999.512
1742380311.531,999.512,-171.387,-377.441,999.512
1742380311.535,525.879,-279.785,-322.266,719.238
1742380311.538,-1000.0,-917.969,-359.863,-887.207
1742380311.542,-410.645,314.453,14.16,-388.672
1742380311.546,955.078,598.145,58.105,988.77
1742380311.55,999.512,-288.574,-338.867,999.512
1742380311.554,408.203,-464.844,-359.863,472.656
1742380311.511,999.512,-440.918,-378.906,999.512
1742380311.515,386.719,-459.473,-399.902,709.473
1742380311.519,-1000.0,-828.613,-465.332,-900.391
1742380311.523,-219.727,371.094,-36.133,-280.273
1742380311.527,999.512,482.91,-49.316,999.512
1742380311.531,999.512,-171.387,-377.441,999.512
1742380311.535,525.879,-279.785,-322.266,719.238
1742380311.538,-1000.0,-917.969,-359.863,-887.207
1742380311.542,-410.645,314.453,14.16,-388.672
1742380311.546,955.078,598.145,58.105,988.77
1742380311.55,999.512,-288.574,-338.867,999.512
1742380311.554,408.203,-464.844,-359.863,472.656
1742380311.554,-1000.0,-942.383,-424.805,-1000.0
1742380311.558,-696.289,85.938,-71.777,-665.527
1742380311.562,751.465,725.098,109.375,793.945
1742380311.566,999.512,-128.906,-249.512,999.512
1742380311.57,656.738,-324.219,-249.023,629.883
1742380311.574,-681.152,-663.574,-350.586,-691.406
1742380311.578,-1000.0,-16.602,-105.957,-1000.0
1742380311.581,353.027,603.027,167.969,362.305
1742380311.585,999.512,-249.023,-167.969,999.512
1742380311.589,647.461,-526.367,-258.301,619.141
1742380311.593,-692.383,-615.234,-305.664,-709.473
1742380311.597,-1000.0,-171.387,-86.426,-1000.0
1742380311.554,-1000.0,-942.383,-424.805,-1000.0
1742380311.558,-696.289,85.938,-71.777,-665.527
1742380311.562,751.465,725.098,109.375,793.945
1742380311.566,999.512,-128.906,-249.512,999.512
1742380311.57,656.738,-324.219,-249.023,629.883
1742380311.574,-681.152,-663.574,-350.586,-691.406
1742380311.578,-1000.0,-16.602,-105.957,-1000.0
1742380311.581,353.027,603.027,167.969,362.305
1742380311.585,999.512,-249.023,-167.969,999.512
1742380311.589,647.461,-526.367,-258.301,619.141
1742380311.593,-692.383,-615.234,-305.664,-709.473
1742380311.597,-1000.0,-171.387,-86.426,-1000.0
1742380311.554,-1000.0,-942.383,-424.805,-1000.0
1742380311.558,-696.289,85.938,-71.777,-665.527
1742380311.562,751.465,725.098,109.375,793.945
1742380311.566,999.512,-128.906,-249.512,999.512
1742380311.57,656.738,-324.219,-249.023,629.883
1742380311.574,-681.152,-663.574,-350.586,-691.406
1742380311.578,-1000.0,-16.602,-105.957,-1000.0
1742380311.581,353.027,603.027,167.969,362.305
1742380311.585,999.512,-249.023,-167.969,999.512
1742380311.589,647.461,-526.367,-258.301,619.141
1742380311.593,-692.383,-615.234,-305.664,-709.473
1742380311.597,-1000.0,-171.387,-86.426,-1000.0
1742380311.599,51.27,488.281,110.84,41.992
1742380311.603,999.512,141.602,-238.77,999.512
1742380311.607,999.512,-191.895,-369.629,951.172
1742380311.611,-197.754,-643.066,-412.598,-284.18
1742380311.615,-1000.0,-327.637,-203.125,-1000.0
1742380311.619,181.152,850.098,212.891,164.062
1742380311.623,999.512,73.242,-55.664,999.512
1742380311.626,999.512,-600.586,-257.324,999.512
1742380311.63,235.352,-662.598,-291.992,243.652
1742380311.634,-1000.0,-631.348,-214.355,-1000.0
1742380311.638,-76.172,600.098,166.504,-69.336
1742380311.642,999.512,230.469,-22.461,999.512
1742380311.599,51.27,488.281,110.84,41.992
1742380311.603,999.512,141.602,-238.77,999.512
1742380311.607,999.512,-191.895,-369.629,951.172
1742380311.611,-197.754,-643.066,-412.598,-284.18
1742380311.615,-1000.0,-327.637,-203.125,-1000.0
1742380311.619,181.152,850.098,212.891,164.062
1742380311.623,999.512,73.242,-55.664,999.512
1742380311.626,999.512,-600.586,-257.324,999.512
1742380311.63,235.352,-662.598,-291.992,243.652
1742380311.634,-1000.0,-631.348,-214.355,-1000.0
1742380311.638,-76.172,600.098,166.504,-69.336
1742380311.642,999.512,230.469,-22.461,999.512
1742380311.659,862.305,-391.113,-256.836,867.676
1742380311.663,999.512,-38.086,-291.016,999.512
1742380311.667,52.734,-657.227,-269.531,39.062
1742380311.671,-283.203,21.484,143.555,-230.957
1742380311.675,999.512,447.266,27.832,999.512
1742380311.679,976.074,-232.422,-277.832,967.285
1742380311.683,932.617,-64.453,-270.02,938.477
1742380311.686,972.656,-162.598,-266.602,972.168
1742380311.69,966.309,-8.301,81.543,966.797
1742380311.694,966.309,0.977,73.242,966.797
1742380311.698,966.309,-238.77,-169.434,966.797
1742380311.702,965.82,-197.266,-57.129,967.285
1742380311.659,862.305,-391.113,-256.836,867.676
1742380311.663,999.512,-38.086,-291.016,999.512
1742380311.667,52.734,-657.227,-269.531,39.062
1742380311.671,-283.203,21.484,143.555,-230.957
1742380311.675,999.512,447.266,27.832,999.512
1742380311.679,976.074,-232.422,-277.832,967.285
1742380311.683,932.617,-64.453,-270.02,938.477
1742380311.686,972.656,-162.598,-266.602,972.168
1742380311.69,966.309,-8.301,81.543,966.797
1742380311.694,966.309,0.977,73.242,966.797
1742380311.698,966.309,-238.77,-169.434,966.797
1742380311.702,965.82,-197.266,-57.129,967.285
1742380311.659,862.305,-391.113,-256.836,867.676
1742380311.663,999.512,-38.086,-291.016,999.512
1742380311.667,52.734,-657.227,-269.531,39.062
1742380311.671,-283.203,21.484,143.555,-230.957
1742380311.675,999.512,447.266,27.832,999.512
1742380311.679,976.074,-232.422,-277.832,967.285
1742380311.683,932.617,-64.453,-270.02,938.477
1742380311.686,972.656,-162.598,-266.602,972.168
1742380311.69,966.309,-8.301,81.543,966.797
1742380311.694,966.309,0.977,73.242,966.797
1742380311.698,966.309,-238.77,-169.434,966.797
1742380311.702,965.82,-197.266,-57.129,967.285
1742380311.704,966.309,-193.359,-12.695,967.285
1742380311.708,966.309,219.727,305.664,967.285
1742380311.712,966.309,169.922,315.43,966.797
1742380311.716,966.309,-192.871,-61.523,967.285
1742380311.72,966.309,-141.113,-126.465,967.285
1742380311.724,966.309,-42.969,-166.992,966.797
1742380311.728,966.309,207.52,114.258,966.797
1742380311.731,979.98,-0.488,186.035,966.797
1742380311.735,904.785,-251.465,-125.488,966.797
1742380311.739,999.512,-4.395,-93.75,966.797
1742380311.743,596.191,-288.574,-129.883,966.797
1742380311.747,97.168,50.293,156.738,966.797
1742380311.704,966.309,-193.359,-12.695,967.285
1742380311.708,966.309,219.727,305.664,967.285
1742380311.712,966.309,169.922,315.43,966.797
1742380311.716,966.309,-192.871,-61.523,967.285
1742380311.72,966.309,-141.113,-126.465,967.285
1742380311.724,966.309,-42.969,-166.992,966.797
1742380311.728,966.309,207.52,114.258,966.797
1742380311.731,979.98,-0.488,186.035,966.797
1742380311.735,904.785,-251.465,-125.488,966.797
1742380311.739,999.512,-4.395,-93.75,966.797
1742380311.743,596.191,-288.574,-129.883,966.797
1742380311.747,97.168,50.293,156.738,966.797
1742380311.749,957.52,472.656,395.508,967.285
1742380311.753,967.773,-145.996,47.363,967.285
1742380311.757,999.512,-30.273,-24.902,966.797
1742380311.761,843.262,-148.926,-75.684,966.797
1742380311.765,251.953,21.484,156.738,966.797
1742380311.769,827.148,686.035,411.621,966.797
1742380311.773,972.168,156.738,-7.812,966.797
1742380311.776,999.512,-34.18,-181.152,966.797
1742380311.78,63.477,-448.242,-263.184,966.797
1742380311.784,-645.508,-220.215,-138.672,966.797
1742380311.788,815.43,720.703,283.691,966.797
1742380311.792,999.512,59.57,76.66,966.797
1742380311.749,957.52,472.656,395.508,967.285
1742380311.753,967.773,-145.996,47.363,967.285
1742380311.757,999.512,-30.273,-24.902,966.797
1742380311.761,843.262,-148.926,-75.684,966.797
1742380311.765,251.953,21.484,156.738,966.797
1742380311.769,827.148,686.035,411.621,966.797
1742380311.773,972.168,156.738,-7.812,966.797
1742380311.776,999.512,-34.18,-181.152,966.797
1742380311.78,63.477,-448.242,-263.184,966.797
1742380311.784,-645.508,-220.215,-138.672,966.797
1742380311.788,815.43,720.703,283.691,966.797
1742380311.792,999.512,59.57,76.66,966.797
1742380311.749,957.52,472.656,395.508,967.285
1742380311.753,967.773,-145.996,47.363,967.285
1742380311.757,999.512,-30.273,-24.902,966.797
1742380311.761,843.262,-148.926,-75.684,966.797
1742380311.765,251.953,21.484,156.738,966.797
1742380311.769,827.148,686.035,411.621,966.797
1742380311.773,972.168,156.738,-7.812,966.797
1742380311.776,999.512,-34.18,-181.152,966.797
1742380311.78,63.477,-448.242,-263.184,966.797
1742380311.784,-645.508,-220.215,-138.672,966.797
1742380311.788,815.43,720.703,283.691,966.797
1742380311.792,999.512,59.57,76.66,966.797
1742380311.809,730.957,-320.801,-202.148,966.797
1742380311.813,-729.98,-420.41,-246.094,966.797
1742380311.817,-894.043,80.078,-74.219,966.797
1742380311.821,668.457,752.441,288.086,975.098
1742380311.825,996.582,-21.484,4.883,929.688
1742380311.829,999.512,-81.055,-194.336,985.352
1742380311.833,148.926,-158.691,-174.316,999.512
1742380311.836,-1000.0,-708.496,-189.453,-433.594
1742380311.84,-138.672,463.867,214.844,-126.953
1742380311.844,999.512,378.906,31.738,999.512
1742380311.848,999.512,-244.629,-308.105,999.512
1742380311.852,6.836,-478.027,-316.895,303.223
1742380311.839,-1000.0,-700.195,-352.051,-1000.0
1742380311.843,-177.734,560.547,103.027,-178.711
1742380311.847,998.535,539.062,87.402,999.512
1742380311.851,999.512,-218.75,-357.422,999.512
1742380311.855,246.582,-353.516,-367.676,643.066
1742380311.859,-1000.0,-688.477,-394.043,-911.621
1742380311.863,-233.398,451.172,-24.902,-283.691
1742380311.866,995.605,594.727,35.645,999.512
1742380311.87,999.512,-518.555,-333.984,982.91
1742380311.874,705.078,-406.25,-291.016,832.52
1742380311.878,-843.262,-605.469,-321.777,-702.148
1742380311.882,-822.754,156.738,10.742,-759.277
1742380311.883,682.617,562.988,206.055,766.113
1742380311.887,999.512,-109.375,-103.516,999.512
1742380311.891,180.664,-491.211,-229.004,216.797
1742380311.895,-995.605,-751.465,-348.633,-986.816
1742380311.899,-1000.0,93.75,-81.543,-1000.0
1742380311.903,82.52,806.641,148.926,128.906
1742380311.907,999.512,124.512,-167.48,979.004
1742380311.91,-433.105,-744.629,-269.531,-542.969
1742380311.914,-1000.0,-550.781,-348.633,-1000.0
1742380311.918,-1000.0,-30.273,-113.281,-1000.0
1742380311.922,-200.684,756.348,230.469,-172.363
1742380311.926,980.957,376.465,-53.711,797.852
1742380311.883,682.617,562.988,206.055,766.113
1742380311.887,999.512,-109.375,-103.516,999.512
1742380311.891,180.664,-491.211,-229.004,216.797
1742380311.895,-995.605,-751.465,-348.633,-986.816
1742380311.899,-1000.0,93.75,-81.543,-1000.0
1742380311.903,82.52,806.641,148.926,128.906
1742380311.907,999.512,124.512,-167.48,979.004
1742380311.91,-433.105,-744.629,-269.531,-542.969
1742380311.914,-1000.0,-550.781,-348.633,-1000.0
1742380311.918,-1000.0,-30.273,-113.281,-1000.0
1742380311.922,-200.684,756.348,230.469,-172.363
1742380311.926,980.957,376.465,-53.711,797.852
1742380311.883,682.617,562.988,206.055,766.113
1742380311.887,999.512,-109.375,-103.516,999.512
1742380311.891,180.664,-491.211,-229.004,216.797
1742380311.895,-995.605,-751.465,-348.633,-986.816
1742380311.899,-1000.0,93.75,-81.543,-1000.0
1742380311.903,82.52,806.641,148.926,128.906
1742380311.907,999.512,124.512,-167.48,979.004
1742380311.91,-433.105,-744.629,-269.531,-542.969
1742380311.914,-1000.0,-550.781,-348.633,-1000.0
1742380311.918,-1000.0,-30.273,-113.281,-1000.0
1742380311.922,-200.684,756.348,230.469,-172.363
1742380311.926,980.957,376.465,-53.711,797.852
1742380311.93,-453.613,-815.43,-254.883,-685.059
1742380311.934,-1000.0,-346.68,-224.609,-1000.0
1742380311.938,-1000.0,232.422,59.082,-1000.0
1742380311.942,-106.934,614.258,330.078,-279.785
1742380311.946,999.512,312.012,40.527,999.512
1742380311.95,900.391,-156.25,-95.215,760.742
1742380311.954,-352.539,-363.281,-86.426,-582.031
1742380311.957,-1000.0,-364.258,15.137,-1000.0
1742380311.961,-212.891,545.41,357.91,-223.145
1742380311.965,999.512,546.387,135.254,999.512
1742380311.969,764.648,-319.824,-166.992,607.422
1742380311.973,-601.074,-674.316,-207.52,-753.906
1742380311.93,-453.613,-815.43,-254.883,-685.059
1742380311.934,-1000.0,-346.68,-224.609,-1000.0
1742380311.938,-1000.0,232.422,59.082,-1000.0
1742380311.942,-106.934,614.258,330.078,-279.785
1742380311.946,999.512,312.012,40.527,999.512
1742380311.95,900.391,-156.25,-95.215,760.742
1742380311.954,-352.539,-363.281,-86.426,-582.031
1742380311.957,-1000.0,-364.258,15.137,-1000.0
1742380311.961,-212.891,545.41,357.91,-223.145
1742380311.965,999.512,546.387,135.254,999.512
1742380311.969,764.648,-319.824,-166.992,607.422
1742380311.973,-601.074,-674.316,-207.52,-753.906
1742380311.989,-1000.0,-229.492,-111.328,-1000.0
1742380311.993,-186.035,696.777,297.363,-252.93
1742380311.997,999.512,512.207,98.633,999.512
1742380312.001,987.305,-152.344,-224.121,812.012
1742380312.005,-227.051,-588.379,-197.266,-478.027
1742380312.009,-1000.0,-398.438,-152.344,-1000.0
1742380312.013,-318.359,645.02,280.273,-447.754
1742380312.016,958.984,548.828,192.383,942.383
1742380312.02,999.512,-205.566,-166.504,931.641
1742380312.024,-129.883,-589.355,-177.246,-368.164
1742380312.028,-1000.0,-454.102,-295.898,-1000.0
1742380312.032,-447.754,475.098,39.062,-511.719
1742380311.989,-1000.0,-229.492,-111.328,-1000.0
1742380311.993,-186.035,696.777,297.363,-252.93
1742380311.997,999.512,512.207,98.633,999.512
1742380312.001,987.305,-152.344,-224.121,812.012
1742380312.005,-227.051,-588.379,-197.266,-478.027
1742380312.009,-1000.0,-398.438,-152.344,-1000.0
1742380312.013,-318.359,645.02,280.273,-447.754
1742380312.016,958.984,548.828,192.383,942.383
1742380312.02,999.512,-205.566,-166.504,931.641
1742380312.024,-129.883,-589.355,-177.246,-368.164
1742380312.028,-1000.0,-454.102,-295.898,-1000.0
1742380312.032,-447.754,475.098,39.062,-511.719
1742380311.989,-1000.0,-229.492,-111.328,-1000.0
1742380311.993,-186.035,696.777,297.363,-252.93
1742380311.997,999.512,512.207,98.633,999.512
1742380312.001,987.305,-152.344,-224.121,812.012
1742380312.005,-227.051,-588.379,-197.266,-478.027
1742380312.009,-1000.0,-398.438,-152.344,-1000.0
1742380312.013,-318.359,645.02,280.273,-447.754
1742380312.016,958.984,548.828,192.383,942.383
1742380312.02,999.512,-205.566,-166.504,931.641
1742380312.024,-129.883,-589.355,-177.246,-368.164
1742380312.028,-1000.0,-454.102,-295.898,-1000.0
1742380312.032,-447.754,475.098,39.062,-511.719
1742380312.034,873.047,625.488,99.121,798.34
1742380312.038,998.047,-70.312,-251.465,999.512
1742380312.042,988.281,-82.52,-132.324,857.422
1742380312.046,-468.75,-605.957,-195.312,-639.16
1742380312.05,-632.812,54.199,132.324,-618.652
1742380312.054,989.258,818.848,377.441,979.004
1742380312.058,908.203,-68.359,-32.715,909.18
1742380312.061,999.512,-86.426,-73.73,999.512
1742380312.065,251.953,-556.641,-116.699,234.375
1742380312.069,-654.785,-355.469,170.898,-615.234
1742380312.073,805.664,784.668,385.254,836.426
1742380312.077,999.512,51.758,25.879,999.512
1742380312.034,873.047,625.488,99.121,798.34
1742380312.038,998.047,-70.312,-251.465,999.512
1742380312.042,988.281,-82.52,-132.324,857.422
1742380312.046,-468.75,-605.957,-195.312,-639.16
1742380312.05,-632.812,54.199,132.324,-618.652
1742380312.054,989.258,818.848,377.441,979.004
1742380312.058,908.203,-68.359,-32.715,909.18
1742380312.061,999.512,-86.426,-73.73,999.512
1742380312.065,251.953,-556.641,-116.699,234.375
1742380312.069,-654.785,-355.469,170.898,-615.234
1742380312.073,805.664,784.668,385.254,836.426
1742380312.077,999.512,51.758,25.879,999.512
1742380312.034,873.047,625.488,99.121,798.34
1742380312.038,998.047,-70.312,-251.465,999.512
1742380312.042,988.281,-82.52,-132.324,857.422
1742380312.046,-468.75,-605.957,-195.312,-639.16
1742380312.05,-632.812,54.199,132.324,-618.652
1742380312.054,989.258,818.848,377.441,979.004
1742380312.058,908.203,-68.359,-32.715,909.18
1742380312.061,999.512,-86.426,-73.73,999.512
1742380312.065,251.953,-556.641,-116.699,234.375
1742380312.069,-654.785,-355.469,170.898,-615.234
1742380312.073,805.664,784.668,385.254,836.426
1742380312.077,999.512,51.758,25.879,999.512
1742380312.079,958.984,-303.223,-56.641,973.633
1742380312.083,923.828,-219.238,-176.758,886.23
1742380312.087,-340.82,-256.836,45.41,-240.723
1742380312.091,303.711,474.121,344.238,442.383
1742380312.095,999.512,-105.957,-12.695,999.512
1742380312.099,898.438,-569.824,-71.289,900.391
1742380312.103,999.512,-530.762,-38.574,999.512
1742380312.106,-287.598,-949.219,81.543,-94.238
1742380312.11,14.16,-82.031,399.902,191.895
1742380312.114,999.512,-280.273,70.312,999.512
1742380312.118,921.875,-1000.0,-175.293,889.16
1742380312.122,999.512,-949.707,-298.34,999.512
1742380312.079,958.984,-303.223,-56.641,973.633
1742380312.083,923.828,-219.238,-176.758,886.23
1742380312.087,-340.82,-256.836,45.41,-240.723
1742380312.091,303.711,474.121,344.238,442.383
1742380312.095,999.512,-105.957,-12.695,999.512
1742380312.099,898.438,-569.824,-71.289,900.391
1742380312.103,999.512,-530.762,-38.574,999.512
1742380312.106,-287.598,-949.219,81.543,-94.238
1742380312.11,14.16,-82.031,399.902,191.895
1742380312.114,999.512,-280.273,70.312,999.512
1742380312.118,921.875,-1000.0,-175.293,889.16
1742380312.122,999.512,-949.707,-298.34,999.512
1742380312.079,958.984,-303.223,-56.641,973.633
1742380312.083,923.828,-219.238,-176.758,886.23
1742380312.087,-340.82,-256.836,45.41,-240.723
1742380312.091,303.711,474.121,344.238,442.383
1742380312.095,999.512,-105.957,-12.695,999.512
1742380312.099,898.438,-569.824,-71.289,900.391
1742380312.103,999.512,-530.762,-38.574,999.512
1742380312.106,-287.598,-949.219,81.543,-94.238
1742380312.11,14.16,-82.031,399.902,191.895
1742380312.114,999.512,-280.273,70.312,999.512
1742380312.118,921.875,-1000.0,-175.293,889.16
1742380312.122,999.512,-949.707,-298.34,999.512
1742380312.124,-407.715,-1000.0,-296.875,-75.195
1742380312.128,-120.117,-243.164,68.848,25.879
1742380312.132,999.512,-288.574,-136.719,999.512
1742380312.136,917.48,-932.129,-371.094,924.316
1742380312.14,955.566,-902.832,-380.859,960.938
1742380312.144,968.262,-531.738,-279.297,967.773
1742380312.148,979.98,-25.879,116.699,975.586
1742380312.151,894.043,-517.578,-32.715,931.641
1742380312.155,999.512,-867.676,-307.617,973.145
1742380312.159,592.285,-708.008,-253.418,999.512
1742380312.163,-1000.0,-952.148,-239.258,-457.52
1742380312.167,-268.066,160.156,201.172,-311.035
1742380312.124,-407.715,-1000.0,-296.875,-75.195
1742380312.128,-120.117,-243.164,68.848,25.879
1742380312.132,999.512,-288.574,-136.719,999.512
1742380312.136,917.48,-932.129,-371.094,924.316
1742380312.14,955.566,-902.832,-380.859,960.938
1742380312.144,968.262,-531.738,-279.297,967.773
1742380312.148,979.98,-25.879,116.699,975.586
1742380312.151,894.043,-517.578,-32.715,931.641
1742380312.155,999.512,-867.676,-307.617,973.145
1742380312.159,592.285,-708.008,-253.418,999.512
1742380312.163,-1000.0,-952.148,-239.258,-457.52
1742380312.167,-268.066,160.156,201.172,-311.035
1742380312.124,-407.715,-1000.0,-296.875,-75.195
1742380312.128,-120.117,-243.164,68.848,25.879
1742380312.132,999.512,-288.574,-136.719,999.512
1742380312.136,917.48,-932.129,-371.094,924.316
1742380312.14,955.566,-902.832,-380.859,960.938
1742380312.144,968.262,-531.738,-279.297,967.773
1742380312.148,979.98,-25.879,116.699,975.586
1742380312.151,894.043,-517.578,-32.715,931.641
1742380312.155,999.512,-867.676,-307.617,973.145
1742380312.159,592.285,-708.008,-253.418,999.512
1742380312.163,-1000.0,-952.148,-239.258,-457.52
1742380312.167,-268.066,160.156,201.172,-311.035
1742380312.169,999.512,211.426,273.926,999.512
1742380312.173,868.164,-726.562,42.48,872.07
1742380312.177,999.512,-266.602,177.246,999.512
1742380312.181,85.449,-795.41,290.039,189.453
1742380312.185,-308.594,-180.664,711.914,-227.051
1742380312.189,961.426,567.383,776.855,978.516
1742380312.193,999.512,-348.633,457.52,999.512
1742380312.196,508.789,-615.234,323.242,858.887
1742380312.2,-1000.0,-1000.0,125.977,-692.871
1742380312.204,-501.465,-52.246,420.898,-477.539
1742380312.208,907.715,585.449,513.184,967.773
1742380312.212,999.512,-384.766,124.023,999.512
1742380312.169,999.512,211.426,273.926,999.512
1742380312.173,868.164,-726.562,42.48,872.07
1742380312.177,999.512,-266.602,177.246,999.512
1742380312.181,85.449,-795.41,290.039,189.453
1742380312.185,-308.594,-180.664,711.914,-227.051
1742380312.189,961.426,567.383,776.855,978.516
1742380312.193,999.512,-348.633,457.52,999.512
1742380312.196,508.789,-615.234,323.242,858.887
1742380312.2,-1000.0,-1000.0,125.977,-692.871
1742380312.204,-501.465,-52.246,420.898,-477.539
1742380312.208,907.715,585.449,513.184,967.773
1742380312.212,999.512,-384.766,124.023,999.512
1742380312.215,419.922,-628.906,11.23,643.555
1742380312.219,-1000.0,-869.141,-126.465,-891.602
1742380312.223,-833.984,-31.738,247.07,-787.598
1742380312.227,618.652,512.207,559.57,738.77
1742380312.231,999.512,-280.762,236.328,999.512
1742380312.235,969.238,-286.621,115.234,988.281
1742380312.239,-142.578,-626.953,-43.457,-100.586
1742380312.242,-1000.0,-728.027,95.703,-1000.0
1742380312.246,-88.379,93.75,309.082,0.977
1742380312.25,993.652,-56.152,51.27,999.512
1742380312.254,999.512,-319.336,360.352,999.512
1742380312.258,226.562,-671.387,578.125,217.285
1742380312.215,419.922,-628.906,11.23,643.555
1742380312.219,-1000.0,-869.141,-126.465,-891.602
1742380312.223,-833.984,-31.738,247.07,-787.598
1742380312.227,618.652,512.207,559.57,738.77
1742380312.231,999.512,-280.762,236.328,999.512
1742380312.235,969.238,-286.621,115.234,988.281
1742380312.239,-142.578,-626.953,-43.457,-100.586
1742380312.242,-1000.0,-728.027,95.703,-1000.0
1742380312.246,-88.379,93.75,309.082,0.977
1742380312.25,993.652,-56.152,51.27,999.512
1742380312.254,999.512,-319.336,360.352,999.512
1742380312.258,226.562,-671.387,578.125,217.285
1742380312.289,-1000.0,-753.906,485.84,-1000.0
1742380312.293,-227.539,439.941,458.008,-158.203
1742380312.297,999.512,157.227,-57.129,999.512
1742380312.301,958.984,-538.574,-284.668,969.238
1742380312.305,-283.691,-733.398,-305.664,-229.98
1742380312.309,-1000.0,-477.051,-205.566,-1000.0
1742380312.313,-133.789,542.48,186.523,-91.309
1742380312.316,976.562,38.574,19.043,993.652
1742380312.32,999.512,-434.57,-213.867,999.512
1742380312.324,216.309,-609.863,-267.09,196.777
1742380312.328,-1000.0,-810.547,-247.559,-1000.0
1742380312.332,-202.637,483.887,154.297,-199.707
1742380312.289,-1000.0,-753.906,485.84,-1000.0
1742380312.293,-227.539,439.941,458.008,-158.203
1742380312.297,999.512,157.227,-57.129,999.512
1742380312.301,958.984,-538.574,-284.668,969.238
1742380312.305,-283.691,-733.398,-305.664,-229.98
1742380312.309,-1000.0,-477.051,-205.566,-1000.0
1742380312.313,-133.789,542.48,186.523,-91.309
1742380312.316,976.562,38.574,19.043,993.652
1742380312.32,999.512,-434.57,-213.867,999.512
1742380312.324,216.309,-609.863,-267.09,196.777
1742380312.328,-1000.0,-810.547,-247.559,-1000.0
1742380312.332,-202.637,483.887,154.297,-199.707
1742380312.305,999.512,423.34,29.297,999.512
1742380312.309,999.512,-409.668,-244.629,999.512
1742380312.313,232.91,-636.719,-228.516,223.633
1742380312.317,-1000.0,-813.477,-219.238,-1000.0
1742380312.321,-433.105,285.645,137.207,-384.277
1742380312.325,909.18,665.039,65.918,933.105
1742380312.329,999.512,-149.414,-296.387,999.512
1742380312.332,205.078,-670.898,-335.938,172.363
1742380312.336,-1000.0,-944.336,-412.598,-1000.0
1742380312.34,-664.551,-7.812,-84.473,-641.113
1742380312.344,729.492,558.594,-36.621,732.422
1742380312.348,999.512,-123.535,-329.59,999.512
1742380312.305,999.512,423.34,29.297,999.512
1742380312.309,999.512,-409.668,-244.629,999.512
1742380312.313,232.91,-636.719,-228.516,223.633
1742380312.317,-1000.0,-813.477,-219.238,-1000.0
1742380312.321,-433.105,285.645,137.207,-384.277
1742380312.325,909.18,665.039,65.918,933.105
1742380312.329,999.512,-149.414,-296.387,999.512
1742380312.332,205.078,-670.898,-335.938,172.363
1742380312.336,-1000.0,-944.336,-412.598,-1000.0
1742380312.34,-664.551,-7.812,-84.473,-641.113
1742380312.344,729.492,558.594,-36.621,732.422
1742380312.348,999.512,-123.535,-329.59,999.512
1742380312.349,190.918,-618.652,-300.293,190.918
1742380312.353,-1000.0,-762.207,-411.133,-1000.0
1742380312.357,-696.777,183.594,-81.543,-712.402
1742380312.361,670.41,575.684,50.293,643.555
1742380312.365,999.512,-112.793,-298.828,999.512
1742380312.369,667.48,-270.996,-261.719,601.074
1742380312.373,-835.938,-860.84,-308.105,-874.023
1742380312.376,-883.301,-382.324,-23.438,-887.207
1742380312.38,637.695,641.113,244.629,592.773
1742380312.384,999.512,92.285,-14.16,999.512
1742380312.388,602.539,-506.836,-118.164,541.016
1742380312.392,-755.859,-808.105,-219.727,-807.617
1742380312.349,190.918,-618.652,-300.293,190.918
1742380312.353,-1000.0,-762.207,-411.133,-1000.0
1742380312.357,-696.777,183.594,-81.543,-712.402
1742380312.361,670.41,575.684,50.293,643.555
1742380312.365,999.512,-112.793,-298.828,999.512
1742380312.369,667.48,-270.996,-261.719,601.074
1742380312.373,-835.938,-860.84,-308.105,-874.023
1742380312.376,-883.301,-382.324,-23.438,-887.207
1742380312.38,637.695,641.113,244.629,592.773
1742380312.384,999.512,92.285,-14.16,999.512
1742380312.388,602.539,-506.836,-118.164,541.016
1742380312.392,-755.859,-808.105,-219.727,-807.617
1742380312.349,190.918,-618.652,-300.293,190.918
1742380312.353,-1000.0,-762.207,-411.133,-1000.0
1742380312.357,-696.777,183.594,-81.543,-712.402
1742380312.361,670.41,575.684,50.293,643.555
1742380312.365,999.512,-112.793,-298.828,999.512
1742380312.369,667.48,-270.996,-261.719,601.074
1742380312.373,-835.938,-860.84,-308.105,-874.023
1742380312.376,-883.301,-382.324,-23.438,-887.207
1742380312.38,637.695,641.113,244.629,592.773
1742380312.384,999.512,92.285,-14.16,999.512
1742380312.388,602.539,-506.836,-118.164,541.016
1742380312.392,-755.859,-808.105,-219.727,-807.617
1742380312.409,-1000.0,-255.859,-2.441,-1000.0
1742380312.413,180.176,632.324,271.484,193.359
1742380312.417,999.512,145.508,-29.785,999.512
1742380312.421,999.512,-238.281,-121.094,999.512
1742380312.425,-38.574,-618.652,-175.293,-114.746
1742380312.429,-1000.0,-262.207,47.363,-1000.0
1742380312.433,241.211,787.598,390.625,270.02
1742380312.436,999.512,50.781,71.289,999.512
1742380312.44,913.574,-296.875,-67.383,931.152
1742380312.444,999.512,-129.883,-51.758,994.629
1742380312.448,-388.672,-512.207,50.293,-409.18
1742380312.452,-104.004,485.84,443.848,-19.531
1742380312.409,-1000.0,-255.859,-2.441,-1000.0
1742380312.413,180.176,632.324,271.484,193.359
1742380312.417,999.512,145.508,-29.785,999.512
1742380312.421,999.512,-238.281,-121.094,999.512
1742380312.425,-38.574,-618.652,-175.293,-114.746
1742380312.429,-1000.0,-262.207,47.363,-1000.0
1742380312.433,241.211,787.598,390.625,270.02
1742380312.436,999.512,50.781,71.289,999.512
1742380312.44,913.574,-296.875,-67.383,931.152
1742380312.444,999.512,-129.883,-51.758,994.629
1742380312.448,-388.672,-512.207,50.293,-409.18
1742380312.452,-104.004,485.84,443.848,-19.531
1742380312.456,999.512,318.359,221.68,999.512
1742380312.46,915.039,-380.859,-30.273,909.668
1742380312.464,957.031,-85.938,-20.02,961.914
1742380312.468,967.773,7.324,61.523,967.773
1742380312.472,969.727,351.562,410.156,967.285
1742380312.476,948.73,172.852,236.328,966.309
1742380312.48,932.129,-185.059,-21.973,908.203
1742380312.483,999.512,-187.012,-9.766,999.512
1742380312.487,-221.68,-686.035,-41.016,37.598
1742380312.491,-329.59,48.828,351.562,-229.98
1742380312.495,999.512,592.773,314.941,999.512
1742380312.499,999.512,-90.82,-8.789,996.582
1742380312.456,999.512,318.359,221.68,999.512
1742380312.46,915.039,-380.859,-30.273,909.668
1742380312.464,957.031,-85.938,-20.02,961.914
1742380312.468,967.773,7.324,61.523,967.773
1742380312.472,969.727,351.562,410.156,967.285
1742380312.476,948.73,172.852,236.328,966.309
1742380312.48,932.129,-185.059,-21.973,908.203
1742380312.483,999.512,-187.012,-9.766,999.512
1742380312.487,-221.68,-686.035,-41.016,37.598
1742380312.491,-329.59,48.828,351.562,-229.98
1742380312.495,999.512,592.773,314.941,999.512
1742380312.499,999.512,-90.82,-8.789,996.582
1742380312.5,446.289,-353.516,-30.762,930.664
1742380312.504,-1000.0,-719.238,-43.945,-574.707
1742380312.508,-231.934,516.602,327.148,-307.129
1742380312.512,999.512,502.441,223.145,999.512
1742380312.516,999.512,-204.59,-128.418,999.512
1742380312.52,508.789,-117.188,-73.73,804.199
1742380312.524,-1000.0,-782.715,-179.199,-792.969
1742380312.527,-610.84,166.016,139.648,-571.289
1742380312.531,853.516,477.051,234.863,917.48
1742380312.535,999.512,-261.719,-80.078,999.512
1742380312.539,176.27,-421.875,-63.965,281.25
1742380312.543,-1000.0,-743.164,-141.602,-987.305
1742380312.5,446.289,-353.516,-30.762,930.664
1742380312.504,-1000.0,-719.238,-43.945,-574.707
1742380312.508,-231.934,516.602,327.148,-307.129
1742380312.512,999.512,502.441,223.145,999.512
1742380312.516,999.512,-204.59,-128.418,999.512
1742380312.52,508.789,-117.188,-73.73,804.199
1742380312.524,-1000.0,-782.715,-179.199,-792.969
1742380312.527,-610.84,166.016,139.648,-571.289
1742380312.531,853.516,477.051,234.863,917.48
1742380312.535,999.512,-261.719,-80.078,999.512
1742380312.539,176.27,-421.875,-63.965,281.25
1742380312.543,-1000.0,-743.164,-141.602,-987.305
1742380312.5,446.289,-353.516,-30.762,930.664
1742380312.504,-1000.0,-719.238,-43.945,-574.707
1742380312.508,-231.934,516.602,327.148,-307.129
1742380312.512,999.512,502.441,223.145,999.512
1742380312.516,999.512,-204.59,-128.418,999.512
1742380312.52,508.789,-117.188,-73.73,804.199
1742380312.524,-1000.0,-782.715,-179.199,-792.969
1742380312.527,-610.84,166.016,139.648,-571.289
1742380312.531,853.516,477.051,234.863,917.48
1742380312.535,999.512,-261.719,-80.078,999.512
1742380312.539,176.27,-421.875,-63.965,281.25
1742380312.543,-1000.0,-743.164,-141.602,-987.305
1742380312.544,-1000.0,-52.734,157.715,-1000.0
1742380312.548,0.488,578.613,345.703,110.84
1742380312.552,999.512,230.469,-3.906,999.512
1742380312.556,-4.883,-669.434,-80.566,-9.766
1742380312.56,-1000.0,-508.301,-83.008,-1000.0
1742380312.564,-1000.0,169.434,145.508,-1000.0
1742380312.568,-75.195,685.547,382.324,-52.246
1742380312.571,542.48,-20.508,3.418,489.258
1742380312.575,-977.539,-1000.0,-182.129,-1000.0
1742380312.579,-983.887,-384.277,-218.262,-972.656
1742380312.583,-1000.0,62.5,-62.988,-1000.0
1742380312.587,-632.324,456.543,205.078,-626.953
1742380312.589,919.434,461.426,-72.266,669.922
1742380312.593,-142.578,-566.895,-215.332,-435.547
1742380312.597,-1000.0,-506.348,-211.426,-1000.0
1742380312.601,-1000.0,-36.133,-43.945,-1000.0
1742380312.605,-327.637,486.328,276.855,-553.711
1742380312.609,999.512,684.57,31.25,913.086
1742380312.613,-22.461,-405.762,-193.848,-221.191
1742380312.616,-1000.0,-637.207,-188.965,-1000.0
1742380312.62,-1000.0,-537.598,-123.535,-1000.0
1742380312.624,-413.086,212.402,227.539,-720.215
1742380312.628,999.512,659.18,66.895,641.602
1742380312.632,-134.766,-570.801,-212.891,-333.984
1742380312.634,-1000.0,-587.402,-185.547,-1000.0
1742380312.638,-1000.0,-145.508,-146.973,-1000.0
1742380312.642,-349.121,537.598,248.535,-669.434
1742380312.646,999.512,624.512,179.688,842.773
1742380312.65,-6.836,-642.09,-168.945,-145.996
1742380312.654,-1000.0,-367.188,-148.438,-1000.0
1742380312.658,-1000.0,-90.82,-185.547,-966.797
1742380312.661,-574.219,143.066,131.836,-964.844
1742380312.665,999.512,653.809,198.73,593.262
1742380312.669,212.402,-405.273,-124.512,256.836
1742380312.673,-1000.0,-655.762,-156.25,-1000.0
1742380312.677,-1000.0,-252.93,-149.414,-1000.0
1742380312.634,-1000.0,-587.402,-185.547,-1000.0
1742380312.638,-1000.0,-145.508,-146.973,-1000.0
1742380312.642,-349.121,537.598,248.535,-669.434
1742380312.646,999.512,624.512,179.688,842.773
1742380312.65,-6.836,-642.09,-168.945,-145.996
1742380312.654,-1000.0,-367.188,-148.438,-1000.0
1742380312.658,-1000.0,-90.82,-185.547,-966.797
1742380312.661,-574.219,143.066,131.836,-964.844
1742380312.665,999.512,653.809,198.73,593.262
1742380312.669,212.402,-405.273,-124.512,256.836
1742380312.673,-1000.0,-655.762,-156.25,-1000.0
1742380312.677,-1000.0,-252.93,-149.414,-1000.0
1742380312.679,-498.047,215.332,190.43,-839.355
1742380312.683,833.496,655.273,274.902,505.859
1742380312.687,999.512,86.914,-67.383,999.512
1742380312.691,179.199,-549.316,-103.027,-38.574
1742380312.695,-1000.0,-707.52,-197.266,-1000.0
1742380312.699,-378.906,409.18,103.027,-540.039
1742380312.703,929.199,680.176,276.855,812.988
1742380312.706,999.512,-222.656,-105.957,999.512
1742380312.71,157.715,-690.43,-157.227,65.918
1742380312.714,-1000.0,-722.656,-199.219,-1000.0
1742380312.718,-1000.0,-47.852,59.57,-1000.0
1742380312.722,-7.324,759.277,348.633,-76.66
1742380312.679,-498.047,215.332,190.43,-839.355
