timestamps,TP9,AF7,AF8,TP10
1742383151.961,999.512,402.832,10.254,999.512
1742383151.964,219.727,-655.273,-246.582,225.098
1742383151.968,-1000.0,-989.258,-171.875,-1000.0
1742383151.972,-876.953,-73.242,57.129,-878.418
1742383151.976,523.926,904.297,180.176,526.367
1742383151.98,999.512,490.234,-10.254,999.512
1742383151.961,999.512,402.832,10.254,999.512
1742383151.964,219.727,-655.273,-246.582,225.098
1742383151.968,-1000.0,-989.258,-171.875,-1000.0
1742383151.972,-876.953,-73.242,57.129,-878.418
1742383151.976,523.926,904.297,180.176,526.367
1742383151.98,999.512,490.234,-10.254,999.512
1742383151.961,999.512,402.832,10.254,999.512
1742383151.964,219.727,-655.273,-246.582,225.098
1742383151.968,-1000.0,-989.258,-171.875,-1000.0
1742383151.972,-876.953,-73.242,57.129,-878.418
1742383151.976,523.926,904.297,180.176,526.367
1742383151.98,999.512,490.234,-10.254,999.512
1742383151.98,497.559,-577.148,-256.836,506.836
1742383151.984,-950.684,-1000.0,-199.219,-927.734
1742383151.988,-919.434,-42.48,75.684,-944.336
1742383151.992,554.688,921.875,232.422,522.949
1742383151.996,999.512,426.27,52.246,999.512
1742383152.0,762.695,-122.559,-152.344,757.812
1742383152.004,-652.832,-827.637,-149.902,-653.809
1742383152.007,-1000.0,-729.004,83.496,-1000.0
1742383152.011,300.781,701.172,316.406,289.551
1742383152.015,999.512,968.75,182.129,999.512
1742383152.019,791.504,-329.102,-92.773,784.18
1742383152.023,-580.078,-1000.0,-143.066,-586.426
1742383151.98,497.559,-577.148,-256.836,506.836
1742383151.984,-950.684,-1000.0,-199.219,-927.734
1742383151.988,-919.434,-42.48,75.684,-944.336
1742383151.992,554.688,921.875,232.422,522.949
1742383151.996,999.512,426.27,52.246,999.512
1742383152.0,762.695,-122.559,-152.344,757.812
1742383152.004,-652.832,-827.637,-149.902,-653.809
1742383152.007,-1000.0,-729.004,83.496,-1000.0
1742383152.011,300.781,701.172,316.406,289.551
1742383152.015,999.512,968.75,182.129,999.512
1742383152.019,791.504,-329.102,-92.773,784.18
1742383152.023,-580.078,-1000.0,-143.066,-586.426
1742383152.04,-1000.0,-412.598,80.078,-1000.0
1742383152.044,58.105,701.66,286.621,18.555
1742383152.048,999.512,848.633,181.641,999.512
1742383152.052,809.57,-263.184,-111.328,816.895
1742383152.056,-547.363,-943.359,-238.281,-550.781
1742383152.06,-1000.0,-119.629,0.488,-1000.0
1742383152.064,-293.945,861.816,205.566,-299.316
1742383152.067,999.512,692.871,104.492,999.512
1742383152.071,845.703,-271.484,-152.344,857.422
1742383152.075,-560.059,-987.305,-305.176,-549.316
1742383152.079,-1000.0,-771.484,-83.008,-1000.0
1742383152.083,-625.488,430.176,172.852,-615.234
1742383152.04,-1000.0,-412.598,80.078,-1000.0
1742383152.044,58.105,701.66,286.621,18.555
1742383152.048,999.512,848.633,181.641,999.512
1742383152.052,809.57,-263.184,-111.328,816.895
1742383152.056,-547.363,-943.359,-238.281,-550.781
1742383152.06,-1000.0,-119.629,0.488,-1000.0
1742383152.064,-293.945,861.816,205.566,-299.316
1742383152.067,999.512,692.871,104.492,999.512
1742383152.071,845.703,-271.484,-152.344,857.422
1742383152.075,-560.059,-987.305,-305.176,-549.316
1742383152.079,-1000.0,-771.484,-83.008,-1000.0
1742383152.083,-625.488,430.176,172.852,-615.234
1742383152.085,831.055,965.332,158.203,825.684
1742383152.089,973.633,-71.777,-116.211,979.98
1742383152.093,-482.422,-897.461,-312.5,-469.727
1742383152.097,-1000.0,-437.012,-111.816,-1000.0
1742383152.101,-781.25,147.949,127.441,-785.645
1742383152.105,646.484,837.891,202.148,629.883
1742383152.109,999.512,378.906,-46.387,999.512
1742383152.112,-354.004,-884.277,-302.246,-320.801
1742383152.116,-1000.0,-928.711,-147.461,-1000.0
1742383152.12,-828.613,32.227,96.68,-823.242
1742383152.124,509.766,887.207,198.73,520.508
1742383152.128,999.512,488.281,-4.883,999.512
1742383152.085,831.055,965.332,158.203,825.684
1742383152.089,973.633,-71.777,-116.211,979.98
1742383152.093,-482.422,-897.461,-312.5,-469.727
1742383152.097,-1000.0,-437.012,-111.816,-1000.0
1742383152.101,-781.25,147.949,127.441,-785.645
1742383152.105,646.484,837.891,202.148,629.883
1742383152.109,999.512,378.906,-46.387,999.512
1742383152.112,-354.004,-884.277,-302.246,-320.801
1742383152.116,-1000.0,-928.711,-147.461,-1000.0
1742383152.12,-828.613,32.227,96.68,-823.242
1742383152.124,509.766,887.207,198.73,520.508
1742383152.128,999.512,488.281,-4.883,999.512
1742383152.133,82.031,-687.5,-282.715,106.445
1742383152.137,-1000.0,-976.074,-185.547,-1000.0
1742383152.141,-854.98,177.734,112.793,-859.863
1742383152.145,512.695,931.641,195.801,517.09
1742383152.149,999.512,365.723,-15.625,999.512
1742383152.153,534.18,-352.539,-233.887,526.367
1742383152.157,-911.621,-887.695,-199.219,-903.809
1742383152.16,-971.68,-352.051,38.086,-981.445
1742383152.164,479.492,796.387,196.777,460.449
1742383152.168,999.512,604.004,16.113,999.512
1742383152.172,624.023,-545.41,-245.605,625.488
1742383152.176,-811.523,-963.867,-241.699,-806.641
1742383152.133,82.031,-687.5,-282.715,106.445
1742383152.137,-1000.0,-976.074,-185.547,-1000.0
1742383152.141,-854.98,177.734,112.793,-859.863
1742383152.145,512.695,931.641,195.801,517.09
1742383152.149,999.512,365.723,-15.625,999.512
1742383152.153,534.18,-352.539,-233.887,526.367
1742383152.157,-911.621,-887.695,-199.219,-903.809
1742383152.16,-971.68,-352.051,38.086,-981.445
1742383152.164,479.492,796.387,196.777,460.449
1742383152.168,999.512,604.004,16.113,999.512
1742383152.172,624.023,-545.41,-245.605,625.488
1742383152.176,-811.523,-963.867,-241.699,-806.641
1742383152.175,-1000.0,-167.48,12.695,-1000.0
1742383152.179,343.75,812.988,219.727,345.703
1742383152.183,999.512,990.234,95.703,999.512
1742383152.187,732.91,-93.75,-203.125,747.559
1742383152.191,-676.27,-999.023,-285.156,-647.461
1742383152.195,-1000.0,-183.105,-40.039,-1000.0
1742383152.199,205.078,911.621,156.25,154.297
1742383152.202,999.512,561.035,32.227,999.512
1742383152.206,800.293,-645.996,-213.867,801.758
1742383152.21,-547.363,-1000.0,-299.805,-554.688
1742383152.214,-1000.0,-474.121,-66.406,-1000.0
1742383152.218,-149.414,633.301,186.035,-192.383
1742383152.175,-1000.0,-167.48,12.695,-1000.0
1742383152.179,343.75,812.988,219.727,345.703
1742383152.183,999.512,990.234,95.703,999.512
1742383152.187,732.91,-93.75,-203.125,747.559
1742383152.191,-676.27,-999.023,-285.156,-647.461
1742383152.195,-1000.0,-183.105,-40.039,-1000.0
1742383152.199,205.078,911.621,156.25,154.297
1742383152.202,999.512,561.035,32.227,999.512
1742383152.206,800.293,-645.996,-213.867,801.758
1742383152.21,-547.363,-1000.0,-299.805,-554.688
1742383152.214,-1000.0,-474.121,-66.406,-1000.0
1742383152.218,-149.414,633.301,186.035,-192.383
1742383152.221,999.512,930.176,121.582,999.512
1742383152.225,828.125,-115.723,-151.855,836.914
1742383152.229,-551.27,-955.078,-278.32,-556.152
1742383152.233,-1000.0,-409.668,-32.715,-1000.0
1742383152.237,-495.605,668.457,191.895,-491.699
1742383152.241,921.387,950.684,150.879,910.156
1742383152.245,908.691,61.035,-128.418,927.246
1742383152.248,-535.645,-934.57,-343.262,-505.371
1742383152.252,-1000.0,-906.738,-168.945,-1000.0
1742383152.256,-738.281,160.156,93.75,-731.934
1742383152.26,672.852,926.27,139.16,672.852
1742383152.264,999.512,185.547,-82.031,999.512
1742383152.265,-278.32,-846.68,-297.852,-238.281
1742383152.269,-1000.0,-819.336,-147.461,-1000.0
1742383152.273,-768.555,198.73,121.582,-776.855
1742383152.277,592.285,886.23,180.176,582.52
1742383152.281,999.512,131.836,-89.355,999.512
1742383152.285,99.609,-682.617,-330.078,147.949
1742383152.289,-1000.0,-873.047,-246.582,-1000.0
1742383152.292,-862.793,-256.836,-25.391,-870.117
1742383152.296,519.531,777.344,93.75,523.438
1742383152.3,999.512,509.277,-101.562,999.512
1742383152.304,395.996,-574.219,-329.102,418.945
1742383152.308,-989.746,-993.652,-260.254,-972.168
1742383152.265,-278.32,-846.68,-297.852,-238.281
1742383152.269,-1000.0,-819.336,-147.461,-1000.0
1742383152.273,-768.555,198.73,121.582,-776.855
1742383152.277,592.285,886.23,180.176,582.52
1742383152.281,999.512,131.836,-89.355,999.512
1742383152.285,99.609,-682.617,-330.078,147.949
1742383152.289,-1000.0,-873.047,-246.582,-1000.0
1742383152.292,-862.793,-256.836,-25.391,-870.117
1742383152.296,519.531,777.344,93.75,523.438
1742383152.3,999.512,509.277,-101.562,999.512
1742383152.304,395.996,-574.219,-329.102,418.945
1742383152.308,-989.746,-993.652,-260.254,-972.168
1742383152.777,999.512,277.832,-32.715,999.512
1742383152.781,97.168,-827.637,-261.719,120.117
1742383152.785,-1000.0,-926.27,-186.035,-1000.0
1742383152.789,-863.77,-26.367,36.133,-867.188
1742383152.793,520.508,924.805,149.902,522.461
1742383152.797,999.512,766.113,-39.551,999.512
1742383152.801,369.629,-616.699,-302.734,398.926
1742383152.804,-992.188,-1000.0,-208.984,-974.121
1742383152.808,-929.688,102.539,63.965,-942.383
1742383152.812,487.305,873.535,177.734,479.492
1742383152.816,999.512,355.957,-1.465,999.512
1742383152.82,664.062,-577.148,-236.328,671.875
1742383152.312,-911.133,-78.125,9.277,-929.688
1742383152.316,523.438,869.629,161.621,506.348
1742383152.32,999.512,470.215,-14.648,999.512
1742383152.324,627.93,-443.848,-234.863,628.906
1742383152.328,-847.168,-928.223,-180.176,-831.055
1742383152.332,-989.258,155.762,120.605,-1000.0
1742383152.336,498.047,999.512,300.781,462.402
1742383152.339,999.512,325.684,103.027,999.512
1742383152.343,749.512,-495.117,-133.789,755.371
1742383152.347,-644.043,-946.289,-147.949,-628.418
1742383152.351,-1000.0,-489.746,85.449,-1000.0
1742383152.355,196.777,743.652,300.293,147.461
1742383152.312,-911.133,-78.125,9.277,-929.688
1742383152.316,523.438,869.629,161.621,506.348
1742383152.32,999.512,470.215,-14.648,999.512
1742383152.324,627.93,-443.848,-234.863,628.906
1742383152.328,-847.168,-928.223,-180.176,-831.055
1742383152.332,-989.258,155.762,120.605,-1000.0
1742383152.336,498.047,999.512,300.781,462.402
1742383152.339,999.512,325.684,103.027,999.512
1742383152.343,749.512,-495.117,-133.789,755.371
1742383152.347,-644.043,-946.289,-147.949,-628.418
1742383152.351,-1000.0,-489.746,85.449,-1000.0
1742383152.355,196.777,743.652,300.293,147.461
1742383152.312,-911.133,-78.125,9.277,-929.688
1742383152.316,523.438,869.629,161.621,506.348
1742383152.32,999.512,470.215,-14.648,999.512
1742383152.324,627.93,-443.848,-234.863,628.906
1742383152.328,-847.168,-928.223,-180.176,-831.055
1742383152.332,-989.258,155.762,120.605,-1000.0
1742383152.336,498.047,999.512,300.781,462.402
1742383152.339,999.512,325.684,103.027,999.512
1742383152.343,749.512,-495.117,-133.789,755.371
1742383152.347,-644.043,-946.289,-147.949,-628.418
1742383152.351,-1000.0,-489.746,85.449,-1000.0
1742383152.355,196.777,743.652,300.293,147.461
1742383152.356,999.512,999.512,174.805,999.512
1742383152.36,788.574,-234.863,-126.465,789.551
1742383152.364,-532.227,-892.578,-204.59,-546.875
1742383152.368,-1000.0,-204.102,6.836,-1000.0
1742383152.372,-391.113,350.098,160.156,-386.719
1742383152.376,975.586,923.828,107.91,972.656
1742383152.38,863.77,270.02,-163.574,865.723
1742383152.383,-567.871,-926.27,-343.262,-569.824
1742383152.387,-1000.0,-732.91,-104.492,-1000.0
1742383152.391,-549.805,394.043,125.488,-541.992
1742383152.395,892.09,939.941,70.801,880.859
1742383152.399,926.758,69.336,-161.133,941.406
1742383152.416,-524.414,-907.227,-312.012,-499.023
1742383152.42,-1000.0,-722.656,-108.398,-1000.0
1742383152.424,-679.688,268.555,156.738,-682.617
1742383152.428,737.305,871.582,150.391,732.91
1742383152.432,999.512,114.258,-117.188,999.512
1742383152.436,-301.758,-842.285,-295.898,-295.898
1742383152.44,-1000.0,-904.297,-155.762,-1000.0
1742383152.443,-853.027,-14.648,59.57,-837.402
1742383152.447,546.387,860.352,113.77,555.664
1742383152.451,999.512,305.664,-96.68,999.512
1742383152.455,-255.371,-880.371,-312.012,-182.617
1742383152.459,-1000.0,-858.398,-190.43,-1000.0
1742383152.416,-524.414,-907.227,-312.012,-499.023
1742383152.42,-1000.0,-722.656,-108.398,-1000.0
1742383152.424,-679.688,268.555,156.738,-682.617
1742383152.428,737.305,871.582,150.391,732.91
1742383152.432,999.512,114.258,-117.188,999.512
1742383152.436,-301.758,-842.285,-295.898,-295.898
1742383152.44,-1000.0,-904.297,-155.762,-1000.0
1742383152.443,-853.027,-14.648,59.57,-837.402
1742383152.447,546.387,860.352,113.77,555.664
1742383152.451,999.512,305.664,-96.68,999.512
1742383152.455,-255.371,-880.371,-312.012,-182.617
1742383152.459,-1000.0,-858.398,-190.43,-1000.0
1742383152.925,999.512,261.719,-70.801,999.512
1742383152.929,-222.168,-766.113,-269.043,-208.008
1742383152.933,-1000.0,-779.297,-108.398,-1000.0
1742383152.937,-846.191,395.02,130.859,-839.355
1742383152.941,537.109,905.762,119.141,548.34
1742383152.945,999.512,575.684,-69.824,999.512
1742383152.949,-104.004,-601.562,-299.316,-67.871
1742383152.952,-1000.0,-1000.0,-206.055,-1000.0
1742383152.956,-832.031,49.805,53.223,-839.355
1742383152.96,500.977,835.449,155.273,506.348
1742383152.964,999.512,316.895,-43.457,999.512
1742383152.968,473.633,-491.699,-284.668,457.031
1742383152.46,-824.219,166.016,21.484,-833.984
1742383152.464,500.977,864.746,71.777,507.812
1742383152.468,999.512,628.906,-83.984,999.512
1742383152.472,275.879,-467.773,-307.129,274.414
1742383152.476,-1000.0,-975.098,-269.043,-1000.0
1742383152.48,-886.23,220.215,0.0,-905.273
1742383152.484,528.809,999.512,152.832,503.418
1742383152.487,999.512,318.848,-59.082,999.512
1742383152.491,465.332,-785.645,-307.617,469.238
1742383152.495,-929.688,-1000.0,-251.465,-916.504
1742383152.499,-1000.0,-225.098,-10.742,-1000.0
1742383152.503,400.879,848.633,149.414,385.254
1742383152.46,-824.219,166.016,21.484,-833.984
1742383152.464,500.977,864.746,71.777,507.812
1742383152.468,999.512,628.906,-83.984,999.512
1742383152.472,275.879,-467.773,-307.129,274.414
1742383152.476,-1000.0,-975.098,-269.043,-1000.0
1742383152.48,-886.23,220.215,0.0,-905.273
1742383152.484,528.809,999.512,152.832,503.418
1742383152.487,999.512,318.848,-59.082,999.512
1742383152.491,465.332,-785.645,-307.617,469.238
1742383152.495,-929.688,-1000.0,-251.465,-916.504
1742383152.499,-1000.0,-225.098,-10.742,-1000.0
1742383152.503,400.879,848.633,149.414,385.254
1742383152.507,999.512,740.723,-10.742,999.512
1742383152.511,672.363,-400.391,-265.625,679.688
1742383152.515,-745.117,-961.914,-279.785,-729.492
1742383152.519,-1000.0,-112.305,-26.855,-1000.0
1742383152.523,249.023,851.074,177.246,210.449
1742383152.527,999.512,930.664,61.035,999.512
1742383152.531,787.109,-82.52,-202.637,781.25
1742383152.534,-549.316,-907.715,-273.438,-562.5
1742383152.538,-1000.0,-457.031,-70.312,-1000.0
1742383152.542,-207.031,489.258,117.676,-231.934
1742383152.546,999.512,770.508,42.969,999.512
1742383152.55,841.309,-125.488,-194.824,844.727
1742383152.507,999.512,740.723,-10.742,999.512
1742383152.511,672.363,-400.391,-265.625,679.688
1742383152.515,-745.117,-961.914,-279.785,-729.492
1742383152.519,-1000.0,-112.305,-26.855,-1000.0
1742383152.523,249.023,851.074,177.246,210.449
1742383152.527,999.512,930.664,61.035,999.512
1742383152.531,787.109,-82.52,-202.637,781.25
1742383152.534,-549.316,-907.715,-273.438,-562.5
1742383152.538,-1000.0,-457.031,-70.312,-1000.0
1742383152.542,-207.031,489.258,117.676,-231.934
1742383152.546,999.512,770.508,42.969,999.512
1742383152.55,841.309,-125.488,-194.824,844.727
1742383152.55,-560.547,-894.043,-282.715,-561.035
1742383152.554,-1000.0,-552.734,2.441,-1000.0
1742383152.558,-395.02,458.496,311.523,-436.035
1742383152.562,963.379,883.789,236.816,940.918
1742383152.566,890.625,-70.312,-22.461,906.738
1742383152.57,-525.879,-982.422,-132.812,-516.602
1742383152.574,-1000.0,-729.98,38.086,-1000.0
1742383152.577,-676.758,357.422,269.043,-677.734
1742383152.581,755.859,930.176,274.414,751.953
1742383152.585,999.512,265.137,51.27,999.512
1742383152.589,-363.281,-821.777,-137.207,-363.281
1742383152.593,-1000.0,-803.223,0.977,-1000.0
1742383152.55,-560.547,-894.043,-282.715,-561.035
1742383152.554,-1000.0,-552.734,2.441,-1000.0
1742383152.558,-395.02,458.496,311.523,-436.035
1742383152.562,963.379,883.789,236.816,940.918
1742383152.566,890.625,-70.312,-22.461,906.738
1742383152.57,-525.879,-982.422,-132.812,-516.602
1742383152.574,-1000.0,-729.98,38.086,-1000.0
1742383152.577,-676.758,357.422,269.043,-677.734
1742383152.581,755.859,930.176,274.414,751.953
1742383152.585,999.512,265.137,51.27,999.512
1742383152.589,-363.281,-821.777,-137.207,-363.281
1742383152.593,-1000.0,-803.223,0.977,-1000.0
1742383152.595,-782.227,377.441,277.344,-787.598
1742383152.599,601.074,924.805,358.398,587.891
1742383152.603,999.512,320.801,152.344,999.512
1742383152.607,-115.723,-706.055,-68.848,-74.707
1742383152.611,-1000.0,-742.188,36.133,-1000.0
1742383152.615,-840.332,618.652,335.938,-836.426
1742383152.619,532.227,999.512,437.012,540.527
1742383152.622,999.512,256.348,176.27,999.512
1742383152.626,111.328,-668.945,-55.664,179.688
1742383152.63,-1000.0,-856.934,30.273,-1000.0
1742383152.634,-858.398,224.609,266.602,-870.605
1742383152.638,514.648,918.945,384.766,521.484
1742383152.641,999.512,858.887,195.801,999.512
1742383152.645,544.434,-76.66,-91.309,534.668
1742383152.649,-883.301,-814.941,-79.59,-881.348
1742383152.653,-1000.0,235.352,181.152,-1000.0
1742383152.657,395.02,938.477,291.016,389.16
1742383152.661,999.512,792.48,113.281,999.512
1742383152.665,667.969,-189.941,-145.996,694.824
1742383152.668,-759.277,-1000.0,-179.688,-730.469
1742383152.672,-1000.0,-278.32,68.359,-1000.0
1742383152.676,283.691,784.18,254.395,281.738
1742383152.68,999.512,639.648,85.449,999.512
1742383152.684,789.062,-127.93,-200.684,783.691
1742383152.641,999.512,858.887,195.801,999.512
1742383152.645,544.434,-76.66,-91.309,534.668
1742383152.649,-883.301,-814.941,-79.59,-881.348
1742383152.653,-1000.0,235.352,181.152,-1000.0
1742383152.657,395.02,938.477,291.016,389.16
1742383152.661,999.512,792.48,113.281,999.512
1742383152.665,667.969,-189.941,-145.996,694.824
1742383152.668,-759.277,-1000.0,-179.688,-730.469
1742383152.672,-1000.0,-278.32,68.359,-1000.0
1742383152.676,283.691,784.18,254.395,281.738
1742383152.68,999.512,639.648,85.449,999.512
1742383152.684,789.062,-127.93,-200.684,783.691
1742383152.687,-565.918,-848.145,-261.719,-575.684
1742383152.691,-1000.0,-407.227,-62.012,-1000.0
1742383152.695,-53.223,704.102,152.832,-47.852
1742383152.699,999.512,915.039,108.398,999.512
1742383152.703,815.43,-242.676,-181.152,816.406
1742383152.707,-544.922,-975.098,-282.227,-547.363
1742383152.711,-1000.0,-522.949,-68.848,-1000.0
1742383152.714,-488.77,347.168,122.559,-467.773
1742383152.718,935.547,906.738,85.449,936.523
1742383152.722,877.93,20.508,-161.621,886.23
1742383152.726,-575.195,-946.777,-324.707,-560.547
1742383152.73,-1000.0,-561.523,-114.258,-1000.0
1742383152.687,-565.918,-848.145,-261.719,-575.684
1742383152.691,-1000.0,-407.227,-62.012,-1000.0
1742383152.695,-53.223,704.102,152.832,-47.852
1742383152.699,999.512,915.039,108.398,999.512
1742383152.703,815.43,-242.676,-181.152,816.406
1742383152.707,-544.922,-975.098,-282.227,-547.363
1742383152.711,-1000.0,-522.949,-68.848,-1000.0
1742383152.714,-488.77,347.168,122.559,-467.773
1742383152.718,935.547,906.738,85.449,936.523
1742383152.722,877.93,20.508,-161.621,886.23
1742383152.726,-575.195,-946.777,-324.707,-560.547
1742383152.73,-1000.0,-561.523,-114.258,-1000.0
1742383152.73,-616.699,444.824,102.051,-617.676
1742383152.734,803.223,876.953,62.5,795.41
1742383152.738,999.512,121.094,-146.973,999.512
1742383152.742,-340.82,-826.172,-317.871,-342.285
1742383152.746,-1000.0,-862.305,-135.742,-1000.0
1742383152.75,-704.102,330.078,153.809,-727.539
1742383152.754,742.188,999.512,193.848,712.402
1742383152.757,999.512,18.555,-98.145,999.512
1742383152.761,-367.676,-991.211,-328.125,-347.656
1742383152.765,-1000.0,-880.859,-149.414,-1000.0
1742383152.769,-827.148,-60.547,77.148,-821.289
1742383152.773,507.812,841.797,156.738,517.09
1742383152.73,-616.699,444.824,102.051,-617.676
1742383152.734,803.223,876.953,62.5,795.41
1742383152.738,999.512,121.094,-146.973,999.512
1742383152.742,-340.82,-826.172,-317.871,-342.285
1742383152.746,-1000.0,-862.305,-135.742,-1000.0
1742383152.75,-704.102,330.078,153.809,-727.539
1742383152.754,742.188,999.512,193.848,712.402
1742383152.757,999.512,18.555,-98.145,999.512
1742383152.761,-367.676,-991.211,-328.125,-347.656
1742383152.765,-1000.0,-880.859,-149.414,-1000.0
1742383152.769,-827.148,-60.547,77.148,-821.289
1742383152.773,507.812,841.797,156.738,517.09
1742383152.73,-616.699,444.824,102.051,-617.676
1742383152.734,803.223,876.953,62.5,795.41
1742383152.738,999.512,121.094,-146.973,999.512
1742383152.742,-340.82,-826.172,-317.871,-342.285
1742383152.746,-1000.0,-862.305,-135.742,-1000.0
1742383152.75,-704.102,330.078,153.809,-727.539
1742383152.754,742.188,999.512,193.848,712.402
1742383152.757,999.512,18.555,-98.145,999.512
1742383152.761,-367.676,-991.211,-328.125,-347.656
1742383152.765,-1000.0,-880.859,-149.414,-1000.0
1742383152.769,-827.148,-60.547,77.148,-821.289
1742383152.773,507.812,841.797,156.738,517.09
1742383152.835,-790.527,-938.477,-228.516,-776.367
1742383152.839,-1000.0,-202.637,49.316,-1000.0
1742383152.843,409.668,882.812,275.391,393.066
1742383152.847,999.512,664.062,106.445,999.512
1742383152.851,770.508,-645.996,-141.113,770.02
1742383152.855,-573.73,-968.75,-140.137,-583.496
1742383152.859,-1000.0,-402.832,16.602,-1000.0
1742383152.862,-76.66,400.391,140.625,-36.133
1742383152.866,999.512,799.316,63.477,999.512
1742383152.87,825.684,-262.207,-166.016,822.754
1742383152.874,-554.688,-886.719,-247.559,-553.711
1742383152.878,-1000.0,-338.379,-29.297,-1000.0
1742383152.835,-790.527,-938.477,-228.516,-776.367
1742383152.839,-1000.0,-202.637,49.316,-1000.0
1742383152.843,409.668,882.812,275.391,393.066
1742383152.847,999.512,664.062,106.445,999.512
1742383152.851,770.508,-645.996,-141.113,770.02
1742383152.855,-573.73,-968.75,-140.137,-583.496
1742383152.859,-1000.0,-402.832,16.602,-1000.0
1742383152.862,-76.66,400.391,140.625,-36.133
1742383152.866,999.512,799.316,63.477,999.512
1742383152.87,825.684,-262.207,-166.016,822.754
1742383152.874,-554.688,-886.719,-247.559,-553.711
1742383152.878,-1000.0,-338.379,-29.297,-1000.0
1742383152.835,-790.527,-938.477,-228.516,-776.367
1742383152.839,-1000.0,-202.637,49.316,-1000.0
1742383152.843,409.668,882.812,275.391,393.066
1742383152.847,999.512,664.062,106.445,999.512
1742383152.851,770.508,-645.996,-141.113,770.02
1742383152.855,-573.73,-968.75,-140.137,-583.496
1742383152.859,-1000.0,-402.832,16.602,-1000.0
1742383152.862,-76.66,400.391,140.625,-36.133
1742383152.866,999.512,799.316,63.477,999.512
1742383152.87,825.684,-262.207,-166.016,822.754
1742383152.874,-554.688,-886.719,-247.559,-553.711
1742383152.878,-1000.0,-338.379,-29.297,-1000.0
1742383152.88,-329.102,401.855,171.875,-321.777
1742383152.884,999.512,796.875,144.531,998.047
1742383152.888,856.934,-308.594,-109.863,856.934
1742383152.892,-565.918,-1000.0,-249.512,-565.918
1742383152.896,-1000.0,-570.801,-28.809,-1000.0
1742383152.9,-474.609,562.988,188.965,-493.652
1742383152.904,931.152,999.512,148.438,912.598
1742383152.907,900.879,-91.797,-150.391,917.969
1742383152.911,-539.062,-1000.0,-367.676,-521.484
1742383152.915,-1000.0,-717.773,-169.922,-1000.0
1742383152.919,-704.59,367.188,90.82,-719.238
1742383152.923,694.824,918.457,125.0,678.223
1742383152.88,-329.102,401.855,171.875,-321.777
1742383152.884,999.512,796.875,144.531,998.047
1742383152.888,856.934,-308.594,-109.863,856.934
1742383152.892,-565.918,-1000.0,-249.512,-565.918
1742383152.896,-1000.0,-570.801,-28.809,-1000.0
1742383152.9,-474.609,562.988,188.965,-493.652
1742383152.904,931.152,999.512,148.438,912.598
1742383152.907,900.879,-91.797,-150.391,917.969
1742383152.911,-539.062,-1000.0,-367.676,-521.484
1742383152.915,-1000.0,-717.773,-169.922,-1000.0
1742383152.919,-704.59,367.188,90.82,-719.238
1742383152.923,694.824,918.457,125.0,678.223
1742383152.88,-329.102,401.855,171.875,-321.777
1742383152.884,999.512,796.875,144.531,998.047
1742383152.888,856.934,-308.594,-109.863,856.934
1742383152.892,-565.918,-1000.0,-249.512,-565.918
1742383152.896,-1000.0,-570.801,-28.809,-1000.0
1742383152.9,-474.609,562.988,188.965,-493.652
1742383152.904,931.152,999.512,148.438,912.598
1742383152.907,900.879,-91.797,-150.391,917.969
1742383152.911,-539.062,-1000.0,-367.676,-521.484
1742383152.915,-1000.0,-717.773,-169.922,-1000.0
1742383152.919,-704.59,367.188,90.82,-719.238
1742383152.923,694.824,918.457,125.0,678.223
1742383152.971,-961.426,-856.934,-233.398,-957.52
1742383152.975,-915.039,11.23,51.27,-924.805
1742383152.979,543.945,961.914,194.336,526.855
1742383152.983,999.512,817.383,15.625,999.512
1742383152.987,626.953,-463.379,-175.293,625.977
1742383152.991,-823.242,-964.355,-120.605,-815.43
1742383152.995,-1000.0,-172.852,106.934,-1000.0
1742383152.998,407.227,784.668,225.586,394.531
1742383153.002,999.512,715.332,-1.465,999.512
1742383153.006,737.793,-373.047,-276.367,750.0
1742383153.01,-670.898,-938.477,-292.969,-649.414
1742383153.014,-1000.0,-176.27,-69.336,-1000.0
1742383152.971,-961.426,-856.934,-233.398,-957.52
1742383152.975,-915.039,11.23,51.27,-924.805
1742383152.979,543.945,961.914,194.336,526.855
1742383152.983,999.512,817.383,15.625,999.512
1742383152.987,626.953,-463.379,-175.293,625.977
1742383152.991,-823.242,-964.355,-120.605,-815.43
1742383152.995,-1000.0,-172.852,106.934,-1000.0
1742383152.998,407.227,784.668,225.586,394.531
1742383153.002,999.512,715.332,-1.465,999.512
1742383153.006,737.793,-373.047,-276.367,750.0
1742383153.01,-670.898,-938.477,-292.969,-649.414
1742383153.014,-1000.0,-176.27,-69.336,-1000.0
1742383153.015,230.469,856.445,128.418,195.312
1742383153.019,999.512,703.125,22.461,999.512
1742383153.023,799.805,-260.742,-190.43,806.641
1742383153.027,-548.34,-934.57,-229.004,-552.734
1742383153.031,-1000.0,-738.77,-26.855,-1000.0
1742383153.035,-117.676,523.926,192.383,-111.816
1742383153.039,999.512,862.793,112.305,999.512
1742383153.042,819.336,-99.121,-187.5,821.777
1742383153.046,-546.387,-906.25,-333.496,-547.852
1742383153.05,-1000.0,-704.59,-116.211,-1000.0
1742383153.054,-622.559,165.039,92.773,-582.52
1742383153.058,847.656,881.348,56.152,859.375
1742383153.061,939.941,72.266,-186.523,948.242
1742383153.065,-534.668,-940.43,-331.543,-505.371
1742383153.069,-1000.0,-660.645,-132.324,-1000.0
1742383153.073,-745.605,222.168,49.316,-735.84
1742383153.077,688.965,913.574,55.664,696.777
1742383153.081,999.512,457.52,-103.027,999.512
1742383153.085,-374.512,-789.551,-303.223,-363.281
1742383153.088,-1000.0,-965.332,-166.016,-1000.0
1742383153.092,-842.773,286.621,54.688,-829.59
1742383153.096,548.34,910.156,46.387,562.5
1742383153.1,999.512,3.418,-175.781,999.512
1742383153.104,-241.211,-859.375,-336.426,-204.59
1742383153.061,939.941,72.266,-186.523,948.242
1742383153.065,-534.668,-940.43,-331.543,-505.371
1742383153.069,-1000.0,-660.645,-132.324,-1000.0
1742383153.073,-745.605,222.168,49.316,-735.84
1742383153.077,688.965,913.574,55.664,696.777
1742383153.081,999.512,457.52,-103.027,999.512
1742383153.085,-374.512,-789.551,-303.223,-363.281
1742383153.088,-1000.0,-965.332,-166.016,-1000.0
1742383153.092,-842.773,286.621,54.688,-829.59
1742383153.096,548.34,910.156,46.387,562.5
1742383153.1,999.512,3.418,-175.781,999.512
1742383153.104,-241.211,-859.375,-336.426,-204.59
1742383153.105,-1000.0,-877.93,-194.824,-1000.0
1742383153.109,-835.938,36.133,40.039,-840.332
1742383153.113,515.137,951.66,159.18,518.066
1742383153.117,999.512,484.863,-30.273,999.512
1742383153.121,86.426,-823.73,-272.461,112.793
1742383153.125,-1000.0,-760.742,-195.312,-1000.0
1742383153.129,-913.574,70.801,43.457,-920.898
1742383153.132,420.41,760.254,167.969,420.41
1742383153.136,999.512,514.648,-25.391,999.512
1742383153.14,540.039,-591.797,-265.625,520.02
1742383153.144,-870.117,-882.324,-204.102,-875.977
1742383153.148,-1000.0,38.574,68.359,-1000.0
1742383153.105,-1000.0,-877.93,-194.824,-1000.0
1742383153.109,-835.938,36.133,40.039,-840.332
1742383153.113,515.137,951.66,159.18,518.066
1742383153.117,999.512,484.863,-30.273,999.512
1742383153.121,86.426,-823.73,-272.461,112.793
1742383153.125,-1000.0,-760.742,-195.312,-1000.0
1742383153.129,-913.574,70.801,43.457,-920.898
1742383153.132,420.41,760.254,167.969,420.41
1742383153.136,999.512,514.648,-25.391,999.512
1742383153.14,540.039,-591.797,-265.625,520.02
1742383153.144,-870.117,-882.324,-204.102,-875.977
1742383153.148,-1000.0,38.574,68.359,-1000.0
1742383153.153,317.871,860.84,223.145,320.801
1742383153.157,999.512,553.223,59.082,999.512
1742383153.161,689.941,-588.867,-162.598,694.336
1742383153.165,-744.629,-969.238,-152.344,-734.863
1742383153.169,-1000.0,-126.465,59.57,-1000.0
1742383153.173,294.922,893.066,246.094,278.809
1742383153.177,999.512,606.445,91.309,999.512
1742383153.18,787.109,-475.098,-158.203,774.902
1742383153.184,-550.293,-952.148,-218.75,-564.453
1742383153.188,-1000.0,-403.809,-34.18,-1000.0
1742383153.192,-156.738,673.828,182.129,-198.242
1742383153.196,999.512,905.762,101.074,999.512
1742383153.153,317.871,860.84,223.145,320.801
1742383153.157,999.512,553.223,59.082,999.512
1742383153.161,689.941,-588.867,-162.598,694.336
1742383153.165,-744.629,-969.238,-152.344,-734.863
1742383153.169,-1000.0,-126.465,59.57,-1000.0
1742383153.173,294.922,893.066,246.094,278.809
1742383153.177,999.512,606.445,91.309,999.512
1742383153.18,787.109,-475.098,-158.203,774.902
1742383153.184,-550.293,-952.148,-218.75,-564.453
1742383153.188,-1000.0,-403.809,-34.18,-1000.0
1742383153.192,-156.738,673.828,182.129,-198.242
1742383153.196,999.512,905.762,101.074,999.512
1742383153.21,829.59,-0.977,-149.902,837.891
1742383153.214,-552.734,-985.84,-234.375,-556.641
1742383153.218,-1000.0,-670.41,-15.625,-1000.0
1742383153.222,-483.887,668.945,170.898,-493.164
1742383153.226,925.293,937.5,86.426,912.598
1742383153.23,908.203,283.691,-108.887,916.016
1742383153.234,-532.715,-750.488,-229.004,-525.391
1742383153.237,-1000.0,-972.168,-65.43,-1000.0
1742383153.241,-743.164,73.242,125.0,-739.746
1742383153.245,699.707,912.109,129.883,703.125
1742383153.249,999.512,252.93,-89.355,999.512
1742383153.253,-405.273,-871.582,-262.695,-407.715
1742383153.21,829.59,-0.977,-149.902,837.891
1742383153.214,-552.734,-985.84,-234.375,-556.641
1742383153.218,-1000.0,-670.41,-15.625,-1000.0
1742383153.222,-483.887,668.945,170.898,-493.164
1742383153.226,925.293,937.5,86.426,912.598
1742383153.23,908.203,283.691,-108.887,916.016
1742383153.234,-532.715,-750.488,-229.004,-525.391
1742383153.237,-1000.0,-972.168,-65.43,-1000.0
1742383153.241,-743.164,73.242,125.0,-739.746
1742383153.245,699.707,912.109,129.883,703.125
1742383153.249,999.512,252.93,-89.355,999.512
1742383153.253,-405.273,-871.582,-262.695,-407.715
1742383153.255,-1000.0,-713.379,-58.105,-1000.0
1742383153.259,-814.453,291.504,165.039,-804.688
1742383153.263,555.176,863.281,183.105,566.895
1742383153.267,999.512,436.035,-5.371,999.512
1742383153.271,-101.562,-640.625,-205.566,-95.215
1742383153.275,-1000.0,-770.996,-90.332,-1000.0
1742383153.279,-850.098,271.973,122.07,-851.074
1742383153.282,522.461,867.188,138.672,523.438
1742383153.286,999.512,278.809,-62.5,999.512
1742383153.29,116.211,-744.141,-257.324,141.113
1742383153.294,-1000.0,-806.152,-168.457,-1000.0
1742383153.298,-875.0,98.633,60.547,-892.578
1742383153.255,-1000.0,-713.379,-58.105,-1000.0
1742383153.259,-814.453,291.504,165.039,-804.688
1742383153.263,555.176,863.281,183.105,566.895
1742383153.267,999.512,436.035,-5.371,999.512
1742383153.271,-101.562,-640.625,-205.566,-95.215
1742383153.275,-1000.0,-770.996,-90.332,-1000.0
1742383153.279,-850.098,271.973,122.07,-851.074
1742383153.282,522.461,867.188,138.672,523.438
1742383153.286,999.512,278.809,-62.5,999.512
1742383153.29,116.211,-744.141,-257.324,141.113
1742383153.294,-1000.0,-806.152,-168.457,-1000.0
1742383153.298,-875.0,98.633,60.547,-892.578
1742383153.3,495.117,869.141,177.246,484.375
1742383153.304,999.512,589.844,1.953,999.512
1742383153.308,475.586,-550.293,-209.961,450.684
1742383153.312,-926.758,-986.328,-166.504,-926.27
1742383153.316,-1000.0,-276.855,11.23,-1000.0
1742383153.32,404.297,794.922,148.926,391.113
1742383153.324,999.512,791.992,27.344,999.512
1742383153.327,645.02,-286.621,-199.219,641.602
1742383153.331,-740.723,-962.402,-238.77,-741.211
1742383153.335,-1000.0,-426.27,-11.719,-1000.0
1742383153.339,85.449,632.812,162.598,69.336
1742383153.343,999.512,894.043,33.691,999.512
1742383153.3,495.117,869.141,177.246,484.375
1742383153.304,999.512,589.844,1.953,999.512
1742383153.308,475.586,-550.293,-209.961,450.684
1742383153.312,-926.758,-986.328,-166.504,-926.27
1742383153.316,-1000.0,-276.855,11.23,-1000.0
1742383153.32,404.297,794.922,148.926,391.113
1742383153.324,999.512,791.992,27.344,999.512
1742383153.327,645.02,-286.621,-199.219,641.602
1742383153.331,-740.723,-962.402,-238.77,-741.211
1742383153.335,-1000.0,-426.27,-11.719,-1000.0
1742383153.339,85.449,632.812,162.598,69.336
1742383153.343,999.512,894.043,33.691,999.512
1742383153.346,798.34,-65.918,-169.922,785.645
1742383153.35,-580.078,-947.266,-210.449,-598.633
1742383153.354,-1000.0,-486.328,-1.953,-1000.0
1742383153.358,-111.816,648.438,201.172,-137.695
1742383153.362,999.512,895.02,122.07,999.512
1742383153.366,822.266,209.961,-92.285,828.125
1742383153.37,-548.34,-809.57,-189.941,-551.758
1742383153.373,-1000.0,-883.789,-26.367,-1000.0
1742383153.377,-506.348,373.047,177.246,-503.906
1742383153.381,927.734,792.48,116.699,918.945
1742383153.385,890.137,-370.117,-116.699,900.391
1742383153.389,-588.379,-997.559,-244.141,-576.172
1742383153.39,-1000.0,-520.02,-68.848,-1000.0
1742383153.394,-483.398,438.965,175.293,-485.352
1742383153.398,871.094,999.512,178.711,860.352
1742383153.402,929.688,259.766,-71.777,942.383
1742383153.406,-513.672,-889.16,-222.168,-491.211
1742383153.41,-1000.0,-517.09,-61.035,-1000.0
1742383153.414,-813.477,233.398,89.844,-811.523
1742383153.417,585.449,795.41,113.281,591.797
1742383153.421,999.512,275.879,-66.895,999.512
1742383153.425,-285.645,-886.23,-246.582,-293.945
1742383153.429,-1000.0,-843.262,-95.703,-1000.0
1742383153.433,-833.008,526.367,166.016,-829.102
1742383153.39,-1000.0,-520.02,-68.848,-1000.0
1742383153.394,-483.398,438.965,175.293,-485.352
1742383153.398,871.094,999.512,178.711,860.352
1742383153.402,929.688,259.766,-71.777,942.383
1742383153.406,-513.672,-889.16,-222.168,-491.211
1742383153.41,-1000.0,-517.09,-61.035,-1000.0
1742383153.414,-813.477,233.398,89.844,-811.523
1742383153.417,585.449,795.41,113.281,591.797
1742383153.421,999.512,275.879,-66.895,999.512
1742383153.425,-285.645,-886.23,-246.582,-293.945
1742383153.429,-1000.0,-843.262,-95.703,-1000.0
1742383153.433,-833.008,526.367,166.016,-829.102
1742383153.39,-1000.0,-520.02,-68.848,-1000.0
1742383153.394,-483.398,438.965,175.293,-485.352
1742383153.398,871.094,999.512,178.711,860.352
1742383153.402,929.688,259.766,-71.777,942.383
1742383153.406,-513.672,-889.16,-222.168,-491.211
1742383153.41,-1000.0,-517.09,-61.035,-1000.0
1742383153.414,-813.477,233.398,89.844,-811.523
1742383153.417,585.449,795.41,113.281,591.797
1742383153.421,999.512,275.879,-66.895,999.512
1742383153.425,-285.645,-886.23,-246.582,-293.945
1742383153.429,-1000.0,-843.262,-95.703,-1000.0
1742383153.433,-833.008,526.367,166.016,-829.102
1742383153.437,514.16,995.117,192.383,525.391
1742383153.441,999.512,220.215,-25.879,999.512
1742383153.445,73.242,-730.469,-238.77,54.199
1742383153.449,-1000.0,-897.949,-144.531,-1000.0
1742383153.453,-860.84,96.191,117.676,-859.375
1742383153.457,518.555,915.039,217.285,519.043
1742383153.461,999.512,282.227,1.465,999.512
1742383153.464,364.746,-783.203,-218.262,365.723
1742383153.468,-986.816,-908.203,-144.043,-976.562
1742383153.472,-947.266,26.367,83.008,-961.426
1742383153.476,457.52,903.809,188.965,434.57
1742383153.48,999.512,610.84,29.785,999.512
1742383153.437,514.16,995.117,192.383,525.391
1742383153.441,999.512,220.215,-25.879,999.512
1742383153.445,73.242,-730.469,-238.77,54.199
1742383153.449,-1000.0,-897.949,-144.531,-1000.0
1742383153.453,-860.84,96.191,117.676,-859.375
1742383153.457,518.555,915.039,217.285,519.043
1742383153.461,999.512,282.227,1.465,999.512
1742383153.464,364.746,-783.203,-218.262,365.723
1742383153.468,-986.816,-908.203,-144.043,-976.562
1742383153.472,-947.266,26.367,83.008,-961.426
1742383153.476,457.52,903.809,188.965,434.57
1742383153.48,999.512,610.84,29.785,999.512
1742383153.437,514.16,995.117,192.383,525.391
1742383153.441,999.512,220.215,-25.879,999.512
1742383153.445,73.242,-730.469,-238.77,54.199
1742383153.449,-1000.0,-897.949,-144.531,-1000.0
1742383153.453,-860.84,96.191,117.676,-859.375
1742383153.457,518.555,915.039,217.285,519.043
1742383153.461,999.512,282.227,1.465,999.512
1742383153.464,364.746,-783.203,-218.262,365.723
1742383153.468,-986.816,-908.203,-144.043,-976.562
1742383153.472,-947.266,26.367,83.008,-961.426
1742383153.476,457.52,903.809,188.965,434.57
1742383153.48,999.512,610.84,29.785,999.512
1742383153.481,660.645,-408.203,-175.293,648.926
1742383153.485,-787.598,-895.996,-133.789,-789.062
1742383153.489,-1000.0,-145.508,100.586,-1000.0
1742383153.493,382.324,831.543,215.332,364.258
1742383153.497,999.512,637.695,64.453,999.512
1742383153.501,788.086,-56.152,-154.785,778.32
1742383153.505,-553.223,-833.984,-227.051,-572.266
1742383153.508,-1000.0,-625.977,-33.203,-1000.0
1742383153.512,-73.242,591.309,141.113,-53.711
1742383153.516,999.512,845.703,18.555,999.512
1742383153.52,827.637,-196.777,-206.543,825.195
1742383153.524,-557.129,-933.105,-269.531,-559.082
1742383153.481,660.645,-408.203,-175.293,648.926
1742383153.485,-787.598,-895.996,-133.789,-789.062
1742383153.489,-1000.0,-145.508,100.586,-1000.0
1742383153.493,382.324,831.543,215.332,364.258
1742383153.497,999.512,637.695,64.453,999.512
1742383153.501,788.086,-56.152,-154.785,778.32
1742383153.505,-553.223,-833.984,-227.051,-572.266
1742383153.508,-1000.0,-625.977,-33.203,-1000.0
1742383153.512,-73.242,591.309,141.113,-53.711
1742383153.516,999.512,845.703,18.555,999.512
1742383153.52,827.637,-196.777,-206.543,825.195
1742383153.524,-557.129,-933.105,-269.531,-559.082
1742383153.527,-1000.0,-433.594,-55.176,-1000.0
1742383153.531,-284.668,587.891,151.367,-283.203
1742383153.535,999.512,809.082,75.195,999.512
1742383153.539,862.305,-52.734,-158.203,872.07
1742383153.543,-533.691,-858.398,-266.113,-520.996
1742383153.547,-1000.0,-414.062,-75.684,-1000.0
1742383153.551,-678.223,363.77,118.652,-657.715
1742383153.554,777.344,784.668,106.445,787.598
1742383153.558,999.512,90.332,-94.727,999.512
1742383153.562,-445.801,-948.242,-257.812,-437.012
1742383153.566,-1000.0,-799.316,-74.707,-1000.0
1742383153.57,-717.773,359.863,156.738,-726.074
1742383153.527,-1000.0,-433.594,-55.176,-1000.0
1742383153.531,-284.668,587.891,151.367,-283.203
1742383153.535,999.512,809.082,75.195,999.512
1742383153.539,862.305,-52.734,-158.203,872.07
1742383153.543,-533.691,-858.398,-266.113,-520.996
1742383153.547,-1000.0,-414.062,-75.684,-1000.0
1742383153.551,-678.223,363.77,118.652,-657.715
1742383153.554,777.344,784.668,106.445,787.598
1742383153.558,999.512,90.332,-94.727,999.512
1742383153.562,-445.801,-948.242,-257.812,-437.012
1742383153.566,-1000.0,-799.316,-74.707,-1000.0
1742383153.57,-717.773,359.863,156.738,-726.074
1742383153.527,-1000.0,-433.594,-55.176,-1000.0
1742383153.531,-284.668,587.891,151.367,-283.203
1742383153.535,999.512,809.082,75.195,999.512
1742383153.539,862.305,-52.734,-158.203,872.07
1742383153.543,-533.691,-858.398,-266.113,-520.996
1742383153.547,-1000.0,-414.062,-75.684,-1000.0
1742383153.551,-678.223,363.77,118.652,-657.715
1742383153.554,777.344,784.668,106.445,787.598
1742383153.558,999.512,90.332,-94.727,999.512
1742383153.562,-445.801,-948.242,-257.812,-437.012
1742383153.566,-1000.0,-799.316,-74.707,-1000.0
1742383153.57,-717.773,359.863,156.738,-726.074
1742383153.585,712.891,983.398,152.832,698.242
1742383153.589,999.512,165.039,-72.266,999.512
1742383153.593,-336.914,-824.219,-245.605,-314.941
1742383153.597,-1000.0,-585.449,-79.102,-1000.0
1742383153.601,-828.613,109.863,125.977,-818.848
1742383153.605,509.277,737.793,158.691,525.391
1742383153.609,999.512,153.32,-75.195,999.512
1742383153.612,97.656,-699.707,-285.645,112.305
1742383153.616,-1000.0,-937.012,-162.109,-1000.0
1742383153.62,-861.328,-155.273,104.492,-864.746
1742383153.624,517.09,871.582,223.145,520.508
1742383153.628,999.512,583.984,40.527,999.512
1742383153.585,712.891,983.398,152.832,698.242
1742383153.589,999.512,165.039,-72.266,999.512
1742383153.593,-336.914,-824.219,-245.605,-314.941
1742383153.597,-1000.0,-585.449,-79.102,-1000.0
1742383153.601,-828.613,109.863,125.977,-818.848
1742383153.605,509.277,737.793,158.691,525.391
1742383153.609,999.512,153.32,-75.195,999.512
1742383153.612,97.656,-699.707,-285.645,112.305
1742383153.616,-1000.0,-937.012,-162.109,-1000.0
1742383153.62,-861.328,-155.273,104.492,-864.746
1742383153.624,517.09,871.582,223.145,520.508
1742383153.628,999.512,583.984,40.527,999.512
1742383153.585,712.891,983.398,152.832,698.242
1742383153.589,999.512,165.039,-72.266,999.512
1742383153.593,-336.914,-824.219,-245.605,-314.941
1742383153.597,-1000.0,-585.449,-79.102,-1000.0
1742383153.601,-828.613,109.863,125.977,-818.848
1742383153.605,509.277,737.793,158.691,525.391
1742383153.609,999.512,153.32,-75.195,999.512
1742383153.612,97.656,-699.707,-285.645,112.305
1742383153.616,-1000.0,-937.012,-162.109,-1000.0
1742383153.62,-861.328,-155.273,104.492,-864.746
1742383153.624,517.09,871.582,223.145,520.508
1742383153.628,999.512,583.984,40.527,999.512
1742383153.63,431.152,-501.953,-173.828,422.852
1742383153.634,-962.402,-940.43,-105.469,-956.055
1742383153.638,-950.684,-90.82,133.789,-963.379
1742383153.642,476.562,851.074,249.023,452.637
1742383153.646,999.512,656.738,62.5,999.512
1742383153.65,661.133,-147.949,-150.879,643.555
1742383153.654,-759.766,-834.961,-147.949,-770.996
1742383153.657,-1000.0,-410.156,37.598,-1000.0
1742383153.661,271.484,777.344,199.219,271.484
1742383153.665,999.512,802.734,63.477,999.512
1742383153.669,728.027,-530.762,-189.453,734.863
1742383153.673,-672.363,-1000.0,-202.637,-660.156
1742383153.63,431.152,-501.953,-173.828,422.852
1742383153.634,-962.402,-940.43,-105.469,-956.055
1742383153.638,-950.684,-90.82,133.789,-963.379
1742383153.642,476.562,851.074,249.023,452.637
1742383153.646,999.512,656.738,62.5,999.512
1742383153.65,661.133,-147.949,-150.879,643.555
1742383153.654,-759.766,-834.961,-147.949,-770.996
1742383153.657,-1000.0,-410.156,37.598,-1000.0
1742383153.661,271.484,777.344,199.219,271.484
1742383153.665,999.512,802.734,63.477,999.512
1742383153.669,728.027,-530.762,-189.453,734.863
1742383153.673,-672.363,-1000.0,-202.637,-660.156
1742383153.675,-1000.0,-235.352,19.531,-1000.0
1742383153.679,113.77,677.734,184.082,103.516
1742383153.683,999.512,829.102,83.008,999.512
1742383153.687,806.641,109.375,-155.273,805.664
1742383153.691,-547.852,-839.844,-233.398,-556.641
1742383153.695,-1000.0,-247.559,-2.441,-1000.0
1742383153.699,-224.609,778.809,164.551,-215.332
1742383153.702,999.512,654.297,81.055,999.512
1742383153.706,844.727,-229.98,-131.348,844.238
1742383153.71,-562.5,-982.422,-258.789,-562.012
1742383153.714,-1000.0,-573.242,-69.336,-1000.0
1742383153.718,-390.137,779.785,126.953,-402.344
1742383153.675,-1000.0,-235.352,19.531,-1000.0
1742383153.679,113.77,677.734,184.082,103.516
1742383153.683,999.512,829.102,83.008,999.512
1742383153.687,806.641,109.375,-155.273,805.664
1742383153.691,-547.852,-839.844,-233.398,-556.641
1742383153.695,-1000.0,-247.559,-2.441,-1000.0
1742383153.699,-224.609,778.809,164.551,-215.332
1742383153.702,999.512,654.297,81.055,999.512
1742383153.706,844.727,-229.98,-131.348,844.238
1742383153.71,-562.5,-982.422,-258.789,-562.012
1742383153.714,-1000.0,-573.242,-69.336,-1000.0
1742383153.718,-390.137,779.785,126.953,-402.344
1742383153.72,961.426,893.555,65.918,946.289
1742383153.724,898.926,-171.875,-132.324,916.992
1742383153.728,-514.16,-941.406,-268.555,-488.77
1742383153.732,-1000.0,-627.93,-101.074,-1000.0
1742383153.736,-731.445,333.008,100.098,-728.027
1742383153.74,712.891,943.359,89.355,712.891
1742383153.744,999.512,296.875,-136.719,999.512
1742383153.747,-407.715,-886.23,-323.242,-396.973
1742383153.751,-1000.0,-806.641,-127.93,-1000.0
1742383153.755,-832.52,160.156,126.953,-821.289
1742383153.759,530.273,863.281,167.48,545.898
1742383153.763,999.512,422.363,-21.484,999.512
1742383153.766,-100.098,-758.789,-206.543,-80.078
1742383153.77,-1000.0,-873.047,-89.355,-1000.0
1742383153.774,-841.797,383.301,141.602,-844.727
1742383153.778,511.719,893.555,180.664,520.02
1742383153.782,999.512,96.191,-18.066,999.512
1742383153.786,279.297,-518.555,-179.688,255.371
1742383153.79,-1000.0,-871.094,-104.492,-1000.0
1742383153.793,-929.199,-358.398,99.609,-937.012
1742383153.797,460.449,777.832,202.148,442.383
1742383153.801,999.512,613.281,8.301,999.512
1742383153.805,508.301,-549.805,-206.055,489.746
1742383153.809,-894.043,-972.168,-166.504,-894.531
1742383153.766,-100.098,-758.789,-206.543,-80.078
1742383153.77,-1000.0,-873.047,-89.355,-1000.0
1742383153.774,-841.797,383.301,141.602,-844.727
1742383153.778,511.719,893.555,180.664,520.02
1742383153.782,999.512,96.191,-18.066,999.512
1742383153.786,279.297,-518.555,-179.688,255.371
1742383153.79,-1000.0,-871.094,-104.492,-1000.0
1742383153.793,-929.199,-358.398,99.609,-937.012
1742383153.797,460.449,777.832,202.148,442.383
1742383153.801,999.512,613.281,8.301,999.512
1742383153.805,508.301,-549.805,-206.055,489.746
1742383153.809,-894.043,-972.168,-166.504,-894.531
1742383153.812,-1000.0,-76.66,69.336,-1000.0
1742383153.816,340.332,815.918,217.773,332.52
1742383153.82,999.512,568.848,58.594,999.512
1742383153.824,704.59,-269.531,-150.879,685.059
1742383153.828,-678.223,-791.504,-132.812,-694.336
1742383153.832,-1000.0,-20.996,67.871,-1000.0
1742383153.836,48.34,764.648,190.43,15.625
1742383153.839,999.512,690.43,72.754,999.512
1742383153.843,814.453,-240.234,-144.531,805.664
1742383153.847,-563.477,-916.016,-193.359,-580.566
1742383153.851,-1000.0,-314.453,10.254,-1000.0
1742383153.855,-143.555,698.242,185.547,-184.082
1742383153.812,-1000.0,-76.66,69.336,-1000.0
1742383153.816,340.332,815.918,217.773,332.52
1742383153.82,999.512,568.848,58.594,999.512
1742383153.824,704.59,-269.531,-150.879,685.059
1742383153.828,-678.223,-791.504,-132.812,-694.336
1742383153.832,-1000.0,-20.996,67.871,-1000.0
1742383153.836,48.34,764.648,190.43,15.625
1742383153.839,999.512,690.43,72.754,999.512
1742383153.843,814.453,-240.234,-144.531,805.664
1742383153.847,-563.477,-916.016,-193.359,-580.566
1742383153.851,-1000.0,-314.453,10.254,-1000.0
1742383153.855,-143.555,698.242,185.547,-184.082
1742383153.812,-1000.0,-76.66,69.336,-1000.0
1742383153.816,340.332,815.918,217.773,332.52
1742383153.82,999.512,568.848,58.594,999.512
1742383153.824,704.59,-269.531,-150.879,685.059
1742383153.828,-678.223,-791.504,-132.812,-694.336
1742383153.832,-1000.0,-20.996,67.871,-1000.0
1742383153.836,48.34,764.648,190.43,15.625
1742383153.839,999.512,690.43,72.754,999.512
1742383153.843,814.453,-240.234,-144.531,805.664
1742383153.847,-563.477,-916.016,-193.359,-580.566
1742383153.851,-1000.0,-314.453,10.254,-1000.0
1742383153.855,-143.555,698.242,185.547,-184.082
1742383153.855,999.512,902.344,96.68,999.512
1742383153.859,824.219,-95.703,-143.555,833.496
1742383153.863,-548.828,-866.699,-229.004,-554.199
1742383153.867,-1000.0,-111.816,-9.277,-1000.0
1742383153.871,-578.613,534.18,159.18,-552.246
1742383153.875,875.0,844.238,105.957,878.906
1742383153.879,930.176,191.895,-109.375,933.594
1742383153.882,-530.273,-905.273,-270.996,-516.602
1742383153.886,-1000.0,-883.301,-99.609,-1000.0
1742383153.89,-703.125,180.176,120.117,-708.984
1742383153.894,738.281,946.289,120.605,731.445
1742383153.898,999.512,260.254,-128.418,999.512
1742383153.855,999.512,902.344,96.68,999.512
1742383153.859,824.219,-95.703,-143.555,833.496
1742383153.863,-548.828,-866.699,-229.004,-554.199
1742383153.867,-1000.0,-111.816,-9.277,-1000.0
1742383153.871,-578.613,534.18,159.18,-552.246
1742383153.875,875.0,844.238,105.957,878.906
1742383153.879,930.176,191.895,-109.375,933.594
1742383153.882,-530.273,-905.273,-270.996,-516.602
1742383153.886,-1000.0,-883.301,-99.609,-1000.0
1742383153.89,-703.125,180.176,120.117,-708.984
1742383153.894,738.281,946.289,120.605,731.445
1742383153.898,999.512,260.254,-128.418,999.512
1742383153.915,-391.113,-833.984,-334.473,-395.508
1742383153.919,-1000.0,-734.863,-160.156,-1000.0
1742383153.923,-806.152,161.133,70.312,-795.898
1742383153.927,537.598,801.27,95.703,557.617
1742383153.931,999.512,433.105,-101.074,999.512
1742383153.935,68.359,-471.191,-284.668,28.32
1742383153.939,-1000.0,-979.98,-180.176,-1000.0
1742383153.942,-879.883,-249.023,58.105,-873.535
1742383153.946,544.434,919.922,150.391,541.016
1742383153.95,999.512,703.125,-49.316,999.512
1742383153.954,6.348,-759.277,-276.855,32.227
1742383153.958,-1000.0,-990.723,-171.875,-1000.0
1742383153.915,-391.113,-833.984,-334.473,-395.508
1742383153.919,-1000.0,-734.863,-160.156,-1000.0
1742383153.923,-806.152,161.133,70.312,-795.898
1742383153.927,537.598,801.27,95.703,557.617
1742383153.931,999.512,433.105,-101.074,999.512
1742383153.935,68.359,-471.191,-284.668,28.32
1742383153.939,-1000.0,-979.98,-180.176,-1000.0
1742383153.942,-879.883,-249.023,58.105,-873.535
1742383153.946,544.434,919.922,150.391,541.016
1742383153.95,999.512,703.125,-49.316,999.512
1742383153.954,6.348,-759.277,-276.855,32.227
1742383153.958,-1000.0,-990.723,-171.875,-1000.0
1742383153.915,-391.113,-833.984,-334.473,-395.508
1742383153.919,-1000.0,-734.863,-160.156,-1000.0
1742383153.923,-806.152,161.133,70.312,-795.898
1742383153.927,537.598,801.27,95.703,557.617
1742383153.931,999.512,433.105,-101.074,999.512
1742383153.935,68.359,-471.191,-284.668,28.32
1742383153.939,-1000.0,-979.98,-180.176,-1000.0
1742383153.942,-879.883,-249.023,58.105,-873.535
1742383153.946,544.434,919.922,150.391,541.016
1742383153.95,999.512,703.125,-49.316,999.512
1742383153.954,6.348,-759.277,-276.855,32.227
1742383153.958,-1000.0,-990.723,-171.875,-1000.0
1742383153.96,-842.773,132.324,67.871,-849.121
1742383153.964,507.324,844.238,147.949,510.254
1742383153.968,999.512,562.988,-19.043,999.512
1742383153.972,604.004,-127.93,-206.055,593.262
1742383153.976,-866.699,-914.551,-195.312,-858.398
1742383153.98,-985.352,-94.727,-10.254,-998.535
1742383153.984,487.305,973.145,124.023,460.938
1742383153.987,999.512,431.641,-29.297,999.512
1742383153.991,674.316,-526.855,-233.887,679.688
1742383153.995,-748.047,-965.82,-192.383,-736.328
1742383153.999,-1000.0,-270.02,57.617,-1000.0
1742383154.003,352.051,854.98,225.098,330.566
1742383153.96,-842.773,132.324,67.871,-849.121
1742383153.964,507.324,844.238,147.949,510.254
1742383153.968,999.512,562.988,-19.043,999.512
1742383153.972,604.004,-127.93,-206.055,593.262
1742383153.976,-866.699,-914.551,-195.312,-858.398
1742383153.98,-985.352,-94.727,-10.254,-998.535
1742383153.984,487.305,973.145,124.023,460.938
1742383153.987,999.512,431.641,-29.297,999.512
1742383153.991,674.316,-526.855,-233.887,679.688
1742383153.995,-748.047,-965.82,-192.383,-736.328
1742383153.999,-1000.0,-270.02,57.617,-1000.0
1742383154.003,352.051,854.98,225.098,330.566
1742383153.96,-842.773,132.324,67.871,-849.121
1742383153.964,507.324,844.238,147.949,510.254
1742383153.968,999.512,562.988,-19.043,999.512
1742383153.972,604.004,-127.93,-206.055,593.262
1742383153.976,-866.699,-914.551,-195.312,-858.398
1742383153.98,-985.352,-94.727,-10.254,-998.535
1742383153.984,487.305,973.145,124.023,460.938
1742383153.987,999.512,431.641,-29.297,999.512
1742383153.991,674.316,-526.855,-233.887,679.688
1742383153.995,-748.047,-965.82,-192.383,-736.328
1742383153.999,-1000.0,-270.02,57.617,-1000.0
1742383154.003,352.051,854.98,225.098,330.566
1742383154.006,999.512,625.0,68.848,999.512
1742383154.01,795.41,-452.637,-135.742,785.645
1742383154.014,-565.43,-908.691,-166.016,-583.496
1742383154.018,-1000.0,-296.875,0.0,-1000.0
1742383154.022,-57.617,644.531,204.102,-54.199
1742383154.026,999.512,946.777,156.738,999.512
1742383154.03,817.871,58.105,-90.332,819.824
1742383154.033,-547.363,-916.016,-209.961,-548.34
1742383154.037,-1000.0,-616.699,-25.879,-1000.0
1742383154.041,-446.777,468.262,139.16,-432.617
1742383154.045,952.637,844.727,66.406,950.195
1742383154.049,872.559,-28.32,-166.016,885.254
1742383154.006,999.512,625.0,68.848,999.512
1742383154.01,795.41,-452.637,-135.742,785.645
1742383154.014,-565.43,-908.691,-166.016,-583.496
1742383154.018,-1000.0,-296.875,0.0,-1000.0
1742383154.022,-57.617,644.531,204.102,-54.199
1742383154.026,999.512,946.777,156.738,999.512
1742383154.03,817.871,58.105,-90.332,819.824
1742383154.033,-547.363,-916.016,-209.961,-548.34
1742383154.037,-1000.0,-616.699,-25.879,-1000.0
1742383154.041,-446.777,468.262,139.16,-432.617
1742383154.045,952.637,844.727,66.406,950.195
1742383154.049,872.559,-28.32,-166.016,885.254
1742383154.051,-571.777,-939.941,-291.992,-552.246
1742383154.055,-1000.0,-638.184,-64.453,-1000.0
1742383154.059,-565.43,632.812,183.105,-564.453
1742383154.063,850.098,934.082,129.395,844.727
1742383154.067,999.512,-190.43,-122.559,999.512
1742383154.071,-405.762,-937.012,-253.906,-401.855
1742383154.075,-1000.0,-733.398,-89.844,-1000.0
1742383154.078,-824.707,-19.531,112.305,-809.082
1742383154.082,582.52,805.176,150.879,598.633
1742383154.086,999.512,280.273,-57.129,999.512
1742383154.09,-298.34,-887.695,-261.23,-282.227
1742383154.094,-1000.0,-851.074,-108.887,-1000.0
1742383154.051,-571.777,-939.941,-291.992,-552.246
1742383154.055,-1000.0,-638.184,-64.453,-1000.0
1742383154.059,-565.43,632.812,183.105,-564.453
1742383154.063,850.098,934.082,129.395,844.727
1742383154.067,999.512,-190.43,-122.559,999.512
1742383154.071,-405.762,-937.012,-253.906,-401.855
1742383154.075,-1000.0,-733.398,-89.844,-1000.0
1742383154.078,-824.707,-19.531,112.305,-809.082
1742383154.082,582.52,805.176,150.879,598.633
1742383154.086,999.512,280.273,-57.129,999.512
1742383154.09,-298.34,-887.695,-261.23,-282.227
1742383154.094,-1000.0,-851.074,-108.887,-1000.0
1742383154.095,-825.684,279.785,136.23,-817.871
1742383154.099,512.207,869.141,183.105,523.926
1742383154.103,999.512,185.059,-30.762,999.512
1742383154.107,142.09,-689.941,-233.887,166.504
1742383154.111,-1000.0,-699.219,-119.629,-1000.0
1742383154.115,-869.629,367.676,92.773,-874.023
1742383154.119,522.461,934.082,147.949,525.391
1742383154.122,999.512,264.648,-29.785,999.512
1742383154.126,392.578,-712.402,-243.164,399.902
1742383154.13,-980.469,-957.52,-185.547,-969.727
1742383154.134,-938.965,75.195,52.246,-951.66
1742383154.138,481.934,951.66,164.551,463.379
1742383154.14,999.512,505.371,14.16,999.512
1742383154.144,650.879,-520.508,-181.641,651.367
1742383154.148,-755.859,-782.715,-171.387,-751.953
1742383154.152,-1000.0,77.148,31.738,-1000.0
1742383154.156,221.68,712.891,172.852,208.008
1742383154.16,999.512,892.09,49.316,999.512
1742383154.164,787.109,29.785,-185.059,779.297
1742383154.167,-592.773,-975.586,-250.0,-603.027
1742383154.171,-1000.0,-625.488,-40.039,-1000.0
1742383154.175,47.363,602.539,136.23,7.324
1742383154.179,999.512,644.043,43.457,999.512
1742383154.183,805.664,-210.938,-151.367,811.035
1742383154.14,999.512,505.371,14.16,999.512
1742383154.144,650.879,-520.508,-181.641,651.367
1742383154.148,-755.859,-782.715,-171.387,-751.953
1742383154.152,-1000.0,77.148,31.738,-1000.0
1742383154.156,221.68,712.891,172.852,208.008
1742383154.16,999.512,892.09,49.316,999.512
1742383154.164,787.109,29.785,-185.059,779.297
1742383154.167,-592.773,-975.586,-250.0,-603.027
1742383154.171,-1000.0,-625.488,-40.039,-1000.0
1742383154.175,47.363,602.539,136.23,7.324
1742383154.179,999.512,644.043,43.457,999.512
1742383154.183,805.664,-210.938,-151.367,811.035
1742383154.652,293.457,869.629,194.336,284.18
1742383154.656,999.512,746.582,52.246,999.512
1742383154.66,788.574,-363.281,-199.707,780.273
1742383154.664,-598.633,-987.793,-264.16,-605.957
1742383154.668,-1000.0,-241.699,-67.383,-1000.0
1742383154.672,131.836,851.074,113.281,104.004
1742383154.676,999.512,898.926,20.508,999.512
1742383154.679,795.41,-195.801,-222.168,796.387
1742383154.683,-535.156,-990.234,-333.496,-543.457
1742383154.687,-1000.0,-535.645,-107.91,-1000.0
1742383154.691,-416.016,461.914,132.812,-416.016
1742383154.695,964.844,902.832,84.473,955.566
1742383154.187,-541.992,-852.051,-230.957,-547.852
1742383154.191,-1000.0,-571.289,-54.688,-1000.0
1742383154.195,-399.414,407.715,131.836,-405.762
1742383154.199,972.168,905.273,75.195,963.867
1742383154.203,862.305,-63.477,-166.016,870.605
1742383154.207,-571.289,-883.789,-269.043,-563.477
1742383154.211,-1000.0,-421.875,-77.637,-1000.0
1742383154.214,-708.984,94.727,81.055,-696.289
1742383154.218,768.066,762.695,71.777,770.02
1742383154.222,971.68,333.984,-111.328,981.934
1742383154.226,-521.484,-844.238,-300.781,-497.07
1742383154.23,-1000.0,-837.402,-140.137,-1000.0
1742383154.187,-541.992,-852.051,-230.957,-547.852
1742383154.191,-1000.0,-571.289,-54.688,-1000.0
1742383154.195,-399.414,407.715,131.836,-405.762
1742383154.199,972.168,905.273,75.195,963.867
1742383154.203,862.305,-63.477,-166.016,870.605
1742383154.207,-571.289,-883.789,-269.043,-563.477
1742383154.211,-1000.0,-421.875,-77.637,-1000.0
1742383154.214,-708.984,94.727,81.055,-696.289
1742383154.218,768.066,762.695,71.777,770.02
1742383154.222,971.68,333.984,-111.328,981.934
1742383154.226,-521.484,-844.238,-300.781,-497.07
1742383154.23,-1000.0,-837.402,-140.137,-1000.0
1742383154.23,-736.328,253.418,111.328,-735.84
1742383154.234,657.715,854.98,136.719,659.18
1742383154.238,999.512,234.863,-93.262,999.512
1742383154.242,-190.43,-665.039,-287.109,-188.965
1742383154.246,-1000.0,-920.898,-144.043,-1000.0
1742383154.25,-840.332,305.176,81.055,-833.984
1742383154.254,559.57,997.559,108.887,567.383
1742383154.257,999.512,32.227,-96.68,999.512
1742383154.261,-137.207,-890.137,-268.555,-115.723
1742383154.265,-1000.0,-895.02,-131.348,-1000.0
1742383154.269,-840.332,-83.984,91.309,-844.727
1742383154.273,512.207,900.391,163.086,515.625
1742383154.23,-736.328,253.418,111.328,-735.84
1742383154.234,657.715,854.98,136.719,659.18
1742383154.238,999.512,234.863,-93.262,999.512
1742383154.242,-190.43,-665.039,-287.109,-188.965
1742383154.246,-1000.0,-920.898,-144.043,-1000.0
1742383154.25,-840.332,305.176,81.055,-833.984
1742383154.254,559.57,997.559,108.887,567.383
1742383154.257,999.512,32.227,-96.68,999.512
1742383154.261,-137.207,-890.137,-268.555,-115.723
1742383154.265,-1000.0,-895.02,-131.348,-1000.0
1742383154.269,-840.332,-83.984,91.309,-844.727
1742383154.273,512.207,900.391,163.086,515.625
1742383154.278,999.512,687.988,-53.711,999.512
1742383154.282,227.539,-661.133,-305.176,223.633
1742383154.286,-1000.0,-1000.0,-250.488,-1000.0
1742383154.29,-889.648,-0.977,-8.301,-902.832
1742383154.294,502.441,890.625,121.094,484.375
1742383154.298,999.512,860.352,-22.461,999.512
1742383154.302,658.203,-122.559,-208.496,643.066
1742383154.305,-779.297,-983.887,-202.148,-787.598
1742383154.309,-1000.0,-357.91,20.02,-1000.0
1742383154.313,343.75,765.137,203.125,339.844
1742383154.317,999.512,597.168,62.012,999.512
1742383154.321,739.258,-298.828,-174.316,740.234
1742383154.278,999.512,687.988,-53.711,999.512
1742383154.282,227.539,-661.133,-305.176,223.633
1742383154.286,-1000.0,-1000.0,-250.488,-1000.0
1742383154.29,-889.648,-0.977,-8.301,-902.832
1742383154.294,502.441,890.625,121.094,484.375
1742383154.298,999.512,860.352,-22.461,999.512
1742383154.302,658.203,-122.559,-208.496,643.066
1742383154.305,-779.297,-983.887,-202.148,-787.598
1742383154.309,-1000.0,-357.91,20.02,-1000.0
1742383154.313,343.75,765.137,203.125,339.844
1742383154.317,999.512,597.168,62.012,999.512
1742383154.321,739.258,-298.828,-174.316,740.234
1742383154.336,-641.113,-890.625,-222.656,-635.254
1742383154.34,-1000.0,-388.184,-18.555,-1000.0
1742383154.344,60.547,668.945,182.617,35.645
1742383154.348,999.512,928.711,86.426,999.512
1742383154.352,809.57,-132.812,-177.734,807.617
1742383154.356,-547.852,-926.27,-249.512,-560.059
1742383154.36,-1000.0,-651.367,-44.922,-1000.0
1742383154.363,-284.668,342.773,151.855,-284.668
1742383154.367,999.512,884.277,83.496,999.512
1742383154.371,847.656,-106.934,-132.324,849.609
1742383154.375,-560.059,-933.594,-216.309,-562.012
1742383154.379,-1000.0,-487.305,11.23,-1000.0
1742383154.336,-641.113,-890.625,-222.656,-635.254
1742383154.34,-1000.0,-388.184,-18.555,-1000.0
1742383154.344,60.547,668.945,182.617,35.645
1742383154.348,999.512,928.711,86.426,999.512
1742383154.352,809.57,-132.812,-177.734,807.617
1742383154.356,-547.852,-926.27,-249.512,-560.059
1742383154.36,-1000.0,-651.367,-44.922,-1000.0
1742383154.363,-284.668,342.773,151.855,-284.668
1742383154.367,999.512,884.277,83.496,999.512
1742383154.371,847.656,-106.934,-132.324,849.609
1742383154.375,-560.059,-933.594,-216.309,-562.012
1742383154.379,-1000.0,-487.305,11.23,-1000.0
1742383154.38,-529.297,535.156,199.707,-529.785
1742383154.384,899.902,876.465,142.09,884.766
1742383154.388,931.641,-124.023,-82.031,944.336
1742383154.392,-507.812,-979.004,-238.77,-488.281
1742383154.396,-1000.0,-616.699,-63.965,-1000.0
1742383154.4,-683.594,527.832,173.828,-681.152
1742383154.404,771.484,999.023,182.129,764.16
1742383154.407,999.512,52.246,-69.336,999.512
1742383154.411,-449.219,-969.238,-285.156,-421.387
1742383154.415,-1000.0,-787.598,-98.633,-1000.0
1742383154.419,-824.219,153.809,147.949,-813.965
1742383154.423,538.086,868.652,165.039,551.27
1742383154.38,-529.297,535.156,199.707,-529.785
1742383154.384,899.902,876.465,142.09,884.766
1742383154.388,931.641,-124.023,-82.031,944.336
1742383154.392,-507.812,-979.004,-238.77,-488.281
1742383154.396,-1000.0,-616.699,-63.965,-1000.0
1742383154.4,-683.594,527.832,173.828,-681.152
1742383154.404,771.484,999.023,182.129,764.16
1742383154.407,999.512,52.246,-69.336,999.512
1742383154.411,-449.219,-969.238,-285.156,-421.387
1742383154.415,-1000.0,-787.598,-98.633,-1000.0
1742383154.419,-824.219,153.809,147.949,-813.965
1742383154.423,538.086,868.652,165.039,551.27
1742383154.425,999.512,330.566,-53.711,999.512
1742383154.429,-102.539,-811.035,-255.859,-76.172
1742383154.433,-1000.0,-797.363,-115.234,-1000.0
1742383154.437,-841.797,292.48,124.023,-847.168
1742383154.441,511.23,914.062,179.688,515.137
1742383154.445,999.512,675.293,0.977,999.512
1742383154.449,270.02,-452.637,-227.539,266.602
1742383154.452,-1000.0,-1000.0,-171.875,-1000.0
1742383154.456,-914.551,-282.227,38.086,-919.922
1742383154.46,475.586,763.184,160.645,471.68
1742383154.464,999.512,523.438,-22.949,999.512
1742383154.468,572.754,-518.066,-255.859,546.875
1742383154.425,999.512,330.566,-53.711,999.512
1742383154.429,-102.539,-811.035,-255.859,-76.172
1742383154.433,-1000.0,-797.363,-115.234,-1000.0
1742383154.437,-841.797,292.48,124.023,-847.168
1742383154.441,511.23,914.062,179.688,515.137
1742383154.445,999.512,675.293,0.977,999.512
1742383154.449,270.02,-452.637,-227.539,266.602
1742383154.452,-1000.0,-1000.0,-171.875,-1000.0
1742383154.456,-914.551,-282.227,38.086,-919.922
1742383154.46,475.586,763.184,160.645,471.68
1742383154.464,999.512,523.438,-22.949,999.512
1742383154.468,572.754,-518.066,-255.859,546.875
1742383154.47,-851.074,-918.457,-216.797,-861.816
1742383154.474,-1000.0,-142.09,-4.883,-1000.0
1742383154.478,329.102,812.5,144.043,346.191
1742383154.482,999.512,776.367,-2.441,999.512
1742383154.486,729.004,-262.207,-220.703,728.516
1742383154.49,-685.059,-895.996,-224.121,-674.805
1742383154.494,-1000.0,-287.109,-6.348,-1000.0
1742383154.497,226.074,729.492,175.293,181.641
1742383154.501,999.512,747.559,50.781,999.512
1742383154.505,799.805,-185.547,-175.781,800.293
1742383154.509,-548.34,-899.902,-240.234,-559.57
1742383154.513,-1000.0,-571.289,-24.414,-1000.0
1742383154.98,735.352,-397.949,-148.438,741.699
1742383154.984,-677.734,-971.68,-146.484,-658.691
1742383154.988,-1000.0,-83.984,91.309,-1000.0
1742383154.992,225.098,883.301,246.094,176.27
1742383154.996,999.512,618.652,86.426,999.512
1742383155.0,801.758,-3.418,-135.742,808.105
1742383155.004,-551.27,-831.543,-204.102,-553.223
1742383155.007,-1000.0,-633.301,19.531,-1000.0
1742383155.011,-89.355,736.816,220.703,-117.188
1742383155.015,999.512,820.312,116.211,999.512
1742383155.019,816.895,-275.879,-139.16,823.73
1742383155.023,-544.922,-934.082,-240.234,-548.828
1742383155.026,-1000.0,-429.199,-24.414,-1000.0
1742383155.03,-578.613,525.391,161.133,-557.617
1742383155.034,875.0,869.629,118.652,875.0
1742383155.038,930.664,34.668,-116.699,937.988
1742383155.042,-532.715,-828.613,-241.699,-514.16
1742383155.046,-1000.0,-378.418,-47.852,-1000.0
1742383155.05,-750.488,327.637,123.535,-746.582
1742383155.053,683.105,790.527,126.465,687.988
1742383155.057,999.512,178.711,-62.012,999.512
1742383155.061,-371.582,-923.828,-255.859,-373.535
1742383155.065,-1000.0,-756.348,-109.863,-1000.0
1742383155.069,-841.797,329.102,115.723,-832.52
1742383155.026,-1000.0,-429.199,-24.414,-1000.0
1742383155.03,-578.613,525.391,161.133,-557.617
1742383155.034,875.0,869.629,118.652,875.0
1742383155.038,930.664,34.668,-116.699,937.988
1742383155.042,-532.715,-828.613,-241.699,-514.16
1742383155.046,-1000.0,-378.418,-47.852,-1000.0
1742383155.05,-750.488,327.637,123.535,-746.582
1742383155.053,683.105,790.527,126.465,687.988
1742383155.057,999.512,178.711,-62.012,999.512
1742383155.061,-371.582,-923.828,-255.859,-373.535
1742383155.065,-1000.0,-756.348,-109.863,-1000.0
1742383155.069,-841.797,329.102,115.723,-832.52
1742383155.085,564.453,929.688,139.648,575.195
1742383155.089,999.512,207.031,-88.379,999.512
1742383155.093,-299.316,-873.535,-281.738,-288.574
1742383155.097,-1000.0,-604.98,-136.719,-1000.0
1742383155.101,-831.543,135.742,79.102,-833.496
1742383155.105,511.719,829.59,168.945,514.16
1742383155.109,999.512,450.684,-15.137,999.512
1742383155.112,88.379,-798.828,-268.066,93.262
1742383155.116,-1000.0,-984.863,-215.332,-1000.0
1742383155.12,-881.836,-115.234,43.457,-892.578
1742383155.124,469.727,833.984,189.941,461.426
1742383155.128,999.512,662.598,11.719,999.512
1742383155.085,564.453,929.688,139.648,575.195
1742383155.089,999.512,207.031,-88.379,999.512
1742383155.093,-299.316,-873.535,-281.738,-288.574
1742383155.097,-1000.0,-604.98,-136.719,-1000.0
1742383155.101,-831.543,135.742,79.102,-833.496
1742383155.105,511.719,829.59,168.945,514.16
1742383155.109,999.512,450.684,-15.137,999.512
1742383155.112,88.379,-798.828,-268.066,93.262
1742383155.116,-1000.0,-984.863,-215.332,-1000.0
1742383155.12,-881.836,-115.234,43.457,-892.578
1742383155.124,469.727,833.984,189.941,461.426
1742383155.128,999.512,662.598,11.719,999.512
1742383155.133,594.238,-323.242,-210.938,564.453
1742383155.137,-854.004,-989.258,-194.336,-859.863
1742383155.141,-1000.0,-429.199,23.438,-1000.0
1742383155.145,409.668,799.805,172.363,393.066
1742383155.149,999.512,762.207,-23.438,999.512
1742383155.153,713.867,-260.254,-260.254,701.66
1742383155.157,-696.777,-899.414,-241.211,-703.613
1742383155.16,-1000.0,-381.836,-25.879,-1000.0
1742383155.164,229.004,721.68,153.32,193.359
1742383155.168,999.512,777.344,37.598,999.512
1742383155.172,802.734,-326.172,-186.035,800.293
1742383155.176,-552.734,-953.125,-219.727,-568.848
1742383155.133,594.238,-323.242,-210.938,564.453
1742383155.137,-854.004,-989.258,-194.336,-859.863
1742383155.141,-1000.0,-429.199,23.438,-1000.0
1742383155.145,409.668,799.805,172.363,393.066
1742383155.149,999.512,762.207,-23.438,999.512
1742383155.153,713.867,-260.254,-260.254,701.66
1742383155.157,-696.777,-899.414,-241.211,-703.613
1742383155.16,-1000.0,-381.836,-25.879,-1000.0
1742383155.164,229.004,721.68,153.32,193.359
1742383155.168,999.512,777.344,37.598,999.512
1742383155.172,802.734,-326.172,-186.035,800.293
1742383155.176,-552.734,-953.125,-219.727,-568.848
1742383155.175,-1000.0,-375.977,-6.836,-1000.0
1742383155.179,-68.359,634.277,192.871,-58.105
1742383155.183,999.512,848.633,119.141,999.512
1742383155.187,812.5,199.707,-119.141,814.941
1742383155.191,-542.969,-789.062,-248.535,-544.434
1742383155.195,-1000.0,-693.359,-58.594,-1000.0
1742383155.199,-619.629,222.168,127.93,-569.336
1742383155.202,859.863,778.32,83.496,876.953
1742383155.206,915.527,-81.055,-177.246,921.387
1742383155.21,-566.895,-1000.0,-345.215,-542.969
1742383155.214,-1000.0,-777.832,-130.371,-1000.0
1742383155.218,-665.527,319.824,93.262,-656.25
1742383155.175,-1000.0,-375.977,-6.836,-1000.0
1742383155.179,-68.359,634.277,192.871,-58.105
1742383155.183,999.512,848.633,119.141,999.512
1742383155.187,812.5,199.707,-119.141,814.941
1742383155.191,-542.969,-789.062,-248.535,-544.434
1742383155.195,-1000.0,-693.359,-58.594,-1000.0
1742383155.199,-619.629,222.168,127.93,-569.336
1742383155.202,859.863,778.32,83.496,876.953
1742383155.206,915.527,-81.055,-177.246,921.387
1742383155.21,-566.895,-1000.0,-345.215,-542.969
1742383155.214,-1000.0,-777.832,-130.371,-1000.0
1742383155.218,-665.527,319.824,93.262,-656.25
1742383155.22,769.531,946.289,62.988,772.949
1742383155.224,999.512,149.902,-187.5,999.512
1742383155.228,-390.625,-879.883,-350.098,-385.254
1742383155.232,-1000.0,-788.086,-166.504,-1000.0
1742383155.236,-590.332,298.34,92.773,-587.402
1742383155.24,661.621,914.551,142.578,661.621
1742383155.244,999.512,174.805,-84.961,999.512
1742383155.247,-56.641,-758.301,-254.883,-27.344
1742383155.251,-1000.0,-955.566,-120.117,-1000.0
1742383155.255,-848.145,-26.855,135.254,-850.586
1742383155.259,517.09,887.207,209.961,524.414
1742383155.263,999.512,376.953,-1.465,999.512
1742383155.265,222.168,-686.523,-220.215,221.68
1742383155.269,-1000.0,-949.219,-129.395,-1000.0
1742383155.273,-874.023,263.672,137.695,-875.0
1742383155.277,523.438,950.684,189.941,525.391
1742383155.281,999.512,176.758,-20.508,999.512
1742383155.285,598.633,-345.703,-192.383,595.215
1742383155.289,-856.445,-889.648,-166.016,-850.586
1742383155.292,-1000.0,-496.094,37.109,-1000.0
1742383155.296,433.594,777.832,206.543,438.965
1742383155.3,999.512,530.273,32.715,999.512
1742383155.304,686.035,-588.379,-177.246,691.895
1742383155.308,-744.141,-962.402,-146.484,-733.398
1742383155.265,222.168,-686.523,-220.215,221.68
1742383155.269,-1000.0,-949.219,-129.395,-1000.0
1742383155.273,-874.023,263.672,137.695,-875.0
1742383155.277,523.438,950.684,189.941,525.391
1742383155.281,999.512,176.758,-20.508,999.512
1742383155.285,598.633,-345.703,-192.383,595.215
1742383155.289,-856.445,-889.648,-166.016,-850.586
1742383155.292,-1000.0,-496.094,37.109,-1000.0
1742383155.296,433.594,777.832,206.543,438.965
1742383155.3,999.512,530.273,32.715,999.512
1742383155.304,686.035,-588.379,-177.246,691.895
1742383155.308,-744.141,-962.402,-146.484,-733.398
1742383155.311,-1000.0,-177.734,81.543,-1000.0
1742383155.315,306.641,778.809,240.234,295.41
1742383155.319,999.512,588.379,83.008,999.512
1742383155.323,798.828,-195.312,-150.391,788.574
1742383155.327,-572.266,-830.078,-196.289,-584.473
1742383155.331,-1000.0,-43.945,28.809,-1000.0
1742383155.335,76.172,929.199,223.633,43.945
1742383155.338,999.512,573.242,82.52,999.512
1742383155.342,800.293,-413.086,-173.34,807.617
1742383155.346,-537.598,-953.125,-236.328,-541.992
1742383155.35,-1000.0,-285.645,-4.883,-1000.0
1742383155.354,-444.824,708.984,173.34,-428.711
1742383155.311,-1000.0,-177.734,81.543,-1000.0
1742383155.315,306.641,778.809,240.234,295.41
1742383155.319,999.512,588.379,83.008,999.512
1742383155.323,798.828,-195.312,-150.391,788.574
1742383155.327,-572.266,-830.078,-196.289,-584.473
1742383155.331,-1000.0,-43.945,28.809,-1000.0
1742383155.335,76.172,929.199,223.633,43.945
1742383155.338,999.512,573.242,82.52,999.512
1742383155.342,800.293,-413.086,-173.34,807.617
1742383155.346,-537.598,-953.125,-236.328,-541.992
1742383155.35,-1000.0,-285.645,-4.883,-1000.0
1742383155.354,-444.824,708.984,173.34,-428.711
1742383155.311,-1000.0,-177.734,81.543,-1000.0
1742383155.315,306.641,778.809,240.234,295.41
1742383155.319,999.512,588.379,83.008,999.512
1742383155.323,798.828,-195.312,-150.391,788.574
1742383155.327,-572.266,-830.078,-196.289,-584.473
1742383155.331,-1000.0,-43.945,28.809,-1000.0
1742383155.335,76.172,929.199,223.633,43.945
1742383155.338,999.512,573.242,82.52,999.512
1742383155.342,800.293,-413.086,-173.34,807.617
1742383155.346,-537.598,-953.125,-236.328,-541.992
1742383155.35,-1000.0,-285.645,-4.883,-1000.0
1742383155.354,-444.824,708.984,173.34,-428.711
1742383155.355,953.125,827.148,88.867,956.543
1742383155.359,870.117,-218.262,-157.715,870.605
1742383155.363,-572.754,-898.926,-273.926,-570.801
1742383155.367,-1000.0,-308.105,-57.129,-1000.0
1742383155.371,-665.039,306.152,130.371,-657.227
1742383155.375,811.035,916.992,125.488,802.734
1742383155.379,954.102,292.48,-102.539,972.168
1742383155.382,-532.715,-943.848,-303.223,-498.535
1742383155.386,-1000.0,-727.051,-90.332,-1000.0
1742383155.39,-760.254,307.617,161.621,-763.184
1742383155.394,647.949,936.035,175.781,639.16
1742383155.398,999.512,161.133,-69.824,999.512
1742383155.355,953.125,827.148,88.867,956.543
1742383155.359,870.117,-218.262,-157.715,870.605
1742383155.363,-572.754,-898.926,-273.926,-570.801
1742383155.367,-1000.0,-308.105,-57.129,-1000.0
1742383155.371,-665.039,306.152,130.371,-657.227
1742383155.375,811.035,916.992,125.488,802.734
1742383155.379,954.102,292.48,-102.539,972.168
1742383155.382,-532.715,-943.848,-303.223,-498.535
1742383155.386,-1000.0,-727.051,-90.332,-1000.0
1742383155.39,-760.254,307.617,161.621,-763.184
1742383155.394,647.949,936.035,175.781,639.16
1742383155.398,999.512,161.133,-69.824,999.512
1742383155.403,-275.391,-855.957,-269.531,-249.023
1742383155.407,-1000.0,-610.84,-127.441,-1000.0
1742383155.411,-819.824,-40.039,76.172,-821.777
1742383155.415,496.094,700.195,130.859,502.93
1742383155.419,999.512,547.852,-57.129,999.512
1742383155.423,334.473,-354.98,-262.207,337.402
1742383155.427,-1000.0,-893.555,-179.199,-1000.0
1742383155.43,-903.32,-173.34,77.148,-902.832
1742383155.434,541.504,884.277,187.012,540.527
1742383155.438,999.512,466.309,-16.113,999.512
1742383155.442,307.617,-808.594,-224.609,360.84
1742383155.446,-1000.0,-930.176,-150.391,-988.77
1742383155.403,-275.391,-855.957,-269.531,-249.023
1742383155.407,-1000.0,-610.84,-127.441,-1000.0
1742383155.411,-819.824,-40.039,76.172,-821.777
1742383155.415,496.094,700.195,130.859,502.93
1742383155.419,999.512,547.852,-57.129,999.512
1742383155.423,334.473,-354.98,-262.207,337.402
1742383155.427,-1000.0,-893.555,-179.199,-1000.0
1742383155.43,-903.32,-173.34,77.148,-902.832
1742383155.434,541.504,884.277,187.012,540.527
1742383155.438,999.512,466.309,-16.113,999.512
1742383155.442,307.617,-808.594,-224.609,360.84
1742383155.446,-1000.0,-930.176,-150.391,-988.77
1742383155.46,-918.457,110.84,83.008,-936.523
1742383155.464,486.816,825.684,208.008,477.051
1742383155.468,999.512,506.348,13.184,999.512
1742383155.472,701.66,-134.766,-200.195,696.777
1742383155.476,-736.816,-893.066,-197.266,-739.746
1742383155.48,-1000.0,-218.75,30.273,-1000.0
1742383155.484,352.051,907.227,193.359,348.633
1742383155.487,999.512,446.289,41.504,999.512
1742383155.491,776.855,-397.949,-176.758,768.555
1742383155.495,-605.957,-949.707,-201.172,-613.77
1742383155.499,-1000.0,-523.926,14.16,-1000.0
1742383155.503,122.07,753.418,199.219,107.422
1742383155.46,-918.457,110.84,83.008,-936.523
1742383155.464,486.816,825.684,208.008,477.051
1742383155.468,999.512,506.348,13.184,999.512
1742383155.472,701.66,-134.766,-200.195,696.777
1742383155.476,-736.816,-893.066,-197.266,-739.746
1742383155.48,-1000.0,-218.75,30.273,-1000.0
1742383155.484,352.051,907.227,193.359,348.633
1742383155.487,999.512,446.289,41.504,999.512
1742383155.491,776.855,-397.949,-176.758,768.555
1742383155.495,-605.957,-949.707,-201.172,-613.77
1742383155.499,-1000.0,-523.926,14.16,-1000.0
1742383155.503,122.07,753.418,199.219,107.422
1742383155.46,-918.457,110.84,83.008,-936.523
1742383155.464,486.816,825.684,208.008,477.051
1742383155.468,999.512,506.348,13.184,999.512
1742383155.472,701.66,-134.766,-200.195,696.777
1742383155.476,-736.816,-893.066,-197.266,-739.746
1742383155.48,-1000.0,-218.75,30.273,-1000.0
1742383155.484,352.051,907.227,193.359,348.633
1742383155.487,999.512,446.289,41.504,999.512
1742383155.491,776.855,-397.949,-176.758,768.555
1742383155.495,-605.957,-949.707,-201.172,-613.77
1742383155.499,-1000.0,-523.926,14.16,-1000.0
1742383155.503,122.07,753.418,199.219,107.422
1742383155.506,999.512,897.949,76.66,999.512
1742383155.51,799.805,-146.484,-193.359,803.711
1742383155.514,-540.039,-887.207,-277.832,-541.992
1742383155.518,-1000.0,-339.844,-50.781,-1000.0
1742383155.522,-333.496,591.797,163.086,-338.867
1742383155.526,998.047,929.688,106.934,986.816
1742383155.53,851.562,117.676,-141.602,867.676
1742383155.533,-563.477,-899.902,-282.715,-545.898
1742383155.537,-1000.0,-906.738,-79.102,-1000.0
1742383155.541,-635.742,161.621,161.621,-638.672
1742383155.545,820.312,927.734,135.254,811.523
1742383155.549,981.934,104.98,-93.262,980.469
1742383155.506,999.512,897.949,76.66,999.512
1742383155.51,799.805,-146.484,-193.359,803.711
1742383155.514,-540.039,-887.207,-277.832,-541.992
1742383155.518,-1000.0,-339.844,-50.781,-1000.0
1742383155.522,-333.496,591.797,163.086,-338.867
1742383155.526,998.047,929.688,106.934,986.816
1742383155.53,851.562,117.676,-141.602,867.676
1742383155.533,-563.477,-899.902,-282.715,-545.898
1742383155.537,-1000.0,-906.738,-79.102,-1000.0
1742383155.541,-635.742,161.621,161.621,-638.672
1742383155.545,820.312,927.734,135.254,811.523
1742383155.549,981.934,104.98,-93.262,980.469
1742383155.55,-467.285,-910.645,-244.141,-473.633
1742383155.554,-1000.0,-630.859,-53.223,-1000.0
1742383155.558,-708.496,493.164,166.504,-720.215
1742383155.562,700.195,889.16,135.742,682.129
1742383155.566,999.512,49.805,-92.773,999.512
1742383155.57,-253.906,-771.973,-262.207,-219.238
1742383155.574,-1000.0,-783.203,-122.559,-1000.0
1742383155.577,-848.145,-45.41,88.867,-850.098
1742383155.581,536.133,827.637,156.25,541.016
1742383155.585,999.512,315.43,-52.734,999.512
1742383155.589,-143.066,-911.621,-277.832,-114.258
1742383155.593,-1000.0,-887.695,-174.805,-1000.0
1742383155.55,-467.285,-910.645,-244.141,-473.633
1742383155.554,-1000.0,-630.859,-53.223,-1000.0
1742383155.558,-708.496,493.164,166.504,-720.215
1742383155.562,700.195,889.16,135.742,682.129
1742383155.566,999.512,49.805,-92.773,999.512
1742383155.57,-253.906,-771.973,-262.207,-219.238
1742383155.574,-1000.0,-783.203,-122.559,-1000.0
1742383155.577,-848.145,-45.41,88.867,-850.098
1742383155.581,536.133,827.637,156.25,541.016
1742383155.585,999.512,315.43,-52.734,999.512
1742383155.589,-143.066,-911.621,-277.832,-114.258
1742383155.593,-1000.0,-887.695,-174.805,-1000.0
1742383155.597,-835.449,174.805,61.523,-839.355
1742383155.601,506.348,909.18,168.945,509.277
1742383155.605,999.512,426.27,-24.902,999.512
1742383155.609,304.688,-673.828,-256.836,329.102
1742383155.613,-1000.0,-830.078,-171.387,-996.094
1742383155.617,-928.711,271.973,77.148,-944.336
1742383155.621,465.82,918.457,194.824,452.148
1742383155.624,999.512,280.762,3.418,999.512
1742383155.628,582.52,-659.668,-229.004,560.547
1742383155.632,-866.211,-997.07,-219.727,-866.211
1742383155.636,-1000.0,-242.188,19.531,-1000.0
1742383155.64,420.41,868.652,201.66,398.438
1742383155.64,999.512,605.469,47.363,999.512
1742383155.644,735.84,-433.594,-178.711,735.352
1742383155.648,-634.277,-772.949,-166.504,-629.883
1742383155.652,-1000.0,-80.078,46.387,-1000.0
1742383155.656,34.18,593.262,236.328,0.977
1742383155.66,999.512,946.289,172.363,999.512
1742383155.664,816.895,88.379,-117.188,815.43
1742383155.667,-555.176,-956.543,-219.238,-567.871
1742383155.671,-1000.0,-571.777,8.301,-1000.0
1742383155.675,-204.59,599.121,210.938,-218.262
1742383155.679,999.512,934.082,141.113,999.512
1742383155.683,832.031,-117.188,-126.953,836.914
1742383155.64,999.512,605.469,47.363,999.512
1742383155.644,735.84,-433.594,-178.711,735.352
1742383155.648,-634.277,-772.949,-166.504,-629.883
1742383155.652,-1000.0,-80.078,46.387,-1000.0
1742383155.656,34.18,593.262,236.328,0.977
1742383155.66,999.512,946.289,172.363,999.512
1742383155.664,816.895,88.379,-117.188,815.43
1742383155.667,-555.176,-956.543,-219.238,-567.871
1742383155.671,-1000.0,-571.777,8.301,-1000.0
1742383155.675,-204.59,599.121,210.938,-218.262
1742383155.679,999.512,934.082,141.113,999.512
1742383155.683,832.031,-117.188,-126.953,836.914
1742383155.688,-553.223,-929.199,-253.906,-556.152
1742383155.692,-1000.0,-377.441,-33.691,-1000.0
1742383155.696,-630.859,339.355,164.062,-610.352
1742383155.7,827.637,788.086,125.0,832.031
1742383155.704,972.656,147.461,-93.75,970.703
1742383155.708,-481.934,-910.645,-237.305,-477.539
1742383155.712,-1000.0,-783.203,-79.59,-1000.0
1742383155.715,-731.445,244.141,124.512,-730.469
1742383155.719,725.098,914.062,127.93,716.797
1742383155.723,999.512,185.059,-106.934,999.512
1742383155.727,-444.824,-911.133,-295.41,-415.527
1742383155.731,-1000.0,-716.797,-121.094,-1000.0
1742383155.688,-553.223,-929.199,-253.906,-556.152
1742383155.692,-1000.0,-377.441,-33.691,-1000.0
1742383155.696,-630.859,339.355,164.062,-610.352
1742383155.7,827.637,788.086,125.0,832.031
1742383155.704,972.656,147.461,-93.75,970.703
1742383155.708,-481.934,-910.645,-237.305,-477.539
1742383155.712,-1000.0,-783.203,-79.59,-1000.0
1742383155.715,-731.445,244.141,124.512,-730.469
1742383155.719,725.098,914.062,127.93,716.797
1742383155.723,999.512,185.059,-106.934,999.512
1742383155.727,-444.824,-911.133,-295.41,-415.527
1742383155.731,-1000.0,-716.797,-121.094,-1000.0
1742383155.73,-818.359,323.73,106.445,-808.594
1742383155.734,527.832,820.312,104.004,544.434
1742383155.738,999.512,219.727,-100.098,999.512
1742383155.742,7.324,-620.605,-287.598,7.324
1742383155.746,-1000.0,-961.914,-207.031,-1000.0
1742383155.75,-858.887,130.859,54.199,-859.375
1742383155.754,522.949,937.988,125.977,526.367
1742383155.757,999.512,59.082,-113.77,999.512
1742383155.761,223.633,-792.48,-301.758,213.379
1742383155.765,-1000.0,-929.688,-209.473,-1000.0
1742383155.769,-876.953,-221.191,38.086,-896.973
1742383155.773,520.996,849.609,203.125,493.164
1742383155.73,-818.359,323.73,106.445,-808.594
1742383155.734,527.832,820.312,104.004,544.434
1742383155.738,999.512,219.727,-100.098,999.512
1742383155.742,7.324,-620.605,-287.598,7.324
1742383155.746,-1000.0,-961.914,-207.031,-1000.0
1742383155.75,-858.887,130.859,54.199,-859.375
1742383155.754,522.949,937.988,125.977,526.367
1742383155.757,999.512,59.082,-113.77,999.512
1742383155.761,223.633,-792.48,-301.758,213.379
1742383155.765,-1000.0,-929.688,-209.473,-1000.0
1742383155.769,-876.953,-221.191,38.086,-896.973
1742383155.773,520.996,849.609,203.125,493.164
1742383155.777,999.512,692.871,35.156,999.512
1742383155.781,537.109,-489.258,-226.074,518.066
1742383155.785,-869.629,-954.59,-198.242,-874.512
1742383155.789,-1000.0,-157.227,39.551,-1000.0
1742383155.793,319.824,828.125,210.938,319.336
1742383155.797,999.512,912.598,69.336,999.512
1742383155.801,711.426,-324.707,-178.711,701.172
1742383155.804,-704.59,-1000.0,-187.5,-706.055
1742383155.808,-1000.0,-359.863,18.066,-1000.0
1742383155.812,224.121,694.824,174.805,174.805
1742383155.816,999.512,686.523,61.035,999.512
1742383155.82,798.828,-118.164,-159.18,796.387
1742383155.777,999.512,692.871,35.156,999.512
1742383155.781,537.109,-489.258,-226.074,518.066
1742383155.785,-869.629,-954.59,-198.242,-874.512
1742383155.789,-1000.0,-157.227,39.551,-1000.0
1742383155.793,319.824,828.125,210.938,319.336
1742383155.797,999.512,912.598,69.336,999.512
1742383155.801,711.426,-324.707,-178.711,701.172
1742383155.804,-704.59,-1000.0,-187.5,-706.055
1742383155.808,-1000.0,-359.863,18.066,-1000.0
1742383155.812,224.121,694.824,174.805,174.805
1742383155.816,999.512,686.523,61.035,999.512
1742383155.82,798.828,-118.164,-159.18,796.387
1742383155.835,-546.875,-879.395,-215.332,-563.965
1742383155.839,-1000.0,-461.426,13.672,-1000.0
1742383155.843,-137.207,657.227,212.891,-147.949
1742383155.847,999.512,929.199,143.066,999.512
1742383155.851,824.707,-159.18,-115.723,829.59
1742383155.855,-548.828,-983.398,-243.652,-552.246
1742383155.859,-1000.0,-721.191,-57.129,-1000.0
1742383155.862,-532.227,297.852,152.344,-520.996
1742383155.866,916.504,999.023,128.906,906.25
1742383155.87,885.254,56.152,-124.512,903.809
1742383155.874,-580.566,-980.469,-296.387,-552.734
1742383155.878,-1000.0,-532.227,-83.008,-1000.0
1742383155.835,-546.875,-879.395,-215.332,-563.965
1742383155.839,-1000.0,-461.426,13.672,-1000.0
1742383155.843,-137.207,657.227,212.891,-147.949
1742383155.847,999.512,929.199,143.066,999.512
1742383155.851,824.707,-159.18,-115.723,829.59
1742383155.855,-548.828,-983.398,-243.652,-552.246
1742383155.859,-1000.0,-721.191,-57.129,-1000.0
1742383155.862,-532.227,297.852,152.344,-520.996
1742383155.866,916.504,999.023,128.906,906.25
1742383155.87,885.254,56.152,-124.512,903.809
1742383155.874,-580.566,-980.469,-296.387,-552.734
1742383155.878,-1000.0,-532.227,-83.008,-1000.0
1742383155.88,-665.039,477.051,138.184,-652.344
1742383155.884,765.137,915.039,140.625,769.043
1742383155.888,999.512,206.543,-79.59,999.512
1742383155.892,-361.328,-891.602,-282.715,-348.633
1742383155.896,-1000.0,-751.953,-91.797,-1000.0
1742383155.9,-757.812,575.195,166.992,-762.695
1742383155.904,661.133,997.559,180.176,648.438
1742383155.907,999.512,-19.531,-58.594,999.512
1742383155.911,-273.926,-927.734,-275.879,-237.305
1742383155.915,-1000.0,-827.637,-133.301,-1000.0
1742383155.919,-832.031,-13.672,116.699,-835.938
1742383155.923,512.207,836.426,204.102,514.16
1742383155.88,-665.039,477.051,138.184,-652.344
1742383155.884,765.137,915.039,140.625,769.043
1742383155.888,999.512,206.543,-79.59,999.512
1742383155.892,-361.328,-891.602,-282.715,-348.633
1742383155.896,-1000.0,-751.953,-91.797,-1000.0
1742383155.9,-757.812,575.195,166.992,-762.695
1742383155.904,661.133,997.559,180.176,648.438
1742383155.907,999.512,-19.531,-58.594,999.512
1742383155.911,-273.926,-927.734,-275.879,-237.305
1742383155.915,-1000.0,-827.637,-133.301,-1000.0
1742383155.919,-832.031,-13.672,116.699,-835.938
1742383155.923,512.207,836.426,204.102,514.16
1742383155.925,999.512,395.996,-27.344,999.512
1742383155.929,103.027,-815.43,-266.113,131.348
1742383155.933,-1000.0,-778.32,-165.039,-1000.0
1742383155.937,-868.164,313.965,66.895,-886.719
1742383155.941,499.512,911.621,164.551,486.328
1742383155.945,999.512,820.312,-5.859,999.512
1742383155.949,503.418,-328.613,-247.07,491.211
1742383155.952,-910.645,-1000.0,-229.492,-904.785
1742383155.956,-1000.0,-320.801,2.93,-1000.0
1742383155.96,397.949,796.387,170.898,386.719
1742383155.964,999.512,761.719,7.324,999.512
1742383155.968,672.852,-365.234,-232.422,681.641
1742383155.971,-750.0,-969.727,-211.914,-740.234
1742383155.975,-1000.0,-156.738,10.254,-1000.0
1742383155.979,269.043,879.883,150.879,269.043
1742383155.983,999.512,709.961,31.738,999.512
1742383155.987,773.438,-332.52,-178.223,765.625
1742383155.991,-554.199,-841.797,-204.59,-570.312
1742383155.995,-1000.0,-300.293,1.953,-1000.0
1742383155.998,-275.879,427.734,154.785,-244.141
1742383156.002,999.512,823.73,66.895,999.512
1742383156.006,850.098,-73.242,-155.273,846.68
1742383156.01,-563.477,-935.059,-248.047,-562.012
1742383156.014,-1000.0,-448.73,-29.297,-1000.0
1742383155.971,-750.0,-969.727,-211.914,-740.234
1742383155.975,-1000.0,-156.738,10.254,-1000.0
1742383155.979,269.043,879.883,150.879,269.043
1742383155.983,999.512,709.961,31.738,999.512
1742383155.987,773.438,-332.52,-178.223,765.625
1742383155.991,-554.199,-841.797,-204.59,-570.312
1742383155.995,-1000.0,-300.293,1.953,-1000.0
1742383155.998,-275.879,427.734,154.785,-244.141
1742383156.002,999.512,823.73,66.895,999.512
1742383156.006,850.098,-73.242,-155.273,846.68
1742383156.01,-563.477,-935.059,-248.047,-562.012
1742383156.014,-1000.0,-448.73,-29.297,-1000.0
1742383156.015,-438.965,589.355,166.016,-438.477
1742383156.019,939.941,861.328,76.66,935.547
1742383156.023,910.645,-28.809,-147.949,916.992
1742383156.027,-509.766,-859.863,-280.762,-499.512
1742383156.031,-1000.0,-526.855,-80.078,-1000.0
1742383156.035,-667.48,533.203,131.348,-665.527
1742383156.039,798.34,870.605,83.496,793.457
1742383156.042,980.469,-153.32,-160.645,987.305
1742383156.046,-490.723,-985.84,-318.359,-478.516
1742383156.05,-1000.0,-710.449,-126.953,-1000.0
1742383156.054,-784.18,91.309,118.652,-782.715
1742383156.058,614.746,871.582,149.414,605.469
1742383156.015,-438.965,589.355,166.016,-438.477
1742383156.019,939.941,861.328,76.66,935.547
1742383156.023,910.645,-28.809,-147.949,916.992
1742383156.027,-509.766,-859.863,-280.762,-499.512
1742383156.031,-1000.0,-526.855,-80.078,-1000.0
1742383156.035,-667.48,533.203,131.348,-665.527
1742383156.039,798.34,870.605,83.496,793.457
1742383156.042,980.469,-153.32,-160.645,987.305
1742383156.046,-490.723,-985.84,-318.359,-478.516
1742383156.05,-1000.0,-710.449,-126.953,-1000.0
1742383156.054,-784.18,91.309,118.652,-782.715
1742383156.058,614.746,871.582,149.414,605.469
1742383156.061,999.512,355.957,-80.078,999.512
1742383156.065,-245.605,-848.145,-266.602,-192.871
1742383156.069,-1000.0,-881.836,-128.418,-1000.0
1742383156.073,-827.148,247.559,97.168,-823.242
1742383156.077,503.906,937.5,133.301,520.508
1742383156.081,999.512,709.961,-69.824,999.512
1742383156.085,242.676,-359.375,-266.113,264.648
1742383156.088,-1000.0,-1000.0,-194.336,-1000.0
1742383156.092,-878.418,-334.473,21.973,-883.789
1742383156.096,524.902,759.277,118.164,528.809
1742383156.1,999.512,416.016,-70.801,999.512
1742383156.104,542.969,-474.609,-268.066,529.785
1742383156.061,999.512,355.957,-80.078,999.512
1742383156.065,-245.605,-848.145,-266.602,-192.871
1742383156.069,-1000.0,-881.836,-128.418,-1000.0
1742383156.073,-827.148,247.559,97.168,-823.242
1742383156.077,503.906,937.5,133.301,520.508
1742383156.081,999.512,709.961,-69.824,999.512
1742383156.085,242.676,-359.375,-266.113,264.648
1742383156.088,-1000.0,-1000.0,-194.336,-1000.0
1742383156.092,-878.418,-334.473,21.973,-883.789
1742383156.096,524.902,759.277,118.164,528.809
1742383156.1,999.512,416.016,-70.801,999.512
1742383156.104,542.969,-474.609,-268.066,529.785
1742383156.105,-892.09,-877.93,-200.684,-895.508
1742383156.109,-1000.0,-160.156,11.23,-996.094
1742383156.113,425.293,880.859,165.527,436.035
1742383156.117,999.512,794.434,23.438,999.512
1742383156.121,608.398,-559.57,-225.586,615.723
1742383156.125,-800.293,-893.555,-168.945,-792.48
1742383156.129,-1000.0,-41.016,46.387,-1000.0
1742383156.132,237.793,694.336,176.758,249.512
1742383156.136,999.512,781.738,61.523,999.512
1742383156.14,786.621,-111.328,-171.387,775.879
1742383156.144,-591.309,-899.902,-224.609,-598.633
1742383156.148,-1000.0,-373.535,-4.883,-1000.0
1742383156.105,-892.09,-877.93,-200.684,-895.508
1742383156.109,-1000.0,-160.156,11.23,-996.094
1742383156.113,425.293,880.859,165.527,436.035
1742383156.117,999.512,794.434,23.438,999.512
1742383156.121,608.398,-559.57,-225.586,615.723
1742383156.125,-800.293,-893.555,-168.945,-792.48
1742383156.129,-1000.0,-41.016,46.387,-1000.0
1742383156.132,237.793,694.336,176.758,249.512
1742383156.136,999.512,781.738,61.523,999.512
1742383156.14,786.621,-111.328,-171.387,775.879
1742383156.144,-591.309,-899.902,-224.609,-598.633
1742383156.148,-1000.0,-373.535,-4.883,-1000.0
1742383156.151,49.316,722.656,194.336,8.301
1742383156.155,999.512,880.371,112.793,999.512
1742383156.159,819.336,-74.707,-130.859,824.219
1742383156.163,-559.082,-935.059,-231.934,-559.082
1742383156.167,-1000.0,-430.664,0.977,-1000.0
1742383156.171,-134.277,800.293,238.281,-191.406
1742383156.175,999.512,887.695,147.949,999.512
1742383156.178,821.289,-356.445,-144.043,832.52
1742383156.182,-547.852,-1000.0,-283.691,-554.199
1742383156.186,-1000.0,-490.723,-98.633,-1000.0
1742383156.19,-631.836,388.672,104.004,-620.605
1742383156.194,838.379,962.402,110.84,829.59
1742383156.151,49.316,722.656,194.336,8.301
1742383156.155,999.512,880.371,112.793,999.512
1742383156.159,819.336,-74.707,-130.859,824.219
1742383156.163,-559.082,-935.059,-231.934,-559.082
1742383156.167,-1000.0,-430.664,0.977,-1000.0
1742383156.171,-134.277,800.293,238.281,-191.406
1742383156.175,999.512,887.695,147.949,999.512
1742383156.178,821.289,-356.445,-144.043,832.52
1742383156.182,-547.852,-1000.0,-283.691,-554.199
1742383156.186,-1000.0,-490.723,-98.633,-1000.0
1742383156.19,-631.836,388.672,104.004,-620.605
1742383156.194,838.379,962.402,110.84,829.59
1742383156.21,947.266,222.168,-139.16,963.379
1742383156.214,-529.297,-988.77,-344.727,-498.047
1742383156.218,-1000.0,-625.488,-131.836,-1000.0
1742383156.222,-764.648,524.414,82.52,-763.184
1742383156.226,663.086,953.125,101.074,655.273
1742383156.23,999.512,487.793,-83.984,999.512
1742383156.234,-352.539,-748.535,-323.73,-322.266
1742383156.237,-1000.0,-927.246,-172.852,-1000.0
1742383156.241,-828.125,139.648,90.82,-818.359
1742383156.245,508.789,843.262,146.973,523.926
1742383156.249,999.512,317.383,-55.176,999.512
1742383156.253,95.703,-661.621,-258.301,120.117
1742383156.21,947.266,222.168,-139.16,963.379
1742383156.214,-529.297,-988.77,-344.727,-498.047
1742383156.218,-1000.0,-625.488,-131.836,-1000.0
1742383156.222,-764.648,524.414,82.52,-763.184
1742383156.226,663.086,953.125,101.074,655.273
1742383156.23,999.512,487.793,-83.984,999.512
1742383156.234,-352.539,-748.535,-323.73,-322.266
1742383156.237,-1000.0,-927.246,-172.852,-1000.0
1742383156.241,-828.125,139.648,90.82,-818.359
1742383156.245,508.789,843.262,146.973,523.926
1742383156.249,999.512,317.383,-55.176,999.512
1742383156.253,95.703,-661.621,-258.301,120.117
1742383156.257,-1000.0,-891.113,-157.715,-1000.0
1742383156.261,-862.793,48.34,72.266,-866.699
1742383156.265,519.531,907.227,154.297,521.484
1742383156.269,999.512,502.93,-50.781,999.512
1742383156.273,383.301,-617.188,-284.18,404.297
1742383156.277,-980.469,-778.809,-218.262,-966.309
1742383156.281,-948.73,86.426,15.137,-958.008
1742383156.284,460.938,835.938,119.629,453.125
1742383156.288,999.512,495.117,-69.336,999.512
1742383156.292,615.234,-522.949,-275.879,620.117
1742383156.296,-829.59,-958.984,-257.812,-817.871
1742383156.3,-1000.0,-162.598,-32.227,-1000.0
1742383156.257,-1000.0,-891.113,-157.715,-1000.0
1742383156.261,-862.793,48.34,72.266,-866.699
1742383156.265,519.531,907.227,154.297,521.484
1742383156.269,999.512,502.93,-50.781,999.512
1742383156.273,383.301,-617.188,-284.18,404.297
1742383156.277,-980.469,-778.809,-218.262,-966.309
1742383156.281,-948.73,86.426,15.137,-958.008
1742383156.284,460.938,835.938,119.629,453.125
1742383156.288,999.512,495.117,-69.336,999.512
1742383156.292,615.234,-522.949,-275.879,620.117
1742383156.296,-829.59,-958.984,-257.812,-817.871
1742383156.3,-1000.0,-162.598,-32.227,-1000.0
1742383156.257,-1000.0,-891.113,-157.715,-1000.0
1742383156.261,-862.793,48.34,72.266,-866.699
1742383156.265,519.531,907.227,154.297,521.484
1742383156.269,999.512,502.93,-50.781,999.512
1742383156.273,383.301,-617.188,-284.18,404.297
1742383156.277,-980.469,-778.809,-218.262,-966.309
1742383156.281,-948.73,86.426,15.137,-958.008
1742383156.284,460.938,835.938,119.629,453.125
1742383156.288,999.512,495.117,-69.336,999.512
1742383156.292,615.234,-522.949,-275.879,620.117
1742383156.296,-829.59,-958.984,-257.812,-817.871
1742383156.3,-1000.0,-162.598,-32.227,-1000.0
1742383156.3,390.625,902.344,151.855,377.441
1742383156.304,999.512,728.027,2.93,999.512
1742383156.308,806.152,-289.062,-225.586,791.992
1742383156.312,-583.496,-951.172,-269.043,-595.215
1742383156.316,-1000.0,-350.586,-41.504,-1000.0
1742383156.32,220.703,806.152,135.254,168.457
1742383156.324,999.512,525.391,-13.184,999.512
1742383156.327,788.574,-425.781,-208.008,791.504
1742383156.331,-533.203,-886.719,-227.539,-543.945
1742383156.335,-1000.0,-457.031,-20.508,-1000.0
1742383156.339,-343.75,393.555,163.086,-353.027
1742383156.343,994.629,893.066,101.074,986.328
1742383156.3,390.625,902.344,151.855,377.441
1742383156.304,999.512,728.027,2.93,999.512
1742383156.308,806.152,-289.062,-225.586,791.992
1742383156.312,-583.496,-951.172,-269.043,-595.215
1742383156.316,-1000.0,-350.586,-41.504,-1000.0
1742383156.32,220.703,806.152,135.254,168.457
1742383156.324,999.512,525.391,-13.184,999.512
1742383156.327,788.574,-425.781,-208.008,791.504
1742383156.331,-533.203,-886.719,-227.539,-543.945
1742383156.335,-1000.0,-457.031,-20.508,-1000.0
1742383156.339,-343.75,393.555,163.086,-353.027
1742383156.343,994.629,893.066,101.074,986.328
1742383156.346,855.957,61.035,-146.484,860.352
1742383156.35,-564.453,-966.797,-284.18,-567.383
1742383156.354,-1000.0,-654.785,-92.285,-1000.0
1742383156.358,-539.062,496.094,136.719,-536.133
1742383156.362,892.578,936.035,117.676,879.883
1742383156.366,938.965,203.125,-112.305,949.707
1742383156.37,-505.371,-737.305,-296.387,-486.816
1742383156.373,-1000.0,-592.773,-121.582,-1000.0
1742383156.377,-768.555,131.348,115.234,-765.625
1742383156.381,660.156,758.789,132.812,658.691
1742383156.385,999.512,15.137,-77.637,999.512
1742383156.389,-355.469,-939.453,-270.508,-340.82
1742383156.39,-1000.0,-709.961,-140.137,-1000.0
1742383156.394,-834.473,211.426,90.332,-824.219
1742383156.398,544.922,980.469,160.156,555.664
1742383156.402,999.512,646.484,-47.363,999.512
1742383156.406,-160.645,-750.488,-287.598,-127.441
1742383156.41,-1000.0,-813.477,-143.066,-1000.0
1742383156.414,-827.148,97.656,101.074,-833.984
1742383156.417,498.535,796.875,176.758,503.906
1742383156.421,999.512,503.906,-3.906,999.512
1742383156.425,440.43,-459.473,-213.379,405.762
1742383156.429,-967.773,-942.383,-155.762,-976.074
1742383156.433,-930.664,-96.68,91.797,-935.059
1742383156.39,-1000.0,-709.961,-140.137,-1000.0
1742383156.394,-834.473,211.426,90.332,-824.219
1742383156.398,544.922,980.469,160.156,555.664
1742383156.402,999.512,646.484,-47.363,999.512
1742383156.406,-160.645,-750.488,-287.598,-127.441
1742383156.41,-1000.0,-813.477,-143.066,-1000.0
1742383156.414,-827.148,97.656,101.074,-833.984
1742383156.417,498.535,796.875,176.758,503.906
1742383156.421,999.512,503.906,-3.906,999.512
1742383156.425,440.43,-459.473,-213.379,405.762
1742383156.429,-967.773,-942.383,-155.762,-976.074
1742383156.433,-930.664,-96.68,91.797,-935.059
1742383156.436,510.742,916.992,216.309,497.07
1742383156.44,999.512,543.945,15.625,999.512
1742383156.444,541.016,-603.027,-203.613,528.32
1742383156.448,-893.066,-962.402,-141.602,-889.648
1742383156.452,-1000.0,-18.555,103.027,-1000.0
1742383156.456,421.875,957.52,260.254,405.762
1742383156.46,999.512,677.246,70.312,999.512
1742383156.463,622.559,-669.922,-205.078,628.906
1742383156.467,-756.348,-1000.0,-200.684,-746.094
1742383156.471,-1000.0,-142.578,29.297,-1000.0
1742383156.475,63.965,700.684,184.082,47.363
1742383156.479,999.512,872.07,71.777,999.512
1742383156.436,510.742,916.992,216.309,497.07
1742383156.44,999.512,543.945,15.625,999.512
1742383156.444,541.016,-603.027,-203.613,528.32
1742383156.448,-893.066,-962.402,-141.602,-889.648
1742383156.452,-1000.0,-18.555,103.027,-1000.0
1742383156.456,421.875,957.52,260.254,405.762
1742383156.46,999.512,677.246,70.312,999.512
1742383156.463,622.559,-669.922,-205.078,628.906
1742383156.467,-756.348,-1000.0,-200.684,-746.094
1742383156.471,-1000.0,-142.578,29.297,-1000.0
1742383156.475,63.965,700.684,184.082,47.363
1742383156.479,999.512,872.07,71.777,999.512
1742383156.481,816.406,23.438,-176.758,810.059
1742383156.485,-557.129,-930.176,-257.812,-571.289
1742383156.489,-1000.0,-234.863,-27.832,-1000.0
1742383156.493,-138.184,825.195,145.508,-157.227
1742383156.497,999.512,729.004,63.965,999.512
1742383156.501,825.195,105.957,-137.207,831.543
1742383156.505,-549.316,-802.246,-275.879,-553.223
1742383156.508,-1000.0,-847.168,-77.148,-1000.0
1742383156.512,-521.484,342.773,148.438,-501.953
1742383156.516,901.367,929.688,114.746,896.973
1742383156.52,935.059,-60.547,-137.695,945.801
1742383156.524,-499.023,-953.613,-288.574,-475.098
1742383156.481,816.406,23.438,-176.758,810.059
1742383156.485,-557.129,-930.176,-257.812,-571.289
1742383156.489,-1000.0,-234.863,-27.832,-1000.0
1742383156.493,-138.184,825.195,145.508,-157.227
1742383156.497,999.512,729.004,63.965,999.512
1742383156.501,825.195,105.957,-137.207,831.543
1742383156.505,-549.316,-802.246,-275.879,-553.223
1742383156.508,-1000.0,-847.168,-77.148,-1000.0
1742383156.512,-521.484,342.773,148.438,-501.953
1742383156.516,901.367,929.688,114.746,896.973
1742383156.52,935.059,-60.547,-137.695,945.801
1742383156.524,-499.023,-953.613,-288.574,-475.098
1742383156.481,816.406,23.438,-176.758,810.059
1742383156.485,-557.129,-930.176,-257.812,-571.289
1742383156.489,-1000.0,-234.863,-27.832,-1000.0
1742383156.493,-138.184,825.195,145.508,-157.227
1742383156.497,999.512,729.004,63.965,999.512
1742383156.501,825.195,105.957,-137.207,831.543
1742383156.505,-549.316,-802.246,-275.879,-553.223
1742383156.508,-1000.0,-847.168,-77.148,-1000.0
1742383156.512,-521.484,342.773,148.438,-501.953
1742383156.516,901.367,929.688,114.746,896.973
1742383156.52,935.059,-60.547,-137.695,945.801
1742383156.524,-499.023,-953.613,-288.574,-475.098
1742383156.528,-1000.0,-563.965,-96.191,-1000.0
1742383156.532,-689.941,427.246,136.23,-681.152
1742383156.536,753.906,937.012,169.434,757.812
1742383156.54,999.512,49.805,-83.496,999.512
1742383156.544,-401.367,-953.613,-259.277,-394.531
1742383156.548,-1000.0,-432.129,-39.062,-1000.0
1742383156.552,-838.867,436.523,176.758,-823.242
1742383156.555,544.922,820.312,177.246,560.547
1742383156.559,999.512,156.738,-52.246,999.512
1742383156.563,-211.426,-872.559,-250.488,-177.734
1742383156.567,-1000.0,-770.02,-115.234,-1000.0
1742383156.571,-833.496,127.441,97.656,-837.891
1742383156.528,-1000.0,-563.965,-96.191,-1000.0
1742383156.532,-689.941,427.246,136.23,-681.152
1742383156.536,753.906,937.012,169.434,757.812
1742383156.54,999.512,49.805,-83.496,999.512
1742383156.544,-401.367,-953.613,-259.277,-394.531
1742383156.548,-1000.0,-432.129,-39.062,-1000.0
1742383156.552,-838.867,436.523,176.758,-823.242
1742383156.555,544.922,820.312,177.246,560.547
1742383156.559,999.512,156.738,-52.246,999.512
1742383156.563,-211.426,-872.559,-250.488,-177.734
1742383156.567,-1000.0,-770.02,-115.234,-1000.0
1742383156.571,-833.496,127.441,97.656,-837.891
1742383156.585,509.277,887.207,161.133,512.207
1742383156.589,999.512,417.48,-49.805,999.512
1742383156.593,201.66,-759.277,-234.863,217.285
1742383156.597,-1000.0,-892.09,-152.832,-1000.0
1742383156.601,-875.0,-54.688,93.262,-878.418
1742383156.605,522.949,857.91,244.141,526.367
1742383156.609,999.512,303.223,22.949,999.512
1742383156.612,467.773,-770.996,-220.703,473.633
1742383156.616,-926.27,-951.172,-159.18,-912.598
1742383156.62,-1000.0,-148.926,79.59,-1000.0
1742383156.624,392.09,836.914,242.676,380.859
1742383156.628,999.512,677.734,91.797,999.512
1742383156.585,509.277,887.207,161.133,512.207
1742383156.589,999.512,417.48,-49.805,999.512
1742383156.593,201.66,-759.277,-234.863,217.285
1742383156.597,-1000.0,-892.09,-152.832,-1000.0
1742383156.601,-875.0,-54.688,93.262,-878.418
1742383156.605,522.949,857.91,244.141,526.367
1742383156.609,999.512,303.223,22.949,999.512
1742383156.612,467.773,-770.996,-220.703,473.633
1742383156.616,-926.27,-951.172,-159.18,-912.598
1742383156.62,-1000.0,-148.926,79.59,-1000.0
1742383156.624,392.09,836.914,242.676,380.859
1742383156.628,999.512,677.734,91.797,999.512
1742383156.63,712.891,-326.172,-165.039,708.984
1742383156.634,-705.078,-957.031,-182.617,-707.52
1742383156.638,-1000.0,-354.492,26.367,-1000.0
1742383156.642,257.812,768.066,199.707,247.559
1742383156.646,999.512,871.582,88.379,999.512
1742383156.65,788.086,55.664,-150.391,783.691
1742383156.654,-533.691,-794.434,-215.332,-548.828
1742383156.657,-1000.0,-470.215,-18.066,-1000.0
1742383156.661,-295.898,479.004,143.555,-268.066
1742383156.665,999.512,764.648,63.477,999.512
1742383156.669,850.098,-183.594,-148.926,848.145
1742383156.673,-562.012,-911.621,-250.0,-561.523
1742383156.63,712.891,-326.172,-165.039,708.984
1742383156.634,-705.078,-957.031,-182.617,-707.52
1742383156.638,-1000.0,-354.492,26.367,-1000.0
1742383156.642,257.812,768.066,199.707,247.559
1742383156.646,999.512,871.582,88.379,999.512
1742383156.65,788.086,55.664,-150.391,783.691
1742383156.654,-533.691,-794.434,-215.332,-548.828
1742383156.657,-1000.0,-470.215,-18.066,-1000.0
1742383156.661,-295.898,479.004,143.555,-268.066
1742383156.665,999.512,764.648,63.477,999.512
1742383156.669,850.098,-183.594,-148.926,848.145
1742383156.673,-562.012,-911.621,-250.0,-561.523
1742383156.675,-1000.0,-502.441,-48.828,-1000.0
1742383156.679,-509.766,415.527,163.086,-499.023
1742383156.683,926.27,999.512,141.113,920.898
1742383156.687,880.859,347.656,-95.703,891.113
1742383156.691,-580.078,-831.055,-283.203,-564.941
1742383156.695,-1000.0,-469.727,-96.68,-1000.0
1742383156.699,-709.473,288.086,98.145,-715.332
1742383156.702,746.094,780.762,92.285,734.375
1742383156.706,999.512,-5.859,-126.465,999.512
1742383156.71,-449.707,-948.73,-298.34,-435.547
1742383156.714,-1000.0,-601.074,-120.117,-1000.0
1742383156.718,-818.359,174.805,107.422,-811.523
1742383156.675,-1000.0,-502.441,-48.828,-1000.0
1742383156.679,-509.766,415.527,163.086,-499.023
1742383156.683,926.27,999.512,141.113,920.898
1742383156.687,880.859,347.656,-95.703,891.113
1742383156.691,-580.078,-831.055,-283.203,-564.941
1742383156.695,-1000.0,-469.727,-96.68,-1000.0
1742383156.699,-709.473,288.086,98.145,-715.332
1742383156.702,746.094,780.762,92.285,734.375
1742383156.706,999.512,-5.859,-126.465,999.512
1742383156.71,-449.707,-948.73,-298.34,-435.547
1742383156.714,-1000.0,-601.074,-120.117,-1000.0
1742383156.718,-818.359,174.805,107.422,-811.523
1742383156.72,570.312,839.844,151.855,577.148
1742383156.724,999.512,333.496,-40.527,999.512
1742383156.728,-223.633,-821.777,-235.352,-199.707
1742383156.732,-1000.0,-854.004,-107.91,-1000.0
1742383156.736,-834.961,236.328,140.137,-835.938
1742383156.74,512.207,923.828,198.242,517.09
1742383156.744,999.512,381.348,-28.809,999.512
1742383156.747,141.602,-674.805,-252.93,168.457
1742383156.751,-1000.0,-967.773,-165.527,-1000.0
1742383156.755,-861.816,9.277,85.938,-868.652
1742383156.759,516.602,891.602,201.172,521.484
1742383156.763,999.512,552.734,8.789,999.512
1742383156.72,570.312,839.844,151.855,577.148
1742383156.724,999.512,333.496,-40.527,999.512
1742383156.728,-223.633,-821.777,-235.352,-199.707
1742383156.732,-1000.0,-854.004,-107.91,-1000.0
1742383156.736,-834.961,236.328,140.137,-835.938
1742383156.74,512.207,923.828,198.242,517.09
1742383156.744,999.512,381.348,-28.809,999.512
1742383156.747,141.602,-674.805,-252.93,168.457
1742383156.751,-1000.0,-967.773,-165.527,-1000.0
1742383156.755,-861.816,9.277,85.938,-868.652
1742383156.759,516.602,891.602,201.172,521.484
1742383156.763,999.512,552.734,8.789,999.512
1742383156.766,584.961,-302.246,-196.289,551.27
1742383156.77,-890.137,-910.645,-138.672,-897.461
1742383156.774,-958.984,-14.648,114.746,-966.309
1742383156.778,521.973,947.754,240.723,499.512
1742383156.782,999.512,350.586,40.527,999.512
1742383156.786,700.195,-264.16,-160.156,697.266
1742383156.79,-715.332,-869.141,-153.32,-719.727
1742383156.793,-1000.0,-614.746,28.809,-1000.0
1742383156.797,264.16,724.121,201.172,273.438
1742383156.801,999.512,800.781,76.172,999.512
1742383156.805,779.785,-455.078,-183.594,774.902
1742383156.809,-590.332,-956.055,-229.004,-594.238
1742383156.813,-1000.0,-245.117,-30.273,-1000.0
1742383156.817,6.836,671.387,172.852,-9.766
1742383156.821,999.512,999.512,92.285,999.512
1742383156.825,810.547,-45.898,-183.594,814.941
1742383156.829,-543.945,-968.75,-235.84,-546.387
1742383156.833,-1000.0,-131.836,22.949,-1000.0
1742383156.837,-417.48,690.918,188.477,-410.645
1742383156.84,964.355,754.395,107.422,961.426
1742383156.844,865.723,-102.539,-120.117,872.559
1742383156.848,-569.824,-959.473,-262.207,-562.5
1742383156.852,-1000.0,-695.801,-70.312,-1000.0
1742383156.856,-640.625,376.953,150.391,-641.113
1742383156.813,-1000.0,-245.117,-30.273,-1000.0
1742383156.817,6.836,671.387,172.852,-9.766
1742383156.821,999.512,999.512,92.285,999.512
1742383156.825,810.547,-45.898,-183.594,814.941
1742383156.829,-543.945,-968.75,-235.84,-546.387
1742383156.833,-1000.0,-131.836,22.949,-1000.0
1742383156.837,-417.48,690.918,188.477,-410.645
1742383156.84,964.355,754.395,107.422,961.426
1742383156.844,865.723,-102.539,-120.117,872.559
1742383156.848,-569.824,-959.473,-262.207,-562.5
1742383156.852,-1000.0,-695.801,-70.312,-1000.0
1742383156.856,-640.625,376.953,150.391,-641.113
1742383156.855,831.055,950.195,111.816,814.453
1742383156.859,951.172,53.223,-139.648,969.238
1742383156.863,-526.855,-875.0,-271.484,-497.07
1742383156.867,-1000.0,-537.109,-94.238,-1000.0
1742383156.871,-760.254,223.145,103.027,-765.625
1742383156.875,653.32,865.234,125.977,647.461
1742383156.879,999.512,113.281,-107.422,999.512
1742383156.882,-296.875,-927.734,-304.688,-299.805
1742383156.886,-1000.0,-863.77,-154.297,-1000.0
1742383156.89,-834.473,63.477,94.238,-832.031
1742383156.894,516.113,882.324,163.086,522.461
1742383156.898,999.512,350.586,-48.34,999.512
1742383156.855,831.055,950.195,111.816,814.453
1742383156.859,951.172,53.223,-139.648,969.238
1742383156.863,-526.855,-875.0,-271.484,-497.07
1742383156.867,-1000.0,-537.109,-94.238,-1000.0
1742383156.871,-760.254,223.145,103.027,-765.625
1742383156.875,653.32,865.234,125.977,647.461
1742383156.879,999.512,113.281,-107.422,999.512
1742383156.882,-296.875,-927.734,-304.688,-299.805
1742383156.886,-1000.0,-863.77,-154.297,-1000.0
1742383156.89,-834.473,63.477,94.238,-832.031
1742383156.894,516.113,882.324,163.086,522.461
1742383156.898,999.512,350.586,-48.34,999.512
1742383156.902,41.504,-726.074,-266.113,36.133
1742383156.906,-1000.0,-949.707,-176.758,-1000.0
1742383156.91,-850.098,-144.043,64.941,-852.051
1742383156.914,510.254,820.801,163.574,513.672
1742383156.918,999.512,582.52,-41.504,999.512
1742383156.922,500.488,-309.57,-243.652,473.633
1742383156.926,-936.035,-970.215,-206.055,-932.617
1742383156.929,-955.566,-228.516,40.527,-966.797
1742383156.933,490.234,895.02,193.848,465.82
1742383156.937,999.512,408.691,-17.09,999.512
1742383156.941,583.984,-559.57,-247.559,580.078
1742383156.945,-828.613,-923.34,-210.449,-821.777
1742383156.902,41.504,-726.074,-266.113,36.133
1742383156.906,-1000.0,-949.707,-176.758,-1000.0
1742383156.91,-850.098,-144.043,64.941,-852.051
1742383156.914,510.254,820.801,163.574,513.672
1742383156.918,999.512,582.52,-41.504,999.512
1742383156.922,500.488,-309.57,-243.652,473.633
1742383156.926,-936.035,-970.215,-206.055,-932.617
1742383156.929,-955.566,-228.516,40.527,-966.797
1742383156.933,490.234,895.02,193.848,465.82
1742383156.937,999.512,408.691,-17.09,999.512
1742383156.941,583.984,-559.57,-247.559,580.078
1742383156.945,-828.613,-923.34,-210.449,-821.777
1742383156.96,-1000.0,-129.395,11.719,-1000.0
1742383156.964,274.902,768.555,156.25,269.043
1742383156.968,999.512,726.562,43.457,999.512
1742383156.972,747.559,-48.34,-179.199,748.047
1742383156.976,-623.047,-858.398,-228.516,-622.559
1742383156.98,-1000.0,-143.066,-6.348,-1000.0
1742383156.984,-22.461,791.992,158.203,-30.273
1742383156.987,999.512,702.148,40.039,999.512
1742383156.991,818.359,-259.277,-188.477,815.43
1742383156.995,-550.781,-939.941,-248.535,-557.617
1742383156.999,-1000.0,-562.012,-37.109,-1000.0
1742383157.003,-326.172,520.02,160.645,-350.586
1742383156.96,-1000.0,-129.395,11.719,-1000.0
1742383156.964,274.902,768.555,156.25,269.043
1742383156.968,999.512,726.562,43.457,999.512
1742383156.972,747.559,-48.34,-179.199,748.047
1742383156.976,-623.047,-858.398,-228.516,-622.559
1742383156.98,-1000.0,-143.066,-6.348,-1000.0
1742383156.984,-22.461,791.992,158.203,-30.273
1742383156.987,999.512,702.148,40.039,999.512
1742383156.991,818.359,-259.277,-188.477,815.43
1742383156.995,-550.781,-939.941,-248.535,-557.617
1742383156.999,-1000.0,-562.012,-37.109,-1000.0
1742383157.003,-326.172,520.02,160.645,-350.586
1742383156.96,-1000.0,-129.395,11.719,-1000.0
1742383156.964,274.902,768.555,156.25,269.043
1742383156.968,999.512,726.562,43.457,999.512
1742383156.972,747.559,-48.34,-179.199,748.047
1742383156.976,-623.047,-858.398,-228.516,-622.559
1742383156.98,-1000.0,-143.066,-6.348,-1000.0
1742383156.984,-22.461,791.992,158.203,-30.273
1742383156.987,999.512,702.148,40.039,999.512
1742383156.991,818.359,-259.277,-188.477,815.43
1742383156.995,-550.781,-939.941,-248.535,-557.617
1742383156.999,-1000.0,-562.012,-37.109,-1000.0
1742383157.003,-326.172,520.02,160.645,-350.586
1742383157.006,999.512,944.824,93.75,987.305
1742383157.01,851.074,-32.227,-156.738,857.422
1742383157.014,-562.5,-919.922,-278.809,-565.918
1742383157.018,-1000.0,-417.48,-58.105,-1000.0
1742383157.022,-624.023,559.082,145.996,-616.699
1742383157.026,843.75,916.992,126.465,834.473
1742383157.03,947.266,-27.344,-115.723,959.473
1742383157.033,-525.391,-974.609,-288.574,-502.441
1742383157.037,-1000.0,-635.742,-104.492,-1000.0
1742383157.041,-760.742,332.52,118.164,-763.184
1742383157.045,665.527,916.504,129.395,660.156
1742383157.049,999.512,312.5,-113.77,999.512
1742383157.006,999.512,944.824,93.75,987.305
1742383157.01,851.074,-32.227,-156.738,857.422
1742383157.014,-562.5,-919.922,-278.809,-565.918
1742383157.018,-1000.0,-417.48,-58.105,-1000.0
1742383157.022,-624.023,559.082,145.996,-616.699
1742383157.026,843.75,916.992,126.465,834.473
1742383157.03,947.266,-27.344,-115.723,959.473
1742383157.033,-525.391,-974.609,-288.574,-502.441
1742383157.037,-1000.0,-635.742,-104.492,-1000.0
1742383157.041,-760.742,332.52,118.164,-763.184
1742383157.045,665.527,916.504,129.395,660.156
1742383157.049,999.512,312.5,-113.77,999.512
1742383157.05,-343.75,-793.457,-303.711,-336.426
1742383157.054,-1000.0,-973.633,-153.32,-1000.0
1742383157.058,-823.242,114.746,93.75,-819.824
1742383157.062,534.668,909.18,171.387,543.945
1742383157.066,999.512,179.199,-56.152,999.512
1742383157.07,-15.625,-706.543,-244.141,-24.414
1742383157.074,-1000.0,-821.777,-129.395,-1000.0
1742383157.077,-855.957,-141.602,74.707,-858.887
1742383157.081,521.484,800.293,161.133,520.996
1742383157.085,999.512,488.281,-39.062,999.512
1742383157.089,218.262,-706.055,-238.77,198.242
1742383157.093,-1000.0,-949.707,-137.695,-1000.0
1742383157.05,-343.75,-793.457,-303.711,-336.426
1742383157.054,-1000.0,-973.633,-153.32,-1000.0
1742383157.058,-823.242,114.746,93.75,-819.824
1742383157.062,534.668,909.18,171.387,543.945
1742383157.066,999.512,179.199,-56.152,999.512
1742383157.07,-15.625,-706.543,-244.141,-24.414
1742383157.074,-1000.0,-821.777,-129.395,-1000.0
1742383157.077,-855.957,-141.602,74.707,-858.887
1742383157.081,521.484,800.293,161.133,520.996
1742383157.085,999.512,488.281,-39.062,999.512
1742383157.089,218.262,-706.055,-238.77,198.242
1742383157.093,-1000.0,-949.707,-137.695,-1000.0
1742383157.095,-902.344,39.551,90.82,-910.645
1742383157.099,479.004,865.723,217.285,462.402
1742383157.103,999.512,626.953,46.387,999.512
1742383157.107,596.191,-247.07,-204.102,591.309
1742383157.111,-833.496,-935.547,-213.379,-828.125
1742383157.115,-1000.0,-50.293,23.438,-1000.0
1742383157.119,333.984,922.852,172.363,326.66
1742383157.122,999.512,379.395,-19.531,999.512
1742383157.126,711.426,-520.508,-252.93,703.613
1742383157.13,-698.73,-956.543,-245.605,-697.266
1742383157.134,-1000.0,-421.387,-16.602,-1000.0
1742383157.138,199.219,761.719,191.895,145.02
1742383157.095,-902.344,39.551,90.82,-910.645
1742383157.099,479.004,865.723,217.285,462.402
1742383157.103,999.512,626.953,46.387,999.512
1742383157.107,596.191,-247.07,-204.102,591.309
1742383157.111,-833.496,-935.547,-213.379,-828.125
1742383157.115,-1000.0,-50.293,23.438,-1000.0
1742383157.119,333.984,922.852,172.363,326.66
1742383157.122,999.512,379.395,-19.531,999.512
1742383157.126,711.426,-520.508,-252.93,703.613
1742383157.13,-698.73,-956.543,-245.605,-697.266
1742383157.134,-1000.0,-421.387,-16.602,-1000.0
1742383157.138,199.219,761.719,191.895,145.02
1742383157.652,-311.035,774.414,69.824,-314.453
1742383157.656,999.512,937.5,22.461,992.676
1742383157.66,860.352,131.836,-186.523,874.023
1742383157.664,-545.898,-812.5,-297.852,-531.25
1742383157.668,-1000.0,-292.48,-116.699,-1000.0
1742383157.672,-564.453,736.328,101.074,-566.406
1742383157.676,873.535,999.512,64.941,863.77
1742383157.679,950.684,342.773,-167.969,957.52
1742383157.683,-493.164,-799.805,-320.801,-482.91
1742383157.687,-1000.0,-424.805,-112.305,-1000.0
1742383157.691,-735.352,607.422,140.137,-738.77
1742383157.695,677.246,952.148,144.043,676.758
1742383157.155,999.512,850.098,94.727,999.512
1742383157.159,790.527,-268.066,-160.645,790.527
1742383157.163,-534.18,-833.984,-218.75,-549.316
1742383157.167,-1000.0,-313.477,-40.527,-1000.0
1742383157.171,-341.797,398.438,109.863,-347.656
1742383157.175,995.605,903.809,49.316,988.281
1742383157.179,854.004,20.508,-202.637,857.91
1742383157.182,-563.477,-958.496,-328.125,-565.918
1742383157.186,-1000.0,-771.973,-122.559,-1000.0
1742383157.19,-601.562,265.137,80.566,-572.266
1742383157.194,852.539,920.41,62.5,860.352
1742383157.198,954.59,46.387,-156.25,957.031
1742383157.155,999.512,850.098,94.727,999.512
1742383157.159,790.527,-268.066,-160.645,790.527
1742383157.163,-534.18,-833.984,-218.75,-549.316
1742383157.167,-1000.0,-313.477,-40.527,-1000.0
1742383157.171,-341.797,398.438,109.863,-347.656
1742383157.175,995.605,903.809,49.316,988.281
1742383157.179,854.004,20.508,-202.637,857.91
1742383157.182,-563.477,-958.496,-328.125,-565.918
1742383157.186,-1000.0,-771.973,-122.559,-1000.0
1742383157.19,-601.562,265.137,80.566,-572.266
1742383157.194,852.539,920.41,62.5,860.352
1742383157.198,954.59,46.387,-156.25,957.031
1742383157.187,-500.488,-913.086,-310.059,-485.352
1742383157.191,-1000.0,-745.117,-145.996,-1000.0
1742383157.195,-706.543,142.578,72.754,-711.426
1742383157.199,696.289,852.051,95.703,688.965
1742383157.203,999.512,260.254,-113.77,999.512
1742383157.207,-226.562,-713.867,-292.48,-212.891
1742383157.211,-1000.0,-996.094,-171.387,-1000.0
1742383157.214,-826.172,22.461,64.453,-822.754
1742383157.218,564.941,899.902,36.133,574.707
1742383157.222,999.512,70.312,-187.012,999.512
1742383157.226,-115.234,-897.461,-309.082,-104.98
1742383157.23,-1000.0,-866.699,-178.223,-1000.0
1742383157.187,-500.488,-913.086,-310.059,-485.352
1742383157.191,-1000.0,-745.117,-145.996,-1000.0
1742383157.195,-706.543,142.578,72.754,-711.426
1742383157.199,696.289,852.051,95.703,688.965
1742383157.203,999.512,260.254,-113.77,999.512
1742383157.207,-226.562,-713.867,-292.48,-212.891
1742383157.211,-1000.0,-996.094,-171.387,-1000.0
1742383157.214,-826.172,22.461,64.453,-822.754
1742383157.218,564.941,899.902,36.133,574.707
1742383157.222,999.512,70.312,-187.012,999.512
1742383157.226,-115.234,-897.461,-309.082,-104.98
1742383157.23,-1000.0,-866.699,-178.223,-1000.0
1742383157.187,-500.488,-913.086,-310.059,-485.352
1742383157.191,-1000.0,-745.117,-145.996,-1000.0
1742383157.195,-706.543,142.578,72.754,-711.426
1742383157.199,696.289,852.051,95.703,688.965
1742383157.203,999.512,260.254,-113.77,999.512
1742383157.207,-226.562,-713.867,-292.48,-212.891
1742383157.211,-1000.0,-996.094,-171.387,-1000.0
1742383157.214,-826.172,22.461,64.453,-822.754
1742383157.218,564.941,899.902,36.133,574.707
1742383157.222,999.512,70.312,-187.012,999.512
1742383157.226,-115.234,-897.461,-309.082,-104.98
1742383157.23,-1000.0,-866.699,-178.223,-1000.0
1742383157.23,-833.008,134.277,55.176,-837.402
1742383157.234,502.441,815.43,139.16,506.836
1742383157.238,999.512,469.238,-26.367,999.512
1742383157.242,425.781,-308.105,-229.492,393.066
1742383157.246,-980.957,-959.961,-185.059,-990.234
1742383157.25,-908.203,89.844,65.918,-906.25
1742383157.254,539.062,964.844,163.574,536.133
1742383157.257,999.512,155.273,-36.621,999.512
1742383157.261,552.734,-695.801,-219.238,536.621
1742383157.265,-876.465,-913.574,-170.41,-877.93
1742383157.269,-1000.0,103.027,47.363,-1000.0
1742383157.273,393.555,954.102,139.648,383.789
1742383157.23,-833.008,134.277,55.176,-837.402
1742383157.234,502.441,815.43,139.16,506.836
