timestamps,TP9,AF7,AF8,TP10
1742384285.557,142.578,-434.57,-354.004,178.223
1742384285.561,-1000.0,-1000.0,-327.637,-1000.0
1742384285.565,-1000.0,-148.926,40.039,-1000.0
1742384285.569,-11.23,999.512,200.195,-68.848
1742384285.573,999.512,393.555,19.531,999.512
1742384285.577,511.23,-782.227,-315.43,557.129
1742384285.581,-831.543,-956.543,-308.105,-790.527
1742384285.584,-1000.0,-569.824,-23.926,-1000.0
1742384285.588,-237.793,432.617,182.617,-231.445
1742384285.592,999.512,999.512,110.84,999.512
1742384285.596,541.504,26.855,-260.742,603.516
1742384285.6,-852.051,-1000.0,-328.125,-786.133
1742384285.341,-520.508,974.121,422.363,-569.824
1742384285.344,840.332,999.512,422.363,797.852
1742384285.348,999.512,231.445,93.262,999.512
1742384285.352,114.746,-1000.0,-297.852,141.602
1742384285.356,-1000.0,-1000.0,-188.965,-1000.0
1742384285.36,-846.68,-29.785,207.52,-912.598
1742384285.341,-520.508,974.121,422.363,-569.824
1742384285.344,840.332,999.512,422.363,797.852
1742384285.348,999.512,231.445,93.262,999.512
1742384285.352,114.746,-1000.0,-297.852,141.602
1742384285.356,-1000.0,-1000.0,-188.965,-1000.0
1742384285.36,-846.68,-29.785,207.52,-912.598
1742384285.341,-520.508,974.121,422.363,-569.824
1742384285.344,840.332,999.512,422.363,797.852
1742384285.348,999.512,231.445,93.262,999.512
1742384285.352,114.746,-1000.0,-297.852,141.602
1742384285.356,-1000.0,-1000.0,-188.965,-1000.0
1742384285.36,-846.68,-29.785,207.52,-912.598
1742384285.378,478.516,999.512,310.547,383.301
1742384285.382,999.512,878.418,75.195,999.512
1742384285.386,153.32,-253.418,-304.688,149.902
1742384285.39,-1000.0,-1000.0,-184.57,-1000.0
1742384285.394,-1000.0,-48.34,206.055,-1000.0
1742384285.398,229.004,999.512,333.984,163.086
1742384285.402,999.512,647.461,151.367,999.512
1742384285.405,165.039,-649.414,-274.414,218.262
1742384285.409,-1000.0,-1000.0,-259.766,-1000.0
1742384285.413,-1000.0,-191.895,152.344,-1000.0
1742384285.417,84.961,999.512,378.418,36.621
1742384285.421,999.512,748.535,183.105,999.512
1742384285.378,478.516,999.512,310.547,383.301
1742384285.382,999.512,878.418,75.195,999.512
1742384285.386,153.32,-253.418,-304.688,149.902
1742384285.39,-1000.0,-1000.0,-184.57,-1000.0
1742384285.394,-1000.0,-48.34,206.055,-1000.0
1742384285.398,229.004,999.512,333.984,163.086
1742384285.402,999.512,647.461,151.367,999.512
1742384285.405,165.039,-649.414,-274.414,218.262
1742384285.409,-1000.0,-1000.0,-259.766,-1000.0
1742384285.413,-1000.0,-191.895,152.344,-1000.0
1742384285.417,84.961,999.512,378.418,36.621
1742384285.421,999.512,748.535,183.105,999.512
1742384285.378,478.516,999.512,310.547,383.301
1742384285.382,999.512,878.418,75.195,999.512
1742384285.386,153.32,-253.418,-304.688,149.902
1742384285.39,-1000.0,-1000.0,-184.57,-1000.0
1742384285.394,-1000.0,-48.34,206.055,-1000.0
1742384285.398,229.004,999.512,333.984,163.086
1742384285.402,999.512,647.461,151.367,999.512
1742384285.405,165.039,-649.414,-274.414,218.262
1742384285.409,-1000.0,-1000.0,-259.766,-1000.0
1742384285.413,-1000.0,-191.895,152.344,-1000.0
1742384285.417,84.961,999.512,378.418,36.621
1742384285.421,999.512,748.535,183.105,999.512
1742384285.422,273.926,-475.098,-242.188,335.938
1742384285.426,-963.867,-1000.0,-270.02,-937.988
1742384285.43,-1000.0,-281.25,68.359,-1000.0
1742384285.434,-154.297,985.352,326.172,-168.945
1742384285.438,999.512,808.594,217.285,999.512
1742384285.442,975.098,695.801,-155.762,986.328
1742384285.446,-250.0,-274.414,-240.723,-212.891
1742384285.449,-1000.0,-1000.0,16.113,-1000.0
1742384285.453,-203.125,12.207,306.641,-232.91
1742384285.457,999.512,999.512,270.508,999.512
1742384285.461,877.441,164.062,-95.215,949.219
1742384285.465,-436.035,-1000.0,-253.906,-320.801
1742384285.422,273.926,-475.098,-242.188,335.938
1742384285.426,-963.867,-1000.0,-270.02,-937.988
1742384285.43,-1000.0,-281.25,68.359,-1000.0
1742384285.434,-154.297,985.352,326.172,-168.945
1742384285.438,999.512,808.594,217.285,999.512
1742384285.442,975.098,695.801,-155.762,986.328
1742384285.446,-250.0,-274.414,-240.723,-212.891
1742384285.449,-1000.0,-1000.0,16.113,-1000.0
1742384285.453,-203.125,12.207,306.641,-232.91
1742384285.457,999.512,999.512,270.508,999.512
1742384285.461,877.441,164.062,-95.215,949.219
1742384285.465,-436.035,-1000.0,-253.906,-320.801
1742384285.469,-1000.0,-669.434,-25.879,-1000.0
1742384285.473,-178.223,407.227,311.035,-192.383
1742384285.477,999.512,999.512,288.574,996.582
1742384285.481,999.512,58.105,-92.773,999.512
1742384285.485,-138.184,-1000.0,-240.234,-73.73
1742384285.489,-1000.0,-174.316,-3.418,-1000.0
1742384285.493,-292.969,999.512,288.086,-322.754
1742384285.496,953.613,999.512,261.719,937.988
1742384285.5,999.512,83.496,-65.918,999.512
1742384285.504,15.625,-1000.0,-331.055,83.008
1742384285.508,-1000.0,-858.887,-126.465,-1000.0
1742384285.512,-457.52,308.594,275.879,-508.789
1742384285.469,-1000.0,-669.434,-25.879,-1000.0
1742384285.473,-178.223,407.227,311.035,-192.383
1742384285.477,999.512,999.512,288.574,996.582
1742384285.481,999.512,58.105,-92.773,999.512
1742384285.485,-138.184,-1000.0,-240.234,-73.73
1742384285.489,-1000.0,-174.316,-3.418,-1000.0
1742384285.493,-292.969,999.512,288.086,-322.754
1742384285.496,953.613,999.512,261.719,937.988
1742384285.5,999.512,83.496,-65.918,999.512
1742384285.504,15.625,-1000.0,-331.055,83.008
1742384285.508,-1000.0,-858.887,-126.465,-1000.0
1742384285.512,-457.52,308.594,275.879,-508.789
1742384285.514,867.188,999.512,281.738,841.797
1742384285.518,999.512,379.395,-18.066,999.512
1742384285.522,178.223,-819.336,-298.34,175.781
1742384285.526,-1000.0,-1000.0,-200.195,-1000.0
1742384285.53,-769.043,-198.242,131.348,-832.031
1742384285.534,593.262,960.938,252.93,505.371
1742384285.538,999.512,949.707,32.227,999.512
1742384285.541,147.461,-135.742,-372.559,143.555
1742384285.545,-1000.0,-1000.0,-378.418,-1000.0
1742384285.549,-1000.0,-576.172,31.738,-1000.0
1742384285.553,133.789,803.223,212.402,80.078
1742384285.557,999.512,869.629,22.949,999.512
1742384285.514,867.188,999.512,281.738,841.797
1742384285.518,999.512,379.395,-18.066,999.512
1742384285.522,178.223,-819.336,-298.34,175.781
1742384285.526,-1000.0,-1000.0,-200.195,-1000.0
1742384285.53,-769.043,-198.242,131.348,-832.031
1742384285.534,593.262,960.938,252.93,505.371
1742384285.538,999.512,949.707,32.227,999.512
1742384285.541,147.461,-135.742,-372.559,143.555
1742384285.545,-1000.0,-1000.0,-378.418,-1000.0
1742384285.549,-1000.0,-576.172,31.738,-1000.0
1742384285.553,133.789,803.223,212.402,80.078
1742384285.557,999.512,869.629,22.949,999.512
1742384285.602,-1000.0,-729.004,-9.277,-1000.0
1742384285.606,-221.68,432.129,279.297,-211.914
1742384285.61,999.512,999.512,216.309,999.512
1742384285.614,772.949,295.898,-191.406,834.961
1742384285.618,-590.332,-1000.0,-368.652,-495.605
1742384285.622,-1000.0,-171.387,-39.062,-1000.0
1742384285.626,-206.543,999.512,326.172,-204.59
1742384285.629,999.512,996.582,265.625,999.512
1742384285.633,821.777,-61.035,-136.23,886.719
1742384285.637,-503.906,-1000.0,-347.656,-394.043
1742384285.641,-1000.0,-947.754,-86.914,-1000.0
1742384285.645,-283.203,112.793,287.109,-346.191
1742384285.602,-1000.0,-729.004,-9.277,-1000.0
1742384285.606,-221.68,432.129,279.297,-211.914
1742384285.61,999.512,999.512,216.309,999.512
1742384285.614,772.949,295.898,-191.406,834.961
1742384285.618,-590.332,-1000.0,-368.652,-495.605
1742384285.622,-1000.0,-171.387,-39.062,-1000.0
1742384285.626,-206.543,999.512,326.172,-204.59
1742384285.629,999.512,996.582,265.625,999.512
1742384285.633,821.777,-61.035,-136.23,886.719
1742384285.637,-503.906,-1000.0,-347.656,-394.043
1742384285.641,-1000.0,-947.754,-86.914,-1000.0
1742384285.645,-283.203,112.793,287.109,-346.191
1742384285.647,949.707,999.512,282.227,917.969
1742384285.651,999.512,471.191,-57.617,999.512
1742384285.655,-46.387,-885.254,-302.734,-3.906
1742384285.659,-1000.0,-935.059,-128.418,-1000.0
1742384285.663,-600.586,300.781,209.473,-669.434
1742384285.667,756.348,999.512,296.387,678.223
1742384285.671,999.512,561.523,39.551,999.512
1742384285.674,85.938,-708.496,-314.941,131.348
1742384285.678,-1000.0,-1000.0,-216.309,-1000.0
1742384285.682,-665.039,-243.652,185.547,-756.348
1742384285.686,704.59,999.512,279.785,604.004
1742384285.69,999.512,437.012,-13.672,999.512
1742384285.647,949.707,999.512,282.227,917.969
1742384285.651,999.512,471.191,-57.617,999.512
1742384285.655,-46.387,-885.254,-302.734,-3.906
1742384285.659,-1000.0,-935.059,-128.418,-1000.0
1742384285.663,-600.586,300.781,209.473,-669.434
1742384285.667,756.348,999.512,296.387,678.223
1742384285.671,999.512,561.523,39.551,999.512
1742384285.674,85.938,-708.496,-314.941,131.348
1742384285.678,-1000.0,-1000.0,-216.309,-1000.0
1742384285.682,-665.039,-243.652,185.547,-756.348
1742384285.686,704.59,999.512,279.785,604.004
1742384285.69,999.512,437.012,-13.672,999.512
1742384285.647,949.707,999.512,282.227,917.969
1742384285.651,999.512,471.191,-57.617,999.512
1742384285.655,-46.387,-885.254,-302.734,-3.906
1742384285.659,-1000.0,-935.059,-128.418,-1000.0
1742384285.663,-600.586,300.781,209.473,-669.434
1742384285.667,756.348,999.512,296.387,678.223
1742384285.671,999.512,561.523,39.551,999.512
1742384285.674,85.938,-708.496,-314.941,131.348
1742384285.678,-1000.0,-1000.0,-216.309,-1000.0
1742384285.682,-665.039,-243.652,185.547,-756.348
1742384285.686,704.59,999.512,279.785,604.004
1742384285.69,999.512,437.012,-13.672,999.512
1742384285.708,170.898,-911.621,-363.77,160.156
1742384285.712,-1000.0,-1000.0,-270.996,-1000.0
1742384285.716,-905.273,26.367,129.883,-966.797
1742384285.72,394.531,999.512,249.023,281.738
1742384285.724,999.512,429.199,19.531,999.512
1742384285.728,268.066,-730.957,-331.543,300.293
1742384285.732,-968.262,-1000.0,-307.129,-952.148
1742384285.735,-1000.0,-543.945,23.438,-1000.0
1742384285.739,-48.828,774.414,205.078,-85.449
1742384285.743,999.512,805.176,47.852,999.512
1742384285.747,257.324,-488.281,-371.582,302.246
1742384285.751,-1000.0,-1000.0,-381.836,-977.539
1742384285.708,170.898,-911.621,-363.77,160.156
1742384285.712,-1000.0,-1000.0,-270.996,-1000.0
1742384285.716,-905.273,26.367,129.883,-966.797
1742384285.72,394.531,999.512,249.023,281.738
1742384285.724,999.512,429.199,19.531,999.512
1742384285.728,268.066,-730.957,-331.543,300.293
1742384285.732,-968.262,-1000.0,-307.129,-952.148
1742384285.735,-1000.0,-543.945,23.438,-1000.0
1742384285.739,-48.828,774.414,205.078,-85.449
1742384285.743,999.512,805.176,47.852,999.512
1742384285.747,257.324,-488.281,-371.582,302.246
1742384285.751,-1000.0,-1000.0,-381.836,-977.539
1742384285.752,-1000.0,-283.691,11.23,-1000.0
1742384285.756,-84.473,999.512,215.82,-146.484
1742384285.76,999.512,761.23,51.27,999.512
1742384285.764,440.43,-519.531,-339.355,488.281
1742384285.768,-894.531,-1000.0,-410.645,-869.629
1742384285.772,-1000.0,-125.0,-44.922,-1000.0
1742384285.776,-226.074,999.512,254.883,-219.727
1742384285.779,999.512,634.766,140.625,999.512
1742384285.783,703.613,-620.605,-251.953,745.605
1742384285.787,-674.316,-1000.0,-375.488,-615.234
1742384285.791,-1000.0,-529.297,-81.055,-1000.0
1742384285.795,-197.266,809.57,266.602,-200.684
1742384285.752,-1000.0,-283.691,11.23,-1000.0
1742384285.756,-84.473,999.512,215.82,-146.484
1742384285.76,999.512,761.23,51.27,999.512
1742384285.764,440.43,-519.531,-339.355,488.281
1742384285.768,-894.531,-1000.0,-410.645,-869.629
1742384285.772,-1000.0,-125.0,-44.922,-1000.0
1742384285.776,-226.074,999.512,254.883,-219.727
1742384285.779,999.512,634.766,140.625,999.512
1742384285.783,703.613,-620.605,-251.953,745.605
1742384285.787,-674.316,-1000.0,-375.488,-615.234
1742384285.791,-1000.0,-529.297,-81.055,-1000.0
1742384285.795,-197.266,809.57,266.602,-200.684
1742384285.797,999.512,851.074,183.594,999.512
1742384285.801,911.621,-363.281,-209.961,930.664
1742384285.805,-346.68,-1000.0,-371.094,-291.504
1742384285.809,-1000.0,-292.969,-125.0,-1000.0
1742384285.813,-328.125,866.211,207.031,-378.906
1742384285.817,930.664,999.512,208.008,902.832
1742384285.821,999.512,660.156,-91.797,999.512
1742384285.824,-0.488,-539.062,-358.398,44.922
1742384285.828,-1000.0,-1000.0,-241.211,-1000.0
1742384285.832,-498.047,-296.875,166.992,-552.246
1742384285.836,854.004,999.512,280.762,810.059
1742384285.84,999.512,516.113,-14.16,999.512
1742384285.797,999.512,851.074,183.594,999.512
1742384285.801,911.621,-363.281,-209.961,930.664
1742384285.805,-346.68,-1000.0,-371.094,-291.504
1742384285.809,-1000.0,-292.969,-125.0,-1000.0
1742384285.813,-328.125,866.211,207.031,-378.906
1742384285.817,930.664,999.512,208.008,902.832
1742384285.821,999.512,660.156,-91.797,999.512
1742384285.824,-0.488,-539.062,-358.398,44.922
1742384285.828,-1000.0,-1000.0,-241.211,-1000.0
1742384285.832,-498.047,-296.875,166.992,-552.246
1742384285.836,854.004,999.512,280.762,810.059
1742384285.84,999.512,516.113,-14.16,999.512
1742384285.842,84.961,-910.645,-344.238,120.117
1742384285.846,-1000.0,-920.898,-187.5,-1000.0
1742384285.85,-602.539,310.059,226.562,-695.312
1742384285.854,764.648,999.512,280.762,669.922
1742384285.858,999.512,486.328,-0.488,999.512
1742384285.862,161.621,-936.523,-342.773,150.879
1742384285.866,-1000.0,-741.699,-205.566,-1000.0
1742384285.869,-1000.0,566.406,176.27,-1000.0
1742384285.873,236.816,999.512,234.863,173.34
1742384285.877,999.512,377.441,-1.953,999.512
1742384285.881,143.066,-849.609,-366.699,141.602
1742384285.885,-1000.0,-1000.0,-299.316,-1000.0
1742384285.842,84.961,-910.645,-344.238,120.117
1742384285.846,-1000.0,-920.898,-187.5,-1000.0
1742384285.85,-602.539,310.059,226.562,-695.312
1742384285.854,764.648,999.512,280.762,669.922
1742384285.858,999.512,486.328,-0.488,999.512
1742384285.862,161.621,-936.523,-342.773,150.879
1742384285.866,-1000.0,-741.699,-205.566,-1000.0
1742384285.869,-1000.0,566.406,176.27,-1000.0
1742384285.873,236.816,999.512,234.863,173.34
1742384285.877,999.512,377.441,-1.953,999.512
1742384285.881,143.066,-849.609,-366.699,141.602
1742384285.885,-1000.0,-1000.0,-299.316,-1000.0
1742384285.887,-1000.0,-377.441,67.871,-1000.0
1742384285.891,58.105,888.184,259.766,-20.508
1742384285.895,999.512,833.008,114.746,999.512
1742384285.899,230.469,-456.055,-318.848,272.461
1742384285.903,-1000.0,-1000.0,-316.406,-983.398
1742384285.907,-1000.0,43.945,66.406,-1000.0
1742384285.911,-69.824,999.512,260.254,-131.348
1742384285.914,999.512,840.332,136.23,999.512
1742384285.918,324.707,-279.297,-306.152,375.488
1742384285.922,-952.637,-1000.0,-376.953,-935.547
1742384285.926,-1000.0,-619.629,-6.348,-1000.0
1742384285.93,-248.535,562.5,242.676,-240.234
1742384285.887,-1000.0,-377.441,67.871,-1000.0
1742384285.891,58.105,888.184,259.766,-20.508
1742384285.895,999.512,833.008,114.746,999.512
1742384285.899,230.469,-456.055,-318.848,272.461
1742384285.903,-1000.0,-1000.0,-316.406,-983.398
1742384285.907,-1000.0,43.945,66.406,-1000.0
1742384285.911,-69.824,999.512,260.254,-131.348
1742384285.914,999.512,840.332,136.23,999.512
1742384285.918,324.707,-279.297,-306.152,375.488
1742384285.922,-952.637,-1000.0,-376.953,-935.547
1742384285.926,-1000.0,-619.629,-6.348,-1000.0
1742384285.93,-248.535,562.5,242.676,-240.234
1742384285.887,-1000.0,-377.441,67.871,-1000.0
1742384285.891,58.105,888.184,259.766,-20.508
1742384285.895,999.512,833.008,114.746,999.512
1742384285.899,230.469,-456.055,-318.848,272.461
1742384285.903,-1000.0,-1000.0,-316.406,-983.398
1742384285.907,-1000.0,43.945,66.406,-1000.0
1742384285.911,-69.824,999.512,260.254,-131.348
1742384285.914,999.512,840.332,136.23,999.512
1742384285.918,324.707,-279.297,-306.152,375.488
1742384285.922,-952.637,-1000.0,-376.953,-935.547
1742384285.926,-1000.0,-619.629,-6.348,-1000.0
1742384285.93,-248.535,562.5,242.676,-240.234
1742384285.932,999.512,999.512,142.09,999.512
1742384285.936,618.164,23.926,-270.996,673.34
1742384285.94,-774.902,-1000.0,-385.742,-706.543
1742384285.944,-1000.0,-686.523,-76.66,-1000.0
1742384285.948,-194.824,515.137,232.91,-188.965
1742384285.952,999.512,999.512,183.594,999.512
1742384285.956,964.844,581.543,-177.734,982.91
1742384285.959,-275.391,-707.52,-398.438,-221.68
1742384285.963,-1000.0,-1000.0,-188.477,-1000.0
1742384285.967,-258.789,-130.859,225.098,-316.895
1742384285.971,986.816,999.512,248.535,960.449
1742384285.975,999.512,163.574,-155.762,999.512
1742384286.442,-227.539,774.902,309.082,-285.645
1742384286.446,999.512,999.512,273.438,999.512
1742384286.45,872.559,217.773,-135.742,909.18
1742384286.454,-440.43,-1000.0,-380.371,-385.254
1742384286.458,-1000.0,-623.535,-141.602,-1000.0
1742384286.462,-276.855,607.422,244.141,-364.258
1742384286.466,972.656,999.512,315.43,936.523
1742384286.469,999.512,257.324,-36.133,999.512
1742384286.473,-153.809,-962.402,-337.402,-152.832
1742384286.477,-1000.0,-1000.0,-151.367,-1000.0
1742384286.481,-544.434,-183.105,227.539,-655.762
1742384286.485,790.039,999.512,302.246,673.828
1742384285.977,-152.832,-1000.0,-399.902,-115.723
1742384285.981,-1000.0,-997.07,-187.5,-1000.0
1742384285.985,-376.465,52.734,176.758,-448.73
1742384285.989,902.344,999.512,194.336,863.77
1742384285.993,999.512,307.617,-119.629,999.512
1742384285.997,96.191,-1000.0,-370.605,121.094
1742384286.001,-1000.0,-843.75,-206.055,-1000.0
1742384286.004,-684.57,414.551,172.363,-766.113
1742384286.008,679.688,999.512,198.73,583.984
1742384286.012,999.512,55.176,-75.195,999.512
1742384286.016,158.691,-1000.0,-373.535,144.043
1742384286.02,-1000.0,-971.191,-260.254,-1000.0
1742384285.977,-152.832,-1000.0,-399.902,-115.723
1742384285.981,-1000.0,-997.07,-187.5,-1000.0
1742384285.985,-376.465,52.734,176.758,-448.73
1742384285.989,902.344,999.512,194.336,863.77
1742384285.993,999.512,307.617,-119.629,999.512
1742384285.997,96.191,-1000.0,-370.605,121.094
1742384286.001,-1000.0,-843.75,-206.055,-1000.0
1742384286.004,-684.57,414.551,172.363,-766.113
1742384286.008,679.688,999.512,198.73,583.984
1742384286.012,999.512,55.176,-75.195,999.512
1742384286.016,158.691,-1000.0,-373.535,144.043
1742384286.02,-1000.0,-971.191,-260.254,-1000.0
1742384286.023,-1000.0,-147.461,97.168,-1000.0
1742384286.027,248.047,958.008,261.719,173.34
1742384286.031,999.512,670.41,85.938,999.512
1742384286.035,170.898,-666.992,-361.328,167.969
1742384286.039,-1000.0,-1000.0,-330.078,-1000.0
1742384286.043,-884.766,17.09,130.371,-937.5
1742384286.047,433.594,999.512,321.777,334.473
1742384286.05,999.512,198.73,66.895,999.512
1742384286.054,197.754,-998.535,-335.938,251.953
1742384286.058,-1000.0,-1000.0,-328.613,-980.469
1742384286.062,-1000.0,-229.98,36.133,-1000.0
1742384286.066,4.883,999.512,289.062,-37.598
1742384286.023,-1000.0,-147.461,97.168,-1000.0
1742384286.027,248.047,958.008,261.719,173.34
1742384286.031,999.512,670.41,85.938,999.512
1742384286.035,170.898,-666.992,-361.328,167.969
1742384286.039,-1000.0,-1000.0,-330.078,-1000.0
1742384286.043,-884.766,17.09,130.371,-937.5
1742384286.047,433.594,999.512,321.777,334.473
1742384286.05,999.512,198.73,66.895,999.512
1742384286.054,197.754,-998.535,-335.938,251.953
1742384286.058,-1000.0,-1000.0,-328.613,-980.469
1742384286.062,-1000.0,-229.98,36.133,-1000.0
1742384286.066,4.883,999.512,289.062,-37.598
1742384286.082,999.512,479.492,145.996,999.512
1742384286.086,435.059,-849.609,-266.602,489.258
1742384286.09,-886.719,-1000.0,-277.344,-852.051
1742384286.094,-1000.0,-44.922,74.219,-1000.0
1742384286.098,-223.633,988.281,288.574,-212.891
1742384286.102,999.512,999.512,240.723,999.512
1742384286.106,630.859,265.625,-120.117,698.242
1742384286.109,-776.855,-961.914,-305.176,-686.523
1742384286.113,-1000.0,-1000.0,-4.395,-1000.0
1742384286.117,-212.891,-132.812,350.586,-237.793
1742384286.121,999.512,999.512,276.367,999.512
1742384286.125,793.457,198.73,-150.879,845.703
1742384286.082,999.512,479.492,145.996,999.512
1742384286.086,435.059,-849.609,-266.602,489.258
1742384286.09,-886.719,-1000.0,-277.344,-852.051
1742384286.094,-1000.0,-44.922,74.219,-1000.0
1742384286.098,-223.633,988.281,288.574,-212.891
1742384286.102,999.512,999.512,240.723,999.512
1742384286.106,630.859,265.625,-120.117,698.242
1742384286.109,-776.855,-961.914,-305.176,-686.523
1742384286.113,-1000.0,-1000.0,-4.395,-1000.0
1742384286.117,-212.891,-132.812,350.586,-237.793
1742384286.121,999.512,999.512,276.367,999.512
1742384286.125,793.457,198.73,-150.879,845.703
1742384286.129,-555.176,-1000.0,-326.172,-479.004
1742384286.133,-1000.0,-692.871,-62.988,-1000.0
1742384286.137,-215.82,578.613,281.25,-270.996
1742384286.141,990.723,999.512,280.762,964.844
1742384286.145,999.512,253.906,-56.641,999.512
1742384286.149,-135.254,-1000.0,-286.621,-89.844
1742384286.153,-1000.0,-598.633,-88.867,-1000.0
1742384286.156,-391.113,852.051,271.973,-444.824
1742384286.16,902.344,836.914,258.301,874.023
1742384286.164,999.512,-410.645,-55.664,999.512
1742384286.168,53.711,-1000.0,-314.941,76.66
1742384286.172,-1000.0,-790.039,-146.484,-1000.0
1742384286.129,-555.176,-1000.0,-326.172,-479.004
1742384286.133,-1000.0,-692.871,-62.988,-1000.0
1742384286.137,-215.82,578.613,281.25,-270.996
1742384286.141,990.723,999.512,280.762,964.844
1742384286.145,999.512,253.906,-56.641,999.512
1742384286.149,-135.254,-1000.0,-286.621,-89.844
1742384286.153,-1000.0,-598.633,-88.867,-1000.0
1742384286.156,-391.113,852.051,271.973,-444.824
1742384286.16,902.344,836.914,258.301,874.023
1742384286.164,999.512,-410.645,-55.664,999.512
1742384286.168,53.711,-1000.0,-314.941,76.66
1742384286.172,-1000.0,-790.039,-146.484,-1000.0
1742384286.188,-645.996,366.211,200.195,-733.398
1742384286.192,714.844,999.512,258.301,615.723
1742384286.196,999.512,552.246,11.719,999.512
1742384286.2,177.734,-774.414,-340.82,167.969
1742384286.204,-1000.0,-988.77,-249.023,-1000.0
1742384286.208,-781.25,331.055,142.578,-838.379
1742384286.212,585.938,999.512,193.848,500.977
1742384286.215,999.512,585.449,-64.453,999.512
1742384286.219,153.809,-592.773,-455.566,147.949
1742384286.223,-1000.0,-1000.0,-391.602,-1000.0
1742384286.227,-1000.0,-374.023,51.27,-1000.0
1742384286.231,219.238,941.406,223.145,138.672
1742384286.188,-645.996,366.211,200.195,-733.398
1742384286.192,714.844,999.512,258.301,615.723
1742384286.196,999.512,552.246,11.719,999.512
1742384286.2,177.734,-774.414,-340.82,167.969
1742384286.204,-1000.0,-988.77,-249.023,-1000.0
1742384286.208,-781.25,331.055,142.578,-838.379
1742384286.212,585.938,999.512,193.848,500.977
1742384286.215,999.512,585.449,-64.453,999.512
1742384286.219,153.809,-592.773,-455.566,147.949
1742384286.223,-1000.0,-1000.0,-391.602,-1000.0
1742384286.227,-1000.0,-374.023,51.27,-1000.0
1742384286.231,219.238,941.406,223.145,138.672
1742384286.188,-645.996,366.211,200.195,-733.398
1742384286.192,714.844,999.512,258.301,615.723
1742384286.196,999.512,552.246,11.719,999.512
1742384286.2,177.734,-774.414,-340.82,167.969
1742384286.204,-1000.0,-988.77,-249.023,-1000.0
1742384286.208,-781.25,331.055,142.578,-838.379
1742384286.212,585.938,999.512,193.848,500.977
1742384286.215,999.512,585.449,-64.453,999.512
1742384286.219,153.809,-592.773,-455.566,147.949
1742384286.223,-1000.0,-1000.0,-391.602,-1000.0
1742384286.227,-1000.0,-374.023,51.27,-1000.0
1742384286.231,219.238,941.406,223.145,138.672
1742384286.217,999.512,884.766,66.406,999.512
1742384286.221,145.02,-302.246,-349.121,190.918
1742384286.225,-1000.0,-1000.0,-378.906,-1000.0
1742384286.229,-1000.0,-223.145,21.973,-1000.0
1742384286.233,-7.324,945.312,202.637,-65.43
1742384286.237,999.512,999.512,71.289,999.512
1742384286.241,423.828,217.773,-336.914,469.238
1742384286.244,-892.578,-1000.0,-459.473,-873.047
1742384286.248,-1000.0,-1000.0,-113.281,-1000.0
1742384286.252,-239.746,41.016,166.016,-230.469
1742384286.256,999.512,999.512,104.98,999.512
1742384286.26,632.324,290.039,-287.109,694.824
1742384286.217,999.512,884.766,66.406,999.512
1742384286.221,145.02,-302.246,-349.121,190.918
1742384286.225,-1000.0,-1000.0,-378.906,-1000.0
1742384286.229,-1000.0,-223.145,21.973,-1000.0
1742384286.233,-7.324,945.312,202.637,-65.43
1742384286.237,999.512,999.512,71.289,999.512
1742384286.241,423.828,217.773,-336.914,469.238
1742384286.244,-892.578,-1000.0,-459.473,-873.047
1742384286.248,-1000.0,-1000.0,-113.281,-1000.0
1742384286.252,-239.746,41.016,166.016,-230.469
1742384286.256,999.512,999.512,104.98,999.512
1742384286.26,632.324,290.039,-287.109,694.824
1742384286.217,999.512,884.766,66.406,999.512
1742384286.221,145.02,-302.246,-349.121,190.918
1742384286.225,-1000.0,-1000.0,-378.906,-1000.0
1742384286.229,-1000.0,-223.145,21.973,-1000.0
1742384286.233,-7.324,945.312,202.637,-65.43
1742384286.237,999.512,999.512,71.289,999.512
1742384286.241,423.828,217.773,-336.914,469.238
1742384286.244,-892.578,-1000.0,-459.473,-873.047
1742384286.248,-1000.0,-1000.0,-113.281,-1000.0
1742384286.252,-239.746,41.016,166.016,-230.469
1742384286.256,999.512,999.512,104.98,999.512
1742384286.26,632.324,290.039,-287.109,694.824
1742384286.262,-762.695,-1000.0,-414.551,-682.617
1742384286.266,-1000.0,-898.438,-107.91,-1000.0
1742384286.27,-219.238,388.184,222.656,-210.449
1742384286.274,999.512,999.512,166.504,999.512
1742384286.278,745.605,-85.449,-252.441,806.641
1742384286.282,-623.535,-1000.0,-405.762,-534.668
1742384286.286,-1000.0,-319.824,-144.531,-1000.0
1742384286.289,-184.082,999.512,219.238,-180.664
1742384286.293,999.512,718.75,156.738,999.512
1742384286.297,999.512,-560.547,-226.562,999.512
1742384286.301,-196.289,-1000.0,-361.328,-153.32
1742384286.305,-1000.0,-625.488,-108.887,-1000.0
1742384286.262,-762.695,-1000.0,-414.551,-682.617
1742384286.266,-1000.0,-898.438,-107.91,-1000.0
1742384286.27,-219.238,388.184,222.656,-210.449
1742384286.274,999.512,999.512,166.504,999.512
1742384286.278,745.605,-85.449,-252.441,806.641
1742384286.282,-623.535,-1000.0,-405.762,-534.668
1742384286.286,-1000.0,-319.824,-144.531,-1000.0
1742384286.289,-184.082,999.512,219.238,-180.664
1742384286.293,999.512,718.75,156.738,999.512
1742384286.297,999.512,-560.547,-226.562,999.512
1742384286.301,-196.289,-1000.0,-361.328,-153.32
1742384286.305,-1000.0,-625.488,-108.887,-1000.0
1742384286.308,-283.203,580.078,270.508,-338.379
1742384286.312,958.984,999.512,280.762,931.152
1742384286.316,999.512,82.031,-122.559,999.512
1742384286.32,-21.973,-1000.0,-416.504,29.785
1742384286.324,-1000.0,-1000.0,-224.609,-1000.0
1742384286.328,-416.504,142.578,186.523,-474.609
1742384286.332,885.254,999.512,205.566,858.887
1742384286.335,999.512,10.254,-140.625,999.512
1742384286.339,188.965,-1000.0,-449.707,179.688
1742384286.343,-1000.0,-999.512,-296.875,-1000.0
1742384286.347,-629.395,15.625,135.254,-708.008
1742384286.351,759.277,999.512,238.281,666.504
1742384286.308,-283.203,580.078,270.508,-338.379
1742384286.312,958.984,999.512,280.762,931.152
1742384286.316,999.512,82.031,-122.559,999.512
1742384286.32,-21.973,-1000.0,-416.504,29.785
1742384286.324,-1000.0,-1000.0,-224.609,-1000.0
1742384286.328,-416.504,142.578,186.523,-474.609
1742384286.332,885.254,999.512,205.566,858.887
1742384286.335,999.512,10.254,-140.625,999.512
1742384286.339,188.965,-1000.0,-449.707,179.688
1742384286.343,-1000.0,-999.512,-296.875,-1000.0
1742384286.347,-629.395,15.625,135.254,-708.008
1742384286.351,759.277,999.512,238.281,666.504
1742384286.818,-1000.0,-1000.0,-274.902,-1000.0
1742384286.822,-539.062,-127.93,160.156,-631.348
1742384286.826,844.727,999.512,287.598,753.906
1742384286.83,999.512,630.371,-5.371,999.512
1742384286.834,157.227,-869.141,-389.648,147.949
1742384286.838,-1000.0,-558.594,-252.93,-1000.0
1742384286.842,-961.426,852.539,130.371,-999.023
1742384286.845,313.477,999.512,181.152,236.816
1742384286.849,999.512,85.449,-44.434,999.512
1742384286.853,144.043,-1000.0,-414.062,141.113
1742384286.857,-1000.0,-1000.0,-322.754,-1000.0
1742384286.861,-1000.0,-47.852,74.219,-1000.0
1742384287.252,-1000.0,-1000.0,105.469,-1000.0
1742384287.256,-219.727,57.129,373.535,-213.379
1742384287.26,999.512,999.512,327.637,999.512
1742384287.264,761.719,301.27,-84.961,799.805
1742384287.268,-604.492,-1000.0,-274.902,-538.574
1742384287.272,-1000.0,-175.781,12.207,-1000.0
1742384287.276,-191.406,999.512,311.035,-234.863
1742384287.279,999.512,837.891,184.57,999.512
1742384287.283,978.516,-361.816,-178.711,989.258
1742384287.287,-250.977,-1000.0,-320.312,-221.191
1742384287.291,-1000.0,-719.238,-62.012,-1000.0
1742384287.295,-261.719,504.395,346.68,-334.473
1742384286.878,94.238,998.047,210.449,7.324
1742384286.882,999.512,999.512,29.785,999.512
1742384286.886,208.984,90.332,-382.324,254.395
1742384286.89,-999.512,-1000.0,-415.039,-980.957
1742384286.894,-1000.0,-938.477,-76.66,-1000.0
1742384286.898,-118.164,396.973,130.371,-186.035
1742384286.902,999.512,999.512,1.465,999.512
1742384286.905,350.586,-252.93,-391.113,377.93
1742384286.909,-947.754,-1000.0,-469.727,-941.895
1742384286.913,-1000.0,-307.129,-150.879,-1000.0
1742384286.917,-235.84,963.379,135.254,-240.723
1742384286.921,999.512,999.512,23.438,999.512
1742384286.878,94.238,998.047,210.449,7.324
1742384286.882,999.512,999.512,29.785,999.512
1742384286.886,208.984,90.332,-382.324,254.395
1742384286.89,-999.512,-1000.0,-415.039,-980.957
1742384286.894,-1000.0,-938.477,-76.66,-1000.0
1742384286.898,-118.164,396.973,130.371,-186.035
1742384286.902,999.512,999.512,1.465,999.512
1742384286.905,350.586,-252.93,-391.113,377.93
1742384286.909,-947.754,-1000.0,-469.727,-941.895
1742384286.913,-1000.0,-307.129,-150.879,-1000.0
1742384286.917,-235.84,963.379,135.254,-240.723
1742384286.921,999.512,999.512,23.438,999.512
1742384286.922,554.199,-60.547,-374.023,591.797
1742384286.926,-836.426,-1000.0,-479.004,-794.434
1742384286.93,-1000.0,-406.25,-186.523,-1000.0
1742384286.934,-200.195,867.676,103.027,-196.289
1742384286.938,999.512,976.074,57.129,999.512
1742384286.942,941.406,500.488,-284.668,954.59
1742384286.946,-297.363,-721.191,-433.594,-267.09
1742384286.949,-1000.0,-868.164,-180.176,-1000.0
1742384286.953,-448.242,293.945,80.566,-487.305
1742384286.957,918.945,999.512,37.109,891.602
1742384286.961,999.512,301.27,-283.691,999.512
1742384286.965,-264.16,-985.84,-493.164,-236.816
1742384286.922,554.199,-60.547,-374.023,591.797
1742384286.926,-836.426,-1000.0,-479.004,-794.434
1742384286.93,-1000.0,-406.25,-186.523,-1000.0
1742384286.934,-200.195,867.676,103.027,-196.289
1742384286.938,999.512,976.074,57.129,999.512
1742384286.942,941.406,500.488,-284.668,954.59
1742384286.946,-297.363,-721.191,-433.594,-267.09
1742384286.949,-1000.0,-868.164,-180.176,-1000.0
1742384286.953,-448.242,293.945,80.566,-487.305
1742384286.957,918.945,999.512,37.109,891.602
1742384286.961,999.512,301.27,-283.691,999.512
1742384286.965,-264.16,-985.84,-493.164,-236.816
1742384286.922,554.199,-60.547,-374.023,591.797
1742384286.926,-836.426,-1000.0,-479.004,-794.434
1742384286.93,-1000.0,-406.25,-186.523,-1000.0
1742384286.934,-200.195,867.676,103.027,-196.289
1742384286.938,999.512,976.074,57.129,999.512
1742384286.942,941.406,500.488,-284.668,954.59
1742384286.946,-297.363,-721.191,-433.594,-267.09
1742384286.949,-1000.0,-868.164,-180.176,-1000.0
1742384286.953,-448.242,293.945,80.566,-487.305
1742384286.957,918.945,999.512,37.109,891.602
1742384286.961,999.512,301.27,-283.691,999.512
1742384286.965,-264.16,-985.84,-493.164,-236.816
1742384286.967,-1000.0,-1000.0,-273.926,-1000.0
1742384286.971,-305.176,52.734,99.609,-394.043
1742384286.975,946.289,999.512,112.305,905.762
1742384286.979,999.512,389.648,-195.801,999.512
1742384286.983,-28.32,-1000.0,-441.895,-19.531
1742384286.987,-1000.0,-365.723,-270.996,-1000.0
1742384286.991,-635.742,977.539,91.309,-729.004
1742384286.994,719.727,999.512,100.098,610.84
1742384286.998,999.512,-8.301,-199.219,999.512
1742384287.002,97.656,-1000.0,-500.977,88.379
1742384287.006,-1000.0,-983.398,-363.77,-1000.0
1742384287.01,-842.285,108.398,11.719,-952.148
1742384286.967,-1000.0,-1000.0,-273.926,-1000.0
1742384286.971,-305.176,52.734,99.609,-394.043
1742384286.975,946.289,999.512,112.305,905.762
1742384286.979,999.512,389.648,-195.801,999.512
1742384286.983,-28.32,-1000.0,-441.895,-19.531
1742384286.987,-1000.0,-365.723,-270.996,-1000.0
1742384286.991,-635.742,977.539,91.309,-729.004
1742384286.994,719.727,999.512,100.098,610.84
1742384286.998,999.512,-8.301,-199.219,999.512
1742384287.002,97.656,-1000.0,-500.977,88.379
1742384287.006,-1000.0,-983.398,-363.77,-1000.0
1742384287.01,-842.285,108.398,11.719,-952.148
1742384287.013,479.98,999.512,98.145,307.129
1742384287.017,999.512,955.078,-60.059,999.512
1742384287.021,147.461,-64.941,-336.914,142.578
1742384287.025,-1000.0,-1000.0,-248.047,-1000.0
1742384287.029,-1000.0,-284.18,125.0,-1000.0
1742384287.033,139.648,907.227,274.414,55.664
1742384287.037,999.512,999.512,166.504,999.512
1742384287.04,202.148,-7.812,-259.766,238.77
1742384287.044,-998.535,-1000.0,-310.547,-981.934
1742384287.048,-1000.0,-155.762,121.094,-1000.0
1742384287.052,-114.746,999.512,284.668,-189.941
1742384287.056,999.512,730.469,91.797,999.512
1742384287.013,479.98,999.512,98.145,307.129
1742384287.017,999.512,955.078,-60.059,999.512
1742384287.021,147.461,-64.941,-336.914,142.578
1742384287.025,-1000.0,-1000.0,-248.047,-1000.0
1742384287.029,-1000.0,-284.18,125.0,-1000.0
1742384287.033,139.648,907.227,274.414,55.664
1742384287.037,999.512,999.512,166.504,999.512
1742384287.04,202.148,-7.812,-259.766,238.77
1742384287.044,-998.535,-1000.0,-310.547,-981.934
1742384287.048,-1000.0,-155.762,121.094,-1000.0
1742384287.052,-114.746,999.512,284.668,-189.941
1742384287.056,999.512,730.469,91.797,999.512
1742384287.073,208.496,-492.676,-293.457,246.094
1742384287.077,-1000.0,-1000.0,-321.289,-1000.0
1742384287.081,-1000.0,-136.23,26.855,-1000.0
1742384287.085,-233.887,994.629,285.645,-243.164
1742384287.089,999.512,987.305,176.27,999.512
1742384287.093,758.301,391.113,-179.199,755.371
1742384287.097,-589.355,-742.676,-297.363,-583.984
1742384287.1,-1000.0,-1000.0,-86.914,-1000.0
1742384287.104,-330.078,-207.031,207.52,-394.043
1742384287.108,984.863,999.512,189.453,957.031
1742384287.112,958.496,689.453,-127.441,961.914
1742384287.116,-338.867,-626.953,-240.234,-341.309
1742384287.073,208.496,-492.676,-293.457,246.094
1742384287.077,-1000.0,-1000.0,-321.289,-1000.0
1742384287.081,-1000.0,-136.23,26.855,-1000.0
1742384287.085,-233.887,994.629,285.645,-243.164
1742384287.089,999.512,987.305,176.27,999.512
1742384287.093,758.301,391.113,-179.199,755.371
1742384287.097,-589.355,-742.676,-297.363,-583.984
1742384287.1,-1000.0,-1000.0,-86.914,-1000.0
1742384287.104,-330.078,-207.031,207.52,-394.043
1742384287.108,984.863,999.512,189.453,957.031
1742384287.112,958.496,689.453,-127.441,961.914
1742384287.116,-338.867,-626.953,-240.234,-341.309
1742384287.103,-1000.0,-1000.0,-27.832,-1000.0
1742384287.107,-266.602,-165.039,297.363,-347.656
1742384287.111,988.281,999.512,318.359,954.102
1742384287.115,999.512,501.953,-38.086,999.512
1742384287.119,-189.941,-1000.0,-250.0,-187.012
1742384287.123,-1000.0,-222.168,-2.93,-1000.0
1742384287.127,-379.395,999.512,342.773,-443.848
1742384287.13,949.707,918.945,279.297,921.387
1742384287.134,999.512,-216.797,-117.676,999.512
1742384287.138,-207.031,-1000.0,-374.023,-224.121
1742384287.142,-1000.0,-778.809,-126.953,-1000.0
1742384287.146,-454.102,428.711,319.824,-558.594
1742384287.103,-1000.0,-1000.0,-27.832,-1000.0
1742384287.107,-266.602,-165.039,297.363,-347.656
1742384287.111,988.281,999.512,318.359,954.102
1742384287.115,999.512,501.953,-38.086,999.512
1742384287.119,-189.941,-1000.0,-250.0,-187.012
1742384287.123,-1000.0,-222.168,-2.93,-1000.0
1742384287.127,-379.395,999.512,342.773,-443.848
1742384287.13,949.707,918.945,279.297,921.387
1742384287.134,999.512,-216.797,-117.676,999.512
1742384287.138,-207.031,-1000.0,-374.023,-224.121
1742384287.142,-1000.0,-778.809,-126.953,-1000.0
1742384287.146,-454.102,428.711,319.824,-558.594
1742384287.148,842.773,999.512,356.934,758.301
1742384287.152,999.512,763.672,105.957,999.512
1742384287.156,171.875,-185.059,-175.781,160.645
1742384287.16,-1000.0,-1000.0,-123.535,-1000.0
1742384287.164,-991.699,-645.508,239.746,-1000.0
1742384287.168,266.113,804.199,424.316,199.707
1742384287.172,999.512,694.336,187.012,999.512
1742384287.175,158.691,-727.539,-291.992,145.508
1742384287.179,-1000.0,-1000.0,-195.801,-1000.0
1742384287.183,-982.422,-183.105,239.258,-1000.0
1742384287.187,277.344,999.512,410.156,151.855
1742384287.191,999.512,872.07,223.633,999.512
1742384287.148,842.773,999.512,356.934,758.301
1742384287.152,999.512,763.672,105.957,999.512
1742384287.156,171.875,-185.059,-175.781,160.645
1742384287.16,-1000.0,-1000.0,-123.535,-1000.0
1742384287.164,-991.699,-645.508,239.746,-1000.0
1742384287.168,266.113,804.199,424.316,199.707
1742384287.172,999.512,694.336,187.012,999.512
1742384287.175,158.691,-727.539,-291.992,145.508
1742384287.179,-1000.0,-1000.0,-195.801,-1000.0
1742384287.183,-982.422,-183.105,239.258,-1000.0
1742384287.187,277.344,999.512,410.156,151.855
1742384287.191,999.512,872.07,223.633,999.512
1742384287.208,157.227,-257.324,-183.594,190.43
1742384287.212,-1000.0,-1000.0,-198.73,-1000.0
1742384287.216,-1000.0,-338.867,154.785,-1000.0
1742384287.22,3.418,935.547,400.391,-61.523
1742384287.224,999.512,917.969,281.738,999.512
1742384287.228,576.172,155.273,-119.141,608.887
1742384287.232,-765.625,-909.18,-155.762,-738.281
1742384287.235,-1000.0,-698.73,139.648,-1000.0
1742384287.239,-231.445,392.09,330.566,-227.051
1742384287.243,999.512,999.512,286.133,999.512
1742384287.247,596.191,196.289,-86.914,642.09
1742384287.251,-797.852,-1000.0,-181.641,-743.652
1742384287.208,157.227,-257.324,-183.594,190.43
1742384287.212,-1000.0,-1000.0,-198.73,-1000.0
1742384287.216,-1000.0,-338.867,154.785,-1000.0
1742384287.22,3.418,935.547,400.391,-61.523
1742384287.224,999.512,917.969,281.738,999.512
1742384287.228,576.172,155.273,-119.141,608.887
1742384287.232,-765.625,-909.18,-155.762,-738.281
1742384287.235,-1000.0,-698.73,139.648,-1000.0
1742384287.239,-231.445,392.09,330.566,-227.051
1742384287.243,999.512,999.512,286.133,999.512
1742384287.247,596.191,196.289,-86.914,642.09
1742384287.251,-797.852,-1000.0,-181.641,-743.652
1742384287.208,157.227,-257.324,-183.594,190.43
1742384287.212,-1000.0,-1000.0,-198.73,-1000.0
1742384287.216,-1000.0,-338.867,154.785,-1000.0
1742384287.22,3.418,935.547,400.391,-61.523
1742384287.224,999.512,917.969,281.738,999.512
1742384287.228,576.172,155.273,-119.141,608.887
1742384287.232,-765.625,-909.18,-155.762,-738.281
1742384287.235,-1000.0,-698.73,139.648,-1000.0
1742384287.239,-231.445,392.09,330.566,-227.051
1742384287.243,999.512,999.512,286.133,999.512
1742384287.247,596.191,196.289,-86.914,642.09
1742384287.251,-797.852,-1000.0,-181.641,-743.652
1742384287.297,952.148,999.512,315.43,920.898
1742384287.301,999.512,349.121,-42.48,999.512
1742384287.305,62.988,-677.246,-285.645,80.078
1742384287.309,-1000.0,-980.469,-94.238,-1000.0
1742384287.313,-519.531,219.727,315.43,-599.121
1742384287.317,834.961,999.512,362.305,762.695
1742384287.321,999.512,844.727,40.527,999.512
1742384287.324,186.035,-278.32,-320.801,174.316
1742384287.328,-1000.0,-1000.0,-216.797,-1000.0
1742384287.332,-748.047,-139.648,176.27,-810.059
1742384287.336,626.953,999.512,250.977,540.039
1742384287.34,999.512,569.336,20.508,999.512
1742384287.297,952.148,999.512,315.43,920.898
1742384287.301,999.512,349.121,-42.48,999.512
1742384287.305,62.988,-677.246,-285.645,80.078
1742384287.309,-1000.0,-980.469,-94.238,-1000.0
1742384287.313,-519.531,219.727,315.43,-599.121
1742384287.317,834.961,999.512,362.305,762.695
1742384287.321,999.512,844.727,40.527,999.512
1742384287.324,186.035,-278.32,-320.801,174.316
1742384287.328,-1000.0,-1000.0,-216.797,-1000.0
1742384287.332,-748.047,-139.648,176.27,-810.059
1742384287.336,626.953,999.512,250.977,540.039
1742384287.34,999.512,569.336,20.508,999.512
1742384287.344,156.25,-770.508,-347.168,150.879
1742384287.348,-1000.0,-1000.0,-258.789,-1000.0
1742384287.352,-1000.0,113.77,139.648,-1000.0
1742384287.356,234.375,999.512,262.207,164.551
1742384287.36,999.512,616.699,78.125,999.512
1742384287.364,215.332,-543.945,-297.363,262.695
1742384287.368,-1000.0,-1000.0,-257.324,-982.422
1742384287.371,-1000.0,-439.453,80.566,-1000.0
1742384287.375,-1.953,831.055,231.445,-48.34
1742384287.379,999.512,999.512,74.219,999.512
1742384287.383,279.785,-204.59,-321.777,333.008
1742384287.387,-964.355,-1000.0,-304.199,-945.801
1742384287.344,156.25,-770.508,-347.168,150.879
1742384287.348,-1000.0,-1000.0,-258.789,-1000.0
1742384287.352,-1000.0,113.77,139.648,-1000.0
1742384287.356,234.375,999.512,262.207,164.551
1742384287.36,999.512,616.699,78.125,999.512
1742384287.364,215.332,-543.945,-297.363,262.695
1742384287.368,-1000.0,-1000.0,-257.324,-982.422
1742384287.371,-1000.0,-439.453,80.566,-1000.0
1742384287.375,-1.953,831.055,231.445,-48.34
1742384287.379,999.512,999.512,74.219,999.512
1742384287.383,279.785,-204.59,-321.777,333.008
1742384287.387,-964.355,-1000.0,-304.199,-945.801
1742384287.388,-1000.0,15.137,0.488,-1000.0
1742384287.392,-256.836,783.203,136.719,-240.234
1742384287.396,999.512,997.559,62.5,999.512
1742384287.4,510.254,3.906,-326.66,579.102
1742384287.404,-879.883,-1000.0,-413.574,-809.57
1742384287.408,-1000.0,-108.398,-58.594,-1000.0
1742384287.412,-215.332,999.512,211.426,-200.195
1742384287.415,999.512,702.637,92.773,999.512
1742384287.419,719.727,-576.66,-326.66,786.133
1742384287.423,-652.344,-1000.0,-451.66,-558.594
1742384287.427,-1000.0,-653.809,-169.434,-1000.0
1742384287.431,-183.594,601.074,98.633,-178.223
1742384287.388,-1000.0,15.137,0.488,-1000.0
1742384287.392,-256.836,783.203,136.719,-240.234
1742384287.396,999.512,997.559,62.5,999.512
1742384287.4,510.254,3.906,-326.66,579.102
1742384287.404,-879.883,-1000.0,-413.574,-809.57
1742384287.408,-1000.0,-108.398,-58.594,-1000.0
1742384287.412,-215.332,999.512,211.426,-200.195
1742384287.415,999.512,702.637,92.773,999.512
1742384287.419,719.727,-576.66,-326.66,786.133
1742384287.423,-652.344,-1000.0,-451.66,-558.594
1742384287.427,-1000.0,-653.809,-169.434,-1000.0
1742384287.431,-183.594,601.074,98.633,-178.223
1742384287.433,999.512,999.512,23.438,999.512
1742384287.437,999.512,-110.84,-306.641,999.512
1742384287.441,-185.059,-1000.0,-444.336,-125.488
1742384287.445,-1000.0,-1000.0,-249.023,-1000.0
1742384287.449,-212.402,22.949,101.074,-251.953
1742384287.453,991.699,999.512,155.762,972.656
1742384287.457,999.512,446.777,-176.27,999.512
1742384287.46,-54.688,-867.676,-460.938,12.695
1742384287.464,-1000.0,-1000.0,-260.254,-1000.0
1742384287.468,-321.289,-77.148,174.316,-372.07
1742384287.472,928.223,999.512,183.105,910.156
1742384287.476,999.512,460.938,-151.367,999.512
1742384287.477,189.453,-863.77,-417.48,198.73
1742384287.481,-1000.0,-1000.0,-277.344,-1000.0
1742384287.485,-526.855,118.652,99.121,-568.359
1742384287.489,850.098,999.512,182.129,809.082
1742384287.493,999.512,669.434,-77.148,999.512
1742384287.497,182.129,-435.059,-422.363,182.129
1742384287.501,-1000.0,-1000.0,-363.281,-1000.0
1742384287.504,-884.766,-75.195,-2.441,-901.367
1742384287.508,439.941,999.512,79.102,398.926
1742384287.512,999.512,31.25,-110.84,999.512
1742384287.516,159.668,-1000.0,-403.32,209.473
1742384287.52,-1000.0,-1000.0,-357.422,-1000.0
1742384287.477,189.453,-863.77,-417.48,198.73
1742384287.481,-1000.0,-1000.0,-277.344,-1000.0
1742384287.485,-526.855,118.652,99.121,-568.359
1742384287.489,850.098,999.512,182.129,809.082
1742384287.493,999.512,669.434,-77.148,999.512
1742384287.497,182.129,-435.059,-422.363,182.129
1742384287.501,-1000.0,-1000.0,-363.281,-1000.0
1742384287.504,-884.766,-75.195,-2.441,-901.367
1742384287.508,439.941,999.512,79.102,398.926
1742384287.512,999.512,31.25,-110.84,999.512
1742384287.516,159.668,-1000.0,-403.32,209.473
1742384287.52,-1000.0,-1000.0,-357.422,-1000.0
1742384287.537,-1000.0,-310.547,-37.598,-1000.0
1742384287.541,97.168,878.906,127.93,62.988
1742384287.545,999.512,985.84,0.977,999.512
1742384287.549,358.398,-164.062,-328.613,417.969
1742384287.553,-951.66,-1000.0,-333.496,-920.898
1742384287.557,-1000.0,-91.797,4.883,-1000.0
1742384287.561,14.648,999.512,215.82,-4.883
1742384287.564,999.512,728.516,53.223,999.512
1742384287.568,385.742,-536.621,-353.027,453.125
1742384287.572,-916.504,-1000.0,-394.531,-880.859
1742384287.576,-1000.0,-436.523,-31.25,-1000.0
1742384287.58,-200.684,977.539,239.746,-188.477
1742384287.537,-1000.0,-310.547,-37.598,-1000.0
1742384287.541,97.168,878.906,127.93,62.988
1742384287.545,999.512,985.84,0.977,999.512
1742384287.549,358.398,-164.062,-328.613,417.969
1742384287.553,-951.66,-1000.0,-333.496,-920.898
1742384287.557,-1000.0,-91.797,4.883,-1000.0
1742384287.561,14.648,999.512,215.82,-4.883
1742384287.564,999.512,728.516,53.223,999.512
1742384287.568,385.742,-536.621,-353.027,453.125
1742384287.572,-916.504,-1000.0,-394.531,-880.859
1742384287.576,-1000.0,-436.523,-31.25,-1000.0
1742384287.58,-200.684,977.539,239.746,-188.477
1742384287.537,-1000.0,-310.547,-37.598,-1000.0
1742384287.541,97.168,878.906,127.93,62.988
1742384287.545,999.512,985.84,0.977,999.512
1742384287.549,358.398,-164.062,-328.613,417.969
1742384287.553,-951.66,-1000.0,-333.496,-920.898
1742384287.557,-1000.0,-91.797,4.883,-1000.0
1742384287.561,14.648,999.512,215.82,-4.883
1742384287.564,999.512,728.516,53.223,999.512
1742384287.568,385.742,-536.621,-353.027,453.125
1742384287.572,-916.504,-1000.0,-394.531,-880.859
1742384287.576,-1000.0,-436.523,-31.25,-1000.0
1742384287.58,-200.684,977.539,239.746,-188.477
1742384287.567,999.512,556.641,82.031,999.512
1742384287.571,751.953,-783.691,-342.285,831.055
1742384287.575,-634.766,-1000.0,-439.941,-550.781
1742384287.579,-1000.0,-481.445,-114.258,-1000.0
1742384287.583,-103.027,746.094,231.445,0.0
1742384287.587,999.512,999.512,170.898,995.605
1742384287.591,960.449,366.699,-226.562,999.512
1742384287.594,-290.039,-892.578,-435.059,-178.223
1742384287.598,-1000.0,-1000.0,-196.289,-1000.0
1742384287.602,-184.082,-40.527,203.125,-221.68
1742384287.606,991.211,999.512,184.082,977.539
1742384287.61,999.512,17.09,-168.457,999.512
1742384287.567,999.512,556.641,82.031,999.512
1742384287.571,751.953,-783.691,-342.285,831.055
1742384287.575,-634.766,-1000.0,-439.941,-550.781
1742384287.579,-1000.0,-481.445,-114.258,-1000.0
1742384287.583,-103.027,746.094,231.445,0.0
1742384287.587,999.512,999.512,170.898,995.605
1742384287.591,960.449,366.699,-226.562,999.512
1742384287.594,-290.039,-892.578,-435.059,-178.223
1742384287.598,-1000.0,-1000.0,-196.289,-1000.0
1742384287.602,-184.082,-40.527,203.125,-221.68
1742384287.606,991.211,999.512,184.082,977.539
1742384287.61,999.512,17.09,-168.457,999.512
1742384287.629,-22.461,-1000.0,-358.887,37.598
1742384287.633,-1000.0,-846.68,-183.105,-1000.0
1742384287.637,-397.949,268.555,144.043,-437.988
1742384287.641,898.926,999.512,151.367,880.859
1742384287.645,999.512,255.859,-182.129,999.512
1742384287.649,144.531,-983.398,-458.984,166.992
1742384287.653,-1000.0,-1000.0,-315.918,-1000.0
1742384287.656,-693.848,-211.426,36.621,-748.047
1742384287.66,681.641,999.512,127.93,618.164
1742384287.664,999.512,635.742,-94.727,999.512
1742384287.668,181.152,-709.473,-369.141,175.293
1742384287.672,-1000.0,-1000.0,-235.352,-1000.0
1742384287.629,-22.461,-1000.0,-358.887,37.598
1742384287.633,-1000.0,-846.68,-183.105,-1000.0
1742384287.637,-397.949,268.555,144.043,-437.988
1742384287.641,898.926,999.512,151.367,880.859
1742384287.645,999.512,255.859,-182.129,999.512
1742384287.649,144.531,-983.398,-458.984,166.992
1742384287.653,-1000.0,-1000.0,-315.918,-1000.0
1742384287.656,-693.848,-211.426,36.621,-748.047
1742384287.66,681.641,999.512,127.93,618.164
1742384287.664,999.512,635.742,-94.727,999.512
1742384287.668,181.152,-709.473,-369.141,175.293
1742384287.672,-1000.0,-1000.0,-235.352,-1000.0
1742384287.672,-809.57,142.578,136.719,-853.516
1742384287.676,553.223,999.512,240.723,480.957
1742384287.68,999.512,635.742,42.969,999.512
1742384287.684,150.391,-622.07,-323.73,163.086
1742384287.688,-1000.0,-1000.0,-261.719,-1000.0
1742384287.692,-1000.0,111.328,125.488,-1000.0
1742384287.696,180.664,999.512,254.883,151.367
1742384287.699,999.512,560.059,75.195,999.512
1742384287.703,164.062,-704.59,-348.145,216.797
1742384287.707,-1000.0,-1000.0,-315.918,-999.512
1742384287.711,-1000.0,-285.645,97.168,-1000.0
1742384287.715,-24.902,999.512,330.078,-65.918
1742384287.672,-809.57,142.578,136.719,-853.516
1742384287.676,553.223,999.512,240.723,480.957
1742384287.68,999.512,635.742,42.969,999.512
1742384287.684,150.391,-622.07,-323.73,163.086
1742384287.688,-1000.0,-1000.0,-261.719,-1000.0
1742384287.692,-1000.0,111.328,125.488,-1000.0
1742384287.696,180.664,999.512,254.883,151.367
1742384287.699,999.512,560.059,75.195,999.512
1742384287.703,164.062,-704.59,-348.145,216.797
1742384287.707,-1000.0,-1000.0,-315.918,-999.512
1742384287.711,-1000.0,-285.645,97.168,-1000.0
1742384287.715,-24.902,999.512,330.078,-65.918
1742384287.672,-809.57,142.578,136.719,-853.516
1742384287.676,553.223,999.512,240.723,480.957
1742384287.68,999.512,635.742,42.969,999.512
1742384287.684,150.391,-622.07,-323.73,163.086
1742384287.688,-1000.0,-1000.0,-261.719,-1000.0
1742384287.692,-1000.0,111.328,125.488,-1000.0
1742384287.696,180.664,999.512,254.883,151.367
1742384287.699,999.512,560.059,75.195,999.512
1742384287.703,164.062,-704.59,-348.145,216.797
1742384287.707,-1000.0,-1000.0,-315.918,-999.512
1742384287.711,-1000.0,-285.645,97.168,-1000.0
1742384287.715,-24.902,999.512,330.078,-65.918
1742384287.718,999.512,783.691,209.473,999.512
1742384287.722,505.859,-530.273,-168.945,591.797
1742384287.726,-838.379,-1000.0,-164.551,-759.277
1742384287.73,-1000.0,-113.77,153.809,-1000.0
1742384287.734,-222.656,666.504,362.305,-205.078
1742384287.738,999.512,999.512,286.621,999.512
1742384287.742,764.16,311.523,-92.285,829.59
1742384287.745,-602.051,-949.707,-233.398,-502.93
1742384287.749,-1000.0,-1000.0,61.523,-1000.0
1742384287.753,-193.848,-38.086,437.012,-185.547
1742384287.757,999.512,999.512,395.996,999.512
1742384287.761,933.105,282.227,2.441,981.445
1742384287.718,999.512,783.691,209.473,999.512
1742384287.722,505.859,-530.273,-168.945,591.797
1742384287.726,-838.379,-1000.0,-164.551,-759.277
1742384287.73,-1000.0,-113.77,153.809,-1000.0
1742384287.734,-222.656,666.504,362.305,-205.078
1742384287.738,999.512,999.512,286.621,999.512
1742384287.742,764.16,311.523,-92.285,829.59
1742384287.745,-602.051,-949.707,-233.398,-502.93
1742384287.749,-1000.0,-1000.0,61.523,-1000.0
1742384287.753,-193.848,-38.086,437.012,-185.547
1742384287.757,999.512,999.512,395.996,999.512
1742384287.761,933.105,282.227,2.441,981.445
1742384287.718,999.512,783.691,209.473,999.512
1742384287.722,505.859,-530.273,-168.945,591.797
1742384287.726,-838.379,-1000.0,-164.551,-759.277
1742384287.73,-1000.0,-113.77,153.809,-1000.0
1742384287.734,-222.656,666.504,362.305,-205.078
1742384287.738,999.512,999.512,286.621,999.512
1742384287.742,764.16,311.523,-92.285,829.59
1742384287.745,-602.051,-949.707,-233.398,-502.93
1742384287.749,-1000.0,-1000.0,61.523,-1000.0
1742384287.753,-193.848,-38.086,437.012,-185.547
1742384287.757,999.512,999.512,395.996,999.512
1742384287.761,933.105,282.227,2.441,981.445
1742384287.762,-338.379,-1000.0,-182.129,-235.352
1742384287.766,-1000.0,-634.766,36.621,-1000.0
1742384287.77,-206.543,669.922,350.586,-234.863
1742384287.774,999.512,999.512,284.18,986.328
1742384287.778,999.512,178.711,-109.863,999.512
1742384287.782,-154.785,-1000.0,-328.613,-74.219
1742384287.786,-1000.0,-488.77,-156.738,-1000.0
1742384287.789,-360.84,875.977,161.621,-390.625
1742384287.793,914.062,999.512,236.328,899.902
1742384287.797,999.512,-164.551,-8.301,999.512
1742384287.801,74.219,-1000.0,-278.32,127.93
1742384287.805,-1000.0,-946.777,-69.336,-1000.0
1742384287.762,-338.379,-1000.0,-182.129,-235.352
1742384287.766,-1000.0,-634.766,36.621,-1000.0
1742384287.77,-206.543,669.922,350.586,-234.863
1742384287.774,999.512,999.512,284.18,986.328
1742384287.778,999.512,178.711,-109.863,999.512
1742384287.782,-154.785,-1000.0,-328.613,-74.219
1742384287.786,-1000.0,-488.77,-156.738,-1000.0
1742384287.789,-360.84,875.977,161.621,-390.625
1742384287.793,914.062,999.512,236.328,899.902
1742384287.797,999.512,-164.551,-8.301,999.512
1742384287.801,74.219,-1000.0,-278.32,127.93
1742384287.805,-1000.0,-946.777,-69.336,-1000.0
1742384287.807,-463.867,108.398,385.742,-515.137
1742384287.811,871.582,999.512,419.434,846.191
1742384287.815,999.512,436.523,125.488,999.512
1742384287.819,198.242,-863.281,-191.895,193.848
1742384287.823,-1000.0,-1000.0,-110.352,-1000.0
1742384287.827,-634.277,60.059,347.168,-688.477
1742384287.831,756.836,999.512,466.797,689.453
1742384287.834,999.512,397.461,181.152,999.512
1742384287.838,152.344,-821.289,-233.398,146.973
1742384287.842,-1000.0,-1000.0,-192.383,-1000.0
1742384287.846,-1000.0,-45.898,244.629,-1000.0
1742384287.85,126.953,999.512,382.324,69.824
1742384287.852,999.512,750.488,213.379,999.512
1742384287.856,148.438,-404.297,-192.871,191.406
1742384287.86,-1000.0,-1000.0,-219.727,-1000.0
1742384287.864,-1000.0,-204.59,174.805,-1000.0
1742384287.868,-83.496,927.734,374.023,-146.484
1742384287.872,999.512,999.512,282.227,999.512
1742384287.876,550.293,456.055,-102.539,591.309
1742384287.879,-808.105,-879.395,-252.441,-776.855
1742384287.883,-1000.0,-1000.0,15.625,-1000.0
1742384287.887,-233.887,56.641,302.734,-229.004
1742384287.891,999.512,999.512,240.234,999.512
1742384287.895,585.449,-96.191,-188.965,624.023
1742384287.852,999.512,750.488,213.379,999.512
1742384287.856,148.438,-404.297,-192.871,191.406
1742384287.86,-1000.0,-1000.0,-219.727,-1000.0
1742384287.864,-1000.0,-204.59,174.805,-1000.0
1742384287.868,-83.496,927.734,374.023,-146.484
1742384287.872,999.512,999.512,282.227,999.512
1742384287.876,550.293,456.055,-102.539,591.309
1742384287.879,-808.105,-879.395,-252.441,-776.855
1742384287.883,-1000.0,-1000.0,15.625,-1000.0
1742384287.887,-233.887,56.641,302.734,-229.004
1742384287.891,999.512,999.512,240.234,999.512
1742384287.895,585.449,-96.191,-188.965,624.023
1742384287.898,-808.105,-1000.0,-343.75,-762.207
1742384287.902,-1000.0,-396.484,-24.902,-1000.0
1742384287.906,-212.891,887.207,333.496,-206.055
1742384287.91,999.512,999.512,273.926,999.512
1742384287.914,826.66,-24.902,-149.414,866.211
1742384287.918,-487.305,-1000.0,-290.527,-418.945
1742384287.922,-1000.0,-537.598,-44.434,-1000.0
1742384287.925,-382.324,268.555,220.703,-402.344
1742384287.929,923.828,999.512,200.684,910.156
1742384287.933,999.512,260.742,-164.062,999.512
1742384287.937,-155.762,-1000.0,-397.949,-118.652
1742384287.941,-1000.0,-839.844,-195.801,-1000.0
1742384287.898,-808.105,-1000.0,-343.75,-762.207
1742384287.902,-1000.0,-396.484,-24.902,-1000.0
1742384287.906,-212.891,887.207,333.496,-206.055
1742384287.91,999.512,999.512,273.926,999.512
1742384287.914,826.66,-24.902,-149.414,866.211
1742384287.918,-487.305,-1000.0,-290.527,-418.945
1742384287.922,-1000.0,-537.598,-44.434,-1000.0
1742384287.925,-382.324,268.555,220.703,-402.344
1742384287.929,923.828,999.512,200.684,910.156
1742384287.933,999.512,260.742,-164.062,999.512
1742384287.937,-155.762,-1000.0,-397.949,-118.652
1742384287.941,-1000.0,-839.844,-195.801,-1000.0
1742384287.943,-262.695,347.168,149.902,-335.449
1742384287.947,962.402,999.512,148.438,929.199
1742384287.951,999.512,341.797,-155.273,999.512
1742384287.955,36.621,-903.32,-434.082,82.031
1742384287.959,-1000.0,-1000.0,-309.082,-1000.0
1742384287.963,-340.82,-41.504,102.539,-407.227
1742384287.967,930.664,999.512,208.008,903.32
1742384287.97,999.512,490.234,-75.684,999.512
1742384287.974,179.199,-839.355,-435.059,183.594
1742384287.978,-1000.0,-1000.0,-303.223,-1000.0
1742384287.982,-666.504,4.395,158.691,-739.746
1742384287.986,718.75,999.512,310.547,626.465
1742384287.943,-262.695,347.168,149.902,-335.449
1742384287.947,962.402,999.512,148.438,929.199
1742384287.951,999.512,341.797,-155.273,999.512
1742384287.955,36.621,-903.32,-434.082,82.031
1742384287.959,-1000.0,-1000.0,-309.082,-1000.0
1742384287.963,-340.82,-41.504,102.539,-407.227
1742384287.967,930.664,999.512,208.008,903.32
1742384287.97,999.512,490.234,-75.684,999.512
1742384287.974,179.199,-839.355,-435.059,183.594
1742384287.978,-1000.0,-1000.0,-303.223,-1000.0
1742384287.982,-666.504,4.395,158.691,-739.746
1742384287.986,718.75,999.512,310.547,626.465
1742384288.002,999.512,405.762,59.57,999.512
1742384288.006,156.738,-956.055,-303.223,177.246
1742384288.01,-1000.0,-1000.0,-240.234,-1000.0
1742384288.014,-1000.0,229.004,86.914,-1000.0
1742384288.018,204.102,999.512,240.234,166.504
1742384288.022,999.512,999.023,108.887,999.512
1742384288.026,188.477,8.301,-312.988,252.441
1742384288.029,-997.07,-1000.0,-377.93,-971.191
1742384288.033,-1000.0,-984.375,-15.137,-1000.0
1742384288.037,-137.207,172.852,268.555,-169.922
1742384288.041,999.512,999.512,182.129,999.512
1742384288.045,420.41,-17.578,-266.602,479.004
1742384288.002,999.512,405.762,59.57,999.512
1742384288.006,156.738,-956.055,-303.223,177.246
1742384288.01,-1000.0,-1000.0,-240.234,-1000.0
1742384288.014,-1000.0,229.004,86.914,-1000.0
1742384288.018,204.102,999.512,240.234,166.504
1742384288.022,999.512,999.023,108.887,999.512
1742384288.026,188.477,8.301,-312.988,252.441
1742384288.029,-997.07,-1000.0,-377.93,-971.191
1742384288.033,-1000.0,-984.375,-15.137,-1000.0
1742384288.037,-137.207,172.852,268.555,-169.922
1742384288.041,999.512,999.512,182.129,999.512
1742384288.045,420.41,-17.578,-266.602,479.004
1742384288.002,999.512,405.762,59.57,999.512
1742384288.006,156.738,-956.055,-303.223,177.246
1742384288.01,-1000.0,-1000.0,-240.234,-1000.0
1742384288.014,-1000.0,229.004,86.914,-1000.0
1742384288.018,204.102,999.512,240.234,166.504
1742384288.022,999.512,999.023,108.887,999.512
1742384288.026,188.477,8.301,-312.988,252.441
1742384288.029,-997.07,-1000.0,-377.93,-971.191
1742384288.033,-1000.0,-984.375,-15.137,-1000.0
1742384288.037,-137.207,172.852,268.555,-169.922
1742384288.041,999.512,999.512,182.129,999.512
1742384288.045,420.41,-17.578,-266.602,479.004
1742384288.047,-936.035,-1000.0,-335.449,-902.344
1742384288.051,-1000.0,-397.949,30.273,-1000.0
1742384288.055,-62.988,916.992,293.457,-82.52
1742384288.059,999.512,999.512,179.688,999.512
1742384288.063,601.562,-90.82,-197.754,704.59
1742384288.067,-756.836,-1000.0,-279.297,-643.066
1742384288.071,-1000.0,-375.0,2.441,-1000.0
1742384288.074,-191.406,999.512,296.875,-166.504
1742384288.078,999.512,395.996,154.785,999.512
1742384288.082,792.48,-955.078,-302.246,873.047
1742384288.086,-554.688,-1000.0,-397.949,-427.734
1742384288.09,-1000.0,-695.801,-124.023,-1000.0
1742384288.047,-936.035,-1000.0,-335.449,-902.344
1742384288.051,-1000.0,-397.949,30.273,-1000.0
1742384288.055,-62.988,916.992,293.457,-82.52
1742384288.059,999.512,999.512,179.688,999.512
1742384288.063,601.562,-90.82,-197.754,704.59
1742384288.067,-756.836,-1000.0,-279.297,-643.066
1742384288.071,-1000.0,-375.0,2.441,-1000.0
1742384288.074,-191.406,999.512,296.875,-166.504
1742384288.078,999.512,395.996,154.785,999.512
1742384288.082,792.48,-955.078,-302.246,873.047
1742384288.086,-554.688,-1000.0,-397.949,-427.734
1742384288.09,-1000.0,-695.801,-124.023,-1000.0
1742384288.092,-180.664,486.816,183.594,-174.316
1742384288.096,999.512,999.512,154.785,999.512
1742384288.1,999.512,183.105,-198.242,999.512
1742384288.104,-172.852,-1000.0,-399.414,-84.473
1742384288.108,-1000.0,-1000.0,-195.312,-1000.0
1742384288.112,-166.504,197.754,232.91,-169.922
1742384288.116,984.863,999.512,306.152,984.863
1742384288.119,999.512,2.441,5.371,999.512
1742384288.123,127.441,-1000.0,-270.996,188.965
1742384288.127,-1000.0,-978.516,-130.371,-1000.0
1742384288.131,-417.969,60.547,313.965,-449.707
1742384288.135,903.809,999.512,403.32,892.09
1742384288.092,-180.664,486.816,183.594,-174.316
1742384288.096,999.512,999.512,154.785,999.512
1742384288.1,999.512,183.105,-198.242,999.512
1742384288.104,-172.852,-1000.0,-399.414,-84.473
1742384288.108,-1000.0,-1000.0,-195.312,-1000.0
1742384288.112,-166.504,197.754,232.91,-169.922
1742384288.116,984.863,999.512,306.152,984.863
1742384288.119,999.512,2.441,5.371,999.512
1742384288.123,127.441,-1000.0,-270.996,188.965
1742384288.127,-1000.0,-978.516,-130.371,-1000.0
1742384288.131,-417.969,60.547,313.965,-449.707
1742384288.135,903.809,999.512,403.32,892.09
1742384288.137,999.512,331.055,89.355,999.512
1742384288.141,180.176,-928.223,-256.348,195.312
1742384288.145,-1000.0,-1000.0,-166.992,-1000.0
1742384288.149,-686.523,-64.453,167.48,-728.516
1742384288.153,699.219,996.582,286.621,640.625
1742384288.157,999.512,999.512,112.793,999.512
1742384288.161,128.906,-1.953,-265.625,167.48
1742384288.164,-1000.0,-1000.0,-197.754,-989.746
1742384288.168,-1000.0,-1000.0,98.145,-1000.0
1742384288.172,-166.016,-101.562,129.395,-166.992
1742384288.176,999.512,999.512,-47.363,999.512
1742384288.18,179.688,-139.648,-489.746,232.422
1742384288.137,999.512,331.055,89.355,999.512
1742384288.141,180.176,-928.223,-256.348,195.312
1742384288.145,-1000.0,-1000.0,-166.992,-1000.0
1742384288.149,-686.523,-64.453,167.48,-728.516
1742384288.153,699.219,996.582,286.621,640.625
1742384288.157,999.512,999.512,112.793,999.512
1742384288.161,128.906,-1.953,-265.625,167.48
1742384288.164,-1000.0,-1000.0,-197.754,-989.746
1742384288.168,-1000.0,-1000.0,98.145,-1000.0
1742384288.172,-166.016,-101.562,129.395,-166.992
1742384288.176,999.512,999.512,-47.363,999.512
1742384288.18,179.688,-139.648,-489.746,232.422
1742384288.183,-1000.0,-1000.0,-495.117,-1000.0
1742384288.187,-1000.0,-307.129,-128.418,-1000.0
1742384288.191,73.242,975.586,56.152,27.832
1742384288.195,999.512,961.426,-96.191,999.512
1742384288.199,261.23,-290.039,-524.414,328.613
1742384288.203,-974.609,-1000.0,-516.113,-946.289
1742384288.207,-1000.0,197.754,-134.277,-1000.0
1742384288.21,-157.715,999.512,132.812,-174.805
1742384288.214,999.512,454.102,41.992,999.512
1742384288.218,539.551,-791.016,-363.281,612.793
1742384288.222,-833.008,-1000.0,-427.246,-759.277
1742384288.226,-1000.0,-539.062,-118.652,-1000.0
1742384288.228,-212.402,776.367,204.102,-203.613
1742384288.232,999.512,961.914,180.664,999.512
1742384288.236,803.223,-300.781,-195.801,848.633
1742384288.24,-544.434,-1000.0,-332.031,-473.633
1742384288.244,-1000.0,-763.672,-77.148,-1000.0
1742384288.248,-198.242,408.691,309.082,-190.43
1742384288.252,999.512,999.512,303.711,999.512
1742384288.255,895.508,137.207,-141.113,949.707
1742384288.259,-399.414,-1000.0,-381.348,-290.527
1742384288.263,-1000.0,-869.629,-109.375,-1000.0
1742384288.267,-227.539,306.641,265.137,-289.551
1742384288.271,969.727,999.512,200.684,944.336
1742384288.228,-212.402,776.367,204.102,-203.613
1742384288.232,999.512,961.914,180.664,999.512
1742384288.236,803.223,-300.781,-195.801,848.633
1742384288.24,-544.434,-1000.0,-332.031,-473.633
1742384288.244,-1000.0,-763.672,-77.148,-1000.0
1742384288.248,-198.242,408.691,309.082,-190.43
1742384288.252,999.512,999.512,303.711,999.512
1742384288.255,895.508,137.207,-141.113,949.707
1742384288.259,-399.414,-1000.0,-381.348,-290.527
1742384288.263,-1000.0,-869.629,-109.375,-1000.0
1742384288.267,-227.539,306.641,265.137,-289.551
1742384288.271,969.727,999.512,200.684,944.336
1742384288.228,-212.402,776.367,204.102,-203.613
1742384288.232,999.512,961.914,180.664,999.512
1742384288.236,803.223,-300.781,-195.801,848.633
1742384288.24,-544.434,-1000.0,-332.031,-473.633
1742384288.244,-1000.0,-763.672,-77.148,-1000.0
1742384288.248,-198.242,408.691,309.082,-190.43
1742384288.252,999.512,999.512,303.711,999.512
1742384288.255,895.508,137.207,-141.113,949.707
1742384288.259,-399.414,-1000.0,-381.348,-290.527
1742384288.263,-1000.0,-869.629,-109.375,-1000.0
1742384288.267,-227.539,306.641,265.137,-289.551
1742384288.271,969.727,999.512,200.684,944.336
1742384288.288,999.512,173.34,-164.062,999.512
1742384288.292,-10.254,-1000.0,-396.973,31.738
1742384288.296,-1000.0,-943.848,-250.0,-1000.0
1742384288.3,-414.062,293.457,101.562,-477.051
1742384288.304,884.766,999.512,103.027,854.492
1742384288.308,999.512,835.938,-145.02,999.512
1742384288.312,173.828,-142.09,-368.652,166.504
1742384288.315,-1000.0,-1000.0,-237.305,-1000.0
1742384288.319,-1000.0,-831.543,142.578,-1000.0
1742384288.323,237.793,510.742,219.727,195.312
1742384288.327,999.512,952.637,16.113,999.512
1742384288.331,170.41,-371.094,-319.336,162.598
1742384288.288,999.512,173.34,-164.062,999.512
1742384288.292,-10.254,-1000.0,-396.973,31.738
1742384288.296,-1000.0,-943.848,-250.0,-1000.0
1742384288.3,-414.062,293.457,101.562,-477.051
1742384288.304,884.766,999.512,103.027,854.492
1742384288.308,999.512,835.938,-145.02,999.512
1742384288.312,173.828,-142.09,-368.652,166.504
1742384288.315,-1000.0,-1000.0,-237.305,-1000.0
1742384288.319,-1000.0,-831.543,142.578,-1000.0
1742384288.323,237.793,510.742,219.727,195.312
1742384288.327,999.512,952.637,16.113,999.512
1742384288.331,170.41,-371.094,-319.336,162.598
1742384288.317,-1000.0,-1000.0,-272.949,-1000.0
1742384288.321,-896.973,-235.84,79.102,-976.074
1742384288.325,423.828,999.512,231.445,284.668
1742384288.329,999.512,761.719,37.598,999.512
1742384288.333,141.113,-667.969,-356.445,165.527
1742384288.337,-1000.0,-770.996,-250.488,-1000.0
1742384288.341,-1000.0,628.418,130.859,-1000.0
1742384288.344,63.477,999.512,240.723,14.16
1742384288.348,999.512,207.031,30.762,999.512
1742384288.352,307.617,-971.68,-349.121,347.168
1742384288.356,-963.379,-1000.0,-315.43,-940.43
1742384288.36,-1000.0,-312.012,53.711,-1000.0
1742384288.317,-1000.0,-1000.0,-272.949,-1000.0
1742384288.321,-896.973,-235.84,79.102,-976.074
1742384288.325,423.828,999.512,231.445,284.668
1742384288.329,999.512,761.719,37.598,999.512
1742384288.333,141.113,-667.969,-356.445,165.527
1742384288.337,-1000.0,-770.996,-250.488,-1000.0
1742384288.341,-1000.0,628.418,130.859,-1000.0
1742384288.344,63.477,999.512,240.723,14.16
1742384288.348,999.512,207.031,30.762,999.512
1742384288.352,307.617,-971.68,-349.121,347.168
1742384288.356,-963.379,-1000.0,-315.43,-940.43
1742384288.36,-1000.0,-312.012,53.711,-1000.0
1742384288.317,-1000.0,-1000.0,-272.949,-1000.0
1742384288.321,-896.973,-235.84,79.102,-976.074
1742384288.325,423.828,999.512,231.445,284.668
1742384288.329,999.512,761.719,37.598,999.512
1742384288.333,141.113,-667.969,-356.445,165.527
1742384288.337,-1000.0,-770.996,-250.488,-1000.0
1742384288.341,-1000.0,628.418,130.859,-1000.0
1742384288.344,63.477,999.512,240.723,14.16
1742384288.348,999.512,207.031,30.762,999.512
1742384288.352,307.617,-971.68,-349.121,347.168
1742384288.356,-963.379,-1000.0,-315.43,-940.43
1742384288.36,-1000.0,-312.012,53.711,-1000.0
1742384288.377,-101.074,949.219,271.484,-164.062
1742384288.381,999.512,952.637,145.996,999.512
1742384288.385,464.355,-191.895,-268.555,522.461
1742384288.389,-894.043,-1000.0,-331.543,-850.586
1742384288.393,-1000.0,-757.324,40.039,-1000.0
1742384288.397,-137.207,608.887,350.586,-176.27
1742384288.401,999.512,987.793,212.891,999.512
1742384288.404,672.363,-342.773,-223.145,742.188
1742384288.408,-690.43,-1000.0,-335.449,-610.352
1742384288.412,-1000.0,-733.398,-64.453,-1000.0
1742384288.416,-202.148,425.781,240.723,-195.801
1742384288.42,999.512,999.512,172.852,999.512
1742384288.377,-101.074,949.219,271.484,-164.062
1742384288.381,999.512,952.637,145.996,999.512
1742384288.385,464.355,-191.895,-268.555,522.461
1742384288.389,-894.043,-1000.0,-331.543,-850.586
1742384288.393,-1000.0,-757.324,40.039,-1000.0
1742384288.397,-137.207,608.887,350.586,-176.27
1742384288.401,999.512,987.793,212.891,999.512
1742384288.404,672.363,-342.773,-223.145,742.188
1742384288.408,-690.43,-1000.0,-335.449,-610.352
1742384288.412,-1000.0,-733.398,-64.453,-1000.0
1742384288.416,-202.148,425.781,240.723,-195.801
1742384288.42,999.512,999.512,172.852,999.512
1742384288.377,-101.074,949.219,271.484,-164.062
1742384288.381,999.512,952.637,145.996,999.512
1742384288.385,464.355,-191.895,-268.555,522.461
1742384288.389,-894.043,-1000.0,-331.543,-850.586
1742384288.393,-1000.0,-757.324,40.039,-1000.0
1742384288.397,-137.207,608.887,350.586,-176.27
1742384288.401,999.512,987.793,212.891,999.512
1742384288.404,672.363,-342.773,-223.145,742.188
1742384288.408,-690.43,-1000.0,-335.449,-610.352
1742384288.412,-1000.0,-733.398,-64.453,-1000.0
1742384288.416,-202.148,425.781,240.723,-195.801
1742384288.42,999.512,999.512,172.852,999.512
1742384288.423,889.648,90.332,-223.633,937.012
1742384288.427,-411.133,-1000.0,-377.93,-315.918
1742384288.431,-1000.0,-904.785,-157.227,-1000.0
1742384288.435,-210.449,302.246,168.945,-274.414
1742384288.439,955.078,926.758,163.086,933.105
1742384288.443,999.512,846.191,-120.605,999.512
1742384288.447,113.281,-43.457,-342.285,123.535
1742384288.45,-1000.0,-1000.0,-246.094,-1000.0
1742384288.454,-953.613,-931.641,27.344,-974.121
1742384288.458,308.105,330.078,81.543,273.926
1742384288.462,999.512,999.512,-120.117,999.512
1742384288.466,187.5,20.996,-429.688,174.805
1742384288.423,889.648,90.332,-223.633,937.012
1742384288.427,-411.133,-1000.0,-377.93,-315.918
1742384288.431,-1000.0,-904.785,-157.227,-1000.0
1742384288.435,-210.449,302.246,168.945,-274.414
1742384288.439,955.078,926.758,163.086,933.105
1742384288.443,999.512,846.191,-120.605,999.512
1742384288.447,113.281,-43.457,-342.285,123.535
1742384288.45,-1000.0,-1000.0,-246.094,-1000.0
1742384288.454,-953.613,-931.641,27.344,-974.121
1742384288.458,308.105,330.078,81.543,273.926
1742384288.462,999.512,999.512,-120.117,999.512
1742384288.466,187.5,20.996,-429.688,174.805
1742384288.423,889.648,90.332,-223.633,937.012
1742384288.427,-411.133,-1000.0,-377.93,-315.918
1742384288.431,-1000.0,-904.785,-157.227,-1000.0
1742384288.435,-210.449,302.246,168.945,-274.414
1742384288.439,955.078,926.758,163.086,933.105
1742384288.443,999.512,846.191,-120.605,999.512
1742384288.447,113.281,-43.457,-342.285,123.535
1742384288.45,-1000.0,-1000.0,-246.094,-1000.0
1742384288.454,-953.613,-931.641,27.344,-974.121
1742384288.458,308.105,330.078,81.543,273.926
1742384288.462,999.512,999.512,-120.117,999.512
1742384288.466,187.5,20.996,-429.688,174.805
1742384288.467,-1000.0,-1000.0,-300.781,-1000.0
1742384288.471,-698.242,-189.453,91.309,-783.691
1742384288.475,690.918,999.512,120.117,578.125
1742384288.479,999.512,707.031,-124.023,999.512
1742384288.483,167.48,-710.938,-426.27,159.18
1742384288.487,-1000.0,-760.742,-260.254,-1000.0
1742384288.491,-936.035,579.59,147.949,-980.957
1742384288.494,363.281,999.512,214.844,276.855
1742384288.498,999.512,333.496,-19.531,999.512
1742384288.502,141.113,-924.316,-393.066,155.762
1742384288.506,-1000.0,-1000.0,-351.562,-1000.0
1742384288.51,-1000.0,-53.223,-4.883,-1000.0
1742384288.467,-1000.0,-1000.0,-300.781,-1000.0
1742384288.471,-698.242,-189.453,91.309,-783.691
1742384288.475,690.918,999.512,120.117,578.125
1742384288.479,999.512,707.031,-124.023,999.512
1742384288.483,167.48,-710.938,-426.27,159.18
1742384288.487,-1000.0,-760.742,-260.254,-1000.0
1742384288.491,-936.035,579.59,147.949,-980.957
1742384288.494,363.281,999.512,214.844,276.855
1742384288.498,999.512,333.496,-19.531,999.512
1742384288.502,141.113,-924.316,-393.066,155.762
1742384288.506,-1000.0,-1000.0,-351.562,-1000.0
1742384288.51,-1000.0,-53.223,-4.883,-1000.0
1742384288.513,61.035,998.047,135.254,5.371
1742384288.517,999.512,999.512,-9.766,999.512
1742384288.521,287.109,67.383,-365.723,330.078
1742384288.525,-989.746,-1000.0,-390.137,-968.75
1742384288.529,-1000.0,-716.797,-65.43,-1000.0
1742384288.533,-42.48,503.906,180.664,-97.656
1742384288.537,999.512,999.512,91.797,999.512
1742384288.54,484.863,207.031,-297.852,540.039
1742384288.544,-871.582,-1000.0,-392.578,-831.055
1742384288.548,-1000.0,-925.293,-81.055,-1000.0
1742384288.552,-237.305,274.902,221.191,-229.98
1742384288.556,999.512,999.512,164.062,999.512
1742384288.513,61.035,998.047,135.254,5.371
1742384288.517,999.512,999.512,-9.766,999.512
1742384288.521,287.109,67.383,-365.723,330.078
1742384288.525,-989.746,-1000.0,-390.137,-968.75
1742384288.529,-1000.0,-716.797,-65.43,-1000.0
1742384288.533,-42.48,503.906,180.664,-97.656
1742384288.537,999.512,999.512,91.797,999.512
1742384288.54,484.863,207.031,-297.852,540.039
1742384288.544,-871.582,-1000.0,-392.578,-831.055
1742384288.548,-1000.0,-925.293,-81.055,-1000.0
1742384288.552,-237.305,274.902,221.191,-229.98
1742384288.556,999.512,999.512,164.062,999.512
1742384288.559,604.492,-1.465,-227.051,656.738
1742384288.563,-789.062,-1000.0,-319.824,-723.633
1742384288.567,-1000.0,-402.832,-3.418,-1000.0
1742384288.571,-181.641,984.863,305.176,-177.734
1742384288.575,993.652,780.762,208.008,992.188
1742384288.579,999.512,150.879,-143.066,999.512
1742384288.583,-89.844,-460.449,-296.387,-62.5
1742384288.586,-1000.0,-1000.0,-142.09,-1000.0
1742384288.59,-511.719,-346.191,165.039,-551.27
1742384288.594,843.262,999.512,201.66,804.688
1742384288.598,999.512,847.168,-88.379,999.512
1742384288.602,13.184,-421.875,-325.195,37.598
1742384288.559,604.492,-1.465,-227.051,656.738
1742384288.563,-789.062,-1000.0,-319.824,-723.633
1742384288.567,-1000.0,-402.832,-3.418,-1000.0
1742384288.571,-181.641,984.863,305.176,-177.734
1742384288.575,993.652,780.762,208.008,992.188
1742384288.579,999.512,150.879,-143.066,999.512
1742384288.583,-89.844,-460.449,-296.387,-62.5
1742384288.586,-1000.0,-1000.0,-142.09,-1000.0
1742384288.59,-511.719,-346.191,165.039,-551.27
1742384288.594,843.262,999.512,201.66,804.688
1742384288.598,999.512,847.168,-88.379,999.512
1742384288.602,13.184,-421.875,-325.195,37.598
1742384288.602,-1000.0,-1000.0,-190.918,-1000.0
1742384288.606,-408.203,-121.582,179.199,-464.355
1742384288.61,953.613,999.512,248.535,920.41
1742384288.614,989.746,532.227,-81.055,999.512
1742384288.618,-103.027,-921.387,-354.492,-55.664
1742384288.622,-1000.0,-766.113,-187.5,-1000.0
1742384288.626,-587.402,596.68,169.922,-653.809
1742384288.629,772.461,999.512,226.074,708.984
1742384288.633,999.512,119.141,-79.102,999.512
1742384288.637,159.18,-1000.0,-407.715,151.855
1742384288.641,-1000.0,-1000.0,-269.531,-1000.0
1742384288.645,-896.973,-49.805,124.512,-961.426
1742384288.602,-1000.0,-1000.0,-190.918,-1000.0
1742384288.606,-408.203,-121.582,179.199,-464.355
1742384288.61,953.613,999.512,248.535,920.41
1742384288.614,989.746,532.227,-81.055,999.512
1742384288.618,-103.027,-921.387,-354.492,-55.664
1742384288.622,-1000.0,-766.113,-187.5,-1000.0
1742384288.626,-587.402,596.68,169.922,-653.809
1742384288.629,772.461,999.512,226.074,708.984
1742384288.633,999.512,119.141,-79.102,999.512
1742384288.637,159.18,-1000.0,-407.715,151.855
1742384288.641,-1000.0,-1000.0,-269.531,-1000.0
1742384288.645,-896.973,-49.805,124.512,-961.426
1742384288.602,-1000.0,-1000.0,-190.918,-1000.0
1742384288.606,-408.203,-121.582,179.199,-464.355
1742384288.61,953.613,999.512,248.535,920.41
1742384288.614,989.746,532.227,-81.055,999.512
1742384288.618,-103.027,-921.387,-354.492,-55.664
1742384288.622,-1000.0,-766.113,-187.5,-1000.0
1742384288.626,-587.402,596.68,169.922,-653.809
1742384288.629,772.461,999.512,226.074,708.984
1742384288.633,999.512,119.141,-79.102,999.512
1742384288.637,159.18,-1000.0,-407.715,151.855
1742384288.641,-1000.0,-1000.0,-269.531,-1000.0
1742384288.645,-896.973,-49.805,124.512,-961.426
1742384288.647,418.945,999.512,212.891,309.082
1742384288.651,999.512,711.914,-20.996,999.512
1742384288.655,151.367,-496.582,-386.23,147.949
1742384288.659,-1000.0,-1000.0,-363.77,-1000.0
1742384288.663,-1000.0,-202.148,5.859,-1000.0
1742384288.667,203.613,999.512,203.125,127.441
1742384288.671,999.512,541.992,-6.836,999.512
1742384288.674,141.113,-780.273,-442.383,182.129
1742384288.678,-1000.0,-1000.0,-406.738,-999.512
1742384288.682,-1000.0,-379.883,-28.32,-1000.0
1742384288.686,-113.77,885.742,180.176,-189.941
1742384288.69,999.512,986.328,58.105,999.512
1742384288.647,418.945,999.512,212.891,309.082
1742384288.651,999.512,711.914,-20.996,999.512
1742384288.655,151.367,-496.582,-386.23,147.949
1742384288.659,-1000.0,-1000.0,-363.77,-1000.0
1742384288.663,-1000.0,-202.148,5.859,-1000.0
1742384288.667,203.613,999.512,203.125,127.441
1742384288.671,999.512,541.992,-6.836,999.512
1742384288.674,141.113,-780.273,-442.383,182.129
1742384288.678,-1000.0,-1000.0,-406.738,-999.512
1742384288.682,-1000.0,-379.883,-28.32,-1000.0
1742384288.686,-113.77,885.742,180.176,-189.941
1742384288.69,999.512,986.328,58.105,999.512
1742384288.647,418.945,999.512,212.891,309.082
1742384288.651,999.512,711.914,-20.996,999.512
1742384288.655,151.367,-496.582,-386.23,147.949
1742384288.659,-1000.0,-1000.0,-363.77,-1000.0
1742384288.663,-1000.0,-202.148,5.859,-1000.0
1742384288.667,203.613,999.512,203.125,127.441
1742384288.671,999.512,541.992,-6.836,999.512
1742384288.674,141.113,-780.273,-442.383,182.129
1742384288.678,-1000.0,-1000.0,-406.738,-999.512
1742384288.682,-1000.0,-379.883,-28.32,-1000.0
1742384288.686,-113.77,885.742,180.176,-189.941
1742384288.69,999.512,986.328,58.105,999.512
1742384288.692,319.336,-162.109,-353.516,368.164
1742384288.696,-960.938,-1000.0,-400.879,-945.801
1742384288.7,-1000.0,-212.891,-32.715,-1000.0
1742384288.704,-213.867,999.512,225.098,-213.379
1742384288.708,999.512,587.891,104.492,999.512
1742384288.712,921.875,125.0,-249.023,925.293
1742384288.716,-335.938,-429.688,-351.074,-321.777
1742384288.719,-1000.0,-1000.0,-150.879,-1000.0
1742384288.723,-381.836,-131.348,106.934,-412.109
1742384288.727,950.684,999.512,99.609,934.57
1742384288.731,999.512,499.512,-224.121,999.512
1742384288.735,-266.602,-835.449,-382.324,-253.906
1742384288.692,319.336,-162.109,-353.516,368.164
1742384288.696,-960.938,-1000.0,-400.879,-945.801
1742384288.7,-1000.0,-212.891,-32.715,-1000.0
1742384288.704,-213.867,999.512,225.098,-213.379
1742384288.708,999.512,587.891,104.492,999.512
1742384288.712,921.875,125.0,-249.023,925.293
1742384288.716,-335.938,-429.688,-351.074,-321.777
1742384288.719,-1000.0,-1000.0,-150.879,-1000.0
1742384288.723,-381.836,-131.348,106.934,-412.109
1742384288.727,950.684,999.512,99.609,934.57
1742384288.731,999.512,499.512,-224.121,999.512
1742384288.735,-266.602,-835.449,-382.324,-253.906
1742384288.767,-1000.0,-973.145,-115.234,-1000.0
1742384288.771,-203.125,240.234,265.625,-272.461
1742384288.775,999.512,999.512,226.562,985.84
1742384288.779,999.512,247.559,-169.434,999.512
1742384288.783,-186.035,-1000.0,-421.387,-157.227
1742384288.787,-1000.0,-190.43,-197.266,-1000.0
1742384288.791,-425.293,999.512,145.996,-475.098
1742384288.794,885.254,999.512,114.258,854.492
1742384288.798,999.512,148.926,-198.242,999.512
1742384288.802,22.949,-1000.0,-442.871,47.852
1742384288.806,-1000.0,-887.695,-265.137,-1000.0
1742384288.81,-613.77,298.34,64.453,-697.266
1742384288.767,-1000.0,-973.145,-115.234,-1000.0
1742384288.771,-203.125,240.234,265.625,-272.461
1742384288.775,999.512,999.512,226.562,985.84
1742384288.779,999.512,247.559,-169.434,999.512
1742384288.783,-186.035,-1000.0,-421.387,-157.227
1742384288.787,-1000.0,-190.43,-197.266,-1000.0
1742384288.791,-425.293,999.512,145.996,-475.098
1742384288.794,885.254,999.512,114.258,854.492
1742384288.798,999.512,148.926,-198.242,999.512
1742384288.802,22.949,-1000.0,-442.871,47.852
1742384288.806,-1000.0,-887.695,-265.137,-1000.0
1742384288.81,-613.77,298.34,64.453,-697.266
1742384288.797,742.188,999.512,81.543,652.344
1742384288.801,999.512,810.547,-145.02,999.512
1742384288.805,164.551,-348.145,-428.223,156.25
1742384288.809,-1000.0,-1000.0,-310.059,-1000.0
1742384288.813,-887.695,-143.555,83.496,-939.941
1742384288.817,435.547,941.895,212.402,348.145
1742384288.821,999.512,999.512,2.441,999.512
1742384288.824,143.066,-65.918,-360.84,140.137
1742384288.828,-1000.0,-1000.0,-288.086,-1000.0
1742384288.832,-1000.0,-500.0,98.633,-1000.0
1742384288.836,97.168,868.652,245.605,37.109
1742384288.84,999.512,855.957,57.129,999.512
1742384288.797,742.188,999.512,81.543,652.344
1742384288.801,999.512,810.547,-145.02,999.512
1742384288.805,164.551,-348.145,-428.223,156.25
1742384288.809,-1000.0,-1000.0,-310.059,-1000.0
1742384288.813,-887.695,-143.555,83.496,-939.941
1742384288.817,435.547,941.895,212.402,348.145
1742384288.821,999.512,999.512,2.441,999.512
1742384288.824,143.066,-65.918,-360.84,140.137
1742384288.828,-1000.0,-1000.0,-288.086,-1000.0
1742384288.832,-1000.0,-500.0,98.633,-1000.0
1742384288.836,97.168,868.652,245.605,37.109
1742384288.84,999.512,855.957,57.129,999.512
1742384288.797,742.188,999.512,81.543,652.344
1742384288.801,999.512,810.547,-145.02,999.512
1742384288.805,164.551,-348.145,-428.223,156.25
1742384288.809,-1000.0,-1000.0,-310.059,-1000.0
1742384288.813,-887.695,-143.555,83.496,-939.941
1742384288.817,435.547,941.895,212.402,348.145
1742384288.821,999.512,999.512,2.441,999.512
1742384288.824,143.066,-65.918,-360.84,140.137
1742384288.828,-1000.0,-1000.0,-288.086,-1000.0
1742384288.832,-1000.0,-500.0,98.633,-1000.0
1742384288.836,97.168,868.652,245.605,37.109
1742384288.84,999.512,855.957,57.129,999.512
1742384288.842,143.066,-402.832,-342.285,185.547
1742384288.846,-1000.0,-1000.0,-279.785,-1000.0
1742384288.85,-1000.0,-224.121,109.863,-1000.0
1742384288.854,-38.086,999.512,301.758,-105.469
1742384288.858,999.512,489.746,127.441,999.512
1742384288.862,487.305,-774.902,-230.469,536.133
1742384288.866,-857.422,-997.07,-223.145,-816.895
1742384288.869,-1000.0,-958.008,65.43,-1000.0
1742384288.873,-237.305,153.32,360.352,-231.934
1742384288.877,999.512,999.512,312.012,999.512
1742384288.881,574.707,-29.297,-89.355,620.605
1742384288.885,-818.848,-1000.0,-193.848,-766.113
1742384288.842,143.066,-402.832,-342.285,185.547
1742384288.846,-1000.0,-1000.0,-279.785,-1000.0
1742384288.85,-1000.0,-224.121,109.863,-1000.0
1742384288.854,-38.086,999.512,301.758,-105.469
1742384288.858,999.512,489.746,127.441,999.512
1742384288.862,487.305,-774.902,-230.469,536.133
1742384288.866,-857.422,-997.07,-223.145,-816.895
1742384288.869,-1000.0,-958.008,65.43,-1000.0
1742384288.873,-237.305,153.32,360.352,-231.934
1742384288.877,999.512,999.512,312.012,999.512
1742384288.881,574.707,-29.297,-89.355,620.605
1742384288.885,-818.848,-1000.0,-193.848,-766.113
1742384288.842,143.066,-402.832,-342.285,185.547
1742384288.846,-1000.0,-1000.0,-279.785,-1000.0
1742384288.85,-1000.0,-224.121,109.863,-1000.0
1742384288.854,-38.086,999.512,301.758,-105.469
1742384288.858,999.512,489.746,127.441,999.512
1742384288.862,487.305,-774.902,-230.469,536.133
1742384288.866,-857.422,-997.07,-223.145,-816.895
1742384288.869,-1000.0,-958.008,65.43,-1000.0
1742384288.873,-237.305,153.32,360.352,-231.934
1742384288.877,999.512,999.512,312.012,999.512
1742384288.881,574.707,-29.297,-89.355,620.605
1742384288.885,-818.848,-1000.0,-193.848,-766.113
1742384288.888,-1000.0,-712.402,104.98,-1000.0
1742384288.892,-218.75,492.676,404.297,-210.938
1742384288.896,999.512,999.512,344.727,999.512
1742384288.9,781.25,200.684,-53.711,832.52
1742384288.904,-572.754,-1000.0,-240.723,-488.77
1742384288.908,-1000.0,-212.402,64.941,-1000.0
1742384288.912,-242.188,999.512,408.691,-285.645
1742384288.915,999.512,999.512,323.73,999.512
1742384288.919,864.258,157.227,-100.586,914.551
1742384288.923,-449.219,-1000.0,-364.258,-369.629
1742384288.927,-1000.0,-984.863,-124.023,-1000.0
1742384288.931,-322.266,95.703,253.418,-401.855
1742384288.888,-1000.0,-712.402,104.98,-1000.0
1742384288.892,-218.75,492.676,404.297,-210.938
1742384288.896,999.512,999.512,344.727,999.512
1742384288.9,781.25,200.684,-53.711,832.52
1742384288.904,-572.754,-1000.0,-240.723,-488.77
1742384288.908,-1000.0,-212.402,64.941,-1000.0
1742384288.912,-242.188,999.512,408.691,-285.645
1742384288.915,999.512,999.512,323.73,999.512
1742384288.919,864.258,157.227,-100.586,914.551
1742384288.923,-449.219,-1000.0,-364.258,-369.629
1742384288.927,-1000.0,-984.863,-124.023,-1000.0
1742384288.931,-322.266,95.703,253.418,-401.855
1742384288.932,926.27,999.512,265.137,885.254
1742384288.936,999.512,475.586,-77.148,999.512
1742384288.94,14.648,-833.496,-382.812,44.922
1742384288.944,-1000.0,-983.398,-242.188,-1000.0
1742384288.948,-523.926,199.219,136.719,-614.258
1742384288.952,830.566,999.512,218.262,746.094
1742384288.956,999.512,559.57,-60.547,999.512
1742384288.959,136.719,-895.508,-419.434,138.672
1742384288.963,-1000.0,-814.453,-263.672,-1000.0
1742384288.967,-880.859,555.664,104.98,-936.035
1742384288.971,436.035,999.512,138.184,345.215
1742384288.975,999.512,364.258,-69.824,999.512
1742384288.992,153.32,-884.766,-422.852,148.438
1742384288.996,-1000.0,-1000.0,-326.172,-1000.0
1742384289.0,-1000.0,-31.25,78.613,-1000.0
1742384289.004,218.262,999.512,207.52,134.766
1742384289.008,999.512,368.652,22.461,999.512
1742384289.012,335.938,-747.07,-322.266,350.098
1742384289.016,-920.41,-1000.0,-296.387,-918.457
1742384289.019,-1000.0,-489.258,20.02,-1000.0
1742384289.023,-236.816,619.629,175.293,-235.352
1742384289.027,999.512,955.078,60.059,999.512
1742384289.031,311.523,-160.156,-317.871,337.891
1742384289.035,-988.281,-1000.0,-329.102,-970.215
1742384288.992,153.32,-884.766,-422.852,148.438
1742384288.996,-1000.0,-1000.0,-326.172,-1000.0
1742384289.0,-1000.0,-31.25,78.613,-1000.0
1742384289.004,218.262,999.512,207.52,134.766
1742384289.008,999.512,368.652,22.461,999.512
1742384289.012,335.938,-747.07,-322.266,350.098
1742384289.016,-920.41,-1000.0,-296.387,-918.457
1742384289.019,-1000.0,-489.258,20.02,-1000.0
1742384289.023,-236.816,619.629,175.293,-235.352
1742384289.027,999.512,955.078,60.059,999.512
1742384289.031,311.523,-160.156,-317.871,337.891
1742384289.035,-988.281,-1000.0,-329.102,-970.215
1742384289.023,-1000.0,-592.773,41.992,-1000.0
1742384289.027,-198.242,718.262,298.828,-233.398
1742384289.031,999.512,999.512,217.285,999.512
1742384289.035,484.375,-157.715,-151.367,525.391
1742384289.039,-884.766,-1000.0,-233.398,-853.027
1742384289.043,-1000.0,-71.777,135.742,-1000.0
1742384289.047,-232.422,999.512,414.551,-225.586
1742384289.05,999.512,991.211,292.969,999.512
1742384289.054,687.012,-28.32,-94.238,729.004
1742384289.058,-696.777,-1000.0,-236.816,-633.789
1742384289.062,-1000.0,-577.148,57.617,-1000.0
1742384289.066,-171.387,767.09,378.906,-201.66
1742384289.023,-1000.0,-592.773,41.992,-1000.0
1742384289.027,-198.242,718.262,298.828,-233.398
1742384289.031,999.512,999.512,217.285,999.512
1742384289.035,484.375,-157.715,-151.367,525.391
1742384289.039,-884.766,-1000.0,-233.398,-853.027
1742384289.043,-1000.0,-71.777,135.742,-1000.0
1742384289.047,-232.422,999.512,414.551,-225.586
1742384289.05,999.512,991.211,292.969,999.512
1742384289.054,687.012,-28.32,-94.238,729.004
1742384289.058,-696.777,-1000.0,-236.816,-633.789
1742384289.062,-1000.0,-577.148,57.617,-1000.0
1742384289.066,-171.387,767.09,378.906,-201.66
1742384289.068,982.422,919.434,327.637,969.727
1742384289.072,999.512,299.316,-18.555,999.512
1742384289.076,0.977,-524.902,-226.562,34.668
1742384289.08,-1000.0,-1000.0,-47.363,-1000.0
1742384289.084,-398.926,90.332,312.988,-441.895
1742384289.088,905.762,999.512,373.535,881.348
1742384289.092,999.512,842.285,66.895,999.512
1742384289.095,108.887,-331.543,-235.84,152.344
1742384289.099,-1000.0,-1000.0,-116.699,-1000.0
1742384289.103,-545.41,-320.801,247.559,-612.305
1742384289.107,827.148,999.512,326.172,765.625
1742384289.111,999.512,724.609,52.246,999.512
1742384289.068,982.422,919.434,327.637,969.727
1742384289.072,999.512,299.316,-18.555,999.512
1742384289.076,0.977,-524.902,-226.562,34.668
1742384289.08,-1000.0,-1000.0,-47.363,-1000.0
1742384289.084,-398.926,90.332,312.988,-441.895
1742384289.088,905.762,999.512,373.535,881.348
1742384289.092,999.512,842.285,66.895,999.512
1742384289.095,108.887,-331.543,-235.84,152.344
1742384289.099,-1000.0,-1000.0,-116.699,-1000.0
1742384289.103,-545.41,-320.801,247.559,-612.305
1742384289.107,827.148,999.512,326.172,765.625
1742384289.111,999.512,724.609,52.246,999.512
1742384289.592,-650.879,860.84,231.445,-888.672
1742384289.596,757.812,999.512,183.105,487.305
1742384289.6,999.512,481.445,-76.172,999.512
1742384289.604,-291.504,-945.801,-346.191,-382.324
1742384289.608,-1000.0,-853.027,-128.906,-1000.0
1742384289.612,-480.957,524.414,264.16,-687.012
1742384289.616,852.539,999.512,309.082,656.25
1742384289.619,999.512,81.543,20.996,999.512
1742384289.623,-30.273,-1000.0,-305.664,-84.961
1742384289.627,-1000.0,-779.785,-130.371,-1000.0
1742384289.631,-701.66,430.664,261.719,-844.727
1742384289.635,629.395,999.512,352.539,437.012
1742384289.127,199.707,-684.57,-295.41,199.219
1742384289.131,-1000.0,-934.082,-161.621,-1000.0
1742384289.135,-529.785,355.469,216.309,-532.715
1742384289.139,852.539,999.512,264.16,843.262
1742384289.143,999.512,342.285,22.949,999.512
1742384289.147,178.711,-889.648,-311.035,214.355
1742384289.151,-1000.0,-1000.0,-255.859,-1000.0
1742384289.154,-912.109,-564.453,88.867,-917.48
1742384289.158,384.277,762.207,221.68,369.629
1742384289.162,999.512,981.934,16.602,999.512
1742384289.166,294.434,-199.219,-342.285,408.203
1742384289.17,-1000.0,-1000.0,-317.871,-958.984
1742384289.127,199.707,-684.57,-295.41,199.219
1742384289.131,-1000.0,-934.082,-161.621,-1000.0
1742384289.135,-529.785,355.469,216.309,-532.715
1742384289.139,852.539,999.512,264.16,843.262
1742384289.143,999.512,342.285,22.949,999.512
1742384289.147,178.711,-889.648,-311.035,214.355
1742384289.151,-1000.0,-1000.0,-255.859,-1000.0
1742384289.154,-912.109,-564.453,88.867,-917.48
1742384289.158,384.277,762.207,221.68,369.629
1742384289.162,999.512,981.934,16.602,999.512
1742384289.166,294.434,-199.219,-342.285,408.203
1742384289.17,-1000.0,-1000.0,-317.871,-958.984
1742384289.172,-1000.0,-638.672,24.414,-1000.0
1742384289.176,212.402,624.023,203.613,266.602
1742384289.18,999.512,999.512,68.359,999.512
1742384289.184,509.766,-103.027,-316.895,696.777
1742384289.188,-1000.0,-1000.0,-367.676,-876.465
1742384289.192,-460.938,-128.418,23.926,-470.703
1742384289.196,930.176,999.512,262.207,963.867
1742384289.199,999.512,844.238,116.699,999.512
1742384289.203,473.633,-237.793,-275.391,742.188
1742384289.207,-919.922,-1000.0,-354.004,-675.781
1742384289.211,-1000.0,-593.75,19.531,-1000.0
1742384289.215,258.301,863.281,302.734,371.094
1742384289.172,-1000.0,-638.672,24.414,-1000.0
1742384289.176,212.402,624.023,203.613,266.602
1742384289.18,999.512,999.512,68.359,999.512
1742384289.184,509.766,-103.027,-316.895,696.777
1742384289.188,-1000.0,-1000.0,-367.676,-876.465
1742384289.192,-460.938,-128.418,23.926,-470.703
1742384289.196,930.176,999.512,262.207,963.867
1742384289.199,999.512,844.238,116.699,999.512
1742384289.203,473.633,-237.793,-275.391,742.188
1742384289.207,-919.922,-1000.0,-354.004,-675.781
1742384289.211,-1000.0,-593.75,19.531,-1000.0
1742384289.215,258.301,863.281,302.734,371.094
1742384289.219,999.512,679.199,159.18,999.512
1742384289.223,881.348,-688.477,-216.797,999.512
1742384289.227,-407.715,-1000.0,-318.359,-146.484
1742384289.231,-1000.0,-474.609,-58.105,-1000.0
1742384289.235,214.355,763.184,258.301,296.387
1742384289.239,999.512,999.512,208.008,999.512
1742384289.243,907.227,151.367,-169.434,999.512
1742384289.246,-279.785,-993.164,-402.344,-3.906
1742384289.25,-1000.0,-1000.0,-201.66,-1000.0
1742384289.254,-172.363,-81.055,197.266,-168.945
1742384289.258,996.094,999.512,184.082,992.676
1742384289.262,999.512,70.801,-206.055,999.512
1742384289.219,999.512,679.199,159.18,999.512
1742384289.223,881.348,-688.477,-216.797,999.512
1742384289.227,-407.715,-1000.0,-318.359,-146.484
1742384289.231,-1000.0,-474.609,-58.105,-1000.0
1742384289.235,214.355,763.184,258.301,296.387
1742384289.239,999.512,999.512,208.008,999.512
1742384289.243,907.227,151.367,-169.434,999.512
1742384289.246,-279.785,-993.164,-402.344,-3.906
1742384289.25,-1000.0,-1000.0,-201.66,-1000.0
1742384289.254,-172.363,-81.055,197.266,-168.945
1742384289.258,996.094,999.512,184.082,992.676
1742384289.262,999.512,70.801,-206.055,999.512
1742384289.219,999.512,679.199,159.18,999.512
1742384289.223,881.348,-688.477,-216.797,999.512
1742384289.227,-407.715,-1000.0,-318.359,-146.484
1742384289.231,-1000.0,-474.609,-58.105,-1000.0
1742384289.235,214.355,763.184,258.301,296.387
1742384289.239,999.512,999.512,208.008,999.512
1742384289.243,907.227,151.367,-169.434,999.512
1742384289.246,-279.785,-993.164,-402.344,-3.906
1742384289.25,-1000.0,-1000.0,-201.66,-1000.0
1742384289.254,-172.363,-81.055,197.266,-168.945
1742384289.258,996.094,999.512,184.082,992.676
1742384289.262,999.512,70.801,-206.055,999.512
1742384289.263,-37.598,-1000.0,-460.449,145.02
1742384289.267,-1000.0,-589.844,-260.742,-1000.0
1742384289.271,-173.828,739.258,146.484,-187.988
1742384289.275,986.328,999.512,145.996,998.535
1742384289.279,999.512,29.785,-158.691,999.512
1742384289.283,179.199,-1000.0,-421.875,211.426
1742384289.287,-1000.0,-872.07,-282.227,-1000.0
1742384289.29,-772.949,342.285,78.613,-790.527
1742384289.294,590.332,999.512,95.215,565.43
1742384289.298,999.512,193.359,-134.277,999.512
1742384289.302,126.953,-1000.0,-426.758,126.953
1742384289.306,-1000.0,-562.5,-300.293,-1000.0
1742384289.263,-37.598,-1000.0,-460.449,145.02
1742384289.267,-1000.0,-589.844,-260.742,-1000.0
1742384289.271,-173.828,739.258,146.484,-187.988
1742384289.275,986.328,999.512,145.996,998.535
1742384289.279,999.512,29.785,-158.691,999.512
1742384289.283,179.199,-1000.0,-421.875,211.426
1742384289.287,-1000.0,-872.07,-282.227,-1000.0
1742384289.29,-772.949,342.285,78.613,-790.527
1742384289.294,590.332,999.512,95.215,565.43
1742384289.298,999.512,193.359,-134.277,999.512
1742384289.302,126.953,-1000.0,-426.758,126.953
1742384289.306,-1000.0,-562.5,-300.293,-1000.0
1742384289.307,-1000.0,555.176,48.34,-1000.0
1742384289.311,-16.602,876.953,101.074,-58.105
1742384289.315,999.512,641.113,-83.008,999.512
1742384289.319,148.438,-640.625,-441.895,141.113
1742384289.323,-1000.0,-1000.0,-397.461,-1000.0
1742384289.327,-1000.0,47.852,23.926,-1000.0
1742384289.331,-94.727,999.512,208.008,-196.289
1742384289.334,999.512,459.961,13.672,999.512
1742384289.338,48.34,-817.871,-364.746,41.504
1742384289.342,-1000.0,-1000.0,-318.359,-1000.0
1742384289.346,-1000.0,-112.305,108.887,-1000.0
1742384289.35,-258.301,999.512,325.684,-269.043
1742384289.353,999.512,919.922,147.461,999.512
1742384289.357,156.25,-224.121,-286.621,97.168
1742384289.361,-1000.0,-1000.0,-348.633,-1000.0
1742384289.365,-1000.0,-312.5,-69.824,-1000.0
1742384289.369,-290.039,846.191,152.344,-531.738
1742384289.373,999.512,999.512,135.742,999.512
1742384289.377,519.531,497.559,-223.145,489.258
1742384289.38,-866.211,-826.66,-383.789,-917.48
1742384289.384,-1000.0,-1000.0,-152.344,-1000.0
1742384289.388,-363.281,-151.855,163.574,-575.684
1742384289.392,999.512,999.512,189.453,997.559
1742384289.396,435.547,278.809,-185.547,404.297
1742384289.353,999.512,919.922,147.461,999.512
1742384289.357,156.25,-224.121,-286.621,97.168
1742384289.361,-1000.0,-1000.0,-348.633,-1000.0
1742384289.365,-1000.0,-312.5,-69.824,-1000.0
1742384289.369,-290.039,846.191,152.344,-531.738
1742384289.373,999.512,999.512,135.742,999.512
1742384289.377,519.531,497.559,-223.145,489.258
1742384289.38,-866.211,-826.66,-383.789,-917.48
1742384289.384,-1000.0,-1000.0,-152.344,-1000.0
1742384289.388,-363.281,-151.855,163.574,-575.684
1742384289.392,999.512,999.512,189.453,997.559
1742384289.396,435.547,278.809,-185.547,404.297
1742384289.397,-933.594,-1000.0,-365.723,-977.539
1742384289.401,-1000.0,-560.547,-86.914,-1000.0
1742384289.405,-379.883,743.164,261.23,-632.324
1742384289.409,999.512,999.512,182.617,912.109
1742384289.413,696.777,299.316,-211.426,700.684
1742384289.417,-726.562,-1000.0,-392.578,-808.594
1742384289.421,-1000.0,-667.48,-174.805,-1000.0
1742384289.424,-880.859,59.57,101.074,-1000.0
1742384289.428,492.676,822.266,98.145,222.168
1742384289.432,999.512,532.715,-180.664,968.262
1742384289.436,-468.75,-984.375,-445.312,-572.754
1742384289.44,-1000.0,-793.945,-258.301,-1000.0
1742384289.397,-933.594,-1000.0,-365.723,-977.539
1742384289.401,-1000.0,-560.547,-86.914,-1000.0
1742384289.405,-379.883,743.164,261.23,-632.324
1742384289.409,999.512,999.512,182.617,912.109
1742384289.413,696.777,299.316,-211.426,700.684
1742384289.417,-726.562,-1000.0,-392.578,-808.594
1742384289.421,-1000.0,-667.48,-174.805,-1000.0
1742384289.424,-880.859,59.57,101.074,-1000.0
1742384289.428,492.676,822.266,98.145,222.168
1742384289.432,999.512,532.715,-180.664,968.262
1742384289.436,-468.75,-984.375,-445.312,-572.754
1742384289.44,-1000.0,-793.945,-258.301,-1000.0
1742384289.397,-933.594,-1000.0,-365.723,-977.539
1742384289.401,-1000.0,-560.547,-86.914,-1000.0
1742384289.405,-379.883,743.164,261.23,-632.324
1742384289.409,999.512,999.512,182.617,912.109
1742384289.413,696.777,299.316,-211.426,700.684
1742384289.417,-726.562,-1000.0,-392.578,-808.594
1742384289.421,-1000.0,-667.48,-174.805,-1000.0
1742384289.424,-880.859,59.57,101.074,-1000.0
1742384289.428,492.676,822.266,98.145,222.168
1742384289.432,999.512,532.715,-180.664,968.262
1742384289.436,-468.75,-984.375,-445.312,-572.754
1742384289.44,-1000.0,-793.945,-258.301,-1000.0
1742384289.442,-829.59,473.145,80.078,-1000.0
1742384289.446,477.051,999.512,150.391,147.461
1742384289.45,999.512,636.23,-100.098,999.512
1742384289.454,-155.273,-645.02,-449.219,-232.91
1742384289.458,-1000.0,-1000.0,-316.895,-1000.0
1742384289.462,-792.969,79.59,91.309,-974.121
1742384289.466,500.488,999.512,207.031,147.461
1742384289.469,999.512,760.742,-29.297,999.512
1742384289.473,107.91,-391.602,-434.57,59.57
1742384289.477,-1000.0,-1000.0,-368.164,-1000.0
1742384289.481,-1000.0,-409.668,52.246,-1000.0
1742384289.485,72.754,999.512,236.328,-153.32
1742384289.442,-829.59,473.145,80.078,-1000.0
1742384289.446,477.051,999.512,150.391,147.461
1742384289.45,999.512,636.23,-100.098,999.512
1742384289.454,-155.273,-645.02,-449.219,-232.91
1742384289.458,-1000.0,-1000.0,-316.895,-1000.0
1742384289.462,-792.969,79.59,91.309,-974.121
1742384289.466,500.488,999.512,207.031,147.461
1742384289.469,999.512,760.742,-29.297,999.512
1742384289.473,107.91,-391.602,-434.57,59.57
1742384289.477,-1000.0,-1000.0,-368.164,-1000.0
1742384289.481,-1000.0,-409.668,52.246,-1000.0
1742384289.485,72.754,999.512,236.328,-153.32
1742384289.504,999.512,514.16,67.871,999.512
1742384289.508,109.863,-896.484,-340.332,50.293
1742384289.512,-1000.0,-1000.0,-283.691,-1000.0
1742384289.516,-1000.0,116.699,133.301,-1000.0
1742384289.52,-25.879,993.652,320.312,-225.586
1742384289.524,999.512,999.512,204.102,999.512
1742384289.528,329.59,175.781,-210.938,349.609
1742384289.531,-945.312,-1000.0,-307.617,-957.52
1742384289.535,-1000.0,-1000.0,-20.996,-1000.0
1742384289.539,-231.934,166.992,191.406,-243.164
1742384289.543,999.512,999.512,84.473,999.512
1742384289.547,184.57,-93.75,-336.914,198.73
1742384289.504,999.512,514.16,67.871,999.512
1742384289.508,109.863,-896.484,-340.332,50.293
1742384289.512,-1000.0,-1000.0,-283.691,-1000.0
1742384289.516,-1000.0,116.699,133.301,-1000.0
1742384289.52,-25.879,993.652,320.312,-225.586
1742384289.524,999.512,999.512,204.102,999.512
1742384289.528,329.59,175.781,-210.938,349.609
1742384289.531,-945.312,-1000.0,-307.617,-957.52
1742384289.535,-1000.0,-1000.0,-20.996,-1000.0
1742384289.539,-231.934,166.992,191.406,-243.164
1742384289.543,999.512,999.512,84.473,999.512
1742384289.547,184.57,-93.75,-336.914,198.73
1742384289.547,-1000.0,-1000.0,-433.594,-1000.0
1742384289.551,-1000.0,-244.629,-101.074,-1000.0
1742384289.555,-283.203,974.121,178.711,-405.273
1742384289.559,999.512,999.512,89.844,999.512
1742384289.563,458.496,106.445,-223.633,446.777
1742384289.567,-899.902,-1000.0,-332.52,-918.457
1742384289.571,-1000.0,-416.992,-74.219,-1000.0
1742384289.574,-404.785,976.074,267.578,-578.125
1742384289.578,999.512,745.605,212.402,994.629
1742384289.582,458.496,-508.301,-153.32,451.172
1742384289.586,-924.805,-1000.0,-342.285,-974.609
1742384289.59,-1000.0,-245.605,-55.664,-1000.0
1742384289.547,-1000.0,-1000.0,-433.594,-1000.0
1742384289.551,-1000.0,-244.629,-101.074,-1000.0
1742384289.555,-283.203,974.121,178.711,-405.273
1742384289.559,999.512,999.512,89.844,999.512
1742384289.563,458.496,106.445,-223.633,446.777
1742384289.567,-899.902,-1000.0,-332.52,-918.457
1742384289.571,-1000.0,-416.992,-74.219,-1000.0
1742384289.574,-404.785,976.074,267.578,-578.125
1742384289.578,999.512,745.605,212.402,994.629
1742384289.582,458.496,-508.301,-153.32,451.172
1742384289.586,-924.805,-1000.0,-342.285,-974.609
1742384289.59,-1000.0,-245.605,-55.664,-1000.0
1742384289.638,999.512,567.383,118.652,999.512
1742384289.642,145.508,-668.945,-278.32,140.625
1742384289.646,-1000.0,-1000.0,-223.633,-1000.0
1742384289.65,-1000.0,-544.922,82.52,-1000.0
1742384289.654,75.195,593.75,159.668,40.039
1742384289.658,999.512,999.512,20.996,999.512
1742384289.662,316.406,62.5,-363.281,384.766
1742384289.665,-963.379,-1000.0,-375.0,-933.105
1742384289.669,-1000.0,-1000.0,-20.996,-1000.0
1742384289.673,-47.363,22.949,196.289,-33.691
1742384289.677,999.512,999.512,106.934,999.512
1742384289.681,770.996,-191.895,-246.582,888.184
1742384289.638,999.512,567.383,118.652,999.512
1742384289.642,145.508,-668.945,-278.32,140.625
1742384289.646,-1000.0,-1000.0,-223.633,-1000.0
1742384289.65,-1000.0,-544.922,82.52,-1000.0
1742384289.654,75.195,593.75,159.668,40.039
1742384289.658,999.512,999.512,20.996,999.512
1742384289.662,316.406,62.5,-363.281,384.766
1742384289.665,-963.379,-1000.0,-375.0,-933.105
1742384289.669,-1000.0,-1000.0,-20.996,-1000.0
1742384289.673,-47.363,22.949,196.289,-33.691
1742384289.677,999.512,999.512,106.934,999.512
1742384289.681,770.996,-191.895,-246.582,888.184
1742384289.682,-833.984,-1000.0,-271.484,-672.363
1742384289.686,-527.344,-247.559,79.59,-533.691
1742384289.69,974.121,999.512,303.223,999.512
1742384289.694,965.332,662.109,180.176,926.27
1742384289.698,999.512,-581.543,-61.523,999.512
1742384289.702,-435.547,-1000.0,-87.402,-172.852
1742384289.706,-662.598,-324.707,207.52,-608.398
1742384289.709,928.223,999.512,501.953,958.984
1742384289.713,979.004,395.996,367.188,943.848
1742384289.717,999.512,-916.504,17.09,999.512
1742384289.721,-301.27,-1000.0,-95.703,-25.391
1742384289.725,-912.109,-513.184,229.98,-796.875
1742384289.727,688.965,815.918,575.684,769.531
1742384289.731,999.512,999.512,439.453,990.234
1742384289.735,999.512,-118.164,91.797,999.512
1742384289.739,1.953,-1000.0,-105.957,204.102
1742384289.743,-1000.0,-1000.0,24.414,-1000.0
1742384289.747,83.496,155.273,335.938,192.383
1742384289.751,999.512,999.512,273.926,999.512
1742384289.754,999.512,307.129,-139.16,999.512
1742384289.758,101.074,-838.867,-423.828,227.051
1742384289.762,-1000.0,-1000.0,-244.629,-1000.0
1742384289.766,-70.801,-88.379,208.984,14.16
1742384289.77,999.512,999.512,232.91,999.512
1742384289.727,688.965,815.918,575.684,769.531
1742384289.731,999.512,999.512,439.453,990.234
1742384289.735,999.512,-118.164,91.797,999.512
1742384289.739,1.953,-1000.0,-105.957,204.102
1742384289.743,-1000.0,-1000.0,24.414,-1000.0
1742384289.747,83.496,155.273,335.938,192.383
1742384289.751,999.512,999.512,273.926,999.512
1742384289.754,999.512,307.129,-139.16,999.512
1742384289.758,101.074,-838.867,-423.828,227.051
1742384289.762,-1000.0,-1000.0,-244.629,-1000.0
1742384289.766,-70.801,-88.379,208.984,14.16
1742384289.77,999.512,999.512,232.91,999.512
1742384289.787,999.512,107.91,-125.488,999.512
1742384289.791,195.312,-1000.0,-426.27,295.41
1742384289.795,-1000.0,-809.57,-200.684,-1000.0
1742384289.799,132.812,558.594,244.629,244.629
1742384289.803,999.512,911.621,224.121,999.512
1742384289.807,999.512,541.992,1.465,999.512
1742384289.811,325.684,-79.102,-303.711,571.777
1742384289.814,-1000.0,-1000.0,-294.922,-1000.0
1742384289.818,-213.867,-269.531,124.023,-244.629
1742384289.822,999.512,999.512,270.996,999.512
1742384289.826,999.512,322.266,16.602,999.512
1742384289.83,288.574,-963.867,-364.258,610.352
1742384289.787,999.512,107.91,-125.488,999.512
1742384289.791,195.312,-1000.0,-426.27,295.41
1742384289.795,-1000.0,-809.57,-200.684,-1000.0
1742384289.799,132.812,558.594,244.629,244.629
1742384289.803,999.512,911.621,224.121,999.512
1742384289.807,999.512,541.992,1.465,999.512
1742384289.811,325.684,-79.102,-303.711,571.777
1742384289.814,-1000.0,-1000.0,-294.922,-1000.0
1742384289.818,-213.867,-269.531,124.023,-244.629
1742384289.822,999.512,999.512,270.996,999.512
1742384289.826,999.512,322.266,16.602,999.512
1742384289.83,288.574,-963.867,-364.258,610.352
1742384289.817,-1000.0,-1000.0,-313.477,-992.188
1742384289.821,-210.938,-185.059,74.219,-264.648
1742384289.825,999.512,999.512,244.629,999.512
1742384289.829,999.512,728.516,44.434,979.98
1742384289.833,371.094,-557.617,-325.684,854.004
1742384289.837,-1000.0,-1000.0,-315.918,-692.871
1742384289.841,-231.934,73.242,24.414,-315.918
1742384289.844,999.512,999.512,211.426,999.512
1742384289.848,999.512,79.102,8.301,948.242
1742384289.852,608.887,-1000.0,-337.402,960.938
1742384289.856,-937.5,-1000.0,-349.609,-478.027
1742384289.86,-763.672,-362.305,22.949,-730.957
1742384289.817,-1000.0,-1000.0,-313.477,-992.188
1742384289.821,-210.938,-185.059,74.219,-264.648
1742384289.825,999.512,999.512,244.629,999.512
1742384289.829,999.512,728.516,44.434,979.98
1742384289.833,371.094,-557.617,-325.684,854.004
1742384289.837,-1000.0,-1000.0,-315.918,-692.871
1742384289.841,-231.934,73.242,24.414,-315.918
1742384289.844,999.512,999.512,211.426,999.512
1742384289.848,999.512,79.102,8.301,948.242
1742384289.852,608.887,-1000.0,-337.402,960.938
1742384289.856,-937.5,-1000.0,-349.609,-478.027
1742384289.86,-763.672,-362.305,22.949,-730.957
1742384289.817,-1000.0,-1000.0,-313.477,-992.188
1742384289.821,-210.938,-185.059,74.219,-264.648
1742384289.825,999.512,999.512,244.629,999.512
1742384289.829,999.512,728.516,44.434,979.98
1742384289.833,371.094,-557.617,-325.684,854.004
1742384289.837,-1000.0,-1000.0,-315.918,-692.871
1742384289.841,-231.934,73.242,24.414,-315.918
1742384289.844,999.512,999.512,211.426,999.512
1742384289.848,999.512,79.102,8.301,948.242
1742384289.852,608.887,-1000.0,-337.402,960.938
1742384289.856,-937.5,-1000.0,-349.609,-478.027
1742384289.86,-763.672,-362.305,22.949,-730.957
1742384289.877,697.754,979.004,300.293,806.641
1742384289.881,999.512,733.887,111.328,999.512
1742384289.885,674.316,-539.062,-259.766,976.562
1742384289.889,-703.125,-1000.0,-386.23,-272.461
1742384289.893,-1000.0,-583.008,-83.496,-1000.0
1742384289.897,273.438,856.934,288.086,363.77
1742384289.901,999.512,800.781,169.922,999.512
1742384289.904,907.715,-583.984,-207.52,999.512
1742384289.908,-271.484,-1000.0,-372.559,-9.766
1742384289.912,-1000.0,-584.473,-125.977,-1000.0
1742384289.916,-161.133,639.16,240.234,-128.906
1742384289.92,992.188,999.512,220.703,999.512
1742384289.877,697.754,979.004,300.293,806.641
1742384289.881,999.512,733.887,111.328,999.512
1742384289.885,674.316,-539.062,-259.766,976.562
1742384289.889,-703.125,-1000.0,-386.23,-272.461
1742384289.893,-1000.0,-583.008,-83.496,-1000.0
1742384289.897,273.438,856.934,288.086,363.77
1742384289.901,999.512,800.781,169.922,999.512
1742384289.904,907.715,-583.984,-207.52,999.512
1742384289.908,-271.484,-1000.0,-372.559,-9.766
1742384289.912,-1000.0,-584.473,-125.977,-1000.0
1742384289.916,-161.133,639.16,240.234,-128.906
1742384289.92,992.188,999.512,220.703,999.512
1742384289.923,999.512,114.258,-66.406,999.512
1742384289.927,18.066,-1000.0,-278.809,166.992
1742384289.931,-1000.0,-414.062,-62.012,-1000.0
1742384289.935,-181.152,954.102,284.668,-222.656
1742384289.939,985.352,840.332,285.645,988.77
1742384289.943,999.512,735.84,69.336,999.512
1742384289.947,189.941,-130.859,-244.629,188.965
1742384289.95,-1000.0,-1000.0,-133.301,-1000.0
1742384289.954,-1000.0,-854.004,204.59,-1000.0
1742384289.958,196.777,396.973,267.09,201.66
1742384289.962,999.512,963.379,82.52,999.512
1742384289.966,172.363,-349.121,-319.824,169.922
1742384289.923,999.512,114.258,-66.406,999.512
1742384289.927,18.066,-1000.0,-278.809,166.992
1742384289.931,-1000.0,-414.062,-62.012,-1000.0
1742384289.935,-181.152,954.102,284.668,-222.656
1742384289.939,985.352,840.332,285.645,988.77
1742384289.943,999.512,735.84,69.336,999.512
1742384289.947,189.941,-130.859,-244.629,188.965
1742384289.95,-1000.0,-1000.0,-133.301,-1000.0
1742384289.954,-1000.0,-854.004,204.59,-1000.0
1742384289.958,196.777,396.973,267.09,201.66
1742384289.962,999.512,963.379,82.52,999.512
1742384289.966,172.363,-349.121,-319.824,169.922
1742384289.923,999.512,114.258,-66.406,999.512
1742384289.927,18.066,-1000.0,-278.809,166.992
1742384289.931,-1000.0,-414.062,-62.012,-1000.0
1742384289.935,-181.152,954.102,284.668,-222.656
1742384289.939,985.352,840.332,285.645,988.77
1742384289.943,999.512,735.84,69.336,999.512
1742384289.947,189.941,-130.859,-244.629,188.965
1742384289.95,-1000.0,-1000.0,-133.301,-1000.0
1742384289.954,-1000.0,-854.004,204.59,-1000.0
1742384289.958,196.777,396.973,267.09,201.66
1742384289.962,999.512,963.379,82.52,999.512
1742384289.966,172.363,-349.121,-319.824,169.922
1742384289.967,-1000.0,-1000.0,-256.836,-1000.0
1742384289.971,-883.789,-164.062,123.535,-915.527
1742384289.975,437.988,999.512,193.848,374.512
1742384289.979,999.512,774.414,6.836,999.512
1742384289.983,230.957,-588.379,-306.641,280.762
1742384289.987,-1000.0,-879.883,-205.566,-1000.0
1742384289.991,-645.02,483.887,236.816,-703.125
1742384289.994,737.305,999.512,373.047,669.434
1742384289.998,999.512,133.789,154.785,999.512
1742384290.002,349.609,-990.234,-177.246,406.738
1742384290.006,-928.223,-1000.0,-152.344,-893.555
1742384290.01,-1000.0,-308.105,176.27,-1000.0
1742384289.967,-1000.0,-1000.0,-256.836,-1000.0
1742384289.971,-883.789,-164.062,123.535,-915.527
1742384289.975,437.988,999.512,193.848,374.512
1742384289.979,999.512,774.414,6.836,999.512
1742384289.983,230.957,-588.379,-306.641,280.762
1742384289.987,-1000.0,-879.883,-205.566,-1000.0
1742384289.991,-645.02,483.887,236.816,-703.125
1742384289.994,737.305,999.512,373.047,669.434
1742384289.998,999.512,133.789,154.785,999.512
1742384290.002,349.609,-990.234,-177.246,406.738
1742384290.006,-928.223,-1000.0,-152.344,-893.555
1742384290.01,-1000.0,-308.105,176.27,-1000.0
1742384290.012,-46.387,978.027,383.301,-73.242
1742384290.016,999.512,927.734,266.113,999.512
1742384290.02,452.148,-229.004,-175.293,525.391
1742384290.024,-884.766,-1000.0,-307.617,-827.637
1742384290.028,-1000.0,-710.938,-28.32,-1000.0
1742384290.032,-203.125,514.648,191.406,-194.824
1742384290.036,999.512,999.512,72.266,999.512
1742384290.039,786.133,69.336,-292.969,848.633
1742384290.043,-565.43,-1000.0,-431.152,-469.727
1742384290.047,-1000.0,-991.211,-168.945,-1000.0
1742384290.051,-182.129,124.512,260.742,-186.523
1742384290.055,999.512,999.512,292.48,999.512
1742384290.012,-46.387,978.027,383.301,-73.242
1742384290.016,999.512,927.734,266.113,999.512
1742384290.02,452.148,-229.004,-175.293,525.391
1742384290.024,-884.766,-1000.0,-307.617,-827.637
1742384290.028,-1000.0,-710.938,-28.32,-1000.0
1742384290.032,-203.125,514.648,191.406,-194.824
1742384290.036,999.512,999.512,72.266,999.512
1742384290.039,786.133,69.336,-292.969,848.633
1742384290.043,-565.43,-1000.0,-431.152,-469.727
1742384290.047,-1000.0,-991.211,-168.945,-1000.0
1742384290.051,-182.129,124.512,260.742,-186.523
1742384290.055,999.512,999.512,292.48,999.512
1742384290.057,999.512,9.277,-47.363,999.512
1742384290.061,-186.523,-1000.0,-204.102,-135.742
1742384290.065,-1000.0,-622.559,46.387,-1000.0
1742384290.069,-172.363,624.023,391.113,-200.195
1742384290.073,994.141,999.512,337.402,981.934
1742384290.077,999.512,753.906,-43.457,999.512
1742384290.081,29.785,-434.57,-372.07,85.449
1742384290.084,-1000.0,-1000.0,-238.281,-1000.0
1742384290.088,-517.578,-166.504,190.918,-572.754
1742384290.092,846.191,999.512,276.855,794.922
1742384290.096,999.512,493.164,-20.508,999.512
1742384290.1,76.66,-853.516,-375.488,125.977
1742384290.102,-1000.0,-1000.0,-255.859,-1000.0
1742384290.106,-530.273,-32.227,146.973,-617.676
1742384290.11,835.938,999.512,179.688,757.324
1742384290.114,999.512,428.223,-185.059,999.512
1742384290.118,153.809,-1000.0,-610.352,147.461
1742384290.122,-1000.0,-466.309,-411.621,-1000.0
1742384290.126,-831.543,916.992,88.867,-880.371
1742384290.129,511.23,999.512,115.723,429.688
1742384290.133,999.512,15.625,-135.742,999.512
1742384290.137,154.297,-1000.0,-470.215,164.062
1742384290.141,-1000.0,-1000.0,-357.91,-1000.0
1742384290.145,-1000.0,-0.488,90.82,-1000.0
1742384290.102,-1000.0,-1000.0,-255.859,-1000.0
1742384290.106,-530.273,-32.227,146.973,-617.676
1742384290.11,835.938,999.512,179.688,757.324
1742384290.114,999.512,428.223,-185.059,999.512
1742384290.118,153.809,-1000.0,-610.352,147.461
1742384290.122,-1000.0,-466.309,-411.621,-1000.0
1742384290.126,-831.543,916.992,88.867,-880.371
1742384290.129,511.23,999.512,115.723,429.688
1742384290.133,999.512,15.625,-135.742,999.512
1742384290.137,154.297,-1000.0,-470.215,164.062
1742384290.141,-1000.0,-1000.0,-357.91,-1000.0
1742384290.145,-1000.0,-0.488,90.82,-1000.0
1742384290.148,232.91,999.512,271.973,156.25
1742384290.152,999.512,398.438,61.035,999.512
1742384290.156,249.023,-854.492,-381.836,287.598
1742384290.16,-981.445,-1000.0,-384.766,-962.891
1742384290.164,-1000.0,-336.914,12.207,-1000.0
1742384290.168,-63.477,999.512,245.117,-112.793
1742384290.172,999.512,661.621,89.355,999.512
1742384290.175,434.082,-688.965,-292.969,472.656
1742384290.179,-895.996,-1000.0,-272.949,-875.977
1742384290.183,-1000.0,-224.121,139.16,-1000.0
1742384290.187,-234.863,976.562,459.473,-228.516
1742384290.191,999.512,999.512,379.883,999.512
1742384290.148,232.91,999.512,271.973,156.25
1742384290.152,999.512,398.438,61.035,999.512
1742384290.156,249.023,-854.492,-381.836,287.598
1742384290.16,-981.445,-1000.0,-384.766,-962.891
1742384290.164,-1000.0,-336.914,12.207,-1000.0
1742384290.168,-63.477,999.512,245.117,-112.793
1742384290.172,999.512,661.621,89.355,999.512
1742384290.175,434.082,-688.965,-292.969,472.656
1742384290.179,-895.996,-1000.0,-272.949,-875.977
1742384290.183,-1000.0,-224.121,139.16,-1000.0
1742384290.187,-234.863,976.562,459.473,-228.516
1742384290.191,999.512,999.512,379.883,999.512
1742384290.192,537.598,-20.996,-23.926,606.445
1742384290.196,-851.562,-1000.0,-170.898,-771.973
1742384290.2,-1000.0,-262.695,126.953,-1000.0
1742384290.204,-184.57,981.934,410.156,-220.703
1742384290.208,991.699,971.68,390.137,976.074
1742384290.212,999.512,881.836,98.145,999.512
1742384290.216,-89.844,-288.574,-109.375,-67.871
1742384290.219,-1000.0,-1000.0,96.68,-1000.0
1742384290.223,-741.699,-545.41,373.047,-761.23
1742384290.227,613.281,772.461,331.543,584.473
1742384290.231,999.512,709.473,26.367,999.512
1742384290.235,-52.246,-706.055,-317.871,-26.367
1742384290.192,537.598,-20.996,-23.926,606.445
1742384290.196,-851.562,-1000.0,-170.898,-771.973
1742384290.2,-1000.0,-262.695,126.953,-1000.0
1742384290.204,-184.57,981.934,410.156,-220.703
1742384290.208,991.699,971.68,390.137,976.074
1742384290.212,999.512,881.836,98.145,999.512
1742384290.216,-89.844,-288.574,-109.375,-67.871
1742384290.219,-1000.0,-1000.0,96.68,-1000.0
1742384290.223,-741.699,-545.41,373.047,-761.23
1742384290.227,613.281,772.461,331.543,584.473
1742384290.231,999.512,709.473,26.367,999.512
1742384290.235,-52.246,-706.055,-317.871,-26.367
1742384290.252,-1000.0,-1000.0,-216.309,-1000.0
1742384290.256,-420.41,90.332,204.59,-482.422
1742384290.26,902.344,999.512,193.848,865.234
1742384290.264,999.512,441.895,-216.309,999.512
1742384290.268,38.086,-1000.0,-541.016,70.312
1742384290.272,-1000.0,-311.035,-325.684,-1000.0
1742384290.276,-520.02,999.512,115.723,-580.566
1742384290.279,831.543,999.512,180.176,775.879
1742384290.283,999.512,50.293,-119.141,999.512
1742384290.287,199.219,-1000.0,-445.801,190.918
1742384290.291,-1000.0,-1000.0,-249.023,-1000.0
1742384290.295,-687.012,-41.016,171.875,-754.395
1742384290.252,-1000.0,-1000.0,-216.309,-1000.0
1742384290.256,-420.41,90.332,204.59,-482.422
1742384290.26,902.344,999.512,193.848,865.234
1742384290.264,999.512,441.895,-216.309,999.512
1742384290.268,38.086,-1000.0,-541.016,70.312
1742384290.272,-1000.0,-311.035,-325.684,-1000.0
1742384290.276,-520.02,999.512,115.723,-580.566
1742384290.279,831.543,999.512,180.176,775.879
1742384290.283,999.512,50.293,-119.141,999.512
1742384290.287,199.219,-1000.0,-445.801,190.918
1742384290.291,-1000.0,-1000.0,-249.023,-1000.0
1742384290.295,-687.012,-41.016,171.875,-754.395
1742384290.297,702.637,999.512,222.656,611.816
1742384290.301,999.512,575.684,-42.969,999.512
1742384290.305,160.645,-663.574,-426.758,158.691
1742384290.309,-1000.0,-1000.0,-364.258,-1000.0
1742384290.313,-989.258,-272.461,72.266,-1000.0
1742384290.317,260.254,943.848,270.02,193.848
1742384290.321,999.512,925.781,60.547,999.512
1742384290.324,191.895,-230.957,-390.137,270.02
1742384290.328,-989.746,-1000.0,-401.855,-958.496
1742384290.332,-1000.0,-842.773,-36.621,-1000.0
1742384290.336,-170.41,397.949,156.738,-193.359
1742384290.34,999.512,999.512,17.578,999.512
1742384290.297,702.637,999.512,222.656,611.816
1742384290.301,999.512,575.684,-42.969,999.512
1742384290.305,160.645,-663.574,-426.758,158.691
1742384290.309,-1000.0,-1000.0,-364.258,-1000.0
1742384290.313,-989.258,-272.461,72.266,-1000.0
1742384290.317,260.254,943.848,270.02,193.848
1742384290.321,999.512,925.781,60.547,999.512
1742384290.324,191.895,-230.957,-390.137,270.02
1742384290.328,-989.746,-1000.0,-401.855,-958.496
1742384290.332,-1000.0,-842.773,-36.621,-1000.0
1742384290.336,-170.41,397.949,156.738,-193.359
1742384290.34,999.512,999.512,17.578,999.512
1742384290.342,412.598,-253.418,-368.652,457.031
1742384290.346,-965.82,-1000.0,-346.68,-939.453
1742384290.35,-1000.0,-175.293,28.809,-1000.0
1742384290.354,114.258,999.512,253.906,81.055
1742384290.358,999.512,543.945,81.543,999.512
1742384290.362,991.699,-13.184,-261.23,999.512
1742384290.366,-118.164,-366.211,-329.59,-88.379
1742384290.369,-1000.0,-1000.0,-144.043,-1000.0
1742384290.373,-189.941,-129.883,173.34,-217.773
1742384290.377,999.512,999.512,149.414,999.512
1742384290.381,999.512,666.504,-199.219,999.512
1742384290.385,-183.594,-656.25,-368.652,-125.488
1742384290.342,412.598,-253.418,-368.652,457.031
1742384290.346,-965.82,-1000.0,-346.68,-939.453
1742384290.35,-1000.0,-175.293,28.809,-1000.0
1742384290.354,114.258,999.512,253.906,81.055
1742384290.358,999.512,543.945,81.543,999.512
1742384290.362,991.699,-13.184,-261.23,999.512
1742384290.366,-118.164,-366.211,-329.59,-88.379
1742384290.369,-1000.0,-1000.0,-144.043,-1000.0
1742384290.373,-189.941,-129.883,173.34,-217.773
1742384290.377,999.512,999.512,149.414,999.512
1742384290.381,999.512,666.504,-199.219,999.512
1742384290.385,-183.594,-656.25,-368.652,-125.488
1742384290.387,-1000.0,-1000.0,-136.23,-1000.0
1742384290.391,-204.59,-60.059,196.289,-239.746
1742384290.395,997.07,999.512,133.301,980.957
1742384290.399,999.512,235.84,-212.891,999.512
1742384290.403,-73.242,-1000.0,-426.758,-9.766
1742384290.407,-1000.0,-224.121,-188.477,-1000.0
1742384290.411,-265.625,999.512,180.664,-293.945
1742384290.414,954.59,999.512,124.512,945.801
1742384290.418,999.512,-81.543,-177.246,999.512
1742384290.422,138.184,-1000.0,-386.23,176.27
1742384290.426,-1000.0,-830.566,-148.438,-1000.0
1742384290.43,-324.707,307.617,270.996,-370.117
1742384290.387,-1000.0,-1000.0,-136.23,-1000.0
1742384290.391,-204.59,-60.059,196.289,-239.746
1742384290.395,997.07,999.512,133.301,980.957
1742384290.399,999.512,235.84,-212.891,999.512
1742384290.403,-73.242,-1000.0,-426.758,-9.766
1742384290.407,-1000.0,-224.121,-188.477,-1000.0
1742384290.411,-265.625,999.512,180.664,-293.945
1742384290.414,954.59,999.512,124.512,945.801
1742384290.418,999.512,-81.543,-177.246,999.512
1742384290.422,138.184,-1000.0,-386.23,176.27
1742384290.426,-1000.0,-830.566,-148.438,-1000.0
1742384290.43,-324.707,307.617,270.996,-370.117
1742384290.435,947.754,999.512,281.738,930.176
1742384290.439,999.512,301.27,-25.879,999.512
1742384290.443,180.176,-982.91,-346.68,179.688
1742384290.447,-1000.0,-1000.0,-165.527,-1000.0
1742384290.451,-928.711,-45.898,169.434,-964.355
1742384290.455,373.047,992.676,187.988,306.152
1742384290.459,999.512,870.117,-35.645,999.512
1742384290.462,161.133,-383.301,-451.172,157.715
1742384290.466,-1000.0,-1000.0,-385.742,-1000.0
1742384290.47,-951.172,-160.156,55.664,-982.91
