timestamps,TP9,AF7,AF8,TP10
1742384225.378,-691.895,-1000.0,-521.973,-632.812
1742384225.382,-1000.0,90.82,28.32,-1000.0
1742384225.386,222.656,999.512,603.027,127.93
1742384225.389,999.512,732.422,564.453,999.512
1742384225.393,813.477,-618.652,-44.922,820.312
1742384225.397,-568.848,-1000.0,-395.02,-566.895
1742384225.401,-1000.0,-533.691,185.547,-1000.0
1742384225.405,93.262,696.289,744.141,-1.953
1742384225.783,-841.797,83.008,-787.598,-858.398
1742384225.787,531.25,999.512,-1000.0,504.883
1742384225.791,999.512,865.723,-966.309,999.512
1742384225.795,-185.059,-668.945,-1000.0,-155.762
1742384225.799,-1000.0,-987.305,-877.441,-1000.0
1742384225.803,-848.145,641.602,-499.512,-849.121
1742384225.807,527.344,999.512,-286.133,527.832
1742384225.81,999.512,-107.91,-685.059,999.512
1742384225.814,-12.207,-1000.0,-1000.0,30.273
1742384225.818,-1000.0,-1000.0,-989.746,-1000.0
1742384225.822,-910.645,-9.766,-996.094,-937.012
1742384225.826,394.043,944.824,-1000.0,358.887
1742384226.112,999.512,895.508,227.051,999.512
1742384226.116,-285.645,-371.094,-377.441,-261.23
1742384226.12,-1000.0,-1000.0,-178.711,-1000.0
1742384226.124,-819.336,-60.059,409.18,-825.195
1742384226.128,527.832,937.012,617.676,521.484
1742384226.132,999.512,999.512,270.02,999.512
1742384226.136,91.797,-69.336,-241.211,133.789
1742384226.139,-1000.0,-1000.0,-185.547,-1000.0
1742384226.143,-896.484,-895.02,196.289,-919.434
1742384226.147,491.699,585.449,492.188,463.379
1742384226.151,999.512,999.512,230.957,999.512
1742384226.155,207.031,-478.516,-308.594,250.977
1742384226.533,780.273,206.543,-527.832,776.855
1742384226.537,-613.281,-959.961,-652.832,-599.609
1742384226.541,-1000.0,-788.086,-179.688,-1000.0
1742384226.545,209.473,622.559,304.688,86.914
1742384226.549,999.512,999.512,190.43,999.512
1742384226.553,779.297,776.367,-202.637,794.922
1742384226.557,-523.926,-541.992,-471.191,-533.203
1742384226.56,-1000.0,-1000.0,-166.992,-1000.0
1742384226.564,-588.379,-315.918,275.879,-599.609
1742384226.568,883.789,982.422,263.184,871.582
1742384226.572,896.973,769.531,-142.09,903.32
1742384226.576,-583.008,-854.004,-483.398,-581.543
1742384226.773,999.512,999.512,694.336,999.512
1742384226.777,819.824,364.258,239.746,918.457
1742384226.781,-426.27,-858.398,-379.395,-218.262
1742384226.785,-1000.0,-1000.0,-240.723,-1000.0
1742384226.789,-667.969,-324.219,316.406,-614.746
1742384226.793,737.305,975.586,602.051,739.746
1742384226.797,999.512,803.711,130.859,999.512
1742384226.8,-226.074,-718.75,-460.449,92.285
1742384226.804,-1000.0,-1000.0,-342.773,-1000.0
1742384226.808,-686.523,97.168,111.328,-679.688
1742384226.812,705.566,999.512,377.93,714.844
1742384226.816,999.512,706.543,75.684,999.512
1742384226.907,999.512,999.512,590.332,978.516
1742384226.911,844.727,289.062,98.633,859.863
1742384226.915,-566.895,-938.477,-649.902,-576.172
1742384226.919,-1000.0,-920.898,-847.168,-1000.0
1742384226.923,-774.902,482.422,-283.203,-801.27
1742384226.927,703.613,999.512,162.598,657.715
1742384226.931,980.469,746.094,-184.57,999.512
1742384226.934,-541.992,-625.977,-729.004,-499.512
1742384226.938,-1000.0,-1000.0,-463.379,-1000.0
1742384226.942,-833.984,56.152,30.273,-851.074
1742384226.946,641.113,999.512,174.805,612.305
1742384226.95,978.516,553.711,-351.562,999.512
1742384228.363,-982.422,-606.445,436.523,-1000.0
1742384228.367,526.855,894.043,889.648,494.629
1742384228.371,999.512,812.012,568.848,999.512
1742384228.375,704.59,-749.023,-56.152,750.0
1742384228.379,-701.172,-1000.0,-290.527,-637.207
1742384228.383,-1000.0,130.371,162.109,-1000.0
1742384228.387,229.492,999.512,557.617,161.133
1742384228.39,999.512,800.293,357.91,999.512
1742384228.394,780.762,-530.273,-179.199,791.016
1742384228.398,-552.246,-1000.0,-511.23,-545.41
1742384228.402,-1000.0,-829.59,-119.629,-1000.0
1742384228.406,-260.742,437.988,313.477,-354.98
1742384228.695,999.512,759.277,-491.211,999.512
1742384228.699,645.508,-359.863,-930.176,669.922
1742384228.703,-797.852,-1000.0,-904.785,-760.742
1742384228.707,-1000.0,-512.695,-392.09,-1000.0
1742384228.711,356.445,714.844,-4.395,291.992
1742384228.715,999.512,999.512,-135.742,999.512
1742384228.719,801.27,639.16,-627.93,796.387
1742384228.722,-554.199,-771.484,-825.195,-554.199
1742384228.726,-1000.0,-1000.0,-400.879,-1000.0
1742384228.73,20.02,485.352,61.035,-70.312
1742384228.734,999.512,999.512,-12.695,999.512
1742384228.738,809.082,-94.238,-560.059,817.383
1742384230.238,-551.27,-1000.0,-551.758,-562.5
1742384230.242,-1000.0,204.102,-154.297,-1000.0
1742384230.246,-455.078,999.512,233.887,-522.461
1742384230.25,946.289,919.922,355.957,903.809
1742384230.254,880.371,-199.707,42.48,913.086
1742384230.258,-565.918,-1000.0,-135.742,-540.039
1742384230.262,-1000.0,-674.805,267.09,-1000.0
1742384230.265,-526.367,754.395,648.926,-577.148
1742384230.269,901.367,999.512,630.859,856.445
1742384230.273,929.688,-481.445,195.312,966.309
1742384230.277,-515.137,-1000.0,-132.324,-477.051
1742384230.281,-1000.0,-938.477,156.738,-1000.0
1742384230.523,-922.363,-917.969,-350.098,-883.301
1742384230.527,-1000.0,606.445,96.68,-1000.0
1742384230.531,329.59,999.512,357.91,316.406
1742384230.535,999.512,776.855,134.766,999.512
1742384230.539,730.469,-641.113,-308.105,769.043
1742384230.543,-736.816,-1000.0,-332.52,-688.477
1742384230.547,-1000.0,307.617,91.797,-1000.0
1742384230.55,430.664,999.512,300.293,416.504
1742384230.554,999.512,626.465,101.074,999.512
1742384230.558,791.504,-692.871,-287.598,795.41
1742384230.562,-544.922,-1000.0,-461.914,-544.434
1742384230.566,-1000.0,-688.477,-152.832,-1000.0
1742384231.603,-572.754,-1000.0,-609.863,-585.449
1742384231.607,-1000.0,-761.23,-228.516,-1000.0
1742384231.611,-683.594,652.344,166.016,-732.422
1742384231.615,776.367,999.512,169.434,720.215
1742384231.619,787.598,263.184,-257.324,812.5
1742384231.623,-578.613,-967.773,-573.73,-556.641
1742384231.627,-1000.0,-845.215,-297.852,-1000.0
1742384231.63,-865.234,610.84,91.797,-869.629
1742384231.634,584.473,999.512,182.129,578.125
1742384231.638,999.512,244.629,-137.207,999.512
1742384231.642,-422.363,-916.016,-485.84,-412.598
1742384231.646,-1000.0,-1000.0,-314.941,-1000.0
1742384231.738,-530.762,-1000.0,-465.332,-541.016
1742384231.742,-1000.0,-103.027,-43.457,-1000.0
1742384231.746,-521.484,927.734,263.184,-561.035
1742384231.75,920.898,900.879,186.523,892.578
1742384231.754,882.812,-421.875,-231.934,892.578
1742384231.758,-580.566,-1000.0,-393.555,-585.449
1742384231.762,-1000.0,-440.43,-50.781,-1000.0
1742384231.765,-702.148,424.805,216.309,-730.957
1742384231.769,777.832,986.328,200.684,734.375
1742384231.773,962.402,347.656,-209.473,996.582
1742384231.777,-532.715,-904.785,-500.977,-488.77
1742384231.781,-1000.0,-988.281,-166.992,-1000.0
1742384232.112,999.512,-83.984,-20.996,999.512
1742384232.116,-297.363,-869.141,-340.82,-230.957
1742384232.12,-1000.0,-900.879,-138.184,-1000.0
1742384232.124,-799.316,281.25,247.559,-807.129
1742384232.128,609.375,999.512,239.258,593.75
1742384232.132,999.512,905.762,-150.879,999.512
1742384232.136,-231.934,-282.715,-471.68,-148.438
1742384232.139,-1000.0,-1000.0,-363.281,-1000.0
1742384232.143,-849.609,-717.285,30.273,-854.492
1742384232.147,534.668,750.977,268.555,533.691
1742384232.151,999.512,899.414,-81.543,999.512
1742384232.155,-118.652,-755.371,-482.91,-33.203
1742384233.195,999.512,935.059,-30.273,999.512
1742384233.199,-79.59,-476.074,-466.797,-167.969
1742384233.203,-1000.0,-979.492,-408.203,-1000.0
1742384233.207,-1000.0,189.941,-6.348,-1000.0
1742384233.211,-626.953,122.559,214.844,-802.246
1742384233.215,923.34,801.27,166.992,813.477
1742384233.219,834.473,830.566,-224.609,818.359
1742384233.222,-698.242,-872.07,-474.609,-724.121
1742384233.226,-1000.0,-955.078,-129.883,-1000.0
1742384233.23,-220.215,583.984,207.52,-612.793
1742384233.234,999.512,999.512,79.102,895.02
1742384233.238,764.16,175.293,-231.445,793.945
1742384233.718,601.074,850.586,262.207,604.004
1742384233.722,999.512,951.172,31.738,999.512
1742384233.726,799.805,-482.91,-459.473,848.633
1742384233.73,-698.242,-1000.0,-545.898,-638.672
1742384233.734,-983.398,-548.828,-94.238,-994.141
1742384233.738,578.613,821.289,317.871,581.543
1742384233.742,999.512,893.066,173.828,999.512
1742384233.745,806.152,-600.586,-298.828,812.5
1742384233.749,-560.059,-1000.0,-421.875,-554.688
1742384233.753,-1000.0,-774.902,-30.762,-1000.0
1742384233.757,143.555,604.004,332.52,154.785
1742384233.761,999.512,999.512,281.738,999.512
1742384235.322,-1000.0,-744.629,-149.902,-1000.0
1742384235.326,-842.285,677.246,218.262,-846.191
1742384235.33,530.273,999.512,307.617,527.832
1742384235.334,999.512,612.305,12.207,999.512
1742384235.338,-127.93,-813.477,-307.129,-12.207
1742384235.342,-1000.0,-915.039,-141.113,-1000.0
1742384235.346,-837.891,651.855,232.422,-854.004
1742384235.349,508.301,999.512,342.285,504.883
1742384235.353,999.512,-30.273,-5.371,999.512
1742384235.357,287.598,-1000.0,-370.117,387.207
1742384235.361,-1000.0,-990.723,-289.062,-945.312
1742384235.365,-985.84,135.742,129.395,-1000.0
1742384235.818,-387.695,-692.871,-478.027,-415.527
1742384235.822,-1000.0,-1000.0,-353.027,-1000.0
1742384235.826,-803.711,389.648,52.734,-851.074
1742384235.83,481.934,999.512,212.891,408.203
1742384235.834,999.512,605.957,-104.98,999.512
1742384235.838,559.082,-160.645,-474.609,515.137
1742384235.842,-806.641,-916.016,-479.492,-811.035
1742384235.845,-1000.0,-1000.0,-140.625,-1000.0
1742384235.849,56.641,125.977,120.605,-77.637
1742384235.853,999.512,999.512,-91.309,999.512
1742384235.857,811.523,729.98,-463.867,816.406
1742384235.861,-697.754,-816.895,-560.547,-699.707
1742384235.863,-1000.0,-843.262,-190.918,-1000.0
1742384235.867,463.379,877.441,128.906,390.625
1742384235.871,999.512,797.852,-151.855,999.512
1742384235.875,789.551,-763.672,-580.078,783.203
1742384235.879,-599.609,-1000.0,-621.582,-591.797
1742384235.883,-1000.0,82.031,-194.336,-1000.0
1742384235.887,209.961,999.512,102.539,97.656
1742384235.89,999.512,750.0,-82.52,999.512
1742384235.894,786.621,-603.027,-506.836,785.156
1742384235.898,-545.41,-1000.0,-636.719,-551.758
1742384235.902,-1000.0,-626.465,-263.672,-1000.0
1742384235.906,-292.969,706.543,121.094,-482.91
1742384236.342,999.512,706.543,-40.039,999.512
1742384236.346,546.875,33.691,-495.117,615.723
1742384236.35,-908.203,-1000.0,-465.82,-852.051
1742384236.354,-960.449,-618.652,66.895,-989.746
1742384236.358,502.93,755.371,444.824,486.328
1742384236.362,999.512,999.512,208.496,999.512
1742384236.366,659.18,59.57,-316.406,720.215
1742384236.369,-788.574,-1000.0,-444.824,-723.633
1742384236.373,-1000.0,-215.332,108.887,-1000.0
1742384236.377,382.812,974.121,503.418,370.117
1742384236.381,999.512,968.75,322.266,999.512
1742384236.385,743.164,-316.406,-145.02,784.668
1742384237.934,-613.77,196.289,347.168,-683.594
1742384237.938,832.031,999.512,451.66,763.184
1742384237.942,982.422,94.727,-43.457,999.512
1742384237.946,-458.008,-1000.0,-562.5,-417.969
1742384237.95,-1000.0,-829.102,-339.355,-1000.0
1742384237.954,-730.957,627.441,187.988,-752.441
1742384237.958,678.711,999.512,312.5,634.277
1742384237.961,999.512,3.906,-160.645,999.512
1742384237.965,-257.812,-1000.0,-616.699,-133.301
1742384237.969,-1000.0,-1000.0,-374.023,-1000.0
1742384237.973,-823.242,84.473,147.461,-834.961
1742384237.977,523.926,999.512,375.488,521.484
1742384241.367,-553.711,-1000.0,-604.004,-450.195
1742384241.371,-1000.0,-721.191,-273.438,-1000.0
1742384241.375,-184.082,519.531,268.066,-204.59
1742384241.379,999.512,999.512,266.113,998.047
1742384241.383,993.652,153.809,-274.902,999.512
1742384241.387,-208.496,-1000.0,-575.684,-132.812
1742384241.391,-1000.0,-511.23,-316.406,-1000.0
1742384241.394,-303.711,840.82,254.883,-350.586
1742384241.398,946.289,999.512,307.129,920.41
1742384241.402,999.512,-102.051,-229.004,999.512
1742384241.406,-0.977,-1000.0,-645.996,73.73
1742384241.41,-1000.0,-854.004,-408.203,-1000.0
1742384241.414,-518.555,335.938,176.27,-601.562
1742384241.418,825.684,999.512,337.891,758.789
1742384241.422,999.512,808.105,-39.062,999.512
1742384241.426,193.359,-258.301,-595.215,183.105
1742384241.43,-1000.0,-1000.0,-541.992,-1000.0
1742384241.434,-760.254,-1.465,112.305,-827.637
1742384241.438,614.258,999.512,363.77,520.508
1742384241.441,999.512,162.109,-64.453,999.512
1742384241.445,165.039,-1000.0,-683.105,158.203
1742384241.449,-1000.0,-986.328,-559.57,-1000.0
1742384241.453,-936.523,116.699,56.641,-976.562
1742384241.457,353.027,999.512,298.34,267.09
1742384241.414,-518.555,335.938,176.27,-601.562
1742384241.418,825.684,999.512,337.891,758.789
1742384241.422,999.512,808.105,-39.062,999.512
1742384241.426,193.359,-258.301,-595.215,183.105
1742384241.43,-1000.0,-1000.0,-541.992,-1000.0
1742384241.434,-760.254,-1.465,112.305,-827.637
1742384241.438,614.258,999.512,363.77,520.508
1742384241.441,999.512,162.109,-64.453,999.512
1742384241.445,165.039,-1000.0,-683.105,158.203
1742384241.449,-1000.0,-986.328,-559.57,-1000.0
1742384241.453,-936.523,116.699,56.641,-976.562
1742384241.457,353.027,999.512,298.34,267.09
1742384241.458,999.512,445.312,59.57,999.512
1742384241.462,218.262,-839.844,-512.695,309.57
1742384241.466,-1000.0,-1000.0,-481.445,-981.934
1742384241.47,-1000.0,-87.891,114.746,-1000.0
1742384241.474,143.066,979.004,530.273,110.352
1742384241.478,999.512,999.512,455.566,999.512
1742384241.482,395.02,172.363,-145.02,464.355
1742384241.485,-894.043,-986.328,-312.988,-854.492
1742384241.489,-1000.0,-1000.0,69.336,-1000.0
1742384241.493,-241.699,-206.055,491.211,-229.492
1742384241.497,999.512,999.512,484.375,999.512
1742384241.501,609.863,215.82,-84.961,707.52
1742384241.458,999.512,445.312,59.57,999.512
1742384241.462,218.262,-839.844,-512.695,309.57
1742384241.466,-1000.0,-1000.0,-481.445,-981.934
1742384241.47,-1000.0,-87.891,114.746,-1000.0
1742384241.474,143.066,979.004,530.273,110.352
1742384241.478,999.512,999.512,455.566,999.512
1742384241.482,395.02,172.363,-145.02,464.355
1742384241.485,-894.043,-986.328,-312.988,-854.492
1742384241.489,-1000.0,-1000.0,69.336,-1000.0
1742384241.493,-241.699,-206.055,491.211,-229.492
1742384241.497,999.512,999.512,484.375,999.512
1742384241.501,609.863,215.82,-84.961,707.52
1742384241.502,-785.156,-1000.0,-330.078,-673.34
1742384241.506,-1000.0,-562.012,42.969,-1000.0
1742384241.51,-199.219,750.488,512.695,-171.875
1742384241.514,999.512,999.512,412.109,999.512
1742384241.518,831.055,100.098,-209.961,958.984
1742384241.522,-500.488,-1000.0,-490.723,-287.598
1742384241.526,-1000.0,-490.234,-192.871,-1000.0
1742384241.529,-182.129,967.773,362.305,-177.246
1742384241.533,999.512,656.25,355.957,999.512
1742384241.537,999.512,-708.008,-210.938,999.512
1742384241.541,-192.383,-1000.0,-490.234,-100.098
1742384241.545,-1000.0,-708.008,-222.168,-1000.0
1742384241.502,-785.156,-1000.0,-330.078,-673.34
1742384241.506,-1000.0,-562.012,42.969,-1000.0
1742384241.51,-199.219,750.488,512.695,-171.875
1742384241.514,999.512,999.512,412.109,999.512
1742384241.518,831.055,100.098,-209.961,958.984
1742384241.522,-500.488,-1000.0,-490.723,-287.598
1742384241.526,-1000.0,-490.234,-192.871,-1000.0
1742384241.529,-182.129,967.773,362.305,-177.246
1742384241.533,999.512,656.25,355.957,999.512
1742384241.537,999.512,-708.008,-210.938,999.512
1742384241.541,-192.383,-1000.0,-490.234,-100.098
1742384241.545,-1000.0,-708.008,-222.168,-1000.0
1742384241.548,-169.434,459.473,378.418,-196.289
1742384241.552,989.746,999.512,440.43,975.586
1742384241.556,999.512,249.023,-67.871,999.512
1742384241.56,58.105,-993.164,-498.535,167.969
1742384241.564,-1000.0,-1000.0,-334.473,-1000.0
1742384241.568,-251.465,120.605,327.637,-280.762
1742384241.572,979.492,999.512,486.328,970.703
1742384241.575,999.512,369.141,-21.973,999.512
1742384241.579,100.586,-940.43,-587.402,187.012
1742384241.583,-1000.0,-1000.0,-433.594,-1000.0
1742384241.587,-653.32,21.973,222.656,-728.516
1742384241.591,714.844,999.512,425.781,642.09
1742384241.592,999.512,483.398,44.922,999.512
1742384241.596,170.898,-766.113,-508.789,163.086
1742384241.6,-1000.0,-1000.0,-455.078,-1000.0
1742384241.604,-912.598,-228.027,88.379,-958.008
1742384241.608,391.602,924.805,327.637,301.758
1742384241.612,999.512,999.512,85.938,999.512
1742384241.616,204.59,206.055,-479.98,266.602
1742384241.619,-990.723,-1000.0,-542.969,-965.82
1742384241.623,-1000.0,-932.129,-33.691,-1000.0
1742384241.627,-77.148,289.062,327.637,-102.539
1742384241.631,999.512,999.512,213.867,999.512
1742384241.635,218.262,-40.527,-428.711,273.926
1742384241.592,999.512,483.398,44.922,999.512
1742384241.596,170.898,-766.113,-508.789,163.086
1742384241.6,-1000.0,-1000.0,-455.078,-1000.0
1742384241.604,-912.598,-228.027,88.379,-958.008
1742384241.608,391.602,924.805,327.637,301.758
1742384241.612,999.512,999.512,85.938,999.512
1742384241.616,204.59,206.055,-479.98,266.602
1742384241.619,-990.723,-1000.0,-542.969,-965.82
1742384241.623,-1000.0,-932.129,-33.691,-1000.0
1742384241.627,-77.148,289.062,327.637,-102.539
1742384241.631,999.512,999.512,213.867,999.512
1742384241.635,218.262,-40.527,-428.711,273.926
1742384241.638,-1000.0,-1000.0,-553.223,-982.91
1742384241.642,-1000.0,-47.852,-37.109,-1000.0
1742384241.646,-199.219,999.512,315.918,-221.68
1742384241.65,999.512,945.312,221.191,999.512
1742384241.654,416.016,-221.191,-361.328,494.629
1742384241.658,-924.805,-1000.0,-509.766,-881.348
1742384241.662,-1000.0,62.988,-54.688,-1000.0
1742384241.665,-239.746,999.512,349.609,-226.074
1742384241.669,999.512,677.246,206.055,999.512
1742384241.673,590.82,-547.852,-413.574,644.531
1742384241.677,-802.734,-1000.0,-633.301,-733.398
1742384241.681,-1000.0,-655.273,-241.699,-1000.0
1742384241.638,-1000.0,-1000.0,-553.223,-982.91
1742384241.642,-1000.0,-47.852,-37.109,-1000.0
1742384241.646,-199.219,999.512,315.918,-221.68
1742384241.65,999.512,945.312,221.191,999.512
1742384241.654,416.016,-221.191,-361.328,494.629
1742384241.658,-924.805,-1000.0,-509.766,-881.348
1742384241.662,-1000.0,62.988,-54.688,-1000.0
1742384241.665,-239.746,999.512,349.609,-226.074
1742384241.669,999.512,677.246,206.055,999.512
1742384241.673,590.82,-547.852,-413.574,644.531
1742384241.677,-802.734,-1000.0,-633.301,-733.398
1742384241.681,-1000.0,-655.273,-241.699,-1000.0
1742384241.698,-194.824,535.156,313.477,-242.676
1742384241.702,999.512,999.512,332.031,995.605
1742384241.706,978.027,385.742,-203.125,999.512
1742384241.71,-264.648,-793.945,-469.727,-221.191
1742384241.714,-1000.0,-1000.0,-203.613,-1000.0
1742384241.718,-177.734,12.695,389.648,-192.871
1742384241.722,999.512,999.512,444.336,995.605
1742384241.725,999.512,-48.828,-98.633,999.512
1742384241.729,-97.168,-1000.0,-494.629,-34.18
1742384241.733,-1000.0,-762.207,-262.695,-1000.0
1742384241.737,-419.922,451.172,367.676,-495.117
1742384241.741,893.066,999.512,471.191,852.051
1742384241.698,-194.824,535.156,313.477,-242.676
1742384241.702,999.512,999.512,332.031,995.605
1742384241.706,978.027,385.742,-203.125,999.512
1742384241.71,-264.648,-793.945,-469.727,-221.191
1742384241.714,-1000.0,-1000.0,-203.613,-1000.0
1742384241.718,-177.734,12.695,389.648,-192.871
1742384241.722,999.512,999.512,444.336,995.605
1742384241.725,999.512,-48.828,-98.633,999.512
1742384241.729,-97.168,-1000.0,-494.629,-34.18
1742384241.733,-1000.0,-762.207,-262.695,-1000.0
1742384241.737,-419.922,451.172,367.676,-495.117
1742384241.741,893.066,999.512,471.191,852.051
1742384241.742,999.512,315.918,16.602,999.512
1742384241.746,34.18,-981.445,-458.984,62.5
1742384241.75,-1000.0,-999.512,-322.266,-1000.0
1742384241.754,-622.07,165.527,275.879,-718.262
1742384241.758,734.863,999.512,484.863,630.859
1742384241.762,999.512,807.617,128.418,999.512
1742384241.766,140.625,-363.281,-431.641,134.277
1742384241.769,-1000.0,-1000.0,-389.648,-1000.0
1742384241.773,-1000.0,-864.258,108.887,-1000.0
1742384241.777,-23.438,122.559,336.426,-74.219
1742384241.781,999.512,984.375,75.684,999.512
1742384241.785,160.645,-256.836,-538.574,157.227
1742384241.742,999.512,315.918,16.602,999.512
1742384241.746,34.18,-981.445,-458.984,62.5
1742384241.75,-1000.0,-999.512,-322.266,-1000.0
1742384241.754,-622.07,165.527,275.879,-718.262
1742384241.758,734.863,999.512,484.863,630.859
1742384241.762,999.512,807.617,128.418,999.512
1742384241.766,140.625,-363.281,-431.641,134.277
1742384241.769,-1000.0,-1000.0,-389.648,-1000.0
1742384241.773,-1000.0,-864.258,108.887,-1000.0
1742384241.777,-23.438,122.559,336.426,-74.219
1742384241.781,999.512,984.375,75.684,999.512
1742384241.785,160.645,-256.836,-538.574,157.227
1742384241.787,-1000.0,-1000.0,-573.73,-1000.0
1742384241.791,-1000.0,-244.141,-37.598,-1000.0
1742384241.795,58.105,999.512,276.855,-81.055
1742384241.799,999.512,947.266,64.453,999.512
1742384241.803,136.23,-217.285,-494.629,147.461
1742384241.807,-1000.0,-1000.0,-515.137,-1000.0
1742384241.811,-1000.0,-47.852,-20.508,-1000.0
1742384241.814,-196.777,999.512,339.844,-257.324
1742384241.818,999.512,346.191,146.484,999.512
1742384241.822,289.551,-935.547,-518.066,296.387
1742384241.826,-988.281,-1000.0,-598.633,-988.77
1742384241.83,-1000.0,-167.48,-81.055,-1000.0
1742384241.787,-1000.0,-1000.0,-573.73,-1000.0
1742384241.791,-1000.0,-244.141,-37.598,-1000.0
1742384241.795,58.105,999.512,276.855,-81.055
1742384241.799,999.512,947.266,64.453,999.512
1742384241.803,136.23,-217.285,-494.629,147.461
1742384241.807,-1000.0,-1000.0,-515.137,-1000.0
1742384241.811,-1000.0,-47.852,-20.508,-1000.0
1742384241.814,-196.777,999.512,339.844,-257.324
1742384241.818,999.512,346.191,146.484,999.512
1742384241.822,289.551,-935.547,-518.066,296.387
1742384241.826,-988.281,-1000.0,-598.633,-988.77
1742384241.83,-1000.0,-167.48,-81.055,-1000.0
1742384241.787,-1000.0,-1000.0,-573.73,-1000.0
1742384241.791,-1000.0,-244.141,-37.598,-1000.0
1742384241.795,58.105,999.512,276.855,-81.055
1742384241.799,999.512,947.266,64.453,999.512
1742384241.803,136.23,-217.285,-494.629,147.461
1742384241.807,-1000.0,-1000.0,-515.137,-1000.0
1742384241.811,-1000.0,-47.852,-20.508,-1000.0
1742384241.814,-196.777,999.512,339.844,-257.324
1742384241.818,999.512,346.191,146.484,999.512
1742384241.822,289.551,-935.547,-518.066,296.387
1742384241.826,-988.281,-1000.0,-598.633,-988.77
1742384241.83,-1000.0,-167.48,-81.055,-1000.0
1742384241.832,-213.867,970.703,316.895,-245.605
1742384241.836,999.512,999.512,210.938,999.512
1742384241.84,580.078,148.438,-340.332,616.211
1742384241.844,-806.152,-1000.0,-546.875,-772.949
1742384241.848,-1000.0,-944.336,-141.602,-1000.0
1742384241.852,-210.938,263.184,342.285,-205.078
1742384241.856,999.512,999.512,267.578,999.512
1742384241.859,851.074,365.723,-297.363,883.789
1742384241.863,-476.562,-931.641,-599.609,-416.016
1742384241.867,-1000.0,-1000.0,-291.016,-1000.0
1742384241.871,-180.176,132.324,307.617,-222.168
1742384241.875,999.512,999.512,318.848,991.211
1742384241.832,-213.867,970.703,316.895,-245.605
1742384241.836,999.512,999.512,210.938,999.512
1742384241.84,580.078,148.438,-340.332,616.211
1742384241.844,-806.152,-1000.0,-546.875,-772.949
1742384241.848,-1000.0,-944.336,-141.602,-1000.0
1742384241.852,-210.938,263.184,342.285,-205.078
1742384241.856,999.512,999.512,267.578,999.512
1742384241.859,851.074,365.723,-297.363,883.789
1742384241.863,-476.562,-931.641,-599.609,-416.016
1742384241.867,-1000.0,-1000.0,-291.016,-1000.0
1742384241.871,-180.176,132.324,307.617,-222.168
1742384241.875,999.512,999.512,318.848,991.211
1742384241.877,999.512,21.484,-244.629,999.512
1742384241.881,-167.969,-1000.0,-579.102,-126.465
1742384241.885,-1000.0,-764.16,-320.801,-1000.0
1742384241.889,-261.719,492.676,282.227,-336.426
1742384241.893,941.406,999.512,369.629,912.109
1742384241.897,999.512,970.703,-101.562,999.512
1742384241.901,192.383,-1.465,-580.078,195.801
1742384241.904,-1000.0,-1000.0,-489.258,-1000.0
1742384241.908,-669.434,-504.395,90.82,-715.332
1742384241.912,719.238,955.078,316.895,662.598
1742384241.916,999.512,723.145,-31.25,999.512
1742384241.92,190.43,-630.371,-516.602,189.941
1742384241.877,999.512,21.484,-244.629,999.512
1742384241.881,-167.969,-1000.0,-579.102,-126.465
1742384241.885,-1000.0,-764.16,-320.801,-1000.0
1742384241.889,-261.719,492.676,282.227,-336.426
1742384241.893,941.406,999.512,369.629,912.109
1742384241.897,999.512,970.703,-101.562,999.512
1742384241.901,192.383,-1.465,-580.078,195.801
1742384241.904,-1000.0,-1000.0,-489.258,-1000.0
1742384241.908,-669.434,-504.395,90.82,-715.332
1742384241.912,719.238,955.078,316.895,662.598
1742384241.916,999.512,723.145,-31.25,999.512
1742384241.92,190.43,-630.371,-516.602,189.941
1742384241.923,-1000.0,-1000.0,-432.617,-1000.0
1742384241.927,-646.973,-88.379,107.422,-698.242
1742384241.931,746.582,999.512,310.059,683.105
1742384241.935,999.512,737.305,-24.902,999.512
1742384241.939,183.594,-618.164,-588.379,193.848
1742384241.943,-1000.0,-919.922,-545.898,-1000.0
1742384241.947,-803.223,433.594,51.27,-820.312
1742384241.95,551.27,999.512,321.289,513.184
1742384241.954,999.512,40.527,52.734,999.512
1742384241.958,230.469,-1000.0,-471.191,328.613
1742384241.962,-1000.0,-1000.0,-449.707,-975.586
1742384241.966,-1000.0,-210.449,95.215,-1000.0
1742384241.923,-1000.0,-1000.0,-432.617,-1000.0
1742384241.927,-646.973,-88.379,107.422,-698.242
1742384241.931,746.582,999.512,310.059,683.105
1742384241.935,999.512,737.305,-24.902,999.512
1742384241.939,183.594,-618.164,-588.379,193.848
1742384241.943,-1000.0,-919.922,-545.898,-1000.0
1742384241.947,-803.223,433.594,51.27,-820.312
1742384241.95,551.27,999.512,321.289,513.184
1742384241.954,999.512,40.527,52.734,999.512
1742384241.958,230.469,-1000.0,-471.191,328.613
1742384241.962,-1000.0,-1000.0,-449.707,-975.586
1742384241.966,-1000.0,-210.449,95.215,-1000.0
1742384241.967,186.523,999.023,423.34,160.645
1742384241.971,999.512,985.84,213.379,999.512
1742384241.975,353.027,-104.492,-371.582,471.191
1742384241.979,-926.758,-1000.0,-442.871,-856.934
1742384241.983,-1000.0,-968.262,-23.926,-1000.0
1742384241.987,-123.535,296.875,389.16,-129.395
1742384241.991,999.512,938.477,310.547,999.512
1742384241.994,509.766,-461.426,-385.254,654.785
1742384241.998,-853.027,-1000.0,-580.566,-707.52
1742384242.002,-1000.0,-459.961,-135.742,-1000.0
1742384242.006,-224.121,781.25,340.332,-198.242
1742384242.01,999.512,999.512,316.406,999.512
1742384241.967,186.523,999.023,423.34,160.645
1742384241.971,999.512,985.84,213.379,999.512
1742384241.975,353.027,-104.492,-371.582,471.191
1742384241.979,-926.758,-1000.0,-442.871,-856.934
1742384241.983,-1000.0,-968.262,-23.926,-1000.0
1742384241.987,-123.535,296.875,389.16,-129.395
1742384241.991,999.512,938.477,310.547,999.512
1742384241.994,509.766,-461.426,-385.254,654.785
1742384241.998,-853.027,-1000.0,-580.566,-707.52
1742384242.002,-1000.0,-459.961,-135.742,-1000.0
1742384242.006,-224.121,781.25,340.332,-198.242
1742384242.01,999.512,999.512,316.406,999.512
1742384241.967,186.523,999.023,423.34,160.645
1742384241.971,999.512,985.84,213.379,999.512
1742384241.975,353.027,-104.492,-371.582,471.191
1742384241.979,-926.758,-1000.0,-442.871,-856.934
1742384241.983,-1000.0,-968.262,-23.926,-1000.0
1742384241.987,-123.535,296.875,389.16,-129.395
1742384241.991,999.512,938.477,310.547,999.512
1742384241.994,509.766,-461.426,-385.254,654.785
1742384241.998,-853.027,-1000.0,-580.566,-707.52
1742384242.002,-1000.0,-459.961,-135.742,-1000.0
1742384242.006,-224.121,781.25,340.332,-198.242
1742384242.01,999.512,999.512,316.406,999.512
1742384242.012,754.395,82.031,-251.465,872.559
1742384242.016,-612.793,-1000.0,-471.68,-438.965
1742384242.02,-1000.0,-800.781,-106.445,-1000.0
1742384242.024,-168.457,488.281,391.602,-162.109
1742384242.028,981.934,953.125,352.539,979.004
1742384242.032,999.512,425.293,-168.457,999.512
1742384242.036,12.695,-464.844,-450.684,88.867
1742384242.039,-1000.0,-1000.0,-215.82,-1000.0
1742384242.043,-241.211,181.641,348.633,-278.32
1742384242.047,997.07,999.512,415.039,980.957
1742384242.051,999.512,72.754,-53.223,999.512
1742384242.055,-39.551,-1000.0,-442.383,36.621
1742384242.012,754.395,82.031,-251.465,872.559
1742384242.016,-612.793,-1000.0,-471.68,-438.965
1742384242.02,-1000.0,-800.781,-106.445,-1000.0
1742384242.024,-168.457,488.281,391.602,-162.109
1742384242.028,981.934,953.125,352.539,979.004
1742384242.032,999.512,425.293,-168.457,999.512
1742384242.036,12.695,-464.844,-450.684,88.867
1742384242.039,-1000.0,-1000.0,-215.82,-1000.0
1742384242.043,-241.211,181.641,348.633,-278.32
1742384242.047,997.07,999.512,415.039,980.957
1742384242.051,999.512,72.754,-53.223,999.512
1742384242.055,-39.551,-1000.0,-442.383,36.621
1742384242.058,-1000.0,-1000.0,-159.668,-1000.0
1742384242.062,-339.355,33.691,461.426,-393.066
1742384242.066,920.41,999.512,583.984,901.367
1742384242.07,999.512,511.719,141.113,999.512
1742384242.074,201.172,-952.637,-375.488,208.984
1742384242.078,-1000.0,-620.605,-212.891,-1000.0
1742384242.082,-660.645,745.117,342.285,-687.012
1742384242.085,731.445,999.512,508.789,696.777
1742384242.089,999.512,558.594,401.855,999.512
1742384242.093,177.734,-695.312,-4.395,170.41
1742384242.097,-1000.0,-1000.0,83.496,-1000.0
1742384242.101,-857.91,-212.891,732.422,-917.969
1742384242.058,-1000.0,-1000.0,-159.668,-1000.0
1742384242.062,-339.355,33.691,461.426,-393.066
1742384242.066,920.41,999.512,583.984,901.367
1742384242.07,999.512,511.719,141.113,999.512
1742384242.074,201.172,-952.637,-375.488,208.984
1742384242.078,-1000.0,-620.605,-212.891,-1000.0
1742384242.082,-660.645,745.117,342.285,-687.012
1742384242.085,731.445,999.512,508.789,696.777
1742384242.089,999.512,558.594,401.855,999.512
1742384242.093,177.734,-695.312,-4.395,170.41
1742384242.097,-1000.0,-1000.0,83.496,-1000.0
1742384242.101,-857.91,-212.891,732.422,-917.969
1742384242.117,482.422,999.512,929.688,386.719
1742384242.121,999.512,708.008,470.703,999.512
1742384242.125,146.484,-555.664,-285.645,145.508
1742384242.129,-1000.0,-1000.0,-333.008,-1000.0
1742384242.133,-1000.0,-395.508,154.785,-1000.0
1742384242.137,126.465,771.973,472.168,99.609
1742384242.141,999.512,999.512,292.48,999.512
1742384242.144,318.359,166.992,-340.332,388.672
1742384242.148,-948.242,-1000.0,-505.859,-908.203
1742384242.152,-1000.0,-698.242,-30.762,-1000.0
1742384242.156,-129.883,660.156,443.359,-181.641
1742384242.16,999.512,999.512,341.309,999.512
1742384242.117,482.422,999.512,929.688,386.719
1742384242.121,999.512,708.008,470.703,999.512
1742384242.125,146.484,-555.664,-285.645,145.508
1742384242.129,-1000.0,-1000.0,-333.008,-1000.0
1742384242.133,-1000.0,-395.508,154.785,-1000.0
1742384242.137,126.465,771.973,472.168,99.609
1742384242.141,999.512,999.512,292.48,999.512
1742384242.144,318.359,166.992,-340.332,388.672
1742384242.148,-948.242,-1000.0,-505.859,-908.203
1742384242.152,-1000.0,-698.242,-30.762,-1000.0
1742384242.156,-129.883,660.156,443.359,-181.641
1742384242.16,999.512,999.512,341.309,999.512
1742384242.162,460.938,-191.895,-281.738,535.156
1742384242.166,-888.672,-1000.0,-423.34,-838.379
1742384242.17,-1000.0,-426.27,14.16,-1000.0
1742384242.174,-202.148,912.598,442.871,-192.871
1742384242.178,999.512,751.953,334.961,999.512
1742384242.182,977.051,579.102,-163.086,988.281
1742384242.186,-266.113,-251.465,-394.531,-227.051
1742384242.189,-1000.0,-1000.0,-145.508,-1000.0
1742384242.193,-191.406,-93.262,338.379,-223.145
1742384242.197,999.512,999.512,363.281,999.512
1742384242.201,963.867,462.402,-136.719,999.512
1742384242.205,-288.574,-909.18,-457.52,-181.641
1742384242.162,460.938,-191.895,-281.738,535.156
1742384242.166,-888.672,-1000.0,-423.34,-838.379
1742384242.17,-1000.0,-426.27,14.16,-1000.0
1742384242.174,-202.148,912.598,442.871,-192.871
1742384242.178,999.512,751.953,334.961,999.512
1742384242.182,977.051,579.102,-163.086,988.281
1742384242.186,-266.113,-251.465,-394.531,-227.051
1742384242.189,-1000.0,-1000.0,-145.508,-1000.0
1742384242.193,-191.406,-93.262,338.379,-223.145
1742384242.197,999.512,999.512,363.281,999.512
1742384242.201,963.867,462.402,-136.719,999.512
1742384242.205,-288.574,-909.18,-457.52,-181.641
1742384242.208,-1000.0,-1000.0,-119.141,-1000.0
1742384242.212,-177.246,245.117,479.004,-223.145
1742384242.216,999.512,999.512,479.492,986.816
1742384242.22,999.512,105.957,-15.625,999.512
1742384242.224,-92.773,-1000.0,-395.02,-33.691
1742384242.228,-1000.0,-238.281,-167.48,-1000.0
1742384242.232,-460.449,987.305,402.832,-507.324
1742384242.235,872.07,999.512,532.715,840.82
1742384242.239,999.512,104.004,47.363,999.512
1742384242.243,25.391,-1000.0,-454.59,80.078
1742384242.247,-1000.0,-906.738,-247.07,-1000.0
1742384242.251,-627.441,242.188,331.543,-702.637
1742384242.208,-1000.0,-1000.0,-119.141,-1000.0
1742384242.212,-177.246,245.117,479.004,-223.145
1742384242.216,999.512,999.512,479.492,986.816
1742384242.22,999.512,105.957,-15.625,999.512
1742384242.224,-92.773,-1000.0,-395.02,-33.691
1742384242.228,-1000.0,-238.281,-167.48,-1000.0
1742384242.232,-460.449,987.305,402.832,-507.324
1742384242.235,872.07,999.512,532.715,840.82
1742384242.239,999.512,104.004,47.363,999.512
1742384242.243,25.391,-1000.0,-454.59,80.078
1742384242.247,-1000.0,-906.738,-247.07,-1000.0
1742384242.251,-627.441,242.188,331.543,-702.637
1742384242.252,728.516,999.512,461.914,651.855
1742384242.256,999.512,800.293,109.375,999.512
1742384242.26,152.344,-555.176,-384.766,148.438
1742384242.264,-1000.0,-715.82,-320.801,-1000.0
1742384242.268,-1000.0,501.953,152.344,-1000.0
1742384242.272,142.09,908.203,375.0,112.793
1742384242.276,999.512,760.254,158.691,999.512
1742384242.279,152.832,-503.906,-421.387,152.344
1742384242.283,-1000.0,-1000.0,-427.734,-1000.0
1742384242.287,-1000.0,-164.551,86.914,-1000.0
1742384242.291,140.625,999.512,307.129,87.891
1742384242.295,999.512,868.164,70.801,999.512
1742384242.252,728.516,999.512,461.914,651.855
1742384242.256,999.512,800.293,109.375,999.512
1742384242.26,152.344,-555.176,-384.766,148.438
1742384242.264,-1000.0,-715.82,-320.801,-1000.0
1742384242.268,-1000.0,501.953,152.344,-1000.0
1742384242.272,142.09,908.203,375.0,112.793
1742384242.276,999.512,760.254,158.691,999.512
1742384242.279,152.832,-503.906,-421.387,152.344
1742384242.283,-1000.0,-1000.0,-427.734,-1000.0
1742384242.287,-1000.0,-164.551,86.914,-1000.0
1742384242.291,140.625,999.512,307.129,87.891
1742384242.295,999.512,868.164,70.801,999.512
1742384242.252,728.516,999.512,461.914,651.855
1742384242.256,999.512,800.293,109.375,999.512
1742384242.26,152.344,-555.176,-384.766,148.438
1742384242.264,-1000.0,-715.82,-320.801,-1000.0
1742384242.268,-1000.0,501.953,152.344,-1000.0
1742384242.272,142.09,908.203,375.0,112.793
1742384242.276,999.512,760.254,158.691,999.512
1742384242.279,152.832,-503.906,-421.387,152.344
1742384242.283,-1000.0,-1000.0,-427.734,-1000.0
1742384242.287,-1000.0,-164.551,86.914,-1000.0
1742384242.291,140.625,999.512,307.129,87.891
1742384242.295,999.512,868.164,70.801,999.512
1742384242.298,201.66,-279.297,-420.898,261.719
1742384242.302,-1000.0,-1000.0,-437.988,-979.98
1742384242.306,-1000.0,-161.621,52.246,-1000.0
1742384242.31,-47.363,999.512,432.129,-94.238
1742384242.314,999.512,728.027,241.211,999.512
1742384242.318,592.285,-212.891,-301.27,684.082
1742384242.322,-733.398,-1000.0,-326.66,-646.484
1742384242.325,-1000.0,-293.945,41.504,-1000.0
1742384242.329,-197.754,996.094,336.914,-181.152
1742384242.333,999.512,959.961,236.328,999.512
1742384242.337,730.469,-165.039,-225.586,837.891
1742384242.341,-636.23,-1000.0,-435.059,-487.305
1742384242.298,201.66,-279.297,-420.898,261.719
1742384242.302,-1000.0,-1000.0,-437.988,-979.98
1742384242.306,-1000.0,-161.621,52.246,-1000.0
1742384242.31,-47.363,999.512,432.129,-94.238
1742384242.314,999.512,728.027,241.211,999.512
1742384242.318,592.285,-212.891,-301.27,684.082
1742384242.322,-733.398,-1000.0,-326.66,-646.484
1742384242.325,-1000.0,-293.945,41.504,-1000.0
1742384242.329,-197.754,996.094,336.914,-181.152
1742384242.333,999.512,959.961,236.328,999.512
1742384242.337,730.469,-165.039,-225.586,837.891
1742384242.341,-636.23,-1000.0,-435.059,-487.305
1742384242.359,-1000.0,-863.281,-106.934,-1000.0
1742384242.363,-193.848,283.691,456.543,-181.641
1742384242.367,999.512,999.512,444.824,999.512
1742384242.371,942.871,92.773,-103.027,995.605
1742384242.375,-325.195,-1000.0,-327.637,-210.938
1742384242.379,-1000.0,-225.098,1.953,-1000.0
1742384242.383,-173.828,999.512,530.762,-199.219
1742384242.386,999.023,979.98,463.379,985.352
1742384242.39,999.512,-76.172,-5.371,999.512
1742384242.394,-55.664,-1000.0,-327.637,22.461
1742384242.398,-1000.0,-881.348,-149.902,-1000.0
1742384242.402,-365.723,260.254,389.16,-410.156
1742384242.359,-1000.0,-863.281,-106.934,-1000.0
1742384242.363,-193.848,283.691,456.543,-181.641
1742384242.367,999.512,999.512,444.824,999.512
1742384242.371,942.871,92.773,-103.027,995.605
1742384242.375,-325.195,-1000.0,-327.637,-210.938
1742384242.379,-1000.0,-225.098,1.953,-1000.0
1742384242.383,-173.828,999.512,530.762,-199.219
1742384242.386,999.023,979.98,463.379,985.352
1742384242.39,999.512,-76.172,-5.371,999.512
1742384242.394,-55.664,-1000.0,-327.637,22.461
1742384242.398,-1000.0,-881.348,-149.902,-1000.0
1742384242.402,-365.723,260.254,389.16,-410.156
1742384242.387,925.781,999.512,440.43,905.273
1742384242.391,999.512,568.848,11.719,999.512
1742384242.395,23.438,-710.449,-426.758,66.406
1742384242.399,-1000.0,-1000.0,-322.754,-1000.0
1742384242.403,-766.113,113.77,210.938,-882.812
1742384242.407,565.43,999.512,399.902,412.598
1742384242.411,999.512,944.824,27.832,999.512
1742384242.414,155.273,-122.07,-484.863,134.766
1742384242.418,-1000.0,-1000.0,-359.375,-1000.0
1742384242.422,-903.809,-274.414,196.289,-1000.0
1742384242.426,409.668,999.512,503.906,213.867
1742384242.43,999.512,817.383,305.664,999.512
1742384242.387,925.781,999.512,440.43,905.273
1742384242.391,999.512,568.848,11.719,999.512
1742384242.395,23.438,-710.449,-426.758,66.406
1742384242.399,-1000.0,-1000.0,-322.754,-1000.0
1742384242.403,-766.113,113.77,210.938,-882.812
1742384242.407,565.43,999.512,399.902,412.598
1742384242.411,999.512,944.824,27.832,999.512
1742384242.414,155.273,-122.07,-484.863,134.766
1742384242.418,-1000.0,-1000.0,-359.375,-1000.0
1742384242.422,-903.809,-274.414,196.289,-1000.0
1742384242.426,409.668,999.512,503.906,213.867
1742384242.43,999.512,817.383,305.664,999.512
1742384242.433,140.137,-569.336,-346.68,136.23
1742384242.437,-1000.0,-1000.0,-338.867,-1000.0
1742384242.441,-1000.0,240.723,225.098,-1000.0
1742384242.445,54.199,999.512,466.309,-56.641
1742384242.449,999.512,325.684,224.609,999.512
1742384242.453,137.207,-919.434,-307.129,144.531
1742384242.457,-1000.0,-1000.0,-334.961,-1000.0
1742384242.46,-1000.0,-685.547,118.164,-1000.0
1742384242.464,-186.523,522.461,449.707,-256.348
1742384242.468,999.512,999.512,301.27,999.512
1742384242.472,313.477,208.008,-241.699,306.641
1742384242.476,-973.145,-1000.0,-323.242,-983.887
1742384242.433,140.137,-569.336,-346.68,136.23
1742384242.437,-1000.0,-1000.0,-338.867,-1000.0
1742384242.441,-1000.0,240.723,225.098,-1000.0
1742384242.445,54.199,999.512,466.309,-56.641
1742384242.449,999.512,325.684,224.609,999.512
1742384242.453,137.207,-919.434,-307.129,144.531
1742384242.457,-1000.0,-1000.0,-334.961,-1000.0
1742384242.46,-1000.0,-685.547,118.164,-1000.0
1742384242.464,-186.523,522.461,449.707,-256.348
1742384242.468,999.512,999.512,301.27,999.512
1742384242.472,313.477,208.008,-241.699,306.641
1742384242.476,-973.145,-1000.0,-323.242,-983.887
1742384242.433,140.137,-569.336,-346.68,136.23
1742384242.437,-1000.0,-1000.0,-338.867,-1000.0
1742384242.441,-1000.0,240.723,225.098,-1000.0
1742384242.445,54.199,999.512,466.309,-56.641
1742384242.449,999.512,325.684,224.609,999.512
1742384242.453,137.207,-919.434,-307.129,144.531
1742384242.457,-1000.0,-1000.0,-334.961,-1000.0
1742384242.46,-1000.0,-685.547,118.164,-1000.0
1742384242.464,-186.523,522.461,449.707,-256.348
1742384242.468,999.512,999.512,301.27,999.512
1742384242.472,313.477,208.008,-241.699,306.641
1742384242.476,-973.145,-1000.0,-323.242,-983.887
1742384242.493,-1000.0,-329.102,165.039,-1000.0
1742384242.497,-250.488,999.512,566.895,-256.348
1742384242.501,999.512,963.379,439.941,999.512
1742384242.505,449.707,-197.266,-135.742,465.332
1742384242.509,-915.039,-1000.0,-348.145,-901.367
1742384242.513,-1000.0,-23.438,35.645,-1000.0
1742384242.517,-245.117,999.512,488.77,-266.113
1742384242.52,999.512,951.172,394.043,999.512
1742384242.524,531.738,-116.699,-205.078,555.176
1742384242.528,-855.957,-1000.0,-420.41,-817.871
1742384242.532,-1000.0,-411.133,-51.27,-1000.0
1742384242.536,-261.719,821.289,409.18,-356.934
1742384242.493,-1000.0,-329.102,165.039,-1000.0
1742384242.497,-250.488,999.512,566.895,-256.348
1742384242.501,999.512,963.379,439.941,999.512
1742384242.505,449.707,-197.266,-135.742,465.332
1742384242.509,-915.039,-1000.0,-348.145,-901.367
1742384242.513,-1000.0,-23.438,35.645,-1000.0
1742384242.517,-245.117,999.512,488.77,-266.113
1742384242.52,999.512,951.172,394.043,999.512
1742384242.524,531.738,-116.699,-205.078,555.176
1742384242.528,-855.957,-1000.0,-420.41,-817.871
1742384242.532,-1000.0,-411.133,-51.27,-1000.0
1742384242.536,-261.719,821.289,409.18,-356.934
1742384242.537,999.512,999.512,408.691,964.355
1742384242.541,942.871,323.242,-99.609,978.027
1742384242.545,-316.895,-1000.0,-410.156,-284.668
1742384242.549,-1000.0,-601.074,-63.965,-1000.0
1742384242.553,-425.781,755.859,501.465,-551.27
1742384242.557,908.203,999.512,541.016,822.754
1742384242.561,999.512,435.547,125.488,999.512
1742384242.564,-154.297,-847.168,-341.309,-165.039
1742384242.568,-1000.0,-1000.0,-203.613,-1000.0
1742384242.572,-458.984,-35.156,554.199,-636.719
1742384242.576,846.191,999.512,862.305,688.477
1742384242.58,999.512,807.617,551.758,999.512
1742384242.583,164.062,-478.516,46.875,132.812
1742384242.587,-1000.0,-996.094,51.27,-1000.0
1742384242.591,-903.32,288.574,526.855,-994.141
1742384242.595,408.691,999.512,688.965,248.535
1742384242.599,999.512,378.906,367.188,999.512
1742384242.603,144.531,-989.746,-87.891,140.625
1742384242.607,-1000.0,-901.855,-9.277,-1000.0
1742384242.61,-1000.0,364.258,376.953,-1000.0
1742384242.614,113.281,999.512,510.254,24.902
1742384242.618,999.512,141.113,202.148,999.512
1742384242.622,134.766,-1000.0,-294.922,138.184
1742384242.626,-1000.0,-1000.0,-202.148,-1000.0
1742384242.583,164.062,-478.516,46.875,132.812
1742384242.587,-1000.0,-996.094,51.27,-1000.0
1742384242.591,-903.32,288.574,526.855,-994.141
1742384242.595,408.691,999.512,688.965,248.535
1742384242.599,999.512,378.906,367.188,999.512
1742384242.603,144.531,-989.746,-87.891,140.625
1742384242.607,-1000.0,-901.855,-9.277,-1000.0
1742384242.61,-1000.0,364.258,376.953,-1000.0
1742384242.614,113.281,999.512,510.254,24.902
1742384242.618,999.512,141.113,202.148,999.512
1742384242.622,134.766,-1000.0,-294.922,138.184
1742384242.626,-1000.0,-1000.0,-202.148,-1000.0
1742384242.629,-1000.0,-276.855,174.316,-1000.0
1742384242.633,-144.531,791.992,248.047,-222.656
1742384242.637,999.512,999.512,24.414,999.512
1742384242.641,346.68,119.141,-476.074,376.465
1742384242.645,-955.078,-1000.0,-580.078,-947.266
1742384242.649,-1000.0,-183.594,-152.344,-1000.0
1742384242.653,-219.238,999.512,188.477,-238.77
1742384242.656,999.512,807.617,-11.23,999.512
1742384242.66,469.727,-418.945,-534.668,488.77
1742384242.664,-899.414,-1000.0,-611.816,-887.207
1742384242.668,-1000.0,-468.262,-183.594,-1000.0
1742384242.672,-192.871,875.977,249.512,-199.219
1742384242.629,-1000.0,-276.855,174.316,-1000.0
1742384242.633,-144.531,791.992,248.047,-222.656
1742384242.637,999.512,999.512,24.414,999.512
1742384242.641,346.68,119.141,-476.074,376.465
1742384242.645,-955.078,-1000.0,-580.078,-947.266
1742384242.649,-1000.0,-183.594,-152.344,-1000.0
1742384242.653,-219.238,999.512,188.477,-238.77
1742384242.656,999.512,807.617,-11.23,999.512
1742384242.66,469.727,-418.945,-534.668,488.77
1742384242.664,-899.414,-1000.0,-611.816,-887.207
1742384242.668,-1000.0,-468.262,-183.594,-1000.0
1742384242.672,-192.871,875.977,249.512,-199.219
1742384242.673,999.512,880.859,153.32,999.512
1742384242.677,963.867,-318.359,-321.777,985.84
1742384242.681,-307.617,-1000.0,-420.898,-251.953
1742384242.685,-1000.0,-484.375,-80.566,-1000.0
1742384242.689,-51.758,773.438,413.086,-80.566
1742384242.693,999.512,999.512,375.0,997.559
1742384242.697,999.512,322.754,-200.195,999.512
1742384242.7,21.973,-806.641,-534.18,161.133
1742384242.704,-1000.0,-1000.0,-372.07,-1000.0
1742384242.708,-178.711,-166.992,145.02,-194.336
1742384242.712,989.258,999.512,195.801,997.559
1742384242.716,999.512,675.293,-212.402,999.512
1742384242.717,190.918,-701.66,-506.836,222.656
1742384242.721,-1000.0,-1000.0,-291.992,-1000.0
1742384242.725,-197.266,130.859,225.586,-192.871
1742384242.729,996.582,999.512,261.719,993.164
1742384242.733,999.512,206.543,-136.719,999.512
1742384242.737,278.809,-967.285,-393.555,434.082
1742384242.741,-1000.0,-1000.0,-226.074,-1000.0
1742384242.744,-455.566,-524.902,81.055,-405.273
1742384242.748,891.602,965.332,188.965,936.035
1742384242.752,999.512,709.961,-67.383,999.512
1742384242.756,373.535,-617.676,-447.754,569.336
1742384242.76,-1000.0,-1000.0,-359.375,-1000.0
1742384242.717,190.918,-701.66,-506.836,222.656
1742384242.721,-1000.0,-1000.0,-291.992,-1000.0
1742384242.725,-197.266,130.859,225.586,-192.871
1742384242.729,996.582,999.512,261.719,993.164
1742384242.733,999.512,206.543,-136.719,999.512
1742384242.737,278.809,-967.285,-393.555,434.082
1742384242.741,-1000.0,-1000.0,-226.074,-1000.0
1742384242.744,-455.566,-524.902,81.055,-405.273
1742384242.748,891.602,965.332,188.965,936.035
1742384242.752,999.512,709.961,-67.383,999.512
1742384242.756,373.535,-617.676,-447.754,569.336
1742384242.76,-1000.0,-1000.0,-359.375,-1000.0
1742384242.763,-222.168,-210.449,112.793,-256.348
1742384242.767,999.512,999.512,298.828,999.512
1742384242.771,999.512,415.039,-6.348,999.512
1742384242.775,481.445,-917.48,-448.73,693.848
1742384242.779,-1000.0,-1000.0,-405.273,-910.645
1742384242.783,-235.84,-56.152,55.664,-283.203
1742384242.787,999.512,999.512,229.492,999.512
1742384242.79,999.512,354.98,-18.555,949.707
1742384242.794,631.836,-894.531,-431.152,961.426
1742384242.798,-978.027,-1000.0,-387.695,-554.199
1742384242.802,-537.598,-435.059,37.109,-525.879
1742384242.806,930.664,999.512,250.0,999.512
1742384242.763,-222.168,-210.449,112.793,-256.348
1742384242.767,999.512,999.512,298.828,999.512
1742384242.771,999.512,415.039,-6.348,999.512
1742384242.775,481.445,-917.48,-448.73,693.848
1742384242.779,-1000.0,-1000.0,-405.273,-910.645
1742384242.783,-235.84,-56.152,55.664,-283.203
1742384242.787,999.512,999.512,229.492,999.512
1742384242.79,999.512,354.98,-18.555,949.707
1742384242.794,631.836,-894.531,-431.152,961.426
1742384242.798,-978.027,-1000.0,-387.695,-554.199
1742384242.802,-537.598,-435.059,37.109,-525.879
1742384242.806,930.664,999.512,250.0,999.512
1742384242.822,999.512,586.914,137.695,937.5
1742384242.826,885.742,-711.426,-271.973,999.512
1742384242.83,-617.188,-1000.0,-363.77,-256.348
1742384242.834,-720.215,-391.602,20.02,-670.898
1742384242.838,857.422,890.137,372.07,920.41
1742384242.842,999.512,999.512,311.523,962.891
1742384242.846,924.316,64.941,-124.512,999.512
1742384242.849,-403.32,-1000.0,-314.453,-83.008
1742384242.853,-1000.0,-675.781,77.148,-976.562
1742384242.857,458.496,668.945,475.098,576.66
1742384242.861,999.512,999.512,351.562,999.512
1742384242.865,999.512,25.879,26.855,999.512
1742384242.822,999.512,586.914,137.695,937.5
1742384242.826,885.742,-711.426,-271.973,999.512
1742384242.83,-617.188,-1000.0,-363.77,-256.348
1742384242.834,-720.215,-391.602,20.02,-670.898
1742384242.838,857.422,890.137,372.07,920.41
1742384242.842,999.512,999.512,311.523,962.891
1742384242.846,924.316,64.941,-124.512,999.512
1742384242.849,-403.32,-1000.0,-314.453,-83.008
1742384242.853,-1000.0,-675.781,77.148,-976.562
1742384242.857,458.496,668.945,475.098,576.66
1742384242.861,999.512,999.512,351.562,999.512
1742384242.865,999.512,25.879,26.855,999.512
1742384242.867,-23.926,-1000.0,-218.262,193.848
1742384242.871,-1000.0,-366.211,-100.586,-1000.0
1742384242.875,-22.461,924.316,313.965,60.059
1742384242.879,999.512,999.512,298.828,999.512
1742384242.883,999.512,26.855,-88.379,999.512
1742384242.887,-1.953,-1000.0,-281.25,186.035
1742384242.891,-1000.0,-574.219,-105.957,-1000.0
1742384242.894,-233.887,699.219,244.629,-241.211
1742384242.898,968.262,999.512,254.883,982.422
1742384242.902,999.512,-124.023,-109.863,999.512
1742384242.906,176.27,-1000.0,-363.281,217.285
1742384242.91,-1000.0,-949.707,-143.066,-1000.0
1742384242.867,-23.926,-1000.0,-218.262,193.848
1742384242.871,-1000.0,-366.211,-100.586,-1000.0
1742384242.875,-22.461,924.316,313.965,60.059
1742384242.879,999.512,999.512,298.828,999.512
1742384242.883,999.512,26.855,-88.379,999.512
1742384242.887,-1.953,-1000.0,-281.25,186.035
1742384242.891,-1000.0,-574.219,-105.957,-1000.0
1742384242.894,-233.887,699.219,244.629,-241.211
1742384242.898,968.262,999.512,254.883,982.422
1742384242.902,999.512,-124.023,-109.863,999.512
1742384242.906,176.27,-1000.0,-363.281,217.285
1742384242.91,-1000.0,-949.707,-143.066,-1000.0
1742384242.914,-765.137,25.879,203.613,-760.742
1742384242.918,599.609,999.512,291.992,609.375
1742384242.922,999.512,779.785,72.266,999.512
1742384242.926,168.945,-409.668,-232.422,166.504
1742384242.93,-1000.0,-1000.0,-120.117,-1000.0
1742384242.934,-905.273,-47.852,333.496,-925.781
1742384242.938,412.109,999.512,572.266,370.117
1742384242.941,999.512,484.863,349.609,999.512
1742384242.945,120.605,-853.027,-54.688,122.559
1742384242.949,-1000.0,-983.398,63.477,-1000.0
1742384242.953,-1000.0,-42.48,405.762,-1000.0
1742384242.957,-229.98,948.242,521.973,-230.469
1742384242.914,-765.137,25.879,203.613,-760.742
1742384242.918,599.609,999.512,291.992,609.375
1742384242.922,999.512,779.785,72.266,999.512
1742384242.926,168.945,-409.668,-232.422,166.504
1742384242.93,-1000.0,-1000.0,-120.117,-1000.0
1742384242.934,-905.273,-47.852,333.496,-925.781
1742384242.938,412.109,999.512,572.266,370.117
1742384242.941,999.512,484.863,349.609,999.512
1742384242.945,120.605,-853.027,-54.688,122.559
1742384242.949,-1000.0,-983.398,63.477,-1000.0
1742384242.953,-1000.0,-42.48,405.762,-1000.0
1742384242.957,-229.98,948.242,521.973,-230.469
1742384242.957,999.512,735.352,367.188,999.512
1742384242.961,172.852,-551.758,-75.684,159.18
1742384242.965,-1000.0,-1000.0,-2.93,-1000.0
1742384242.969,-1000.0,124.512,375.488,-1000.0
1742384242.973,-176.758,992.676,486.328,-268.066
1742384242.977,999.512,999.512,333.496,999.512
1742384242.981,323.242,242.188,-113.77,306.152
1742384242.984,-976.562,-988.77,-196.289,-990.234
1742384242.988,-1000.0,-1000.0,122.07,-1000.0
1742384242.992,-251.465,-155.762,467.285,-325.195
1742384242.996,999.512,999.512,412.109,999.512
1742384243.0,611.816,520.996,-72.754,575.195
1742384242.957,999.512,735.352,367.188,999.512
1742384242.961,172.852,-551.758,-75.684,159.18
1742384242.965,-1000.0,-1000.0,-2.93,-1000.0
1742384242.969,-1000.0,124.512,375.488,-1000.0
1742384242.973,-176.758,992.676,486.328,-268.066
1742384242.977,999.512,999.512,333.496,999.512
1742384242.981,323.242,242.188,-113.77,306.152
1742384242.984,-976.562,-988.77,-196.289,-990.234
1742384242.988,-1000.0,-1000.0,122.07,-1000.0
1742384242.992,-251.465,-155.762,467.285,-325.195
1742384242.996,999.512,999.512,412.109,999.512
1742384243.0,611.816,520.996,-72.754,575.195
1742384243.002,-771.973,-937.012,-252.441,-803.711
1742384243.006,-1000.0,-810.547,62.012,-1000.0
1742384243.01,-348.633,498.535,482.422,-522.949
1742384243.014,999.512,999.512,390.137,999.512
1742384243.018,382.812,135.742,-100.586,375.488
1742384243.022,-952.637,-1000.0,-216.797,-993.652
1742384243.026,-1000.0,-616.211,26.855,-1000.0
1742384243.029,-580.566,416.992,295.41,-761.23
1742384243.033,801.27,919.922,295.898,623.535
1742384243.037,999.512,489.258,-56.641,999.512
1742384243.041,-143.555,-736.328,-322.754,-204.59
1742384243.045,-1000.0,-878.418,-97.656,-1000.0
1742384243.002,-771.973,-937.012,-252.441,-803.711
1742384243.006,-1000.0,-810.547,62.012,-1000.0
1742384243.01,-348.633,498.535,482.422,-522.949
1742384243.014,999.512,999.512,390.137,999.512
1742384243.018,382.812,135.742,-100.586,375.488
1742384243.022,-952.637,-1000.0,-216.797,-993.652
1742384243.026,-1000.0,-616.211,26.855,-1000.0
1742384243.029,-580.566,416.992,295.41,-761.23
1742384243.033,801.27,919.922,295.898,623.535
1742384243.037,999.512,489.258,-56.641,999.512
1742384243.041,-143.555,-736.328,-322.754,-204.59
1742384243.045,-1000.0,-878.418,-97.656,-1000.0
1742384243.048,-482.422,437.5,277.344,-624.023
1742384243.052,856.445,999.512,248.047,726.074
1742384243.056,999.512,795.898,-79.102,999.512
1742384243.06,19.043,-461.914,-387.207,1.465
1742384243.064,-1000.0,-1000.0,-220.703,-1000.0
1742384243.068,-543.945,123.535,248.047,-707.52
1742384243.072,806.152,999.512,353.027,634.277
1742384243.075,999.512,947.266,67.383,999.512
1742384243.079,157.227,-174.805,-414.062,132.324
1742384243.083,-1000.0,-1000.0,-405.762,-1000.0
1742384243.087,-931.152,-168.945,68.848,-1000.0
1742384243.091,361.328,999.512,211.426,193.359
1742384243.048,-482.422,437.5,277.344,-624.023
1742384243.052,856.445,999.512,248.047,726.074
1742384243.056,999.512,795.898,-79.102,999.512
1742384243.06,19.043,-461.914,-387.207,1.465
1742384243.064,-1000.0,-1000.0,-220.703,-1000.0
1742384243.068,-543.945,123.535,248.047,-707.52
1742384243.072,806.152,999.512,353.027,634.277
1742384243.075,999.512,947.266,67.383,999.512
1742384243.079,157.227,-174.805,-414.062,132.324
1742384243.083,-1000.0,-1000.0,-405.762,-1000.0
1742384243.087,-931.152,-168.945,68.848,-1000.0
1742384243.091,361.328,999.512,211.426,193.359
1742384243.092,999.512,686.035,-45.898,999.512
1742384243.096,145.996,-596.68,-477.051,138.672
1742384243.1,-1000.0,-1000.0,-394.043,-1000.0
1742384243.104,-1000.0,15.137,66.406,-1000.0
1742384243.108,116.211,999.512,292.48,15.625
1742384243.112,999.512,999.512,106.934,999.512
1742384243.116,272.461,133.789,-361.816,300.293
1742384243.119,-957.031,-1000.0,-364.746,-952.637
1742384243.123,-1000.0,-1000.0,38.574,-1000.0
1742384243.127,-246.094,-67.383,307.129,-242.188
1742384243.131,999.512,999.512,206.543,999.512
1742384243.135,417.969,98.633,-287.598,438.477
1742384243.092,999.512,686.035,-45.898,999.512
1742384243.096,145.996,-596.68,-477.051,138.672
1742384243.1,-1000.0,-1000.0,-394.043,-1000.0
1742384243.104,-1000.0,15.137,66.406,-1000.0
1742384243.108,116.211,999.512,292.48,15.625
1742384243.112,999.512,999.512,106.934,999.512
1742384243.116,272.461,133.789,-361.816,300.293
1742384243.119,-957.031,-1000.0,-364.746,-952.637
1742384243.123,-1000.0,-1000.0,38.574,-1000.0
1742384243.127,-246.094,-67.383,307.129,-242.188
1742384243.131,999.512,999.512,206.543,999.512
1742384243.135,417.969,98.633,-287.598,438.477
1742384243.137,-932.617,-1000.0,-369.629,-918.457
1742384243.141,-1000.0,-440.918,-72.754,-1000.0
1742384243.145,-238.281,853.027,223.145,-238.281
1742384243.149,999.512,999.512,204.102,999.512
1742384243.153,478.027,25.391,-259.766,508.789
1742384243.157,-892.578,-1000.0,-275.391,-858.398
1742384243.161,-1000.0,-95.703,68.359,-1000.0
1742384243.164,-272.461,999.512,270.996,-333.984
1742384243.168,999.512,614.746,207.52,999.512
1742384243.172,714.355,-661.133,-200.195,722.656
1742384243.176,-658.203,-1000.0,-325.684,-654.297
1742384243.18,-1000.0,-555.664,-67.871,-1000.0
1742384243.137,-932.617,-1000.0,-369.629,-918.457
1742384243.141,-1000.0,-440.918,-72.754,-1000.0
1742384243.145,-238.281,853.027,223.145,-238.281
1742384243.149,999.512,999.512,204.102,999.512
1742384243.153,478.027,25.391,-259.766,508.789
1742384243.157,-892.578,-1000.0,-275.391,-858.398
1742384243.161,-1000.0,-95.703,68.359,-1000.0
1742384243.164,-272.461,999.512,270.996,-333.984
1742384243.168,999.512,614.746,207.52,999.512
1742384243.172,714.355,-661.133,-200.195,722.656
1742384243.176,-658.203,-1000.0,-325.684,-654.297
1742384243.18,-1000.0,-555.664,-67.871,-1000.0
1742384243.182,-335.449,654.785,199.707,-425.293
1742384243.186,967.773,999.512,219.727,928.223
1742384243.19,995.117,495.117,-126.953,998.535
1742384243.194,-271.973,-824.707,-367.188,-282.715
1742384243.198,-1000.0,-1000.0,-117.676,-1000.0
1742384243.202,-312.5,267.578,371.094,-421.875
1742384243.206,979.004,999.512,331.055,934.57
1742384243.209,999.512,-15.625,-172.852,999.512
1742384243.213,-230.957,-1000.0,-392.09,-261.719
1742384243.217,-1000.0,-288.086,-138.184,-1000.0
1742384243.221,-584.961,922.363,285.645,-680.176
1742384243.225,732.422,999.512,343.75,626.465
1742384243.182,-335.449,654.785,199.707,-425.293
1742384243.186,967.773,999.512,219.727,928.223
1742384243.19,995.117,495.117,-126.953,998.535
1742384243.194,-271.973,-824.707,-367.188,-282.715
1742384243.198,-1000.0,-1000.0,-117.676,-1000.0
1742384243.202,-312.5,267.578,371.094,-421.875
1742384243.206,979.004,999.512,331.055,934.57
1742384243.209,999.512,-15.625,-172.852,999.512
1742384243.213,-230.957,-1000.0,-392.09,-261.719
1742384243.217,-1000.0,-288.086,-138.184,-1000.0
1742384243.221,-584.961,922.363,285.645,-680.176
1742384243.225,732.422,999.512,343.75,626.465
1742384243.242,999.512,264.648,-31.738,999.512
1742384243.246,176.27,-1000.0,-342.285,157.715
1742384243.25,-1000.0,-978.516,-176.27,-1000.0
1742384243.254,-829.102,166.992,194.824,-913.086
1742384243.258,549.805,999.512,305.176,418.945
1742384243.262,999.512,952.148,55.176,999.512
1742384243.266,40.039,-95.215,-367.188,38.574
1742384243.269,-996.094,-1000.0,-242.188,-996.582
1742384243.273,-1000.0,-1000.0,162.598,-1000.0
1742384243.277,-107.422,12.207,309.57,-145.508
1742384243.281,999.512,999.512,142.578,999.512
1742384243.285,155.762,-94.727,-288.574,192.383
1742384243.242,999.512,264.648,-31.738,999.512
1742384243.246,176.27,-1000.0,-342.285,157.715
1742384243.25,-1000.0,-978.516,-176.27,-1000.0
1742384243.254,-829.102,166.992,194.824,-913.086
1742384243.258,549.805,999.512,305.176,418.945
1742384243.262,999.512,952.148,55.176,999.512
1742384243.266,40.039,-95.215,-367.188,38.574
1742384243.269,-996.094,-1000.0,-242.188,-996.582
1742384243.273,-1000.0,-1000.0,162.598,-1000.0
1742384243.277,-107.422,12.207,309.57,-145.508
1742384243.281,999.512,999.512,142.578,999.512
1742384243.285,155.762,-94.727,-288.574,192.383
1742384243.287,-1000.0,-1000.0,-244.141,-1000.0
1742384243.291,-1000.0,-277.832,183.594,-1000.0
1742384243.295,81.055,999.512,416.992,23.438
1742384243.299,999.512,888.184,232.422,999.512
1742384243.303,339.844,-274.414,-229.004,391.602
1742384243.307,-927.734,-1000.0,-278.809,-907.227
1742384243.311,-1000.0,-76.66,96.191,-1000.0
1742384243.314,-243.164,999.512,284.668,-228.027
1742384243.318,999.512,401.367,99.121,999.512
1742384243.322,604.98,-864.258,-288.574,664.551
1742384243.326,-788.574,-1000.0,-380.371,-716.797
1742384243.33,-1000.0,-268.066,-63.965,-1000.0
1742384243.287,-1000.0,-1000.0,-244.141,-1000.0
1742384243.291,-1000.0,-277.832,183.594,-1000.0
1742384243.295,81.055,999.512,416.992,23.438
1742384243.299,999.512,888.184,232.422,999.512
1742384243.303,339.844,-274.414,-229.004,391.602
1742384243.307,-927.734,-1000.0,-278.809,-907.227
1742384243.311,-1000.0,-76.66,96.191,-1000.0
1742384243.314,-243.164,999.512,284.668,-228.027
1742384243.318,999.512,401.367,99.121,999.512
1742384243.322,604.98,-864.258,-288.574,664.551
1742384243.326,-788.574,-1000.0,-380.371,-716.797
1742384243.33,-1000.0,-268.066,-63.965,-1000.0
1742384243.333,-183.594,940.918,257.812,-170.898
1742384243.337,999.512,993.164,153.809,999.512
1742384243.341,986.328,554.688,-218.262,999.512
1742384243.345,-246.094,-681.641,-384.277,-190.918
1742384243.349,-1000.0,-1000.0,-88.379,-1000.0
1742384243.353,-189.453,338.867,351.074,-186.035
1742384243.357,999.512,999.512,311.523,999.512
1742384243.36,981.445,0.0,-91.797,999.512
1742384243.364,-253.906,-1000.0,-368.652,-162.598
1742384243.368,-1000.0,-872.559,-133.789,-1000.0
1742384243.372,-180.664,295.898,312.988,-212.402
1742384243.376,983.398,999.512,311.523,969.727
1742384243.377,999.512,165.039,-70.801,999.512
1742384243.381,56.641,-1000.0,-345.703,135.742
1742384243.385,-1000.0,-888.184,-143.555,-1000.0
1742384243.389,-423.34,348.145,277.832,-453.613
1742384243.393,888.184,976.562,309.57,881.836
1742384243.397,999.512,963.867,-6.836,999.512
1742384243.401,160.645,101.562,-321.777,158.691
1742384243.404,-1000.0,-1000.0,-250.0,-1000.0
1742384243.408,-1000.0,-1000.0,76.66,-1000.0
1742384243.412,66.406,172.852,166.992,52.734
1742384243.416,999.512,999.512,-70.801,999.512
1742384243.42,176.27,-139.648,-473.633,172.363
1742384243.377,999.512,165.039,-70.801,999.512
1742384243.381,56.641,-1000.0,-345.703,135.742
1742384243.385,-1000.0,-888.184,-143.555,-1000.0
1742384243.389,-423.34,348.145,277.832,-453.613
1742384243.393,888.184,976.562,309.57,881.836
1742384243.397,999.512,963.867,-6.836,999.512
1742384243.401,160.645,101.562,-321.777,158.691
1742384243.404,-1000.0,-1000.0,-250.0,-1000.0
1742384243.408,-1000.0,-1000.0,76.66,-1000.0
1742384243.412,66.406,172.852,166.992,52.734
1742384243.416,999.512,999.512,-70.801,999.512
1742384243.42,176.27,-139.648,-473.633,172.363
1742384243.422,-1000.0,-1000.0,-427.246,-1000.0
1742384243.426,-923.34,-208.008,18.066,-967.773
1742384243.43,384.766,999.512,210.449,294.434
1742384243.434,999.512,734.863,-13.184,999.512
1742384243.438,133.789,-678.223,-410.156,171.387
1742384243.442,-1000.0,-760.254,-309.082,-1000.0
1742384243.446,-1000.0,595.703,91.797,-1000.0
1742384243.449,-23.438,999.512,241.699,-68.848
1742384243.453,999.512,282.715,32.227,999.512
1742384243.457,142.09,-943.848,-429.688,181.152
1742384243.461,-1000.0,-1000.0,-454.59,-1000.0
1742384243.465,-1000.0,-583.496,-69.824,-1000.0
1742384243.422,-1000.0,-1000.0,-427.246,-1000.0
1742384243.426,-923.34,-208.008,18.066,-967.773
1742384243.43,384.766,999.512,210.449,294.434
1742384243.434,999.512,734.863,-13.184,999.512
1742384243.438,133.789,-678.223,-410.156,171.387
1742384243.442,-1000.0,-760.254,-309.082,-1000.0
1742384243.446,-1000.0,595.703,91.797,-1000.0
1742384243.449,-23.438,999.512,241.699,-68.848
1742384243.453,999.512,282.715,32.227,999.512
1742384243.457,142.09,-943.848,-429.688,181.152
1742384243.461,-1000.0,-1000.0,-454.59,-1000.0
1742384243.465,-1000.0,-583.496,-69.824,-1000.0
1742384243.467,-218.262,627.93,228.027,-243.652
1742384243.471,999.512,999.512,143.555,999.512
1742384243.475,592.773,240.723,-199.219,623.047
1742384243.479,-792.48,-1000.0,-258.301,-762.207
1742384243.483,-1000.0,-685.059,3.906,-1000.0
1742384243.487,-228.027,737.305,300.293,-221.68
1742384243.491,999.512,950.195,203.613,999.512
1742384243.494,660.645,-333.008,-300.781,710.449
1742384243.498,-728.027,-1000.0,-442.871,-654.297
1742384243.502,-1000.0,-487.793,-125.0,-1000.0
1742384243.506,-245.117,823.242,244.629,-310.059
1742384243.51,999.512,999.512,184.082,999.512
1742384243.467,-218.262,627.93,228.027,-243.652
1742384243.471,999.512,999.512,143.555,999.512
1742384243.475,592.773,240.723,-199.219,623.047
1742384243.479,-792.48,-1000.0,-258.301,-762.207
1742384243.483,-1000.0,-685.059,3.906,-1000.0
1742384243.487,-228.027,737.305,300.293,-221.68
1742384243.491,999.512,950.195,203.613,999.512
1742384243.494,660.645,-333.008,-300.781,710.449
1742384243.498,-728.027,-1000.0,-442.871,-654.297
1742384243.502,-1000.0,-487.793,-125.0,-1000.0
1742384243.506,-245.117,823.242,244.629,-310.059
1742384243.51,999.512,999.512,184.082,999.512
1742384243.512,461.914,0.488,-281.25,464.844
1742384243.516,-892.578,-1000.0,-451.172,-895.508
1742384243.52,-1000.0,-482.91,-167.969,-1000.0
1742384243.524,-404.785,831.543,171.387,-515.625
1742384243.528,874.512,950.684,145.996,805.176
1742384243.532,999.512,999.512,-181.641,999.512
1742384243.536,95.703,99.121,-367.676,86.914
1742384243.539,-1000.0,-1000.0,-191.406,-1000.0
1742384243.543,-783.691,-636.23,169.434,-828.125
1742384243.547,590.82,855.469,188.965,524.902
1742384243.551,999.512,777.344,-150.391,999.512
1742384243.555,-20.508,-805.176,-468.75,-17.09
1742384243.512,461.914,0.488,-281.25,464.844
1742384243.516,-892.578,-1000.0,-451.172,-895.508
1742384243.52,-1000.0,-482.91,-167.969,-1000.0
1742384243.524,-404.785,831.543,171.387,-515.625
1742384243.528,874.512,950.684,145.996,805.176
1742384243.532,999.512,999.512,-181.641,999.512
1742384243.536,95.703,99.121,-367.676,86.914
1742384243.539,-1000.0,-1000.0,-191.406,-1000.0
1742384243.543,-783.691,-636.23,169.434,-828.125
1742384243.547,590.82,855.469,188.965,524.902
1742384243.551,999.512,777.344,-150.391,999.512
1742384243.555,-20.508,-805.176,-468.75,-17.09
1742384243.572,-1000.0,-624.023,-289.551,-1000.0
1742384243.576,-940.918,609.863,118.164,-996.094
1742384243.58,304.199,964.355,163.086,200.195
1742384243.584,999.512,715.82,-123.535,999.512
1742384243.588,105.469,-689.453,-479.004,94.238
1742384243.592,-1000.0,-716.309,-313.477,-1000.0
1742384243.596,-1000.0,618.164,65.918,-1000.0
1742384243.599,8.301,999.512,108.398,-73.73
1742384243.603,999.512,251.465,-154.785,999.512
1742384243.607,155.273,-1000.0,-533.203,135.742
1742384243.611,-1000.0,-1000.0,-417.48,-1000.0
1742384243.615,-1000.0,127.93,-16.113,-1000.0
1742384243.572,-1000.0,-624.023,-289.551,-1000.0
1742384243.576,-940.918,609.863,118.164,-996.094
1742384243.58,304.199,964.355,163.086,200.195
1742384243.584,999.512,715.82,-123.535,999.512
1742384243.588,105.469,-689.453,-479.004,94.238
1742384243.592,-1000.0,-716.309,-313.477,-1000.0
1742384243.596,-1000.0,618.164,65.918,-1000.0
1742384243.599,8.301,999.512,108.398,-73.73
1742384243.603,999.512,251.465,-154.785,999.512
1742384243.607,155.273,-1000.0,-533.203,135.742
1742384243.611,-1000.0,-1000.0,-417.48,-1000.0
1742384243.615,-1000.0,127.93,-16.113,-1000.0
1742384243.617,24.414,999.512,141.113,-110.84
1742384243.621,999.512,936.035,-44.922,999.512
1742384243.625,268.066,-63.477,-390.137,284.668
1742384243.629,-998.535,-1000.0,-325.195,-994.141
1742384243.633,-1000.0,-489.746,58.105,-1000.0
1742384243.637,-4.395,876.953,273.926,-85.449
1742384243.641,999.512,966.797,85.449,999.512
1742384243.644,381.348,-226.562,-399.414,441.406
1742384243.648,-917.48,-1000.0,-503.418,-892.578
1742384243.652,-1000.0,-634.766,-115.234,-1000.0
1742384243.656,-241.699,628.418,229.004,-236.328
1742384243.66,999.512,999.512,105.469,999.512
1742384243.617,24.414,999.512,141.113,-110.84
1742384243.621,999.512,936.035,-44.922,999.512
1742384243.625,268.066,-63.477,-390.137,284.668
1742384243.629,-998.535,-1000.0,-325.195,-994.141
1742384243.633,-1000.0,-489.746,58.105,-1000.0
1742384243.637,-4.395,876.953,273.926,-85.449
1742384243.641,999.512,966.797,85.449,999.512
1742384243.644,381.348,-226.562,-399.414,441.406
1742384243.648,-917.48,-1000.0,-503.418,-892.578
1742384243.652,-1000.0,-634.766,-115.234,-1000.0
1742384243.656,-241.699,628.418,229.004,-236.328
1742384243.66,999.512,999.512,105.469,999.512
1742384243.662,490.723,-27.344,-445.312,553.223
1742384243.666,-889.16,-1000.0,-586.914,-831.055
1742384243.67,-1000.0,-755.859,-290.039,-1000.0
1742384243.674,-174.805,666.992,42.969,-168.945
1742384243.678,970.703,595.703,2.441,969.238
1742384243.682,999.512,331.543,-365.234,999.512
1742384243.686,104.492,175.781,-450.684,135.742
1742384243.689,-1000.0,-1000.0,-227.539,-1000.0
1742384243.693,-444.824,-577.148,89.844,-408.203
1742384243.697,916.504,999.512,103.516,924.805
1742384243.701,999.512,553.711,-249.023,999.512
1742384243.705,-41.016,-883.789,-441.895,57.129
1742384243.662,490.723,-27.344,-445.312,553.223
1742384243.666,-889.16,-1000.0,-586.914,-831.055
1742384243.67,-1000.0,-755.859,-290.039,-1000.0
1742384243.674,-174.805,666.992,42.969,-168.945
1742384243.678,970.703,595.703,2.441,969.238
1742384243.682,999.512,331.543,-365.234,999.512
1742384243.686,104.492,175.781,-450.684,135.742
1742384243.689,-1000.0,-1000.0,-227.539,-1000.0
1742384243.693,-444.824,-577.148,89.844,-408.203
1742384243.697,916.504,999.512,103.516,924.805
1742384243.701,999.512,553.711,-249.023,999.512
1742384243.705,-41.016,-883.789,-441.895,57.129
1742384243.707,-1000.0,-1000.0,-231.934,-1000.0
1742384243.711,-249.023,48.828,109.863,-295.41
1742384243.715,963.379,999.512,125.0,951.172
1742384243.719,999.512,227.051,-260.254,999.512
1742384243.723,171.875,-1000.0,-535.156,206.543
1742384243.727,-1000.0,-447.754,-299.805,-1000.0
1742384243.731,-361.328,839.844,95.215,-369.141
1742384243.734,936.523,999.512,152.344,934.57
1742384243.738,999.512,106.934,-177.734,999.512
1742384243.742,208.984,-1000.0,-483.398,214.844
1742384243.746,-1000.0,-1000.0,-250.977,-1000.0
1742384243.75,-642.09,-182.129,140.625,-647.949
1742384243.707,-1000.0,-1000.0,-231.934,-1000.0
1742384243.711,-249.023,48.828,109.863,-295.41
1742384243.715,963.379,999.512,125.0,951.172
1742384243.719,999.512,227.051,-260.254,999.512
1742384243.723,171.875,-1000.0,-535.156,206.543
1742384243.727,-1000.0,-447.754,-299.805,-1000.0
1742384243.731,-361.328,839.844,95.215,-369.141
1742384243.734,936.523,999.512,152.344,934.57
1742384243.738,999.512,106.934,-177.734,999.512
1742384243.742,208.984,-1000.0,-483.398,214.844
1742384243.746,-1000.0,-1000.0,-250.977,-1000.0
1742384243.75,-642.09,-182.129,140.625,-647.949
1742384243.752,751.465,999.512,234.375,734.863
1742384243.756,999.512,554.688,-0.977,999.512
1742384243.76,141.602,-746.582,-373.535,170.898
1742384243.764,-1000.0,-1000.0,-315.43,-1000.0
1742384243.768,-1000.0,-751.953,21.484,-1000.0
1742384243.772,-10.742,393.555,214.355,-24.414
1742384243.776,999.512,999.512,38.574,999.512
1742384243.779,195.801,-165.039,-436.523,245.605
1742384243.783,-1000.0,-1000.0,-424.805,-1000.0
1742384243.787,-1000.0,-434.57,-14.648,-1000.0
1742384243.791,95.703,960.449,233.887,59.082
1742384243.795,999.512,782.227,65.918,999.512
1742384243.752,751.465,999.512,234.375,734.863
1742384243.756,999.512,554.688,-0.977,999.512
1742384243.76,141.602,-746.582,-373.535,170.898
1742384243.764,-1000.0,-1000.0,-315.43,-1000.0
1742384243.768,-1000.0,-751.953,21.484,-1000.0
1742384243.772,-10.742,393.555,214.355,-24.414
1742384243.776,999.512,999.512,38.574,999.512
1742384243.779,195.801,-165.039,-436.523,245.605
1742384243.783,-1000.0,-1000.0,-424.805,-1000.0
1742384243.787,-1000.0,-434.57,-14.648,-1000.0
1742384243.791,95.703,960.449,233.887,59.082
1742384243.795,999.512,782.227,65.918,999.512
1742384243.797,367.676,-510.254,-385.254,430.664
1742384243.801,-926.27,-1000.0,-400.391,-890.137
1742384243.805,-1000.0,-377.441,-25.879,-1000.0
1742384243.809,-90.332,993.652,218.75,-125.488
1742384243.813,999.512,659.18,53.711,999.512
1742384243.817,935.059,-41.016,-304.688,958.496
1742384243.821,-300.781,-609.863,-327.637,-267.09
1742384243.824,-1000.0,-901.367,-26.855,-1000.0
1742384243.828,-198.73,276.855,295.41,-192.383
1742384243.832,999.512,999.512,165.527,999.512
1742384243.836,906.738,-107.422,-236.328,958.008
1742384243.84,-389.648,-1000.0,-282.715,-288.574
1742384243.845,-1000.0,-742.676,4.883,-1000.0
1742384243.849,-182.129,325.195,340.332,-208.984
1742384243.853,999.512,999.512,324.707,999.512
1742384243.857,999.512,225.586,-55.176,999.512
1742384243.861,-190.43,-1000.0,-273.926,-134.277
1742384243.865,-1000.0,-296.875,-2.441,-1000.0
1742384243.869,-166.992,999.512,404.297,-166.992
1742384243.872,985.84,876.953,302.734,982.91
1742384243.876,999.512,-329.59,-115.723,999.512
1742384243.88,103.516,-1000.0,-324.707,182.129
1742384243.884,-1000.0,-824.707,-112.305,-1000.0
1742384243.888,-353.516,286.133,282.227,-384.277
1742384243.845,-1000.0,-742.676,4.883,-1000.0
1742384243.849,-182.129,325.195,340.332,-208.984
1742384243.853,999.512,999.512,324.707,999.512
1742384243.857,999.512,225.586,-55.176,999.512
1742384243.861,-190.43,-1000.0,-273.926,-134.277
1742384243.865,-1000.0,-296.875,-2.441,-1000.0
1742384243.869,-166.992,999.512,404.297,-166.992
1742384243.872,985.84,876.953,302.734,982.91
1742384243.876,999.512,-329.59,-115.723,999.512
1742384243.88,103.516,-1000.0,-324.707,182.129
1742384243.884,-1000.0,-824.707,-112.305,-1000.0
1742384243.888,-353.516,286.133,282.227,-384.277
1742384243.887,925.781,999.512,337.891,920.898
1742384243.891,999.512,652.344,45.898,999.512
1742384243.895,188.965,-573.242,-256.348,190.43
1742384243.899,-1000.0,-1000.0,-104.004,-1000.0
1742384243.903,-522.949,-49.805,345.215,-583.984
1742384243.907,727.539,971.191,433.594,686.035
1742384243.911,999.512,952.637,100.586,999.512
1742384243.914,178.223,-156.738,-332.031,176.758
1742384243.918,-1000.0,-1000.0,-272.949,-1000.0
1742384243.922,-892.578,-533.691,178.223,-883.301
1742384243.926,419.922,848.145,351.074,417.48
1742384243.93,999.512,908.203,117.676,999.512
1742384243.887,925.781,999.512,337.891,920.898
1742384243.891,999.512,652.344,45.898,999.512
1742384243.895,188.965,-573.242,-256.348,190.43
1742384243.899,-1000.0,-1000.0,-104.004,-1000.0
1742384243.903,-522.949,-49.805,345.215,-583.984
1742384243.907,727.539,971.191,433.594,686.035
1742384243.911,999.512,952.637,100.586,999.512
1742384243.914,178.223,-156.738,-332.031,176.758
1742384243.918,-1000.0,-1000.0,-272.949,-1000.0
1742384243.922,-892.578,-533.691,178.223,-883.301
1742384243.926,419.922,848.145,351.074,417.48
1742384243.93,999.512,908.203,117.676,999.512
1742384243.947,264.648,-360.352,-262.207,363.77
1742384243.951,-1000.0,-1000.0,-153.809,-1000.0
1742384243.955,-888.672,-144.043,293.457,-891.602
1742384243.959,456.543,999.512,458.008,490.723
1742384243.963,999.512,525.391,229.004,999.512
1742384243.967,739.258,-215.332,-149.902,843.262
1742384243.971,-524.902,-599.609,-155.273,-373.535
1742384243.974,-1000.0,-1000.0,134.766,-1000.0
1742384243.978,-223.633,-232.91,354.004,-193.848
1742384243.982,999.512,999.512,260.254,999.512
1742384243.986,633.789,213.867,-188.477,779.297
1742384243.99,-758.789,-1000.0,-265.137,-572.266
1742384243.947,264.648,-360.352,-262.207,363.77
1742384243.951,-1000.0,-1000.0,-153.809,-1000.0
1742384243.955,-888.672,-144.043,293.457,-891.602
1742384243.959,456.543,999.512,458.008,490.723
1742384243.963,999.512,525.391,229.004,999.512
1742384243.967,739.258,-215.332,-149.902,843.262
1742384243.971,-524.902,-599.609,-155.273,-373.535
1742384243.974,-1000.0,-1000.0,134.766,-1000.0
1742384243.978,-223.633,-232.91,354.004,-193.848
1742384243.982,999.512,999.512,260.254,999.512
1742384243.986,633.789,213.867,-188.477,779.297
1742384243.99,-758.789,-1000.0,-265.137,-572.266
1742384243.992,-1000.0,-889.648,71.289,-1000.0
1742384243.996,-225.098,278.32,358.887,-202.637
1742384244.0,999.512,999.512,262.695,999.512
1742384244.004,678.711,75.195,-219.238,759.766
1742384244.008,-706.543,-1000.0,-377.441,-598.633
1742384244.012,-1000.0,-93.262,1.465,-1000.0
1742384244.016,-196.777,999.512,379.395,-185.547
1742384244.019,999.512,961.914,278.32,999.512
1742384244.023,928.711,-83.496,-194.824,986.328
1742384244.027,-338.867,-1000.0,-408.691,-214.844
1742384244.031,-1000.0,-976.074,-126.953,-1000.0
1742384244.035,-237.305,65.918,267.578,-286.621
1742384244.037,970.215,999.512,244.141,948.242
1742384244.041,999.512,179.199,-148.926,999.512
1742384244.045,-17.09,-1000.0,-374.512,39.551
1742384244.049,-1000.0,-980.469,-150.879,-1000.0
1742384244.053,-534.18,19.043,234.863,-592.285
1742384244.057,825.684,999.512,294.922,767.09
1742384244.061,999.512,739.746,-16.113,999.512
1742384244.064,98.633,-534.18,-394.531,130.371
1742384244.068,-1000.0,-1000.0,-286.621,-1000.0
1742384244.072,-713.379,-227.539,177.734,-809.082
1742384244.076,648.926,999.512,311.035,533.691
1742384244.08,999.512,279.785,-43.457,999.512
1742384244.037,970.215,999.512,244.141,948.242
1742384244.041,999.512,179.199,-148.926,999.512
1742384244.045,-17.09,-1000.0,-374.512,39.551
1742384244.049,-1000.0,-980.469,-150.879,-1000.0
1742384244.053,-534.18,19.043,234.863,-592.285
1742384244.057,825.684,999.512,294.922,767.09
1742384244.061,999.512,739.746,-16.113,999.512
1742384244.064,98.633,-534.18,-394.531,130.371
1742384244.068,-1000.0,-1000.0,-286.621,-1000.0
1742384244.072,-713.379,-227.539,177.734,-809.082
1742384244.076,648.926,999.512,311.035,533.691
1742384244.08,999.512,279.785,-43.457,999.512
1742384244.082,150.879,-1000.0,-483.887,133.301
1742384244.086,-1000.0,-967.285,-332.52,-1000.0
1742384244.09,-997.559,176.758,106.445,-1000.0
1742384244.094,251.465,999.512,188.965,150.391
1742384244.098,999.512,462.402,-54.688,999.512
1742384244.102,131.348,-804.199,-437.012,151.855
1742384244.106,-1000.0,-1000.0,-363.281,-1000.0
1742384244.109,-1000.0,39.062,19.043,-1000.0
1742384244.113,-100.098,999.512,187.012,-161.621
1742384244.117,999.512,415.039,17.578,999.512
1742384244.121,243.652,-844.727,-437.5,280.762
1742384244.125,-1000.0,-1000.0,-435.059,-998.535
1742384244.082,150.879,-1000.0,-483.887,133.301
1742384244.086,-1000.0,-967.285,-332.52,-1000.0
1742384244.09,-997.559,176.758,106.445,-1000.0
1742384244.094,251.465,999.512,188.965,150.391
1742384244.098,999.512,462.402,-54.688,999.512
1742384244.102,131.348,-804.199,-437.012,151.855
1742384244.106,-1000.0,-1000.0,-363.281,-1000.0
1742384244.109,-1000.0,39.062,19.043,-1000.0
1742384244.113,-100.098,999.512,187.012,-161.621
1742384244.117,999.512,415.039,17.578,999.512
1742384244.121,243.652,-844.727,-437.5,280.762
1742384244.125,-1000.0,-1000.0,-435.059,-998.535
1742384244.127,-1000.0,-510.742,-7.324,-1000.0
1742384244.131,-46.875,763.672,321.777,-115.723
1742384244.135,999.512,890.137,221.68,999.512
1742384244.139,523.926,-359.863,-210.449,572.266
1742384244.143,-835.449,-1000.0,-273.438,-791.992
1742384244.147,-1000.0,-146.973,107.91,-1000.0
1742384244.151,-164.551,999.512,484.375,-181.152
1742384244.154,999.512,667.48,362.305,999.512
1742384244.158,723.145,-600.586,-119.629,776.367
1742384244.162,-637.207,-1000.0,-224.609,-567.383
1742384244.166,-1000.0,-563.965,50.781,-1000.0
1742384244.17,-187.5,728.027,378.906,-184.082
1742384244.127,-1000.0,-510.742,-7.324,-1000.0
1742384244.131,-46.875,763.672,321.777,-115.723
1742384244.135,999.512,890.137,221.68,999.512
1742384244.139,523.926,-359.863,-210.449,572.266
1742384244.143,-835.449,-1000.0,-273.438,-791.992
1742384244.147,-1000.0,-146.973,107.91,-1000.0
1742384244.151,-164.551,999.512,484.375,-181.152
1742384244.154,999.512,667.48,362.305,999.512
1742384244.158,723.145,-600.586,-119.629,776.367
1742384244.162,-637.207,-1000.0,-224.609,-567.383
1742384244.166,-1000.0,-563.965,50.781,-1000.0
1742384244.17,-187.5,728.027,378.906,-184.082
1742384244.187,999.512,927.734,343.262,999.512
1742384244.191,988.281,-250.977,-1.953,991.699
1742384244.195,-231.934,-1000.0,-54.199,-195.801
1742384244.199,-1000.0,-124.023,286.133,-1000.0
1742384244.203,-258.789,999.023,661.621,-317.383
1742384244.207,959.961,958.008,702.148,935.059
1742384244.211,999.512,831.543,306.641,999.512
1742384244.214,18.555,-335.938,-10.742,47.363
1742384244.218,-1000.0,-1000.0,124.512,-1000.0
1742384244.222,-472.656,-309.57,504.395,-492.188
1742384244.226,864.258,999.512,559.57,852.051
1742384244.23,999.512,707.031,171.387,999.512
1742384244.217,146.973,-711.914,-191.406,180.176
1742384244.221,-1000.0,-954.59,-47.363,-1000.0
1742384244.225,-516.602,367.676,364.258,-548.34
1742384244.229,851.074,999.512,432.129,826.172
1742384244.233,999.512,650.879,152.832,999.512
1742384244.237,162.109,-477.051,-224.121,161.133
1742384244.241,-1000.0,-1000.0,-111.328,-1000.0
1742384244.244,-1000.0,-395.996,274.902,-1000.0
1742384244.248,170.898,719.727,342.773,166.504
1742384244.252,999.512,839.355,135.742,999.512
1742384244.256,155.273,-451.172,-275.391,158.203
1742384244.26,-1000.0,-1000.0,-207.52,-1000.0
1742384244.217,146.973,-711.914,-191.406,180.176
1742384244.221,-1000.0,-954.59,-47.363,-1000.0
1742384244.225,-516.602,367.676,364.258,-548.34
1742384244.229,851.074,999.512,432.129,826.172
1742384244.233,999.512,650.879,152.832,999.512
1742384244.237,162.109,-477.051,-224.121,161.133
1742384244.241,-1000.0,-1000.0,-111.328,-1000.0
1742384244.244,-1000.0,-395.996,274.902,-1000.0
1742384244.248,170.898,719.727,342.773,166.504
1742384244.252,999.512,839.355,135.742,999.512
1742384244.256,155.273,-451.172,-275.391,158.203
1742384244.26,-1000.0,-1000.0,-207.52,-1000.0
1742384244.262,-1000.0,-269.531,259.766,-1000.0
1742384244.266,193.848,927.734,444.336,142.578
1742384244.27,999.512,954.102,229.004,999.512
1742384244.274,172.852,-230.957,-232.91,232.91
1742384244.278,-1000.0,-1000.0,-235.352,-988.77
1742384244.282,-1000.0,-40.527,174.805,-1000.0
1742384244.286,-65.43,999.512,371.094,-101.562
1742384244.289,999.512,590.332,144.043,999.512
1742384244.293,260.254,-688.965,-346.191,300.781
1742384244.297,-979.004,-1000.0,-384.277,-966.309
1742384244.301,-1000.0,-452.637,1.953,-1000.0
1742384244.305,-258.789,778.809,305.176,-254.395
1742384244.307,999.512,999.512,194.336,999.512
1742384244.311,488.281,65.43,-303.711,517.09
1742384244.315,-892.09,-1000.0,-429.688,-865.723
1742384244.319,-1000.0,-472.656,-93.262,-1000.0
1742384244.323,-214.355,783.691,230.469,-206.055
1742384244.327,999.512,999.512,239.746,999.512
1742384244.331,875.977,462.402,-183.594,917.48
1742384244.334,-427.734,-811.035,-446.289,-347.168
1742384244.338,-1000.0,-1000.0,-192.383,-1000.0
1742384244.342,-287.598,-185.059,207.031,-331.543
1742384244.346,999.512,999.512,257.324,985.352
1742384244.35,940.918,260.742,-224.121,967.285
1742384244.307,999.512,999.512,194.336,999.512
1742384244.311,488.281,65.43,-303.711,517.09
1742384244.315,-892.09,-1000.0,-429.688,-865.723
1742384244.319,-1000.0,-472.656,-93.262,-1000.0
1742384244.323,-214.355,783.691,230.469,-206.055
1742384244.327,999.512,999.512,239.746,999.512
1742384244.331,875.977,462.402,-183.594,917.48
1742384244.334,-427.734,-811.035,-446.289,-347.168
1742384244.338,-1000.0,-1000.0,-192.383,-1000.0
1742384244.342,-287.598,-185.059,207.031,-331.543
1742384244.346,999.512,999.512,257.324,985.352
1742384244.35,940.918,260.742,-224.121,967.285
1742384244.367,-347.168,-1000.0,-560.547,-305.176
1742384244.371,-1000.0,-683.594,-293.945,-1000.0
1742384244.375,-273.926,579.59,145.02,-326.66
1742384244.379,929.199,999.512,177.734,907.227
1742384244.383,999.512,250.0,-182.617,999.512
1742384244.387,182.129,-1000.0,-390.625,184.57
1742384244.391,-1000.0,-693.359,-162.598,-1000.0
1742384244.394,-531.738,591.309,209.473,-600.098
1742384244.398,845.703,999.512,243.652,779.785
1742384244.402,999.512,155.273,-44.434,999.512
1742384244.406,180.176,-977.539,-361.328,172.852
1742384244.41,-1000.0,-1000.0,-213.379,-1000.0
1742384244.367,-347.168,-1000.0,-560.547,-305.176
1742384244.371,-1000.0,-683.594,-293.945,-1000.0
1742384244.375,-273.926,579.59,145.02,-326.66
1742384244.379,929.199,999.512,177.734,907.227
1742384244.383,999.512,250.0,-182.617,999.512
1742384244.387,182.129,-1000.0,-390.625,184.57
1742384244.391,-1000.0,-693.359,-162.598,-1000.0
1742384244.394,-531.738,591.309,209.473,-600.098
1742384244.398,845.703,999.512,243.652,779.785
1742384244.402,999.512,155.273,-44.434,999.512
1742384244.406,180.176,-977.539,-361.328,172.852
1742384244.41,-1000.0,-1000.0,-213.379,-1000.0
1742384244.367,-347.168,-1000.0,-560.547,-305.176
1742384244.371,-1000.0,-683.594,-293.945,-1000.0
1742384244.375,-273.926,579.59,145.02,-326.66
1742384244.379,929.199,999.512,177.734,907.227
1742384244.383,999.512,250.0,-182.617,999.512
1742384244.387,182.129,-1000.0,-390.625,184.57
1742384244.391,-1000.0,-693.359,-162.598,-1000.0
1742384244.394,-531.738,591.309,209.473,-600.098
1742384244.398,845.703,999.512,243.652,779.785
1742384244.402,999.512,155.273,-44.434,999.512
1742384244.406,180.176,-977.539,-361.328,172.852
1742384244.41,-1000.0,-1000.0,-213.379,-1000.0
1742384244.412,-859.863,-249.023,210.938,-886.719
1742384244.416,479.004,945.312,321.289,434.57
1742384244.42,999.512,735.84,21.484,999.512
1742384244.424,193.359,-583.008,-383.301,206.055
1742384244.428,-1000.0,-1000.0,-193.359,-1000.0
1742384244.432,-573.242,45.898,384.766,-618.652
1742384244.436,813.965,999.512,547.852,756.836
1742384244.439,999.512,194.336,222.656,999.512
1742384244.443,201.172,-1000.0,-252.93,261.719
1742384244.447,-1000.0,-1000.0,-220.703,-1000.0
1742384244.451,-1000.0,-175.781,193.359,-1000.0
1742384244.455,137.207,999.512,381.836,143.555
1742384244.457,999.512,474.609,166.016,999.512
1742384244.461,431.152,-826.66,-267.09,528.32
1742384244.465,-940.918,-1000.0,-287.598,-876.953
1742384244.469,-1000.0,-155.273,107.91,-1000.0
1742384244.473,182.129,973.145,357.422,218.75
1742384244.477,999.512,999.512,226.074,999.512
1742384244.481,475.098,176.758,-179.199,562.5
1742384244.484,-840.82,-991.211,-291.504,-750.977
1742384244.488,-1000.0,-1000.0,18.066,-1000.0
1742384244.492,-247.559,-147.461,326.66,-265.625
1742384244.496,999.512,999.512,305.176,999.512
1742384244.5,866.211,475.098,-98.145,899.414
1742384244.457,999.512,474.609,166.016,999.512
1742384244.461,431.152,-826.66,-267.09,528.32
1742384244.465,-940.918,-1000.0,-287.598,-876.953
1742384244.469,-1000.0,-155.273,107.91,-1000.0
1742384244.473,182.129,973.145,357.422,218.75
1742384244.477,999.512,999.512,226.074,999.512
1742384244.481,475.098,176.758,-179.199,562.5
1742384244.484,-840.82,-991.211,-291.504,-750.977
1742384244.488,-1000.0,-1000.0,18.066,-1000.0
1742384244.492,-247.559,-147.461,326.66,-265.625
1742384244.496,999.512,999.512,305.176,999.512
1742384244.5,866.211,475.098,-98.145,899.414
1742384244.503,-465.332,-973.633,-287.598,-410.645
1742384244.507,-1000.0,-741.211,-14.648,-1000.0
1742384244.511,-225.098,625.488,357.422,-269.043
1742384244.515,999.512,999.512,200.195,999.512
1742384244.519,645.508,88.867,-346.191,678.223
1742384244.523,-752.441,-1000.0,-480.957,-720.703
1742384244.527,-1000.0,-348.633,-138.672,-1000.0
1742384244.53,-496.094,999.512,237.793,-598.145
1742384244.534,866.699,773.926,190.43,783.691
1742384244.538,999.512,-464.355,-180.664,999.512
1742384244.542,-217.285,-1000.0,-404.297,-248.047
1742384244.546,-1000.0,-704.102,-216.309,-1000.0
1742384244.503,-465.332,-973.633,-287.598,-410.645
1742384244.507,-1000.0,-741.211,-14.648,-1000.0
1742384244.511,-225.098,625.488,357.422,-269.043
1742384244.515,999.512,999.512,200.195,999.512
1742384244.519,645.508,88.867,-346.191,678.223
1742384244.523,-752.441,-1000.0,-480.957,-720.703
1742384244.527,-1000.0,-348.633,-138.672,-1000.0
1742384244.53,-496.094,999.512,237.793,-598.145
1742384244.534,866.699,773.926,190.43,783.691
1742384244.538,999.512,-464.355,-180.664,999.512
1742384244.542,-217.285,-1000.0,-404.297,-248.047
1742384244.546,-1000.0,-704.102,-216.309,-1000.0
1742384244.547,-529.785,452.637,141.602,-632.324
1742384244.551,794.922,999.512,127.441,688.477
1742384244.555,999.512,427.734,-187.012,999.512
1742384244.559,152.344,-890.137,-482.91,143.555
1742384244.563,-1000.0,-1000.0,-266.602,-1000.0
1742384244.567,-579.59,197.754,224.609,-703.613
1742384244.571,799.805,999.512,349.609,667.48
1742384244.574,999.512,386.719,87.402,999.512
1742384244.578,167.969,-861.328,-311.035,147.949
1742384244.582,-1000.0,-1000.0,-213.379,-1000.0
1742384244.586,-977.051,-486.328,221.191,-1000.0
1742384244.59,291.504,963.379,371.094,177.246
1742384244.547,-529.785,452.637,141.602,-632.324
1742384244.551,794.922,999.512,127.441,688.477
1742384244.555,999.512,427.734,-187.012,999.512
1742384244.559,152.344,-890.137,-482.91,143.555
1742384244.563,-1000.0,-1000.0,-266.602,-1000.0
1742384244.567,-579.59,197.754,224.609,-703.613
1742384244.571,799.805,999.512,349.609,667.48
1742384244.574,999.512,386.719,87.402,999.512
1742384244.578,167.969,-861.328,-311.035,147.949
1742384244.582,-1000.0,-1000.0,-213.379,-1000.0
1742384244.586,-977.051,-486.328,221.191,-1000.0
1742384244.59,291.504,963.379,371.094,177.246
1742384244.592,999.512,540.039,43.945,999.512
1742384244.596,142.578,-874.512,-420.898,140.625
1742384244.6,-1000.0,-1000.0,-333.496,-1000.0
1742384244.604,-1000.0,-56.152,54.688,-1000.0
1742384244.608,58.594,973.145,225.586,-26.855
1742384244.612,999.512,999.512,84.961,999.512
1742384244.616,382.812,275.391,-393.066,407.227
1742384244.619,-908.691,-987.793,-470.703,-904.297
1742384244.623,-1000.0,-1000.0,-62.012,-1000.0
1742384244.627,-240.723,-27.344,204.102,-231.934
1742384244.631,999.512,999.512,104.98,999.512
1742384244.635,561.035,382.324,-355.469,602.539
1742384244.592,999.512,540.039,43.945,999.512
1742384244.596,142.578,-874.512,-420.898,140.625
1742384244.6,-1000.0,-1000.0,-333.496,-1000.0
1742384244.604,-1000.0,-56.152,54.688,-1000.0
1742384244.608,58.594,973.145,225.586,-26.855
1742384244.612,999.512,999.512,84.961,999.512
1742384244.616,382.812,275.391,-393.066,407.227
1742384244.619,-908.691,-987.793,-470.703,-904.297
1742384244.623,-1000.0,-1000.0,-62.012,-1000.0
1742384244.627,-240.723,-27.344,204.102,-231.934
1742384244.631,999.512,999.512,104.98,999.512
1742384244.635,561.035,382.324,-355.469,602.539
1742384244.592,999.512,540.039,43.945,999.512
1742384244.596,142.578,-874.512,-420.898,140.625
1742384244.6,-1000.0,-1000.0,-333.496,-1000.0
1742384244.604,-1000.0,-56.152,54.688,-1000.0
1742384244.608,58.594,973.145,225.586,-26.855
1742384244.612,999.512,999.512,84.961,999.512
1742384244.616,382.812,275.391,-393.066,407.227
1742384244.619,-908.691,-987.793,-470.703,-904.297
1742384244.623,-1000.0,-1000.0,-62.012,-1000.0
1742384244.627,-240.723,-27.344,204.102,-231.934
1742384244.631,999.512,999.512,104.98,999.512
1742384244.635,561.035,382.324,-355.469,602.539
1742384244.637,-833.496,-1000.0,-457.52,-787.109
1742384244.641,-1000.0,-894.531,-90.82,-1000.0
1742384244.645,-236.328,375.0,206.055,-230.469
1742384244.649,999.512,999.512,123.535,999.512
1742384244.653,550.293,-23.926,-354.492,598.633
1742384244.657,-843.262,-1000.0,-462.891,-787.598
1742384244.661,-1000.0,-73.73,-81.055,-1000.0
1742384244.664,-198.242,999.512,225.098,-192.383
1742384244.668,999.512,513.184,109.863,999.512
1742384244.672,967.773,-775.391,-274.414,983.887
1742384244.676,-281.738,-1000.0,-407.227,-232.91
1742384244.68,-1000.0,-703.613,-146.484,-1000.0
1742384244.637,-833.496,-1000.0,-457.52,-787.109
1742384244.641,-1000.0,-894.531,-90.82,-1000.0
1742384244.645,-236.328,375.0,206.055,-230.469
1742384244.649,999.512,999.512,123.535,999.512
1742384244.653,550.293,-23.926,-354.492,598.633
1742384244.657,-843.262,-1000.0,-462.891,-787.598
1742384244.661,-1000.0,-73.73,-81.055,-1000.0
1742384244.664,-198.242,999.512,225.098,-192.383
1742384244.668,999.512,513.184,109.863,999.512
1742384244.672,967.773,-775.391,-274.414,983.887
1742384244.676,-281.738,-1000.0,-407.227,-232.91
1742384244.68,-1000.0,-703.613,-146.484,-1000.0
1742384244.683,-171.875,484.375,285.156,-196.777
1742384244.687,995.605,999.512,292.969,981.445
1742384244.691,999.512,60.059,-146.484,999.512
1742384244.695,-31.738,-1000.0,-390.137,41.016
1742384244.699,-1000.0,-1000.0,-144.531,-1000.0
1742384244.703,-179.199,206.543,332.52,-184.082
1742384244.707,994.629,999.512,364.258,995.117
1742384244.71,999.512,-116.699,-86.426,999.512
1742384244.714,110.352,-1000.0,-395.508,168.945
1742384244.718,-1000.0,-945.312,-167.48,-1000.0
1742384244.722,-438.965,113.77,319.824,-477.051
1742384244.726,887.207,999.512,425.781,872.559
1742384244.683,-171.875,484.375,285.156,-196.777
1742384244.687,995.605,999.512,292.969,981.445
1742384244.691,999.512,60.059,-146.484,999.512
1742384244.695,-31.738,-1000.0,-390.137,41.016
1742384244.699,-1000.0,-1000.0,-144.531,-1000.0
1742384244.703,-179.199,206.543,332.52,-184.082
1742384244.707,994.629,999.512,364.258,995.117
1742384244.71,999.512,-116.699,-86.426,999.512
1742384244.714,110.352,-1000.0,-395.508,168.945
1742384244.718,-1000.0,-945.312,-167.48,-1000.0
1742384244.722,-438.965,113.77,319.824,-477.051
1742384244.726,887.207,999.512,425.781,872.559
1742384244.683,-171.875,484.375,285.156,-196.777
1742384244.687,995.605,999.512,292.969,981.445
1742384244.691,999.512,60.059,-146.484,999.512
1742384244.695,-31.738,-1000.0,-390.137,41.016
1742384244.699,-1000.0,-1000.0,-144.531,-1000.0
1742384244.703,-179.199,206.543,332.52,-184.082
1742384244.707,994.629,999.512,364.258,995.117
1742384244.71,999.512,-116.699,-86.426,999.512
1742384244.714,110.352,-1000.0,-395.508,168.945
1742384244.718,-1000.0,-945.312,-167.48,-1000.0
1742384244.722,-438.965,113.77,319.824,-477.051
1742384244.726,887.207,999.512,425.781,872.559
1742384244.742,999.512,177.246,91.797,999.512
1742384244.746,200.195,-1000.0,-257.812,193.359
1742384244.75,-1000.0,-1000.0,-143.555,-1000.0
1742384244.754,-722.168,69.824,284.668,-769.531
1742384244.758,644.043,984.863,469.238,574.707
1742384244.762,999.512,999.512,263.672,999.512
1742384244.766,132.324,73.73,-179.688,179.688
1742384244.769,-1000.0,-1000.0,-175.781,-993.164
1742384244.773,-1000.0,-1000.0,224.609,-1000.0
1742384244.777,-100.098,129.395,412.598,-109.863
1742384244.781,999.512,999.512,315.918,999.512
1742384244.785,253.906,-83.496,-107.422,296.875
1742384244.742,999.512,177.246,91.797,999.512
1742384244.746,200.195,-1000.0,-257.812,193.359
1742384244.75,-1000.0,-1000.0,-143.555,-1000.0
1742384244.754,-722.168,69.824,284.668,-769.531
1742384244.758,644.043,984.863,469.238,574.707
1742384244.762,999.512,999.512,263.672,999.512
1742384244.766,132.324,73.73,-179.688,179.688
1742384244.769,-1000.0,-1000.0,-175.781,-993.164
1742384244.773,-1000.0,-1000.0,224.609,-1000.0
1742384244.777,-100.098,129.395,412.598,-109.863
1742384244.781,999.512,999.512,315.918,999.512
1742384244.785,253.906,-83.496,-107.422,296.875
1742384244.788,-1000.0,-1000.0,-117.188,-982.422
1742384244.792,-1000.0,-229.98,289.551,-1000.0
1742384244.796,-101.562,999.512,374.512,-144.043
1742384244.8,999.512,997.07,64.941,999.512
1742384244.804,352.539,-142.09,-435.059,435.059
1742384244.808,-967.285,-1000.0,-464.355,-928.711
1742384244.812,-1000.0,3.418,-14.16,-1000.0
1742384244.815,-52.246,999.512,304.688,-52.246
1742384244.819,999.512,265.625,108.398,999.512
1742384244.823,591.797,-974.121,-361.328,676.758
1742384244.827,-760.742,-1000.0,-416.504,-661.621
1742384244.831,-1000.0,-413.086,-82.031,-1000.0
1742384244.788,-1000.0,-1000.0,-117.188,-982.422
1742384244.792,-1000.0,-229.98,289.551,-1000.0
1742384244.796,-101.562,999.512,374.512,-144.043
1742384244.8,999.512,997.07,64.941,999.512
1742384244.804,352.539,-142.09,-435.059,435.059
1742384244.808,-967.285,-1000.0,-464.355,-928.711
1742384244.812,-1000.0,3.418,-14.16,-1000.0
1742384244.815,-52.246,999.512,304.688,-52.246
1742384244.819,999.512,265.625,108.398,999.512
1742384244.823,591.797,-974.121,-361.328,676.758
1742384244.827,-760.742,-1000.0,-416.504,-661.621
1742384244.831,-1000.0,-413.086,-82.031,-1000.0
1742384244.832,-205.566,809.57,200.684,-191.406
1742384244.836,999.512,999.512,111.816,999.512
1742384244.84,884.277,160.645,-315.43,966.797
1742384244.844,-424.805,-1000.0,-456.543,-275.879
1742384244.848,-1000.0,-632.812,-129.883,-1000.0
1742384244.852,-181.152,662.598,252.93,-177.734
1742384244.856,999.512,999.512,225.586,999.512
1742384244.859,999.512,140.137,-146.484,999.512
1742384244.863,-169.434,-1000.0,-411.133,-87.402
1742384244.867,-1000.0,-1000.0,-168.945,-1000.0
1742384244.871,-327.637,-12.695,312.012,-364.746
1742384244.875,930.176,999.512,329.59,911.621
1742384244.832,-205.566,809.57,200.684,-191.406
1742384244.836,999.512,999.512,111.816,999.512
1742384244.84,884.277,160.645,-315.43,966.797
1742384244.844,-424.805,-1000.0,-456.543,-275.879
1742384244.848,-1000.0,-632.812,-129.883,-1000.0
1742384244.852,-181.152,662.598,252.93,-177.734
1742384244.856,999.512,999.512,225.586,999.512
1742384244.859,999.512,140.137,-146.484,999.512
1742384244.863,-169.434,-1000.0,-411.133,-87.402
1742384244.867,-1000.0,-1000.0,-168.945,-1000.0
1742384244.871,-327.637,-12.695,312.012,-364.746
1742384244.875,930.176,999.512,329.59,911.621
1742384245.342,-1000.0,-1000.0,-252.441,-1000.0
1742384245.346,-171.387,-60.547,139.16,-201.66
1742384245.35,995.117,999.512,150.391,983.398
1742384245.354,999.512,469.238,-141.602,999.512
1742384245.358,-9.277,-1000.0,-307.617,30.762
1742384245.362,-1000.0,-314.941,-69.824,-1000.0
1742384245.366,-387.207,999.512,327.148,-438.477
1742384245.369,916.504,999.512,300.293,889.16
1742384245.373,999.512,-90.82,-73.242,999.512
1742384245.377,61.035,-1000.0,-345.703,102.051
1742384245.381,-1000.0,-935.059,-145.508,-1000.0
1742384245.385,-514.16,184.082,237.793,-571.777
1742384244.832,-205.566,809.57,200.684,-191.406
1742384244.836,999.512,999.512,111.816,999.512
1742384244.84,884.277,160.645,-315.43,966.797
1742384244.844,-424.805,-1000.0,-456.543,-275.879
1742384244.848,-1000.0,-632.812,-129.883,-1000.0
1742384244.852,-181.152,662.598,252.93,-177.734
1742384244.856,999.512,999.512,225.586,999.512
1742384244.859,999.512,140.137,-146.484,999.512
1742384244.863,-169.434,-1000.0,-411.133,-87.402
1742384244.867,-1000.0,-1000.0,-168.945,-1000.0
1742384244.871,-327.637,-12.695,312.012,-364.746
1742384244.875,930.176,999.512,329.59,911.621
1742384244.878,999.512,218.75,-58.105,999.512
1742384244.882,64.453,-1000.0,-367.188,119.629
1742384244.886,-1000.0,-834.473,-211.426,-1000.0
1742384244.89,-563.965,421.387,164.551,-621.582
1742384244.894,797.363,999.512,202.637,747.07
1742384244.898,999.512,918.945,-62.5,999.512
1742384244.902,147.461,-150.391,-407.227,145.02
1742384244.905,-1000.0,-1000.0,-326.66,-1000.0
1742384244.909,-1000.0,-1000.0,118.652,-1000.0
1742384244.913,27.832,99.609,297.363,13.184
1742384244.917,999.512,999.512,60.547,999.512
1742384244.921,237.305,89.355,-339.355,258.301
1742384244.878,999.512,218.75,-58.105,999.512
1742384244.882,64.453,-1000.0,-367.188,119.629
1742384244.886,-1000.0,-834.473,-211.426,-1000.0
1742384244.89,-563.965,421.387,164.551,-621.582
1742384244.894,797.363,999.512,202.637,747.07
1742384244.898,999.512,918.945,-62.5,999.512
1742384244.902,147.461,-150.391,-407.227,145.02
1742384244.905,-1000.0,-1000.0,-326.66,-1000.0
1742384244.909,-1000.0,-1000.0,118.652,-1000.0
1742384244.913,27.832,99.609,297.363,13.184
1742384244.917,999.512,999.512,60.547,999.512
1742384244.921,237.305,89.355,-339.355,258.301
1742384244.922,-1000.0,-1000.0,-330.078,-1000.0
1742384244.926,-1000.0,-661.621,63.965,-1000.0
1742384244.93,81.055,749.512,283.203,28.32
1742384244.934,999.512,924.805,61.523,999.512
1742384244.938,165.039,-489.746,-384.277,218.75
1742384244.942,-1000.0,-925.293,-315.918,-1000.0
1742384244.946,-1000.0,383.789,82.52,-1000.0
1742384244.949,2.93,999.512,264.16,-26.855
1742384244.953,999.512,170.898,110.84,999.512
1742384244.957,269.531,-1000.0,-305.664,292.969
1742384244.961,-970.703,-1000.0,-305.664,-961.914
1742384244.965,-1000.0,-163.574,121.582,-1000.0
1742384244.982,-222.168,950.684,355.469,-229.98
1742384244.986,999.512,999.512,244.629,999.512
1742384244.99,644.043,364.746,-118.652,705.078
1742384244.994,-743.164,-961.914,-225.586,-668.457
1742384244.998,-1000.0,-1000.0,114.746,-1000.0
1742384245.002,-221.68,189.453,489.258,-215.82
1742384245.006,999.512,999.512,385.254,999.512
1742384245.009,707.031,-235.352,-129.395,740.234
1742384245.013,-664.551,-1000.0,-252.93,-609.375
1742384245.017,-1000.0,-450.684,72.266,-1000.0
1742384245.021,-261.23,811.035,407.227,-326.66
1742384245.025,999.512,999.512,327.148,993.164
1742384244.982,-222.168,950.684,355.469,-229.98
1742384244.986,999.512,999.512,244.629,999.512
1742384244.99,644.043,364.746,-118.652,705.078
1742384244.994,-743.164,-961.914,-225.586,-668.457
1742384244.998,-1000.0,-1000.0,114.746,-1000.0
1742384245.002,-221.68,189.453,489.258,-215.82
1742384245.006,999.512,999.512,385.254,999.512
1742384245.009,707.031,-235.352,-129.395,740.234
1742384245.013,-664.551,-1000.0,-252.93,-609.375
1742384245.017,-1000.0,-450.684,72.266,-1000.0
1742384245.021,-261.23,811.035,407.227,-326.66
1742384245.025,999.512,999.512,327.148,993.164
1742384245.012,892.09,87.891,-137.207,933.105
1742384245.016,-418.457,-1000.0,-357.422,-359.863
1742384245.02,-1000.0,-621.094,-140.137,-1000.0
1742384245.024,-282.715,674.805,176.758,-326.172
1742384245.028,922.363,999.512,170.898,905.762
1742384245.032,999.512,917.48,-154.785,999.512
1742384245.036,150.391,-97.168,-421.875,143.066
1742384245.039,-1000.0,-1000.0,-301.27,-1000.0
1742384245.043,-948.73,-820.801,42.48,-979.98
1742384245.047,331.055,571.777,138.672,272.949
1742384245.051,999.512,901.855,-139.648,999.512
1742384245.055,176.758,-427.246,-493.652,163.086
1742384245.012,892.09,87.891,-137.207,933.105
1742384245.016,-418.457,-1000.0,-357.422,-359.863
1742384245.02,-1000.0,-621.094,-140.137,-1000.0
1742384245.024,-282.715,674.805,176.758,-326.172
1742384245.028,922.363,999.512,170.898,905.762
1742384245.032,999.512,917.48,-154.785,999.512
1742384245.036,150.391,-97.168,-421.875,143.066
1742384245.039,-1000.0,-1000.0,-301.27,-1000.0
1742384245.043,-948.73,-820.801,42.48,-979.98
1742384245.047,331.055,571.777,138.672,272.949
1742384245.051,999.512,901.855,-139.648,999.512
1742384245.055,176.758,-427.246,-493.652,163.086
1742384245.073,-1000.0,-1000.0,-321.777,-1000.0
1742384245.077,-719.238,-157.227,98.145,-811.523
1742384245.081,662.109,999.512,194.336,538.086
1742384245.085,999.512,631.836,-90.82,999.512
1742384245.089,150.391,-882.324,-545.898,139.16
1742384245.093,-1000.0,-570.312,-448.73,-1000.0
1742384245.097,-1000.0,828.125,-45.41,-1000.0
1742384245.1,151.855,999.512,64.941,82.031
1742384245.104,999.512,235.84,-142.578,999.512
1742384245.108,139.648,-956.055,-590.332,139.16
1742384245.112,-1000.0,-1000.0,-535.156,-1000.0
1742384245.116,-1000.0,-129.883,-100.586,-1000.0
1742384245.073,-1000.0,-1000.0,-321.777,-1000.0
1742384245.077,-719.238,-157.227,98.145,-811.523
1742384245.081,662.109,999.512,194.336,538.086
1742384245.085,999.512,631.836,-90.82,999.512
1742384245.089,150.391,-882.324,-545.898,139.16
1742384245.093,-1000.0,-570.312,-448.73,-1000.0
1742384245.097,-1000.0,828.125,-45.41,-1000.0
1742384245.1,151.855,999.512,64.941,82.031
1742384245.104,999.512,235.84,-142.578,999.512
1742384245.108,139.648,-956.055,-590.332,139.16
1742384245.112,-1000.0,-1000.0,-535.156,-1000.0
1742384245.116,-1000.0,-129.883,-100.586,-1000.0
1742384245.118,-43.945,999.512,59.57,-136.719
1742384245.122,999.512,999.512,-83.496,999.512
1742384245.126,417.48,13.184,-495.605,465.82
1742384245.13,-950.195,-1000.0,-471.191,-927.734
1742384245.134,-1000.0,-233.887,-22.461,-1000.0
1742384245.138,92.773,955.078,201.66,56.152
1742384245.142,999.512,999.512,7.812,999.512
1742384245.145,402.344,-52.734,-460.449,457.031
1742384245.149,-895.02,-1000.0,-558.105,-867.188
1742384245.153,-1000.0,-117.676,-125.0,-1000.0
1742384245.157,-235.352,999.512,219.238,-224.609
1742384245.161,999.512,991.211,115.234,999.512
1742384245.118,-43.945,999.512,59.57,-136.719
1742384245.122,999.512,999.512,-83.496,999.512
1742384245.126,417.48,13.184,-495.605,465.82
1742384245.13,-950.195,-1000.0,-471.191,-927.734
1742384245.134,-1000.0,-233.887,-22.461,-1000.0
1742384245.138,92.773,955.078,201.66,56.152
1742384245.142,999.512,999.512,7.812,999.512
1742384245.145,402.344,-52.734,-460.449,457.031
1742384245.149,-895.02,-1000.0,-558.105,-867.188
1742384245.153,-1000.0,-117.676,-125.0,-1000.0
1742384245.157,-235.352,999.512,219.238,-224.609
1742384245.161,999.512,991.211,115.234,999.512
1742384245.192,698.73,-25.391,-326.172,764.648
1742384245.196,-681.641,-1000.0,-480.469,-591.797
1742384245.2,-1000.0,-462.891,-127.441,-1000.0
1742384245.204,-176.758,795.41,201.172,-171.875
1742384245.208,993.164,999.512,108.887,989.746
1742384245.212,999.512,715.332,-221.68,999.512
1742384245.216,-76.66,-564.453,-404.297,-28.809
1742384245.219,-1000.0,-1000.0,-195.801,-1000.0
1742384245.223,-509.766,-7.812,156.25,-527.344
1742384245.227,854.004,999.512,148.926,836.914
1742384245.231,999.512,633.789,-179.199,999.512
1742384245.235,-35.645,-657.715,-419.434,-2.93
1742384245.197,-1000.0,-1000.0,-284.18,-1000.0
1742384245.201,-397.949,-172.363,151.367,-446.289
1742384245.205,895.02,999.512,234.863,872.559
1742384245.209,999.512,576.66,-138.672,999.512
1742384245.213,192.383,-951.66,-402.344,194.824
1742384245.217,-1000.0,-400.879,-96.191,-1000.0
1742384245.221,-485.352,990.723,332.52,-503.906
1742384245.224,876.465,999.512,269.043,864.258
1742384245.228,999.512,-57.129,-108.398,999.512
1742384245.232,200.684,-1000.0,-435.547,195.312
1742384245.236,-1000.0,-1000.0,-278.809,-1000.0
1742384245.24,-716.797,32.715,170.898,-759.277
1742384245.197,-1000.0,-1000.0,-284.18,-1000.0
1742384245.201,-397.949,-172.363,151.367,-446.289
1742384245.205,895.02,999.512,234.863,872.559
1742384245.209,999.512,576.66,-138.672,999.512
1742384245.213,192.383,-951.66,-402.344,194.824
1742384245.217,-1000.0,-400.879,-96.191,-1000.0
1742384245.221,-485.352,990.723,332.52,-503.906
1742384245.224,876.465,999.512,269.043,864.258
1742384245.228,999.512,-57.129,-108.398,999.512
1742384245.232,200.684,-1000.0,-435.547,195.312
1742384245.236,-1000.0,-1000.0,-278.809,-1000.0
1742384245.24,-716.797,32.715,170.898,-759.277
1742384245.253,648.926,999.512,358.887,586.426
1742384245.257,999.512,901.367,178.711,999.512
1742384245.261,304.688,22.461,-195.312,347.168
1742384245.265,-959.473,-1000.0,-203.613,-935.059
1742384245.269,-1000.0,-1000.0,153.809,-1000.0
1742384245.273,22.461,408.203,389.648,-4.883
1742384245.277,999.512,863.77,178.223,999.512
1742384245.28,255.859,-583.008,-314.941,315.43
1742384245.284,-1000.0,-1000.0,-310.059,-980.957
1742384245.288,-1000.0,-228.027,82.52,-1000.0
1742384245.292,13.184,999.512,272.461,-4.883
1742384245.296,999.512,931.152,24.902,999.512
1742384245.253,648.926,999.512,358.887,586.426
1742384245.257,999.512,901.367,178.711,999.512
1742384245.261,304.688,22.461,-195.312,347.168
1742384245.265,-959.473,-1000.0,-203.613,-935.059
1742384245.269,-1000.0,-1000.0,153.809,-1000.0
1742384245.273,22.461,408.203,389.648,-4.883
1742384245.277,999.512,863.77,178.223,999.512
1742384245.28,255.859,-583.008,-314.941,315.43
1742384245.284,-1000.0,-1000.0,-310.059,-980.957
1742384245.288,-1000.0,-228.027,82.52,-1000.0
1742384245.292,13.184,999.512,272.461,-4.883
1742384245.296,999.512,931.152,24.902,999.512
1742384245.297,450.684,-162.109,-448.242,545.41
1742384245.301,-879.883,-1000.0,-554.199,-801.27
1742384245.305,-1000.0,-544.922,-267.09,-1000.0
1742384245.309,-152.344,838.379,-2.441,-146.484
1742384245.313,999.512,840.82,-102.539,999.512
1742384245.317,969.727,92.285,-462.891,976.074
1742384245.321,-257.812,-685.059,-547.852,-227.539
1742384245.324,-1000.0,-831.543,-263.184,-1000.0
1742384245.328,-227.539,264.16,40.039,-260.254
1742384245.332,999.512,999.512,-46.875,999.512
1742384245.336,987.793,378.418,-425.781,999.512
1742384245.34,-260.742,-886.719,-542.48,-225.586
1742384245.297,450.684,-162.109,-448.242,545.41
1742384245.301,-879.883,-1000.0,-554.199,-801.27
1742384245.305,-1000.0,-544.922,-267.09,-1000.0
1742384245.309,-152.344,838.379,-2.441,-146.484
1742384245.313,999.512,840.82,-102.539,999.512
1742384245.317,969.727,92.285,-462.891,976.074
1742384245.321,-257.812,-685.059,-547.852,-227.539
1742384245.324,-1000.0,-831.543,-263.184,-1000.0
1742384245.328,-227.539,264.16,40.039,-260.254
1742384245.332,999.512,999.512,-46.875,999.512
1742384245.336,987.793,378.418,-425.781,999.512
1742384245.34,-260.742,-886.719,-542.48,-225.586
1742384245.387,838.379,999.512,377.93,790.527
1742384245.391,999.512,968.262,311.523,999.512
1742384245.395,187.5,-57.617,83.984,181.641
1742384245.399,-1000.0,-1000.0,212.891,-1000.0
1742384245.403,-836.426,-371.582,672.852,-862.793
1742384245.407,515.137,901.855,813.477,470.703
1742384245.411,999.512,996.582,541.504,999.512
1742384245.414,139.16,-146.973,47.852,137.695
1742384245.418,-1000.0,-1000.0,-13.672,-1000.0
1742384245.422,-1000.0,-229.492,389.648,-1000.0
1742384245.426,40.039,999.512,540.527,6.836
1742384245.43,999.512,593.75,248.535,999.512
1742384245.387,838.379,999.512,377.93,790.527
1742384245.391,999.512,968.262,311.523,999.512
1742384245.395,187.5,-57.617,83.984,181.641
1742384245.399,-1000.0,-1000.0,212.891,-1000.0
1742384245.403,-836.426,-371.582,672.852,-862.793
1742384245.407,515.137,901.855,813.477,470.703
1742384245.411,999.512,996.582,541.504,999.512
1742384245.414,139.16,-146.973,47.852,137.695
1742384245.418,-1000.0,-1000.0,-13.672,-1000.0
1742384245.422,-1000.0,-229.492,389.648,-1000.0
1742384245.426,40.039,999.512,540.527,6.836
1742384245.43,999.512,593.75,248.535,999.512
1742384245.432,140.625,-723.145,-218.262,142.578
1742384245.436,-1000.0,-1000.0,-185.547,-1000.0
1742384245.44,-1000.0,20.508,229.492,-1000.0
1742384245.444,-141.113,999.512,446.777,-192.871
1742384245.448,999.512,842.285,272.949,999.512
1742384245.452,382.324,-246.094,-229.98,416.504
1742384245.456,-932.617,-1000.0,-308.105,-920.898
1742384245.459,-1000.0,-995.605,20.996,-1000.0
1742384245.463,-249.512,39.551,281.738,-244.629
1742384245.467,999.512,999.512,174.805,999.512
1742384245.471,514.16,156.25,-251.953,551.758
1742384245.475,-876.465,-1000.0,-241.699,-834.473
1742384245.432,140.625,-723.145,-218.262,142.578
1742384245.436,-1000.0,-1000.0,-185.547,-1000.0
1742384245.44,-1000.0,20.508,229.492,-1000.0
1742384245.444,-141.113,999.512,446.777,-192.871
1742384245.448,999.512,842.285,272.949,999.512
1742384245.452,382.324,-246.094,-229.98,416.504
1742384245.456,-932.617,-1000.0,-308.105,-920.898
1742384245.459,-1000.0,-995.605,20.996,-1000.0
1742384245.463,-249.512,39.551,281.738,-244.629
1742384245.467,999.512,999.512,174.805,999.512
1742384245.471,514.16,156.25,-251.953,551.758
1742384245.475,-876.465,-1000.0,-241.699,-834.473
1742384245.492,-1000.0,-376.953,137.207,-1000.0
1742384245.496,-213.379,623.047,473.145,-202.148
1742384245.5,999.512,999.512,408.203,999.512
1742384245.504,865.723,125.977,-104.98,937.012
1742384245.508,-453.613,-1000.0,-245.605,-330.566
1742384245.512,-1000.0,-168.945,75.684,-1000.0
1742384245.516,-192.871,999.512,466.309,-198.242
1742384245.519,999.512,859.863,415.527,999.512
1742384245.523,928.223,-354.492,-60.059,956.055
1742384245.527,-322.754,-1000.0,-314.453,-262.695
1742384245.531,-1000.0,-589.355,-62.988,-1000.0
1742384245.535,-381.348,625.0,381.836,-433.594
1742384245.538,898.926,999.512,395.02,865.723
1742384245.542,999.512,313.965,-10.742,999.512
1742384245.546,26.367,-896.484,-271.484,85.449
1742384245.55,-1000.0,-1000.0,-72.754,-1000.0
1742384245.554,-664.062,-204.102,290.039,-721.191
1742384245.558,693.848,999.512,410.156,632.812
1742384245.562,999.512,649.414,122.07,999.512
1742384245.565,166.016,-704.59,-308.594,166.016
1742384245.569,-1000.0,-1000.0,-181.641,-1000.0
1742384245.573,-754.395,-136.23,287.598,-829.59
1742384245.577,616.211,999.512,389.648,513.672
1742384245.581,999.512,682.617,75.195,999.512
1742384245.538,898.926,999.512,395.02,865.723
1742384245.542,999.512,313.965,-10.742,999.512
1742384245.546,26.367,-896.484,-271.484,85.449
1742384245.55,-1000.0,-1000.0,-72.754,-1000.0
1742384245.554,-664.062,-204.102,290.039,-721.191
1742384245.558,693.848,999.512,410.156,632.812
1742384245.562,999.512,649.414,122.07,999.512
1742384245.565,166.016,-704.59,-308.594,166.016
1742384245.569,-1000.0,-1000.0,-181.641,-1000.0
1742384245.573,-754.395,-136.23,287.598,-829.59
1742384245.577,616.211,999.512,389.648,513.672
1742384245.581,999.512,682.617,75.195,999.512
1742384245.582,154.785,-565.918,-395.02,147.461
1742384245.586,-1000.0,-1000.0,-274.902,-1000.0
1742384245.59,-1000.0,-117.676,171.387,-1000.0
1742384245.594,211.426,999.512,269.043,127.441
1742384245.598,999.512,863.281,55.176,999.512
1742384245.602,265.137,-283.691,-285.645,303.223
1742384245.606,-1000.0,-1000.0,-234.375,-982.422
1742384245.609,-1000.0,-227.051,151.367,-1000.0
1742384245.613,90.332,999.512,316.895,49.316
1742384245.617,999.512,490.234,109.375,999.512
1742384245.621,340.82,-820.312,-320.312,412.109
1742384245.625,-932.129,-1000.0,-374.512,-898.926
1742384245.582,154.785,-565.918,-395.02,147.461
1742384245.586,-1000.0,-1000.0,-274.902,-1000.0
1742384245.59,-1000.0,-117.676,171.387,-1000.0
1742384245.594,211.426,999.512,269.043,127.441
1742384245.598,999.512,863.281,55.176,999.512
1742384245.602,265.137,-283.691,-285.645,303.223
1742384245.606,-1000.0,-1000.0,-234.375,-982.422
1742384245.609,-1000.0,-227.051,151.367,-1000.0
1742384245.613,90.332,999.512,316.895,49.316
1742384245.617,999.512,490.234,109.375,999.512
1742384245.621,340.82,-820.312,-320.312,412.109
1742384245.625,-932.129,-1000.0,-374.512,-898.926
1742384245.627,-1000.0,-969.727,-33.203,-1000.0
1742384245.631,-201.66,144.531,280.273,-193.848
1742384245.635,999.512,999.512,217.773,999.512
1742384245.639,529.785,18.066,-265.137,615.723
1742384245.643,-854.98,-1000.0,-375.977,-767.578
1742384245.647,-1000.0,-142.09,15.137,-1000.0
1742384245.651,-209.473,999.512,314.941,-186.523
1742384245.654,999.512,593.75,132.812,999.512
1742384245.658,717.773,-721.191,-356.934,790.527
1742384245.662,-653.809,-1000.0,-508.301,-547.363
1742384245.666,-1000.0,-799.805,-223.633,-1000.0
1742384245.67,-183.105,414.551,154.297,-201.172
1742384245.627,-1000.0,-969.727,-33.203,-1000.0
1742384245.631,-201.66,144.531,280.273,-193.848
1742384245.635,999.512,999.512,217.773,999.512
1742384245.639,529.785,18.066,-265.137,615.723
1742384245.643,-854.98,-1000.0,-375.977,-767.578
1742384245.647,-1000.0,-142.09,15.137,-1000.0
1742384245.651,-209.473,999.512,314.941,-186.523
1742384245.654,999.512,593.75,132.812,999.512
1742384245.658,717.773,-721.191,-356.934,790.527
1742384245.662,-653.809,-1000.0,-508.301,-547.363
1742384245.666,-1000.0,-799.805,-223.633,-1000.0
1742384245.67,-183.105,414.551,154.297,-201.172
1742384245.672,999.512,968.262,118.652,996.094
1742384245.676,999.512,-192.871,-273.926,999.512
1742384245.68,-182.129,-1000.0,-435.547,-135.742
1742384245.684,-1000.0,-709.961,-199.219,-1000.0
1742384245.688,-165.527,515.625,159.668,-165.039
1742384245.692,983.398,999.512,167.48,980.957
1742384245.696,999.512,725.098,-186.523,999.512
1742384245.699,136.23,-424.805,-541.016,200.684
1742384245.703,-1000.0,-1000.0,-419.922,-1000.0
1742384245.707,-399.414,-269.043,103.027,-420.41
1742384245.711,913.574,999.512,187.988,910.645
1742384245.715,999.512,214.844,-195.801,999.512
1742384245.672,999.512,968.262,118.652,996.094
1742384245.676,999.512,-192.871,-273.926,999.512
1742384245.68,-182.129,-1000.0,-435.547,-135.742
1742384245.684,-1000.0,-709.961,-199.219,-1000.0
1742384245.688,-165.527,515.625,159.668,-165.039
1742384245.692,983.398,999.512,167.48,980.957
1742384245.696,999.512,725.098,-186.523,999.512
1742384245.699,136.23,-424.805,-541.016,200.684
1742384245.703,-1000.0,-1000.0,-419.922,-1000.0
1742384245.707,-399.414,-269.043,103.027,-420.41
1742384245.711,913.574,999.512,187.988,910.645
1742384245.715,999.512,214.844,-195.801,999.512
1742384245.718,197.266,-1000.0,-521.484,208.008
1742384245.722,-1000.0,-982.422,-327.637,-1000.0
1742384245.726,-523.438,90.332,160.645,-549.316
1742384245.73,854.004,999.512,250.0,829.59
1742384245.734,999.512,281.738,-85.938,999.512
1742384245.738,159.668,-965.332,-424.316,159.668
1742384245.742,-1000.0,-1000.0,-317.871,-1000.0
1742384245.745,-1000.0,-833.984,33.691,-1000.0
1742384245.749,136.719,412.598,187.012,136.719
1742384245.753,999.512,999.512,11.23,999.512
1742384245.757,138.672,-8.789,-455.566,135.742
1742384245.761,-1000.0,-1000.0,-426.758,-1000.0
1742384245.718,197.266,-1000.0,-521.484,208.008
1742384245.722,-1000.0,-982.422,-327.637,-1000.0
1742384245.726,-523.438,90.332,160.645,-549.316
1742384245.73,854.004,999.512,250.0,829.59
1742384245.734,999.512,281.738,-85.938,999.512
1742384245.738,159.668,-965.332,-424.316,159.668
1742384245.742,-1000.0,-1000.0,-317.871,-1000.0
1742384245.745,-1000.0,-833.984,33.691,-1000.0
1742384245.749,136.719,412.598,187.012,136.719
1742384245.753,999.512,999.512,11.23,999.512
1742384245.757,138.672,-8.789,-455.566,135.742
1742384245.761,-1000.0,-1000.0,-426.758,-1000.0
1742384245.763,-1000.0,-84.961,66.406,-1000.0
1742384245.767,-53.711,999.512,225.098,-126.465
1742384245.771,999.512,726.562,0.977,999.512
1742384245.775,154.297,-560.059,-459.473,187.012
1742384245.779,-1000.0,-1000.0,-433.594,-1000.0
1742384245.783,-1000.0,38.574,77.637,-1000.0
1742384245.787,-84.961,999.512,277.832,-153.809
1742384245.79,999.512,449.707,-33.203,999.512
1742384245.794,262.695,-823.242,-593.262,303.711
1742384245.798,-979.98,-1000.0,-646.973,-970.703
1742384245.802,-1000.0,-274.902,-231.934,-1000.0
1742384245.806,-246.094,999.512,64.941,-242.676
1742384245.763,-1000.0,-84.961,66.406,-1000.0
1742384245.767,-53.711,999.512,225.098,-126.465
1742384245.771,999.512,726.562,0.977,999.512
1742384245.775,154.297,-560.059,-459.473,187.012
1742384245.779,-1000.0,-1000.0,-433.594,-1000.0
1742384245.783,-1000.0,38.574,77.637,-1000.0
1742384245.787,-84.961,999.512,277.832,-153.809
1742384245.79,999.512,449.707,-33.203,999.512
1742384245.794,262.695,-823.242,-593.262,303.711
1742384245.798,-979.98,-1000.0,-646.973,-970.703
1742384245.802,-1000.0,-274.902,-231.934,-1000.0
1742384245.806,-246.094,999.512,64.941,-242.676
1742384245.822,999.512,824.219,-101.074,999.512
1742384245.826,720.703,-274.902,-540.039,718.262
1742384245.83,-653.32,-983.887,-584.961,-645.508
1742384245.834,-1000.0,-980.957,-301.758,-1000.0
1742384245.838,-208.496,19.531,12.207,-248.535
1742384245.842,999.512,999.512,40.039,982.422
1742384245.846,999.512,587.891,-370.605,999.512
1742384245.849,-213.379,-745.117,-566.895,-160.645
1742384245.853,-1000.0,-1000.0,-270.996,-1000.0
1742384245.857,-223.145,-80.078,114.258,-265.625
1742384245.861,999.512,999.512,81.543,984.375
1742384245.865,999.512,420.898,-322.754,999.512
1742384245.822,999.512,824.219,-101.074,999.512
1742384245.826,720.703,-274.902,-540.039,718.262
1742384245.83,-653.32,-983.887,-584.961,-645.508
1742384245.834,-1000.0,-980.957,-301.758,-1000.0
1742384245.838,-208.496,19.531,12.207,-248.535
1742384245.842,999.512,999.512,40.039,982.422
1742384245.846,999.512,587.891,-370.605,999.512
1742384245.849,-213.379,-745.117,-566.895,-160.645
1742384245.853,-1000.0,-1000.0,-270.996,-1000.0
1742384245.857,-223.145,-80.078,114.258,-265.625
1742384245.861,999.512,999.512,81.543,984.375
1742384245.865,999.512,420.898,-322.754,999.512
1742384245.867,-135.742,-919.922,-577.148,-104.98
1742384245.871,-1000.0,-987.793,-380.859,-1000.0
1742384245.875,-403.32,186.523,15.625,-461.914
1742384245.879,882.812,999.512,62.988,851.562
1742384245.883,999.512,309.082,-276.367,999.512
1742384245.887,162.598,-1000.0,-513.672,170.41
1742384245.891,-1000.0,-834.473,-311.523,-1000.0
1742384245.894,-539.551,518.066,78.613,-596.191
1742384245.898,838.867,999.512,124.023,783.691
1742384245.902,999.512,-255.371,-198.242,999.512
1742384245.906,168.945,-1000.0,-509.766,150.879
1742384245.91,-1000.0,-952.148,-354.98,-1000.0
1742384245.867,-135.742,-919.922,-577.148,-104.98
1742384245.871,-1000.0,-987.793,-380.859,-1000.0
1742384245.875,-403.32,186.523,15.625,-461.914
1742384245.879,882.812,999.512,62.988,851.562
1742384245.883,999.512,309.082,-276.367,999.512
1742384245.887,162.598,-1000.0,-513.672,170.41
1742384245.891,-1000.0,-834.473,-311.523,-1000.0
1742384245.894,-539.551,518.066,78.613,-596.191
1742384245.898,838.867,999.512,124.023,783.691
1742384245.902,999.512,-255.371,-198.242,999.512
1742384245.906,168.945,-1000.0,-509.766,150.879
1742384245.91,-1000.0,-952.148,-354.98,-1000.0
1742384245.913,-982.91,41.504,53.223,-1000.0
1742384245.917,280.273,999.512,155.762,170.898
1742384245.921,999.512,918.945,-73.73,999.512
1742384245.925,153.32,-250.488,-476.074,154.297
1742384245.929,-1000.0,-1000.0,-401.855,-1000.0
1742384245.933,-1000.0,166.504,78.613,-1000.0
1742384245.937,207.52,999.512,241.211,152.832
1742384245.94,999.512,744.629,17.09,999.512
1742384245.944,184.57,-360.352,-422.363,231.445
1742384245.948,-1000.0,-1000.0,-375.0,-984.863
1742384245.952,-1000.0,-334.961,82.52,-1000.0
1742384245.956,-71.289,999.512,296.875,-134.277
1742384245.913,-982.91,41.504,53.223,-1000.0
1742384245.917,280.273,999.512,155.762,170.898
1742384245.921,999.512,918.945,-73.73,999.512
1742384245.925,153.32,-250.488,-476.074,154.297
1742384245.929,-1000.0,-1000.0,-401.855,-1000.0
1742384245.933,-1000.0,166.504,78.613,-1000.0
1742384245.937,207.52,999.512,241.211,152.832
1742384245.94,999.512,744.629,17.09,999.512
1742384245.944,184.57,-360.352,-422.363,231.445
1742384245.948,-1000.0,-1000.0,-375.0,-984.863
1742384245.952,-1000.0,-334.961,82.52,-1000.0
1742384245.956,-71.289,999.512,296.875,-134.277
1742384245.957,999.512,440.918,159.18,999.512
1742384245.961,460.449,-887.695,-252.93,500.488
1742384245.965,-903.32,-1000.0,-273.438,-880.371
1742384245.969,-1000.0,-243.652,101.074,-1000.0
