timestamps,TP9,AF7,AF8,TP10
1742463187.981,999.512,-46.387,-24.902,999.512
1742463187.985,190.43,-81.543,-32.715,109.863
1742463187.989,-1000.0,-84.961,-31.738,-1000.0
1742463187.993,-924.316,-55.664,-41.504,-925.781
1742463187.997,-1000.0,-52.734,-54.199,-1000.0
1742463188.001,-193.359,-8.301,-54.199,-98.633
1742463188.005,999.512,-17.578,-65.918,999.512
1742463188.008,945.801,-66.406,-67.871,932.617
1742463188.012,878.906,-42.969,-46.387,892.09
1742463188.016,999.512,-23.438,-38.574,999.512
1742463188.02,186.523,-68.848,-45.898,128.418
1742463188.024,-1000.0,-83.984,-54.688,-1000.0
1742463188.025,-921.387,-40.527,-49.316,-916.504
1742463188.029,-1000.0,-39.062,-39.062,-1000.0
1742463188.033,-227.539,-10.742,-38.086,-206.543
1742463188.037,999.512,-0.977,-41.016,999.512
1742463188.041,949.707,-25.879,-45.898,940.918
1742463188.045,877.441,-17.09,-41.016,892.09
1742463188.049,999.512,-18.555,-35.156,999.512
1742463188.052,174.316,-59.57,-40.527,74.219
1742463188.056,-1000.0,-66.406,-41.992,-1000.0
1742463188.06,-939.941,-30.273,-42.969,-924.316
1742463188.064,-995.605,-22.461,-44.434,-1000.0
1742463188.068,-966.309,-13.184,-38.086,-870.605
1742463188.025,-921.387,-40.527,-49.316,-916.504
1742463188.029,-1000.0,-39.062,-39.062,-1000.0
1742463188.033,-227.539,-10.742,-38.086,-206.543
1742463188.037,999.512,-0.977,-41.016,999.512
1742463188.041,949.707,-25.879,-45.898,940.918
1742463188.045,877.441,-17.09,-41.016,892.09
1742463188.049,999.512,-18.555,-35.156,999.512
1742463188.052,174.316,-59.57,-40.527,74.219
1742463188.056,-1000.0,-66.406,-41.992,-1000.0
1742463188.06,-939.941,-30.273,-42.969,-924.316
1742463188.064,-995.605,-22.461,-44.434,-1000.0
1742463188.068,-966.309,-13.184,-38.086,-870.605
1742463188.071,391.602,19.043,-22.461,490.234
1742463188.075,999.512,1.465,-22.949,999.512
1742463188.079,881.836,-11.719,-30.273,923.34
1742463188.083,999.512,-12.207,-39.551,909.668
1742463188.087,-201.172,-44.922,-34.668,-381.348
1742463188.091,-1000.0,-23.926,-27.832,-1000.0
1742463188.095,-938.477,-14.16,-38.086,-935.059
1742463188.098,-940.918,-41.504,-47.852,-955.566
1742463188.102,-1000.0,-41.504,-47.363,-1000.0
1742463188.106,-171.387,1.465,-39.551,-89.355
1742463188.11,999.512,10.742,-40.527,999.512
1742463188.114,880.371,-18.066,-52.246,875.0
1742463188.071,391.602,19.043,-22.461,490.234
1742463188.075,999.512,1.465,-22.949,999.512
1742463188.079,881.836,-11.719,-30.273,923.34
1742463188.083,999.512,-12.207,-39.551,909.668
1742463188.087,-201.172,-44.922,-34.668,-381.348
1742463188.091,-1000.0,-23.926,-27.832,-1000.0
1742463188.095,-938.477,-14.16,-38.086,-935.059
1742463188.098,-940.918,-41.504,-47.852,-955.566
1742463188.102,-1000.0,-41.504,-47.363,-1000.0
1742463188.106,-171.387,1.465,-39.551,-89.355
1742463188.11,999.512,10.742,-40.527,999.512
1742463188.114,880.371,-18.066,-52.246,875.0
1742463188.115,999.512,-10.254,-58.105,999.512
1742463188.119,191.895,-36.621,-56.641,177.734
1742463188.123,-1000.0,-47.852,-56.641,-1000.0
1742463188.127,-917.969,-11.719,-68.359,-918.457
1742463188.131,-1000.0,-5.859,-79.59,-1000.0
1742463188.135,-280.762,19.043,-80.566,-261.719
1742463188.139,999.512,33.691,-89.355,999.512
1742463188.142,959.473,3.906,-73.242,958.496
1742463188.146,872.07,3.418,-35.156,874.023
1742463188.15,999.512,14.648,-9.277,999.512
1742463188.154,187.012,-23.926,-8.789,199.219
1742463188.158,-1000.0,-42.969,-16.602,-1000.0
1742463188.115,999.512,-10.254,-58.105,999.512
1742463188.119,191.895,-36.621,-56.641,177.734
1742463188.123,-1000.0,-47.852,-56.641,-1000.0
1742463188.127,-917.969,-11.719,-68.359,-918.457
1742463188.131,-1000.0,-5.859,-79.59,-1000.0
1742463188.135,-280.762,19.043,-80.566,-261.719
1742463188.139,999.512,33.691,-89.355,999.512
1742463188.142,959.473,3.906,-73.242,958.496
1742463188.146,872.07,3.418,-35.156,874.023
1742463188.15,999.512,14.648,-9.277,999.512
1742463188.154,187.012,-23.926,-8.789,199.219
1742463188.158,-1000.0,-42.969,-16.602,-1000.0
1742463188.161,-919.434,1.465,-4.395,-923.828
1742463188.165,-1000.0,9.766,-3.418,-1000.0
1742463188.169,-259.766,41.992,0.977,-238.77
1742463188.173,999.512,56.152,8.301,999.512
1742463188.177,958.984,38.086,8.789,957.52
1742463188.181,870.117,38.086,23.438,871.582
1742463188.185,999.512,31.25,14.648,999.512
1742463188.188,241.699,-16.602,-18.066,265.137
1742463188.192,-1000.0,-38.574,-16.602,-1000.0
1742463188.196,-990.234,-4.883,-10.742,-987.305
1742463188.2,-910.645,1.953,-14.648,-922.363
1742463188.204,-1000.0,0.488,-25.391,-1000.0
1742463188.204,-156.25,24.902,-30.762,-52.734
1742463188.208,999.512,26.855,-21.484,999.512
1742463188.212,974.609,-4.883,-29.297,992.188
1742463188.216,868.652,-30.762,-34.668,741.699
1742463188.22,-468.262,-53.711,-32.715,-599.609
1742463188.224,-1000.0,-25.391,-41.016,-1000.0
1742463188.228,-924.805,-14.16,-42.969,-927.246
1742463188.231,-960.938,-39.062,-41.016,-972.168
1742463188.235,-1000.0,-47.852,-45.41,-1000.0
1742463188.239,-65.918,0.488,-41.992,-6.348
1742463188.243,999.512,12.695,-38.086,999.512
1742463188.247,866.211,-16.113,-35.156,871.582
1742463188.204,-156.25,24.902,-30.762,-52.734
1742463188.208,999.512,26.855,-21.484,999.512
1742463188.212,974.609,-4.883,-29.297,992.188
1742463188.216,868.652,-30.762,-34.668,741.699
1742463188.22,-468.262,-53.711,-32.715,-599.609
1742463188.224,-1000.0,-25.391,-41.016,-1000.0
1742463188.228,-924.805,-14.16,-42.969,-927.246
1742463188.231,-960.938,-39.062,-41.016,-972.168
1742463188.235,-1000.0,-47.852,-45.41,-1000.0
1742463188.239,-65.918,0.488,-41.992,-6.348
1742463188.243,999.512,12.695,-38.086,999.512
1742463188.247,866.211,-16.113,-35.156,871.582
1742463188.251,999.512,-15.625,-41.016,999.512
1742463188.255,189.941,-48.828,-58.105,135.742
1742463188.259,-1000.0,-58.594,-63.477,-1000.0
1742463188.263,-921.387,-31.25,-62.5,-921.875
1742463188.267,-1000.0,-27.344,-70.312,-1000.0
1742463188.271,-227.539,19.043,-62.988,-163.574
1742463188.275,999.512,17.578,-78.125,999.512
1742463188.278,950.684,-33.203,-87.891,942.871
1742463188.282,875.977,-21.973,-52.734,882.324
1742463188.286,999.512,6.836,-44.434,999.512
1742463188.29,187.012,-33.691,-57.129,172.852
1742463188.294,-1000.0,-60.547,-59.57,-1000.0
1742463188.251,999.512,-15.625,-41.016,999.512
1742463188.255,189.941,-48.828,-58.105,135.742
1742463188.259,-1000.0,-58.594,-63.477,-1000.0
1742463188.263,-921.387,-31.25,-62.5,-921.875
1742463188.267,-1000.0,-27.344,-70.312,-1000.0
1742463188.271,-227.539,19.043,-62.988,-163.574
1742463188.275,999.512,17.578,-78.125,999.512
1742463188.278,950.684,-33.203,-87.891,942.871
1742463188.282,875.977,-21.973,-52.734,882.324
1742463188.286,999.512,6.836,-44.434,999.512
1742463188.29,187.012,-33.691,-57.129,172.852
1742463188.294,-1000.0,-60.547,-59.57,-1000.0
1742463188.295,-910.645,-14.16,-45.41,-911.621
1742463188.299,-1000.0,-8.789,-33.203,-1000.0
1742463188.303,-452.148,13.184,-28.32,-397.949
1742463188.307,945.801,24.902,-34.668,966.309
1742463188.311,996.582,-5.859,-41.992,987.305
1742463188.315,850.586,-17.09,-43.457,857.422
1742463188.319,999.512,-33.691,-58.594,999.512
1742463188.322,320.801,-64.941,-61.523,312.988
1742463188.326,-1000.0,-73.73,-56.152,-1000.0
1742463188.33,-971.68,-36.621,-45.41,-962.891
1742463188.334,-964.355,-27.344,-33.691,-993.164
1742463188.338,-1000.0,-26.367,-35.645,-912.109
1742463188.295,-910.645,-14.16,-45.41,-911.621
1742463188.299,-1000.0,-8.789,-33.203,-1000.0
1742463188.303,-452.148,13.184,-28.32,-397.949
1742463188.307,945.801,24.902,-34.668,966.309
1742463188.311,996.582,-5.859,-41.992,987.305
1742463188.315,850.586,-17.09,-43.457,857.422
1742463188.319,999.512,-33.691,-58.594,999.512
1742463188.322,320.801,-64.941,-61.523,312.988
1742463188.326,-1000.0,-73.73,-56.152,-1000.0
1742463188.33,-971.68,-36.621,-45.41,-962.891
1742463188.334,-964.355,-27.344,-33.691,-993.164
1742463188.338,-1000.0,-26.367,-35.645,-912.109
1742463188.342,288.086,11.719,-25.879,427.734
1742463188.346,999.512,-3.906,-32.227,999.512
1742463188.35,864.258,-28.32,-41.016,898.438
1742463188.354,999.512,-25.879,-39.551,984.375
1742463188.358,-64.453,-56.152,-50.293,-219.727
1742463188.362,-1000.0,-37.598,-61.035,-1000.0
1742463188.366,-947.266,-26.855,-64.941,-940.43
1742463188.369,-936.523,-51.758,-80.078,-952.148
1742463188.373,-1000.0,-41.016,-95.215,-1000.0
1742463188.377,-132.812,-9.277,-86.426,-60.059
1742463188.381,999.512,-12.695,-80.078,999.512
1742463188.385,867.188,-45.898,-79.102,866.699
1742463188.342,288.086,11.719,-25.879,427.734
1742463188.346,999.512,-3.906,-32.227,999.512
1742463188.35,864.258,-28.32,-41.016,898.438
1742463188.354,999.512,-25.879,-39.551,984.375
1742463188.358,-64.453,-56.152,-50.293,-219.727
1742463188.362,-1000.0,-37.598,-61.035,-1000.0
1742463188.366,-947.266,-26.855,-64.941,-940.43
1742463188.369,-936.523,-51.758,-80.078,-952.148
1742463188.373,-1000.0,-41.016,-95.215,-1000.0
1742463188.377,-132.812,-9.277,-86.426,-60.059
1742463188.381,999.512,-12.695,-80.078,999.512
1742463188.385,867.188,-45.898,-79.102,866.699
1742463188.4,999.512,-35.156,-62.012,999.512
1742463188.404,332.52,-58.105,-49.316,278.809
1742463188.408,-1000.0,-79.102,-57.129,-1000.0
1742463188.412,-949.219,-50.293,-65.43,-963.379
1742463188.416,-1000.0,-30.762,-61.523,-1000.0
1742463188.42,-184.082,10.742,-51.758,-26.367
1742463188.424,999.512,2.93,-60.059,999.512
1742463188.427,939.941,-35.645,-65.918,922.852
1742463188.431,885.742,-25.391,-60.547,908.203
1742463188.435,999.512,-6.348,-58.105,999.512
1742463188.439,121.094,-41.992,-64.453,34.18
1742463188.443,-1000.0,-60.059,-73.242,-1000.0
1742463188.4,999.512,-35.156,-62.012,999.512
1742463188.404,332.52,-58.105,-49.316,278.809
1742463188.408,-1000.0,-79.102,-57.129,-1000.0
1742463188.412,-949.219,-50.293,-65.43,-963.379
1742463188.416,-1000.0,-30.762,-61.523,-1000.0
1742463188.42,-184.082,10.742,-51.758,-26.367
1742463188.424,999.512,2.93,-60.059,999.512
1742463188.427,939.941,-35.645,-65.918,922.852
1742463188.431,885.742,-25.391,-60.547,908.203
1742463188.435,999.512,-6.348,-58.105,999.512
1742463188.439,121.094,-41.992,-64.453,34.18
1742463188.443,-1000.0,-60.059,-73.242,-1000.0
1742463188.445,-904.785,-20.508,-67.871,-900.879
1742463188.449,-1000.0,-21.973,-65.918,-1000.0
1742463188.453,-361.328,-0.488,-57.617,-333.008
1742463188.457,987.305,19.531,-43.945,995.605
1742463188.461,973.145,-18.066,-41.504,969.727
1742463188.465,865.234,-15.137,-36.621,868.652
1742463188.469,999.512,-4.883,-46.875,999.512
1742463188.472,186.523,-65.918,-54.199,188.477
1742463188.476,-1000.0,-86.426,-56.152,-1000.0
1742463188.48,-911.133,-34.668,-66.406,-915.039
1742463188.484,-1000.0,-33.203,-62.988,-1000.0
1742463188.488,-608.887,-9.766,-57.129,-529.297
1742463188.445,-904.785,-20.508,-67.871,-900.879
1742463188.449,-1000.0,-21.973,-65.918,-1000.0
1742463188.453,-361.328,-0.488,-57.617,-333.008
1742463188.457,987.305,19.531,-43.945,995.605
1742463188.461,973.145,-18.066,-41.504,969.727
1742463188.465,865.234,-15.137,-36.621,868.652
1742463188.469,999.512,-4.883,-46.875,999.512
1742463188.472,186.523,-65.918,-54.199,188.477
1742463188.476,-1000.0,-86.426,-56.152,-1000.0
1742463188.48,-911.133,-34.668,-66.406,-915.039
1742463188.484,-1000.0,-33.203,-62.988,-1000.0
1742463188.488,-608.887,-9.766,-57.129,-529.297
1742463188.489,842.773,19.531,-65.918,879.883
1742463188.493,999.512,-8.301,-68.848,990.723
1742463188.497,847.168,-19.043,-70.312,893.555
1742463188.501,999.512,-14.16,-72.754,999.512
1742463188.505,176.758,-29.297,-53.223,-72.754
1742463188.509,-1000.0,-30.762,-42.48,-1000.0
1742463188.513,-970.703,-12.695,-43.457,-951.66
1742463188.516,-930.176,-27.344,-42.48,-957.031
1742463188.52,-1000.0,-33.203,-30.762,-1000.0
1742463188.524,-18.555,1.953,-20.508,72.266
1742463188.528,999.512,4.395,-18.066,999.512
1742463188.532,888.184,-23.926,-12.207,920.898
1742463188.489,842.773,19.531,-65.918,879.883
1742463188.493,999.512,-8.301,-68.848,990.723
1742463188.497,847.168,-19.043,-70.312,893.555
1742463188.501,999.512,-14.16,-72.754,999.512
1742463188.505,176.758,-29.297,-53.223,-72.754
1742463188.509,-1000.0,-30.762,-42.48,-1000.0
1742463188.513,-970.703,-12.695,-43.457,-951.66
1742463188.516,-930.176,-27.344,-42.48,-957.031
1742463188.52,-1000.0,-33.203,-30.762,-1000.0
1742463188.524,-18.555,1.953,-20.508,72.266
1742463188.528,999.512,4.395,-18.066,999.512
1742463188.532,888.184,-23.926,-12.207,920.898
1742463188.536,999.512,-36.621,-7.324,952.637
1742463188.54,-78.125,-66.406,2.93,-262.695
1742463188.544,-1000.0,-59.082,12.207,-1000.0
1742463188.548,-878.418,-34.668,14.648,-878.906
1742463188.552,-1000.0,-40.039,5.371,-1000.0
1742463188.556,-613.77,2.441,-2.93,-562.5
1742463188.56,831.055,32.715,-4.395,841.797
1742463188.563,999.512,-28.32,-12.695,999.512
1742463188.567,845.703,-41.504,-15.137,852.539
1742463188.571,999.512,-18.066,1.465,999.512
1742463188.575,187.012,-60.059,-0.488,184.082
1742463188.579,-1000.0,-90.82,-20.996,-1000.0
1742463188.536,999.512,-36.621,-7.324,952.637
1742463188.54,-78.125,-66.406,2.93,-262.695
1742463188.544,-1000.0,-59.082,12.207,-1000.0
1742463188.548,-878.418,-34.668,14.648,-878.906
1742463188.552,-1000.0,-40.039,5.371,-1000.0
1742463188.556,-613.77,2.441,-2.93,-562.5
1742463188.56,831.055,32.715,-4.395,841.797
1742463188.563,999.512,-28.32,-12.695,999.512
1742463188.567,845.703,-41.504,-15.137,852.539
1742463188.571,999.512,-18.066,1.465,999.512
1742463188.575,187.012,-60.059,-0.488,184.082
1742463188.579,-1000.0,-90.82,-20.996,-1000.0
1742463188.579,-912.598,-46.875,-19.531,-915.039
1742463188.583,-1000.0,-38.574,-8.789,-1000.0
1742463188.587,-639.648,-22.949,-18.066,-555.176
1742463188.591,812.5,6.348,-23.438,855.469
1742463188.595,999.512,-17.09,-23.438,999.512
1742463188.599,842.773,-39.551,-30.273,851.074
1742463188.603,999.512,-37.109,-33.203,999.512
1742463188.606,214.844,-73.242,-46.875,212.891
1742463188.61,-1000.0,-83.984,-56.152,-1000.0
1742463188.614,-947.754,-26.855,-45.41,-941.895
1742463188.618,-987.793,-19.531,-40.039,-1000.0
1742463188.622,-981.934,-16.602,-32.715,-883.301
1742463188.579,-912.598,-46.875,-19.531,-915.039
1742463188.583,-1000.0,-38.574,-8.789,-1000.0
1742463188.587,-639.648,-22.949,-18.066,-555.176
1742463188.591,812.5,6.348,-23.438,855.469
1742463188.595,999.512,-17.09,-23.438,999.512
1742463188.599,842.773,-39.551,-30.273,851.074
1742463188.603,999.512,-37.109,-33.203,999.512
1742463188.606,214.844,-73.242,-46.875,212.891
1742463188.61,-1000.0,-83.984,-56.152,-1000.0
1742463188.614,-947.754,-26.855,-45.41,-941.895
1742463188.618,-987.793,-19.531,-40.039,-1000.0
1742463188.622,-981.934,-16.602,-32.715,-883.301
1742463188.627,363.77,33.691,-29.297,473.633
1742463188.631,999.512,17.09,-34.18,999.512
1742463188.635,864.746,-22.461,-37.109,908.691
1742463188.639,999.512,-26.367,-35.645,949.219
1742463188.643,-81.055,-53.223,-23.438,-285.156
1742463188.647,-1000.0,-34.18,-7.812,-1000.0
1742463188.651,-928.711,-17.578,-5.371,-920.41
1742463188.654,-965.82,-40.527,-11.719,-990.723
1742463188.658,-1000.0,-27.344,-11.719,-1000.0
1742463188.662,113.77,12.207,-11.719,204.102
1742463188.666,999.512,6.836,-16.602,999.512
1742463188.67,849.609,-20.508,-21.973,871.094
1742463188.627,363.77,33.691,-29.297,473.633
1742463188.631,999.512,17.09,-34.18,999.512
1742463188.635,864.746,-22.461,-37.109,908.691
1742463188.639,999.512,-26.367,-35.645,949.219
1742463188.643,-81.055,-53.223,-23.438,-285.156
1742463188.647,-1000.0,-34.18,-7.812,-1000.0
1742463188.651,-928.711,-17.578,-5.371,-920.41
1742463188.654,-965.82,-40.527,-11.719,-990.723
1742463188.658,-1000.0,-27.344,-11.719,-1000.0
1742463188.662,113.77,12.207,-11.719,204.102
1742463188.666,999.512,6.836,-16.602,999.512
1742463188.67,849.609,-20.508,-21.973,871.094
1742463188.669,999.512,-10.742,-11.23,999.512
1742463188.673,165.527,-35.156,-5.859,19.531
1742463188.677,-1000.0,-35.645,-5.859,-1000.0
1742463188.681,-915.527,-15.137,-5.371,-905.273
1742463188.685,-1000.0,-15.625,-14.648,-1000.0
1742463188.689,-268.555,30.273,-13.672,-243.652
1742463188.693,999.512,29.785,-22.949,999.512
1742463188.696,946.777,-24.414,-33.691,937.5
1742463188.7,888.184,-18.555,-34.18,907.715
1742463188.704,999.512,-3.418,-37.109,999.512
1742463188.708,20.508,-38.574,-47.363,-80.078
1742463188.712,-1000.0,-42.48,-63.965,-1000.0
1742463188.669,999.512,-10.742,-11.23,999.512
1742463188.673,165.527,-35.156,-5.859,19.531
1742463188.677,-1000.0,-35.645,-5.859,-1000.0
1742463188.681,-915.527,-15.137,-5.371,-905.273
1742463188.685,-1000.0,-15.625,-14.648,-1000.0
1742463188.689,-268.555,30.273,-13.672,-243.652
1742463188.693,999.512,29.785,-22.949,999.512
1742463188.696,946.777,-24.414,-33.691,937.5
1742463188.7,888.184,-18.555,-34.18,907.715
1742463188.704,999.512,-3.418,-37.109,999.512
1742463188.708,20.508,-38.574,-47.363,-80.078
1742463188.712,-1000.0,-42.48,-63.965,-1000.0
1742463188.716,-898.926,-22.949,-63.965,-905.762
1742463188.72,-1000.0,-29.297,-62.012,-1000.0
1742463188.724,-224.121,6.348,-65.43,-129.395
1742463188.728,999.512,11.23,-70.801,999.512
1742463188.732,952.148,-21.484,-66.895,941.895
1742463188.736,874.512,-12.207,-45.898,883.301
1742463188.74,999.512,3.906,-39.062,999.512
1742463188.743,215.332,-36.621,-47.852,196.777
1742463188.747,-1000.0,-62.5,-50.781,-1000.0
1742463188.751,-931.641,-27.344,-51.758,-927.246
1742463188.755,-1000.0,-18.066,-46.875,-1000.0
1742463188.759,-837.402,0.977,-41.992,-735.352
1742463188.716,-898.926,-22.949,-63.965,-905.762
1742463188.72,-1000.0,-29.297,-62.012,-1000.0
1742463188.724,-224.121,6.348,-65.43,-129.395
1742463188.728,999.512,11.23,-70.801,999.512
1742463188.732,952.148,-21.484,-66.895,941.895
1742463188.736,874.512,-12.207,-45.898,883.301
1742463188.74,999.512,3.906,-39.062,999.512
1742463188.743,215.332,-36.621,-47.852,196.777
1742463188.747,-1000.0,-62.5,-50.781,-1000.0
1742463188.751,-931.641,-27.344,-51.758,-927.246
1742463188.755,-1000.0,-18.066,-46.875,-1000.0
1742463188.759,-837.402,0.977,-41.992,-735.352
1742463188.775,581.055,34.668,-54.688,663.086
1742463188.779,999.512,5.859,-63.965,999.512
1742463188.783,825.684,-25.391,-74.707,848.633
1742463188.787,999.512,-10.254,-79.102,999.512
1742463188.791,493.652,-14.16,-69.824,361.328
1742463188.795,-933.594,-33.691,-69.824,-950.195
1742463188.799,-1000.0,-33.691,-80.078,-1000.0
1742463188.802,-878.906,-26.855,-83.008,-888.672
1742463188.806,-1000.0,-22.949,-77.637,-1000.0
1742463188.81,-334.473,2.93,-69.824,-333.008
1742463188.814,999.512,30.762,-55.664,999.512
1742463188.818,903.32,-8.301,-56.152,904.297
1742463188.775,581.055,34.668,-54.688,663.086
1742463188.779,999.512,5.859,-63.965,999.512
1742463188.783,825.684,-25.391,-74.707,848.633
1742463188.787,999.512,-10.254,-79.102,999.512
1742463188.791,493.652,-14.16,-69.824,361.328
1742463188.795,-933.594,-33.691,-69.824,-950.195
1742463188.799,-1000.0,-33.691,-80.078,-1000.0
1742463188.802,-878.906,-26.855,-83.008,-888.672
1742463188.806,-1000.0,-22.949,-77.637,-1000.0
1742463188.81,-334.473,2.93,-69.824,-333.008
1742463188.814,999.512,30.762,-55.664,999.512
1742463188.818,903.32,-8.301,-56.152,904.297
1742463188.82,999.512,-9.766,-59.082,999.512
1742463188.824,696.777,-27.344,-52.734,571.777
1742463188.828,-750.0,-61.035,-55.176,-833.008
1742463188.832,-1000.0,-40.039,-51.27,-1000.0
1742463188.836,-873.047,-22.461,-40.527,-881.836
1742463188.84,-1000.0,-25.391,-42.48,-1000.0
1742463188.844,-248.535,1.465,-42.48,-257.324
1742463188.847,999.512,0.488,-50.781,999.512
1742463188.851,905.762,-31.738,-65.918,904.297
1742463188.855,975.098,-27.832,-64.941,991.699
1742463188.859,879.395,-36.621,-59.082,790.039
1742463188.863,-505.371,-61.035,-59.57,-589.844
1742463188.82,999.512,-9.766,-59.082,999.512
1742463188.824,696.777,-27.344,-52.734,571.777
1742463188.828,-750.0,-61.035,-55.176,-833.008
1742463188.832,-1000.0,-40.039,-51.27,-1000.0
1742463188.836,-873.047,-22.461,-40.527,-881.836
1742463188.84,-1000.0,-25.391,-42.48,-1000.0
1742463188.844,-248.535,1.465,-42.48,-257.324
1742463188.847,999.512,0.488,-50.781,999.512
1742463188.851,905.762,-31.738,-65.918,904.297
1742463188.855,975.098,-27.832,-64.941,991.699
1742463188.859,879.395,-36.621,-59.082,790.039
1742463188.863,-505.371,-61.035,-59.57,-589.844
1742463188.865,-1000.0,-45.898,-57.129,-1000.0
1742463188.869,-873.535,-25.879,-60.547,-905.762
1742463188.873,-1000.0,-29.297,-62.012,-1000.0
1742463188.877,-189.941,-3.906,-57.129,-9.277
1742463188.881,999.512,14.648,-57.617,999.512
1742463188.885,871.582,-17.578,-57.129,863.281
1742463188.889,999.512,-23.438,-45.898,999.512
1742463188.892,442.871,-60.059,-52.246,392.578
1742463188.896,-970.215,-80.566,-61.523,-989.258
1742463188.9,-1000.0,-31.25,-54.688,-996.582
1742463188.904,-914.062,-26.855,-46.875,-940.918
1742463188.908,-1000.0,-29.785,-45.898,-1000.0
1742463188.865,-1000.0,-45.898,-57.129,-1000.0
1742463188.869,-873.535,-25.879,-60.547,-905.762
1742463188.873,-1000.0,-29.297,-62.012,-1000.0
1742463188.877,-189.941,-3.906,-57.129,-9.277
1742463188.881,999.512,14.648,-57.617,999.512
1742463188.885,871.582,-17.578,-57.129,863.281
1742463188.889,999.512,-23.438,-45.898,999.512
1742463188.892,442.871,-60.059,-52.246,392.578
1742463188.896,-970.215,-80.566,-61.523,-989.258
1742463188.9,-1000.0,-31.25,-54.688,-996.582
1742463188.904,-914.062,-26.855,-46.875,-940.918
1742463188.908,-1000.0,-29.785,-45.898,-1000.0
1742463188.912,20.508,14.648,-40.039,138.184
1742463188.916,999.512,6.348,-46.387,999.512
1742463188.92,855.469,-43.457,-59.57,855.469
1742463188.924,999.512,-38.086,-54.199,999.512
1742463188.928,717.773,-48.34,-58.594,599.121
1742463188.932,-716.309,-50.293,-63.965,-796.875
1742463188.936,-1000.0,-19.043,-72.754,-1000.0
1742463188.939,-874.023,-25.391,-87.891,-882.324
1742463188.943,-1000.0,-35.645,-96.191,-1000.0
1742463188.947,-221.191,7.812,-104.492,-229.004
1742463188.951,999.512,20.996,-108.398,999.512
1742463188.955,875.977,-17.09,-116.699,882.324
1742463188.912,20.508,14.648,-40.039,138.184
1742463188.916,999.512,6.348,-46.387,999.512
1742463188.92,855.469,-43.457,-59.57,855.469
1742463188.924,999.512,-38.086,-54.199,999.512
1742463188.928,717.773,-48.34,-58.594,599.121
1742463188.932,-716.309,-50.293,-63.965,-796.875
1742463188.936,-1000.0,-19.043,-72.754,-1000.0
1742463188.939,-874.023,-25.391,-87.891,-882.324
1742463188.943,-1000.0,-35.645,-96.191,-1000.0
1742463188.947,-221.191,7.812,-104.492,-229.004
1742463188.951,999.512,20.996,-108.398,999.512
1742463188.955,875.977,-17.09,-116.699,882.324
1742463188.954,999.512,-13.184,-114.258,999.512
1742463188.958,464.844,-43.945,-105.957,384.766
1742463188.962,-954.59,-65.918,-107.422,-986.816
1742463188.966,-1000.0,-34.18,-96.68,-1000.0
1742463188.97,-889.648,-23.926,-84.473,-899.902
1742463188.974,-1000.0,-30.762,-86.914,-1000.0
1742463188.978,-775.391,-29.297,-94.727,-749.023
1742463188.981,665.527,-9.277,-103.027,648.438
1742463188.985,982.422,-24.414,-101.562,980.469
1742463188.989,999.512,-18.066,-87.402,999.512
1742463188.993,559.082,-42.48,-81.543,451.66
1742463188.997,-898.926,-68.848,-79.102,-947.266
1742463188.954,999.512,-13.184,-114.258,999.512
1742463188.958,464.844,-43.945,-105.957,384.766
1742463188.962,-954.59,-65.918,-107.422,-986.816
1742463188.966,-1000.0,-34.18,-96.68,-1000.0
1742463188.97,-889.648,-23.926,-84.473,-899.902
1742463188.974,-1000.0,-30.762,-86.914,-1000.0
1742463188.978,-775.391,-29.297,-94.727,-749.023
1742463188.981,665.527,-9.277,-103.027,648.438
1742463188.985,982.422,-24.414,-101.562,980.469
1742463188.989,999.512,-18.066,-87.402,999.512
1742463188.993,559.082,-42.48,-81.543,451.66
1742463188.997,-898.926,-68.848,-79.102,-947.266
1742463189.015,-1000.0,-23.438,-63.477,-1000.0
1742463189.019,-947.266,-12.695,-58.594,-958.008
1742463189.023,-950.684,-21.484,-70.312,-945.801
1742463189.027,-1000.0,-32.715,-74.707,-1000.0
1742463189.031,-261.719,0.0,-60.059,-302.734
1742463189.035,999.512,35.156,-47.363,999.512
1742463189.039,882.812,-9.277,-51.758,894.531
1742463189.042,999.512,-33.203,-63.477,999.512
1742463189.046,426.758,-62.012,-66.895,351.562
1742463189.05,-988.77,-70.801,-69.824,-1000.0
1742463189.054,-975.586,-28.809,-65.918,-958.984
1742463189.058,-993.652,-40.527,-65.43,-1000.0
1742463189.015,-1000.0,-23.438,-63.477,-1000.0
1742463189.019,-947.266,-12.695,-58.594,-958.008
1742463189.023,-950.684,-21.484,-70.312,-945.801
1742463189.027,-1000.0,-32.715,-74.707,-1000.0
1742463189.031,-261.719,0.0,-60.059,-302.734
1742463189.035,999.512,35.156,-47.363,999.512
1742463189.039,882.812,-9.277,-51.758,894.531
1742463189.042,999.512,-33.203,-63.477,999.512
1742463189.046,426.758,-62.012,-66.895,351.562
1742463189.05,-988.77,-70.801,-69.824,-1000.0
1742463189.054,-975.586,-28.809,-65.918,-958.984
1742463189.058,-993.652,-40.527,-65.43,-1000.0
1742463189.045,-915.527,-27.344,-71.289,-816.895
1742463189.049,476.074,10.742,-73.242,556.152
1742463189.053,999.512,-20.508,-75.195,999.512
1742463189.057,882.812,-34.668,-62.5,881.836
1742463189.061,940.918,-28.32,-55.664,961.426
1742463189.065,999.512,-37.109,-66.406,999.512
1742463189.069,-82.52,-83.984,-81.055,-187.5
1742463189.072,-1000.0,-102.051,-82.52,-1000.0
1742463189.076,-887.695,-51.758,-63.965,-894.043
1742463189.08,-1000.0,-43.457,-61.035,-1000.0
1742463189.084,-222.168,-20.508,-61.035,-156.25
1742463189.088,999.512,-13.184,-56.152,999.512
1742463189.045,-915.527,-27.344,-71.289,-816.895
1742463189.049,476.074,10.742,-73.242,556.152
1742463189.053,999.512,-20.508,-75.195,999.512
1742463189.057,882.812,-34.668,-62.5,881.836
1742463189.061,940.918,-28.32,-55.664,961.426
1742463189.065,999.512,-37.109,-66.406,999.512
1742463189.069,-82.52,-83.984,-81.055,-187.5
1742463189.072,-1000.0,-102.051,-82.52,-1000.0
1742463189.076,-887.695,-51.758,-63.965,-894.043
1742463189.08,-1000.0,-43.457,-61.035,-1000.0
1742463189.084,-222.168,-20.508,-61.035,-156.25
1742463189.088,999.512,-13.184,-56.152,999.512
1742463189.106,955.078,-37.109,-54.688,949.219
1742463189.11,916.504,-28.809,-53.711,916.016
1742463189.114,948.73,-33.691,-56.641,966.797
1742463189.118,999.512,-36.133,-56.152,975.586
1742463189.122,-159.18,-55.664,-59.57,-242.188
1742463189.126,-1000.0,-49.805,-59.57,-1000.0
1742463189.13,-881.348,-31.738,-59.082,-886.719
1742463189.133,-1000.0,-42.48,-62.5,-1000.0
1742463189.137,-221.68,3.418,-53.711,-206.055
1742463189.141,999.512,32.227,-45.41,999.512
1742463189.145,944.824,0.488,-45.898,933.105
1742463189.149,884.277,-12.695,-55.176,911.133
1742463189.106,955.078,-37.109,-54.688,949.219
1742463189.11,916.504,-28.809,-53.711,916.016
1742463189.114,948.73,-33.691,-56.641,966.797
1742463189.118,999.512,-36.133,-56.152,975.586
1742463189.122,-159.18,-55.664,-59.57,-242.188
1742463189.126,-1000.0,-49.805,-59.57,-1000.0
1742463189.13,-881.348,-31.738,-59.082,-886.719
1742463189.133,-1000.0,-42.48,-62.5,-1000.0
1742463189.137,-221.68,3.418,-53.711,-206.055
1742463189.141,999.512,32.227,-45.41,999.512
1742463189.145,944.824,0.488,-45.898,933.105
1742463189.149,884.277,-12.695,-55.176,911.133
1742463189.149,999.512,-13.672,-51.27,999.512
1742463189.153,96.68,-32.227,-43.457,-60.059
1742463189.157,-1000.0,-40.527,-47.852,-1000.0
1742463189.161,-909.668,-24.414,-55.664,-910.156
1742463189.165,-1000.0,-6.836,-52.734,-1000.0
1742463189.169,-217.285,23.438,-44.922,-136.719
1742463189.173,999.512,11.23,-43.945,999.512
1742463189.176,882.324,-45.41,-49.805,875.977
1742463189.18,999.512,-46.875,-42.969,999.512
1742463189.184,252.441,-60.547,-35.156,236.816
1742463189.188,-1000.0,-75.195,-28.809,-1000.0
1742463189.192,-921.875,-38.574,-28.32,-924.316
1742463189.149,999.512,-13.672,-51.27,999.512
1742463189.153,96.68,-32.227,-43.457,-60.059
1742463189.157,-1000.0,-40.527,-47.852,-1000.0
1742463189.161,-909.668,-24.414,-55.664,-910.156
1742463189.165,-1000.0,-6.836,-52.734,-1000.0
1742463189.169,-217.285,23.438,-44.922,-136.719
1742463189.173,999.512,11.23,-43.945,999.512
1742463189.176,882.324,-45.41,-49.805,875.977
1742463189.18,999.512,-46.875,-42.969,999.512
1742463189.184,252.441,-60.547,-35.156,236.816
1742463189.188,-1000.0,-75.195,-28.809,-1000.0
1742463189.192,-921.875,-38.574,-28.32,-924.316
1742463189.194,-1000.0,-37.109,-40.527,-1000.0
1742463189.198,-396.484,-6.836,-42.48,-342.285
1742463189.202,973.145,4.395,-41.992,992.676
1742463189.206,979.004,-33.691,-45.41,968.262
1742463189.21,862.793,-24.902,-47.363,872.559
1742463189.214,999.512,-4.395,-44.922,999.512
1742463189.218,187.012,-48.828,-47.852,143.066
1742463189.221,-1000.0,-73.242,-51.27,-1000.0
1742463189.225,-932.129,-35.156,-38.086,-924.316
1742463189.229,-1000.0,-33.691,-28.809,-1000.0
1742463189.233,-886.23,-22.461,-28.32,-793.457
1742463189.237,509.277,-0.488,-23.438,584.473
1742463189.194,-1000.0,-37.109,-40.527,-1000.0
1742463189.198,-396.484,-6.836,-42.48,-342.285
1742463189.202,973.145,4.395,-41.992,992.676
1742463189.206,979.004,-33.691,-45.41,968.262
1742463189.21,862.793,-24.902,-47.363,872.559
1742463189.214,999.512,-4.395,-44.922,999.512
1742463189.218,187.012,-48.828,-47.852,143.066
1742463189.221,-1000.0,-73.242,-51.27,-1000.0
1742463189.225,-932.129,-35.156,-38.086,-924.316
1742463189.229,-1000.0,-33.691,-28.809,-1000.0
1742463189.233,-886.23,-22.461,-28.32,-793.457
1742463189.237,509.277,-0.488,-23.438,584.473
1742463189.239,999.512,-11.719,-19.531,999.512
1742463189.243,888.184,-20.02,-38.574,888.672
1742463189.247,932.617,-25.391,-55.664,948.73
1742463189.251,999.512,-22.949,-53.223,999.512
1742463189.255,-2.93,-44.434,-45.898,-88.379
1742463189.259,-1000.0,-43.945,-22.949,-1000.0
1742463189.263,-895.996,-23.438,-5.371,-902.344
1742463189.266,-1000.0,-34.18,0.977,-1000.0
1742463189.27,-223.633,1.953,1.465,-154.785
1742463189.274,999.512,25.391,-2.93,999.512
1742463189.278,963.379,3.418,-0.488,954.102
1742463189.282,864.746,-4.395,5.859,874.023
1742463189.239,999.512,-11.719,-19.531,999.512
1742463189.243,888.184,-20.02,-38.574,888.672
1742463189.247,932.617,-25.391,-55.664,948.73
1742463189.251,999.512,-22.949,-53.223,999.512
1742463189.255,-2.93,-44.434,-45.898,-88.379
1742463189.259,-1000.0,-43.945,-22.949,-1000.0
1742463189.263,-895.996,-23.438,-5.371,-902.344
1742463189.266,-1000.0,-34.18,0.977,-1000.0
1742463189.27,-223.633,1.953,1.465,-154.785
1742463189.274,999.512,25.391,-2.93,999.512
1742463189.278,963.379,3.418,-0.488,954.102
1742463189.282,864.746,-4.395,5.859,874.023
1742463189.286,999.512,8.789,6.348,999.512
1742463189.29,483.398,-16.602,1.953,455.078
1742463189.294,-933.594,-47.363,-0.488,-928.223
1742463189.298,-1000.0,-17.578,0.488,-1000.0
1742463189.302,-978.516,-6.836,6.348,-981.445
1742463189.306,-272.949,35.156,25.879,-218.75
1742463189.31,922.363,49.316,26.855,929.199
1742463189.313,936.523,-8.301,10.254,955.566
1742463189.317,999.512,-19.531,5.859,984.863
1742463189.321,61.523,-33.203,3.906,-102.051
1742463189.325,-1000.0,-43.457,3.418,-1000.0
1742463189.329,-963.379,-23.926,5.859,-950.195
1742463189.286,999.512,8.789,6.348,999.512
1742463189.29,483.398,-16.602,1.953,455.078
1742463189.294,-933.594,-47.363,-0.488,-928.223
1742463189.298,-1000.0,-17.578,0.488,-1000.0
1742463189.302,-978.516,-6.836,6.348,-981.445
1742463189.306,-272.949,35.156,25.879,-218.75
1742463189.31,922.363,49.316,26.855,929.199
1742463189.313,936.523,-8.301,10.254,955.566
1742463189.317,999.512,-19.531,5.859,984.863
1742463189.321,61.523,-33.203,3.906,-102.051
1742463189.325,-1000.0,-43.457,3.418,-1000.0
1742463189.329,-963.379,-23.926,5.859,-950.195
1742463189.329,-924.316,-19.531,-5.859,-940.918
1742463189.333,-1000.0,-15.137,-22.949,-1000.0
1742463189.337,-178.223,10.254,-33.691,-105.469
1742463189.341,999.512,19.043,-44.434,999.512
1742463189.345,881.836,-1.953,-59.082,875.0
1742463189.349,999.512,-5.859,-74.707,999.512
1742463189.353,744.141,-32.227,-92.285,649.902
1742463189.356,-688.965,-71.289,-118.652,-756.348
1742463189.36,-1000.0,-27.344,-122.07,-1000.0
1742463189.364,-873.047,0.488,-115.723,-893.555
1742463189.368,-1000.0,-18.066,-119.141,-1000.0
1742463189.372,-220.703,6.836,-108.398,-114.258
1742463189.329,-924.316,-19.531,-5.859,-940.918
1742463189.333,-1000.0,-15.137,-22.949,-1000.0
1742463189.337,-178.223,10.254,-33.691,-105.469
1742463189.341,999.512,19.043,-44.434,999.512
1742463189.345,881.836,-1.953,-59.082,875.0
1742463189.349,999.512,-5.859,-74.707,999.512
1742463189.353,744.141,-32.227,-92.285,649.902
1742463189.356,-688.965,-71.289,-118.652,-756.348
1742463189.36,-1000.0,-27.344,-122.07,-1000.0
1742463189.364,-873.047,0.488,-115.723,-893.555
1742463189.368,-1000.0,-18.066,-119.141,-1000.0
1742463189.372,-220.703,6.836,-108.398,-114.258
1742463189.376,999.512,18.066,-93.75,999.512
1742463189.38,945.801,-8.789,-83.008,929.688
1742463189.384,883.301,-15.137,-77.148,904.297
1742463189.388,999.512,-17.09,-77.637,999.512
1742463189.392,106.445,-48.34,-77.148,8.301
1742463189.396,-1000.0,-41.016,-67.871,-1000.0
1742463189.4,-922.363,-17.578,-66.895,-912.598
1742463189.403,-1000.0,-37.598,-71.289,-1000.0
1742463189.407,-893.555,-15.137,-65.918,-815.918
1742463189.411,496.094,25.391,-53.711,553.711
1742463189.415,999.512,8.301,-52.246,999.512
1742463189.419,844.727,-19.531,-59.57,849.121
1742463189.376,999.512,18.066,-93.75,999.512
1742463189.38,945.801,-8.789,-83.008,929.688
1742463189.384,883.301,-15.137,-77.148,904.297
1742463189.388,999.512,-17.09,-77.637,999.512
1742463189.392,106.445,-48.34,-77.148,8.301
1742463189.396,-1000.0,-41.016,-67.871,-1000.0
1742463189.4,-922.363,-17.578,-66.895,-912.598
1742463189.403,-1000.0,-37.598,-71.289,-1000.0
1742463189.407,-893.555,-15.137,-65.918,-815.918
1742463189.411,496.094,25.391,-53.711,553.711
1742463189.415,999.512,8.301,-52.246,999.512
1742463189.419,844.727,-19.531,-59.57,849.121
1742463189.419,999.512,-22.461,-59.082,999.512
1742463189.423,808.105,-24.902,-56.152,705.566
1742463189.427,-609.375,-54.688,-51.758,-683.105
1742463189.431,-1000.0,-30.273,-50.293,-1000.0
1742463189.435,-1000.0,-11.719,-40.039,-1000.0
1742463189.439,-556.152,5.859,-30.762,-472.168
1742463189.443,890.625,20.02,-32.715,928.711
1742463189.446,999.512,-29.297,-42.969,996.582
1742463189.45,847.168,-30.762,-37.598,856.934
1742463189.454,999.512,-9.766,-26.855,999.512
1742463189.458,235.84,-44.434,-27.832,223.145
1742463189.462,-1000.0,-61.035,-27.832,-1000.0
1742463189.419,999.512,-22.461,-59.082,999.512
1742463189.423,808.105,-24.902,-56.152,705.566
1742463189.427,-609.375,-54.688,-51.758,-683.105
1742463189.431,-1000.0,-30.273,-50.293,-1000.0
1742463189.435,-1000.0,-11.719,-40.039,-1000.0
1742463189.439,-556.152,5.859,-30.762,-472.168
1742463189.443,890.625,20.02,-32.715,928.711
1742463189.446,999.512,-29.297,-42.969,996.582
1742463189.45,847.168,-30.762,-37.598,856.934
1742463189.454,999.512,-9.766,-26.855,999.512
1742463189.458,235.84,-44.434,-27.832,223.145
1742463189.462,-1000.0,-61.035,-27.832,-1000.0
1742463189.468,-996.094,-23.438,-32.715,-996.094
1742463189.472,-902.344,-13.672,-32.715,-902.832
1742463189.476,-1000.0,-27.832,-28.32,-1000.0
1742463189.48,-283.203,-9.277,-27.344,-300.781
1742463189.484,999.512,10.254,-22.461,999.512
1742463189.488,897.461,-9.766,-27.832,915.039
1742463189.492,999.512,-24.414,-40.527,999.512
1742463189.495,195.312,-74.707,-50.293,83.984
1742463189.499,-1000.0,-74.707,-46.875,-1000.0
1742463189.503,-984.863,-38.086,-40.527,-969.238
1742463189.507,-910.156,-38.574,-43.457,-923.34
1742463189.511,-1000.0,-45.898,-41.016,-1000.0
1742463189.468,-996.094,-23.438,-32.715,-996.094
1742463189.472,-902.344,-13.672,-32.715,-902.832
1742463189.476,-1000.0,-27.832,-28.32,-1000.0
1742463189.48,-283.203,-9.277,-27.344,-300.781
1742463189.484,999.512,10.254,-22.461,999.512
1742463189.488,897.461,-9.766,-27.832,915.039
1742463189.492,999.512,-24.414,-40.527,999.512
1742463189.495,195.312,-74.707,-50.293,83.984
1742463189.499,-1000.0,-74.707,-46.875,-1000.0
1742463189.503,-984.863,-38.086,-40.527,-969.238
1742463189.507,-910.156,-38.574,-43.457,-923.34
1742463189.511,-1000.0,-45.898,-41.016,-1000.0
1742463189.524,-221.191,-12.207,-30.273,-164.551
1742463189.528,999.512,1.465,-31.25,999.512
1742463189.532,946.777,-27.832,-33.203,932.129
1742463189.536,881.348,-25.391,-26.367,904.785
1742463189.54,999.512,-16.113,-26.367,999.512
1742463189.544,127.441,-56.152,-31.738,3.906
1742463189.548,-1000.0,-82.031,-36.133,-1000.0
1742463189.551,-985.84,-58.594,-38.574,-977.051
1742463189.555,-938.477,-45.41,-39.551,-942.383
1742463189.559,-1000.0,-54.688,-44.922,-1000.0
1742463189.563,-983.887,-49.316,-43.457,-926.27
1742463189.567,344.238,-20.996,-32.715,395.996
1742463189.57,999.512,-35.156,-28.809,999.512
1742463189.574,849.121,-47.363,-26.367,873.535
1742463189.578,999.512,-44.922,-31.738,999.512
1742463189.582,51.27,-85.938,-41.992,-70.312
1742463189.586,-1000.0,-78.125,-35.156,-1000.0
1742463189.59,-978.516,-45.898,-27.344,-1000.0
1742463189.594,-971.191,-47.363,-29.297,-844.727
1742463189.597,331.055,-24.902,-31.25,488.281
1742463189.601,999.512,-49.805,-38.086,999.512
1742463189.605,858.887,-63.965,-32.227,862.305
1742463189.609,991.699,-46.875,-19.531,999.512
1742463189.613,929.688,-59.57,-19.043,863.281
1742463189.57,999.512,-35.156,-28.809,999.512
1742463189.574,849.121,-47.363,-26.367,873.535
1742463189.578,999.512,-44.922,-31.738,999.512
1742463189.582,51.27,-85.938,-41.992,-70.312
1742463189.586,-1000.0,-78.125,-35.156,-1000.0
1742463189.59,-978.516,-45.898,-27.344,-1000.0
1742463189.594,-971.191,-47.363,-29.297,-844.727
1742463189.597,331.055,-24.902,-31.25,488.281
1742463189.601,999.512,-49.805,-38.086,999.512
1742463189.605,858.887,-63.965,-32.227,862.305
1742463189.609,991.699,-46.875,-19.531,999.512
1742463189.613,929.688,-59.57,-19.043,863.281
1742463189.614,-413.086,-85.938,-17.09,-466.309
1742463189.618,-1000.0,-62.988,-16.113,-1000.0
1742463189.622,-899.414,-46.387,-12.695,-929.199
1742463189.626,-1000.0,-43.945,-10.742,-1000.0
1742463189.63,62.988,-2.441,-6.836,192.383
1742463189.634,999.512,-9.766,-8.789,999.512
1742463189.638,999.512,-40.527,-14.648,999.512
1742463189.641,489.746,-86.426,-25.391,414.062
1742463189.645,-930.664,-91.309,-31.25,-967.773
1742463189.649,-1000.0,-44.434,-22.461,-1000.0
1742463189.653,-878.906,-41.504,-16.113,-885.742
1742463189.657,-1000.0,-53.711,-15.625,-1000.0
1742463189.614,-413.086,-85.938,-17.09,-466.309
1742463189.618,-1000.0,-62.988,-16.113,-1000.0
1742463189.622,-899.414,-46.387,-12.695,-929.199
1742463189.626,-1000.0,-43.945,-10.742,-1000.0
1742463189.63,62.988,-2.441,-6.836,192.383
1742463189.634,999.512,-9.766,-8.789,999.512
1742463189.638,999.512,-40.527,-14.648,999.512
1742463189.641,489.746,-86.426,-25.391,414.062
1742463189.645,-930.664,-91.309,-31.25,-967.773
1742463189.649,-1000.0,-44.434,-22.461,-1000.0
1742463189.653,-878.906,-41.504,-16.113,-885.742
1742463189.657,-1000.0,-53.711,-15.625,-1000.0
1742463189.661,-330.078,-16.602,-12.695,-333.008
1742463189.665,999.512,13.184,-7.812,999.512
1742463189.669,925.293,-26.367,-5.859,921.875
1742463189.673,953.125,-41.504,-8.301,973.633
1742463189.677,929.688,-48.34,-16.113,829.102
1742463189.681,-426.758,-60.059,-20.02,-526.855
1742463189.685,-1000.0,-49.805,-27.832,-1000.0
1742463189.688,-871.582,-48.34,-52.246,-889.16
1742463189.692,-1000.0,-47.363,-70.312,-1000.0
1742463189.696,-221.191,-4.395,-80.566,-122.07
1742463189.7,999.512,11.23,-91.797,999.512
1742463189.704,910.645,-14.16,-95.215,895.996
1742463189.661,-330.078,-16.602,-12.695,-333.008
1742463189.665,999.512,13.184,-7.812,999.512
1742463189.669,925.293,-26.367,-5.859,921.875
1742463189.673,953.125,-41.504,-8.301,973.633
1742463189.677,929.688,-48.34,-16.113,829.102
1742463189.681,-426.758,-60.059,-20.02,-526.855
1742463189.685,-1000.0,-49.805,-27.832,-1000.0
1742463189.688,-871.582,-48.34,-52.246,-889.16
1742463189.692,-1000.0,-47.363,-70.312,-1000.0
1742463189.696,-221.191,-4.395,-80.566,-122.07
1742463189.7,999.512,11.23,-91.797,999.512
1742463189.704,910.645,-14.16,-95.215,895.996
1742463189.705,952.148,-12.207,-99.121,979.004
1742463189.709,957.52,-3.906,-102.051,872.559
1742463189.713,-386.23,-38.086,-111.816,-480.957
1742463189.717,-1000.0,-35.156,-115.723,-1000.0
1742463189.721,-950.684,-6.836,-109.375,-982.422
1742463189.725,-983.887,5.371,-104.492,-861.816
1742463189.729,354.492,16.602,-91.309,496.094
1742463189.732,999.512,-18.066,-89.844,999.512
1742463189.736,837.891,-29.785,-80.566,850.098
1742463189.74,999.512,-12.695,-64.453,999.512
1742463189.744,187.012,-43.945,-67.871,134.277
1742463189.748,-1000.0,-55.664,-66.406,-1000.0
1742463189.753,-909.668,-25.879,-58.594,-908.203
1742463189.757,-1000.0,-22.461,-56.152,-1000.0
1742463189.761,-535.156,-0.488,-48.828,-461.426
1742463189.765,905.762,4.395,-46.387,937.988
1742463189.769,978.516,-23.438,-45.41,954.59
1742463189.773,899.414,-16.602,-37.109,938.965
1742463189.777,999.512,-44.922,-41.504,924.805
1742463189.78,-220.215,-96.191,-53.223,-386.23
1742463189.784,-1000.0,-69.336,-48.828,-1000.0
1742463189.788,-939.453,-44.922,-34.668,-936.523
1742463189.792,-938.965,-43.457,-35.156,-948.73
1742463189.796,-1000.0,-35.156,-38.086,-1000.0
1742463189.753,-909.668,-25.879,-58.594,-908.203
1742463189.757,-1000.0,-22.461,-56.152,-1000.0
1742463189.761,-535.156,-0.488,-48.828,-461.426
1742463189.765,905.762,4.395,-46.387,937.988
1742463189.769,978.516,-23.438,-45.41,954.59
1742463189.773,899.414,-16.602,-37.109,938.965
1742463189.777,999.512,-44.922,-41.504,924.805
1742463189.78,-220.215,-96.191,-53.223,-386.23
1742463189.784,-1000.0,-69.336,-48.828,-1000.0
1742463189.788,-939.453,-44.922,-34.668,-936.523
1742463189.792,-938.965,-43.457,-35.156,-948.73
1742463189.796,-1000.0,-35.156,-38.086,-1000.0
1742463189.809,-202.148,-7.324,-29.785,-149.902
1742463189.813,999.512,1.465,-25.391,999.512
1742463189.817,878.418,-26.855,-27.832,878.906
1742463189.821,999.512,-33.691,-36.621,999.512
1742463189.825,298.828,-55.176,-38.086,235.352
1742463189.829,-1000.0,-61.035,-38.086,-1000.0
1742463189.833,-984.863,-30.273,-35.156,-966.309
1742463189.836,-929.199,-45.898,-37.109,-959.961
1742463189.84,-1000.0,-52.246,-45.41,-1000.0
1742463189.844,48.34,-1.465,-37.598,179.688
1742463189.848,999.512,-7.812,-41.504,999.512
1742463189.852,900.391,-37.598,-50.781,893.555
1742463189.809,-202.148,-7.324,-29.785,-149.902
1742463189.813,999.512,1.465,-25.391,999.512
1742463189.817,878.418,-26.855,-27.832,878.906
1742463189.821,999.512,-33.691,-36.621,999.512
1742463189.825,298.828,-55.176,-38.086,235.352
1742463189.829,-1000.0,-61.035,-38.086,-1000.0
1742463189.833,-984.863,-30.273,-35.156,-966.309
1742463189.836,-929.199,-45.898,-37.109,-959.961
1742463189.84,-1000.0,-52.246,-45.41,-1000.0
1742463189.844,48.34,-1.465,-37.598,179.688
1742463189.848,999.512,-7.812,-41.504,999.512
1742463189.852,900.391,-37.598,-50.781,893.555
1742463189.842,921.387,-26.855,-48.34,945.312
1742463189.846,999.512,-35.645,-51.758,999.512
1742463189.85,-81.055,-72.266,-46.875,-181.641
1742463189.854,-1000.0,-74.219,-36.621,-1000.0
1742463189.858,-996.582,-49.805,-28.32,-1000.0
1742463189.862,-875.488,-22.949,-9.766,-760.254
1742463189.866,515.137,-3.418,-6.836,625.488
1742463189.869,999.512,-36.133,-24.902,993.164
1742463189.873,962.402,-58.105,-27.344,991.211
1742463189.877,800.293,-68.359,-17.578,656.25
1742463189.881,-622.559,-94.238,-17.09,-740.723
1742463189.885,-1000.0,-83.008,-22.461,-1000.0
1742463189.842,921.387,-26.855,-48.34,945.312
1742463189.846,999.512,-35.645,-51.758,999.512
1742463189.85,-81.055,-72.266,-46.875,-181.641
1742463189.854,-1000.0,-74.219,-36.621,-1000.0
1742463189.858,-996.582,-49.805,-28.32,-1000.0
1742463189.862,-875.488,-22.949,-9.766,-760.254
1742463189.866,515.137,-3.418,-6.836,625.488
1742463189.869,999.512,-36.133,-24.902,993.164
1742463189.873,962.402,-58.105,-27.344,991.211
1742463189.877,800.293,-68.359,-17.578,656.25
1742463189.881,-622.559,-94.238,-17.09,-740.723
1742463189.885,-1000.0,-83.008,-22.461,-1000.0
1742463189.899,-860.84,-56.641,-18.555,-871.582
1742463189.903,-1000.0,-58.594,-18.066,-1000.0
1742463189.907,-466.797,-40.039,-20.996,-450.195
1742463189.911,948.73,-11.23,-16.113,949.219
1742463189.915,938.477,-37.109,-12.695,932.617
1742463189.919,973.633,-53.223,-21.973,998.047
1742463189.923,831.055,-78.613,-30.762,708.496
1742463189.926,-584.473,-105.469,-25.879,-696.777
1742463189.93,-1000.0,-63.965,-12.207,-1000.0
1742463189.934,-934.082,-35.156,-4.883,-937.5
1742463189.938,-950.195,-48.34,-4.883,-956.055
1742463189.942,-1000.0,-56.641,-5.859,-1000.0
1742463189.899,-860.84,-56.641,-18.555,-871.582
1742463189.903,-1000.0,-58.594,-18.066,-1000.0
1742463189.907,-466.797,-40.039,-20.996,-450.195
1742463189.911,948.73,-11.23,-16.113,949.219
1742463189.915,938.477,-37.109,-12.695,932.617
1742463189.919,973.633,-53.223,-21.973,998.047
1742463189.923,831.055,-78.613,-30.762,708.496
1742463189.926,-584.473,-105.469,-25.879,-696.777
1742463189.93,-1000.0,-63.965,-12.207,-1000.0
1742463189.934,-934.082,-35.156,-4.883,-937.5
1742463189.938,-950.195,-48.34,-4.883,-956.055
1742463189.942,-1000.0,-56.641,-5.859,-1000.0
1742463189.96,-211.914,-11.23,-0.977,-157.227
1742463189.964,999.512,9.766,3.906,999.512
1742463189.968,882.324,-21.973,0.0,878.418
1742463189.972,999.512,-26.367,-6.836,999.512
1742463189.976,250.488,-57.129,-13.184,230.469
1742463189.98,-1000.0,-51.27,-4.395,-1000.0
1742463189.984,-997.07,-29.785,0.0,-994.141
1742463189.987,-902.344,-49.805,-7.324,-904.785
1742463189.991,-1000.0,-49.316,-14.648,-1000.0
1742463189.995,-279.297,-4.395,-12.207,-278.32
1742463189.999,999.512,15.137,0.977,999.512
1742463190.003,949.219,-28.32,1.953,941.895
1742463189.96,-211.914,-11.23,-0.977,-157.227
1742463189.964,999.512,9.766,3.906,999.512
1742463189.968,882.324,-21.973,0.0,878.418
1742463189.972,999.512,-26.367,-6.836,999.512
1742463189.976,250.488,-57.129,-13.184,230.469
1742463189.98,-1000.0,-51.27,-4.395,-1000.0
1742463189.984,-997.07,-29.785,0.0,-994.141
1742463189.987,-902.344,-49.805,-7.324,-904.785
1742463189.991,-1000.0,-49.316,-14.648,-1000.0
1742463189.995,-279.297,-4.395,-12.207,-278.32
1742463189.999,999.512,15.137,0.977,999.512
1742463190.003,949.219,-28.32,1.953,941.895
1742463189.989,888.184,-41.504,-2.93,908.691
1742463189.993,999.512,-30.762,-5.859,999.512
1742463189.997,11.719,-63.965,-10.742,-104.004
1742463190.001,-1000.0,-57.129,-2.441,-1000.0
1742463190.005,-902.832,-14.16,10.742,-919.922
1742463190.009,-1000.0,-29.297,7.324,-1000.0
1742463190.013,-170.41,-17.578,-3.906,-21.973
1742463190.016,999.512,-26.855,-11.719,999.512
1742463190.02,919.922,-58.594,-11.719,901.367
1742463190.024,918.457,-44.434,-3.906,952.148
1742463190.028,999.512,-38.574,1.953,961.914
1742463190.032,-157.227,-73.73,-1.953,-279.297
1742463189.989,888.184,-41.504,-2.93,908.691
1742463189.993,999.512,-30.762,-5.859,999.512
1742463189.997,11.719,-63.965,-10.742,-104.004
1742463190.001,-1000.0,-57.129,-2.441,-1000.0
1742463190.005,-902.832,-14.16,10.742,-919.922
1742463190.009,-1000.0,-29.297,7.324,-1000.0
1742463190.013,-170.41,-17.578,-3.906,-21.973
1742463190.016,999.512,-26.855,-11.719,999.512
1742463190.02,919.922,-58.594,-11.719,901.367
1742463190.024,918.457,-44.434,-3.906,952.148
1742463190.028,999.512,-38.574,1.953,961.914
1742463190.032,-157.227,-73.73,-1.953,-279.297
1742463190.037,-1000.0,-66.895,0.977,-1000.0
1742463190.041,-878.906,-28.32,8.789,-881.348
1742463190.045,-1000.0,-32.227,6.836,-1000.0
1742463190.049,-258.301,-21.973,5.371,-251.465
1742463190.053,999.512,1.953,9.277,999.512
1742463190.057,882.812,-20.996,9.766,885.742
1742463190.061,999.512,-28.32,11.719,999.512
1742463190.064,409.18,-67.383,8.301,351.074
1742463190.068,-984.863,-82.031,3.906,-1000.0
1742463190.072,-1000.0,-27.344,11.23,-1000.0
1742463190.076,-893.066,-16.602,11.23,-901.367
1742463190.08,-1000.0,-28.32,-2.441,-1000.0
1742463190.037,-1000.0,-66.895,0.977,-1000.0
1742463190.041,-878.906,-28.32,8.789,-881.348
1742463190.045,-1000.0,-32.227,6.836,-1000.0
1742463190.049,-258.301,-21.973,5.371,-251.465
1742463190.053,999.512,1.953,9.277,999.512
1742463190.057,882.812,-20.996,9.766,885.742
1742463190.061,999.512,-28.32,11.719,999.512
1742463190.064,409.18,-67.383,8.301,351.074
1742463190.068,-984.863,-82.031,3.906,-1000.0
1742463190.072,-1000.0,-27.344,11.23,-1000.0
1742463190.076,-893.066,-16.602,11.23,-901.367
1742463190.08,-1000.0,-28.32,-2.441,-1000.0
1742463190.079,-220.703,5.371,2.93,-182.617
1742463190.083,999.512,13.672,5.371,999.512
1742463190.087,887.207,-24.902,-15.137,899.414
1742463190.091,999.512,-30.273,-29.785,999.512
1742463190.095,193.359,-43.457,-32.227,69.824
1742463190.099,-1000.0,-41.016,-34.668,-1000.0
1742463190.103,-989.746,-22.461,-38.086,-979.492
1742463190.106,-948.242,-48.34,-51.27,-951.66
1742463190.11,-986.816,-60.059,-51.27,-998.535
1742463190.114,-1000.0,-38.574,-40.527,-1000.0
1742463190.118,152.344,-4.883,-37.598,209.961
1742463190.122,999.512,-3.906,-27.832,999.512
1742463190.127,844.727,-36.133,-25.879,854.004
1742463190.131,999.512,-43.945,-35.645,999.512
1742463190.135,187.012,-67.871,-41.016,139.648
1742463190.139,-1000.0,-78.125,-33.203,-1000.0
1742463190.143,-921.387,-44.922,-24.902,-917.969
1742463190.147,-1000.0,-31.25,-19.043,-1000.0
1742463190.151,-227.539,12.207,-19.043,-207.52
1742463190.154,999.512,-0.977,-28.809,999.512
1742463190.158,880.859,-42.969,-34.668,882.812
1742463190.162,999.512,-24.414,-34.668,999.512
1742463190.166,645.996,-51.758,-41.016,585.449
1742463190.17,-807.617,-82.031,-45.41,-828.613
1742463190.127,844.727,-36.133,-25.879,854.004
1742463190.131,999.512,-43.945,-35.645,999.512
1742463190.135,187.012,-67.871,-41.016,139.648
1742463190.139,-1000.0,-78.125,-33.203,-1000.0
1742463190.143,-921.387,-44.922,-24.902,-917.969
1742463190.147,-1000.0,-31.25,-19.043,-1000.0
1742463190.151,-227.539,12.207,-19.043,-207.52
1742463190.154,999.512,-0.977,-28.809,999.512
1742463190.158,880.859,-42.969,-34.668,882.812
1742463190.162,999.512,-24.414,-34.668,999.512
1742463190.166,645.996,-51.758,-41.016,585.449
1742463190.17,-807.617,-82.031,-45.41,-828.613
1742463190.17,-1000.0,-44.434,-36.621,-1000.0
1742463190.174,-898.438,-26.855,-30.762,-925.781
1742463190.178,-1000.0,-30.762,-29.297,-1000.0
1742463190.182,2.93,-6.348,-32.715,124.023
1742463190.186,999.512,-2.441,-34.18,999.512
1742463190.19,871.094,-20.508,-31.25,885.742
1742463190.194,999.512,-34.668,-36.133,999.512
1742463190.197,45.41,-84.961,-41.992,-55.664
1742463190.201,-1000.0,-84.961,-40.527,-1000.0
1742463190.205,-971.191,-45.41,-48.34,-966.309
1742463190.209,-914.062,-51.758,-58.594,-919.434
1742463190.213,-1000.0,-67.383,-56.641,-1000.0
1742463190.216,-346.68,-20.508,-39.062,-344.727
1742463190.22,991.211,7.812,-23.926,984.863
1742463190.224,908.203,-35.645,-29.785,917.969
1742463190.228,999.512,-45.41,-40.039,999.512
1742463190.232,197.266,-79.102,-44.434,124.023
1742463190.236,-1000.0,-64.453,-39.062,-1000.0
1742463190.24,-989.258,-33.691,-37.109,-980.469
1742463190.243,-904.785,-55.664,-41.504,-911.133
1742463190.247,-1000.0,-55.176,-42.48,-1000.0
1742463190.251,-313.965,-23.926,-39.551,-300.781
1742463190.255,999.512,-10.742,-29.297,999.512
1742463190.259,905.762,-30.273,-26.855,905.762
1742463190.216,-346.68,-20.508,-39.062,-344.727
1742463190.22,991.211,7.812,-23.926,984.863
1742463190.224,908.203,-35.645,-29.785,917.969
1742463190.228,999.512,-45.41,-40.039,999.512
1742463190.232,197.266,-79.102,-44.434,124.023
1742463190.236,-1000.0,-64.453,-39.062,-1000.0
1742463190.24,-989.258,-33.691,-37.109,-980.469
1742463190.243,-904.785,-55.664,-41.504,-911.133
1742463190.247,-1000.0,-55.176,-42.48,-1000.0
1742463190.251,-313.965,-23.926,-39.551,-300.781
1742463190.255,999.512,-10.742,-29.297,999.512
1742463190.259,905.762,-30.273,-26.855,905.762
1742463190.274,999.512,-38.574,-30.762,999.512
1742463190.278,777.344,-58.594,-30.762,708.984
1742463190.282,-667.48,-84.473,-34.18,-700.195
1742463190.286,-1000.0,-65.918,-31.738,-1000.0
1742463190.29,-1000.0,-43.457,-26.367,-1000.0
1742463190.294,-622.07,-19.043,-26.855,-523.926
1742463190.298,839.844,0.977,-27.832,889.16
1742463190.301,999.512,-46.875,-38.574,975.098
1742463190.305,875.0,-50.781,-33.691,917.969
1742463190.309,999.512,-34.18,-21.973,957.031
1742463190.313,-95.215,-55.176,-17.578,-271.973
1742463190.317,-1000.0,-52.734,-19.531,-1000.0
1742463190.274,999.512,-38.574,-30.762,999.512
1742463190.278,777.344,-58.594,-30.762,708.984
1742463190.282,-667.48,-84.473,-34.18,-700.195
1742463190.286,-1000.0,-65.918,-31.738,-1000.0
1742463190.29,-1000.0,-43.457,-26.367,-1000.0
1742463190.294,-622.07,-19.043,-26.855,-523.926
1742463190.298,839.844,0.977,-27.832,889.16
1742463190.301,999.512,-46.875,-38.574,975.098
1742463190.305,875.0,-50.781,-33.691,917.969
1742463190.309,999.512,-34.18,-21.973,957.031
1742463190.313,-95.215,-55.176,-17.578,-271.973
1742463190.317,-1000.0,-52.734,-19.531,-1000.0
1742463190.322,-886.23,-40.039,-21.973,-889.16
1742463190.326,-1000.0,-41.992,-22.461,-1000.0
1742463190.33,-222.168,-10.254,-21.484,-198.242
1742463190.334,999.512,-3.418,-29.297,999.512
1742463190.338,950.195,-26.855,-31.25,938.965
1742463190.342,876.953,-19.043,-19.043,895.508
1742463190.346,999.512,-21.484,-17.09,999.512
1742463190.349,176.27,-69.824,-17.09,53.223
1742463190.353,-1000.0,-71.777,-17.578,-1000.0
1742463190.357,-961.914,-40.039,-18.066,-941.895
1742463190.361,-945.312,-49.805,-22.949,-976.562
1742463190.365,-1000.0,-55.664,-25.391,-1000.0
1742463190.322,-886.23,-40.039,-21.973,-889.16
1742463190.326,-1000.0,-41.992,-22.461,-1000.0
1742463190.33,-222.168,-10.254,-21.484,-198.242
1742463190.334,999.512,-3.418,-29.297,999.512
1742463190.338,950.195,-26.855,-31.25,938.965
1742463190.342,876.953,-19.043,-19.043,895.508
1742463190.346,999.512,-21.484,-17.09,999.512
1742463190.349,176.27,-69.824,-17.09,53.223
1742463190.353,-1000.0,-71.777,-17.578,-1000.0
1742463190.357,-961.914,-40.039,-18.066,-941.895
1742463190.361,-945.312,-49.805,-22.949,-976.562
1742463190.365,-1000.0,-55.664,-25.391,-1000.0
1742463190.365,101.562,-22.461,-13.672,225.098
1742463190.369,999.512,-14.648,-8.301,999.512
1742463190.373,884.277,-29.785,-13.672,925.781
1742463190.377,999.512,-35.645,-15.137,911.133
1742463190.381,-138.184,-57.129,-19.043,-347.656
1742463190.385,-1000.0,-45.898,-18.066,-1000.0
1742463190.389,-946.289,-30.273,-17.578,-941.406
1742463190.392,-933.105,-50.293,-32.715,-946.289
1742463190.396,-1000.0,-58.594,-36.133,-1000.0
1742463190.4,-221.191,-17.578,-21.484,-155.762
1742463190.404,999.512,-7.812,-13.184,999.512
1742463190.408,925.781,-35.156,-20.02,909.668
1742463190.365,101.562,-22.461,-13.672,225.098
1742463190.369,999.512,-14.648,-8.301,999.512
1742463190.373,884.277,-29.785,-13.672,925.781
1742463190.377,999.512,-35.645,-15.137,911.133
1742463190.381,-138.184,-57.129,-19.043,-347.656
1742463190.385,-1000.0,-45.898,-18.066,-1000.0
1742463190.389,-946.289,-30.273,-17.578,-941.406
1742463190.392,-933.105,-50.293,-32.715,-946.289
1742463190.396,-1000.0,-58.594,-36.133,-1000.0
1742463190.4,-221.191,-17.578,-21.484,-155.762
1742463190.404,999.512,-7.812,-13.184,999.512
1742463190.408,925.781,-35.156,-20.02,909.668
1742463190.411,916.992,-32.715,-16.113,950.684
1742463190.415,999.512,-34.18,-14.16,949.219
1742463190.419,-192.871,-67.871,-24.902,-331.543
1742463190.423,-1000.0,-67.383,-28.32,-1000.0
1742463190.427,-1000.0,-45.898,-25.391,-1000.0
1742463190.431,-712.402,-20.508,-19.531,-621.582
1742463190.435,724.609,-4.883,-19.043,782.715
1742463190.438,999.512,-60.547,-34.18,999.512
1742463190.442,836.426,-67.383,-27.832,845.215
1742463190.446,999.512,-31.738,-20.02,999.512
1742463190.45,263.672,-69.824,-26.855,256.836
1742463190.454,-1000.0,-97.656,-26.855,-1000.0
1742463190.411,916.992,-32.715,-16.113,950.684
1742463190.415,999.512,-34.18,-14.16,949.219
1742463190.419,-192.871,-67.871,-24.902,-331.543
1742463190.423,-1000.0,-67.383,-28.32,-1000.0
1742463190.427,-1000.0,-45.898,-25.391,-1000.0
1742463190.431,-712.402,-20.508,-19.531,-621.582
1742463190.435,724.609,-4.883,-19.043,782.715
1742463190.438,999.512,-60.547,-34.18,999.512
1742463190.442,836.426,-67.383,-27.832,845.215
1742463190.446,999.512,-31.738,-20.02,999.512
1742463190.45,263.672,-69.824,-26.855,256.836
1742463190.454,-1000.0,-97.656,-26.855,-1000.0
1742463190.455,-935.059,-55.664,-24.902,-934.082
1742463190.459,-1000.0,-48.34,-18.066,-1000.0
1742463190.463,-786.621,-34.668,-14.16,-701.172
1742463190.467,648.438,-9.766,-10.254,710.449
1742463190.471,999.512,-26.855,-10.742,999.512
1742463190.475,839.355,-41.504,-16.602,858.887
1742463190.479,999.512,-39.062,-20.02,999.512
1742463190.482,180.176,-75.195,-35.156,75.684
1742463190.486,-1000.0,-86.426,-37.598,-1000.0
1742463190.49,-983.398,-41.504,-32.715,-969.727
1742463190.494,-911.133,-41.992,-39.062,-922.852
1742463190.498,-1000.0,-59.082,-39.062,-1000.0
1742463190.455,-935.059,-55.664,-24.902,-934.082
1742463190.459,-1000.0,-48.34,-18.066,-1000.0
1742463190.463,-786.621,-34.668,-14.16,-701.172
1742463190.467,648.438,-9.766,-10.254,710.449
1742463190.471,999.512,-26.855,-10.742,999.512
1742463190.475,839.355,-41.504,-16.602,858.887
1742463190.479,999.512,-39.062,-20.02,999.512
1742463190.482,180.176,-75.195,-35.156,75.684
1742463190.486,-1000.0,-86.426,-37.598,-1000.0
1742463190.49,-983.398,-41.504,-32.715,-969.727
1742463190.494,-911.133,-41.992,-39.062,-922.852
1742463190.498,-1000.0,-59.082,-39.062,-1000.0
1742463190.502,-217.773,-13.184,-25.879,-164.062
1742463190.506,999.512,-3.906,-15.137,999.512
1742463190.51,886.719,-38.086,-16.602,885.742
1742463190.514,999.512,-33.691,-17.09,999.512
1742463190.518,193.359,-66.406,-19.043,145.508
1742463190.522,-1000.0,-58.105,-11.719,-1000.0
1742463190.526,-994.629,-27.344,-14.648,-988.281
1742463190.529,-931.152,-45.898,-28.32,-932.617
1742463190.533,-1000.0,-42.969,-32.227,-1000.0
1742463190.537,-963.867,-23.438,-30.273,-908.691
1742463190.541,376.953,3.906,-24.902,421.875
1742463190.545,999.512,-20.02,-29.297,999.512
1742463190.502,-217.773,-13.184,-25.879,-164.062
1742463190.506,999.512,-3.906,-15.137,999.512
1742463190.51,886.719,-38.086,-16.602,885.742
1742463190.514,999.512,-33.691,-17.09,999.512
1742463190.518,193.359,-66.406,-19.043,145.508
1742463190.522,-1000.0,-58.105,-11.719,-1000.0
1742463190.526,-994.629,-27.344,-14.648,-988.281
1742463190.529,-931.152,-45.898,-28.32,-932.617
1742463190.533,-1000.0,-42.969,-32.227,-1000.0
1742463190.537,-963.867,-23.438,-30.273,-908.691
1742463190.541,376.953,3.906,-24.902,421.875
1742463190.545,999.512,-20.02,-29.297,999.512
1742463190.545,839.355,-35.645,-20.996,861.816
1742463190.549,999.512,-30.273,-13.672,999.512
1742463190.553,150.879,-61.035,-27.344,20.996
1742463190.557,-1000.0,-59.082,-26.855,-1000.0
1742463190.561,-1000.0,-27.344,-10.742,-1000.0
1742463190.565,-786.621,-1.465,-5.859,-675.781
1742463190.569,599.609,13.184,-13.672,697.266
1742463190.572,999.512,-34.18,-23.926,999.512
1742463190.576,835.938,-46.387,-18.066,846.191
1742463190.58,999.512,-20.508,-9.766,999.512
1742463190.584,706.543,-41.504,-15.625,647.461
1742463190.588,-742.676,-81.543,-28.32,-765.137
1742463190.545,839.355,-35.645,-20.996,861.816
1742463190.549,999.512,-30.273,-13.672,999.512
1742463190.553,150.879,-61.035,-27.344,20.996
1742463190.557,-1000.0,-59.082,-26.855,-1000.0
1742463190.561,-1000.0,-27.344,-10.742,-1000.0
1742463190.565,-786.621,-1.465,-5.859,-675.781
1742463190.569,599.609,13.184,-13.672,697.266
1742463190.572,999.512,-34.18,-23.926,999.512
1742463190.576,835.938,-46.387,-18.066,846.191
1742463190.58,999.512,-20.508,-9.766,999.512
1742463190.584,706.543,-41.504,-15.625,647.461
1742463190.588,-742.676,-81.543,-28.32,-765.137
1742463190.592,-1000.0,-46.387,-32.715,-1000.0
1742463190.596,-1000.0,-31.25,-30.273,-1000.0
1742463190.6,-760.254,-10.742,-27.832,-668.457
1742463190.604,696.289,13.184,-31.738,763.184
1742463190.608,999.512,-22.949,-36.621,990.723
1742463190.612,902.344,-17.578,-32.715,938.477
1742463190.616,999.512,-35.156,-34.668,884.277
1742463190.619,-307.129,-88.379,-44.922,-444.824
1742463190.623,-1000.0,-67.383,-41.504,-1000.0
1742463190.627,-887.207,-38.574,-34.668,-889.16
1742463190.631,-1000.0,-46.387,-36.621,-1000.0
1742463190.635,-906.25,-37.109,-35.156,-823.73
1742463190.592,-1000.0,-46.387,-32.715,-1000.0
1742463190.596,-1000.0,-31.25,-30.273,-1000.0
1742463190.6,-760.254,-10.742,-27.832,-668.457
1742463190.604,696.289,13.184,-31.738,763.184
1742463190.608,999.512,-22.949,-36.621,990.723
1742463190.612,902.344,-17.578,-32.715,938.477
1742463190.616,999.512,-35.156,-34.668,884.277
1742463190.619,-307.129,-88.379,-44.922,-444.824
1742463190.623,-1000.0,-67.383,-41.504,-1000.0
1742463190.627,-887.207,-38.574,-34.668,-889.16
1742463190.631,-1000.0,-46.387,-36.621,-1000.0
1742463190.635,-906.25,-37.109,-35.156,-823.73
1742463190.649,479.004,-2.441,-34.668,549.316
1742463190.653,999.512,-11.719,-35.156,999.512
1742463190.657,895.02,-28.32,-39.062,935.547
1742463190.661,999.512,-32.227,-44.434,868.652
1742463190.665,-280.273,-44.922,-44.922,-450.195
1742463190.669,-1000.0,-25.879,-47.852,-1000.0
1742463190.673,-937.988,-15.137,-58.105,-941.406
1742463190.676,-939.941,-35.156,-71.289,-944.336
1742463190.68,-1000.0,-47.363,-65.43,-1000.0
1742463190.684,-221.191,-0.488,-48.828,-203.613
1742463190.688,999.512,20.02,-39.062,999.512
1742463190.692,880.371,-13.672,-36.133,880.859
1742463190.649,479.004,-2.441,-34.668,549.316
1742463190.653,999.512,-11.719,-35.156,999.512
1742463190.657,895.02,-28.32,-39.062,935.547
1742463190.661,999.512,-32.227,-44.434,868.652
1742463190.665,-280.273,-44.922,-44.922,-450.195
1742463190.669,-1000.0,-25.879,-47.852,-1000.0
1742463190.673,-937.988,-15.137,-58.105,-941.406
1742463190.676,-939.941,-35.156,-71.289,-944.336
1742463190.68,-1000.0,-47.363,-65.43,-1000.0
1742463190.684,-221.191,-0.488,-48.828,-203.613
1742463190.688,999.512,20.02,-39.062,999.512
1742463190.692,880.371,-13.672,-36.133,880.859
1742463190.696,999.512,-13.672,-38.086,999.512
1742463190.7,638.672,-39.062,-48.34,569.336
1742463190.704,-814.453,-62.988,-50.781,-845.703
1742463190.708,-1000.0,-34.18,-41.504,-991.699
1742463190.712,-1000.0,-20.508,-39.551,-1000.0
1742463190.716,-251.953,17.09,-40.039,-243.652
1742463190.72,999.512,13.672,-41.016,999.512
1742463190.723,926.758,-35.645,-42.969,917.48
1742463190.727,918.945,-43.457,-37.109,950.684
1742463190.731,999.512,-42.48,-36.133,925.781
1742463190.735,-197.754,-68.848,-29.785,-348.145
1742463190.739,-1000.0,-61.523,-17.578,-1000.0
1742463190.696,999.512,-13.672,-38.086,999.512
1742463190.7,638.672,-39.062,-48.34,569.336
1742463190.704,-814.453,-62.988,-50.781,-845.703
1742463190.708,-1000.0,-34.18,-41.504,-991.699
1742463190.712,-1000.0,-20.508,-39.551,-1000.0
1742463190.716,-251.953,17.09,-40.039,-243.652
1742463190.72,999.512,13.672,-41.016,999.512
1742463190.723,926.758,-35.645,-42.969,917.48
1742463190.727,918.945,-43.457,-37.109,950.684
1742463190.731,999.512,-42.48,-36.133,925.781
1742463190.735,-197.754,-68.848,-29.785,-348.145
1742463190.739,-1000.0,-61.523,-17.578,-1000.0
1742463190.74,-878.418,-32.227,-25.391,-884.277
1742463190.744,-1000.0,-35.156,-31.25,-1000.0
1742463190.748,-221.68,-2.93,-26.855,-190.43
1742463190.752,999.512,7.812,-26.855,999.512
1742463190.756,890.625,-30.273,-31.25,886.719
1742463190.76,999.512,-34.18,-37.109,999.512
1742463190.764,774.902,-41.016,-36.621,663.086
1742463190.767,-651.855,-77.637,-43.457,-728.516
1742463190.771,-1000.0,-61.523,-50.781,-1000.0
1742463190.775,-932.617,-28.32,-44.434,-937.012
1742463190.779,-955.078,-31.25,-42.969,-960.449
1742463190.783,-1000.0,-57.129,-49.805,-1000.0
1742463190.74,-878.418,-32.227,-25.391,-884.277
1742463190.744,-1000.0,-35.156,-31.25,-1000.0
1742463190.748,-221.68,-2.93,-26.855,-190.43
1742463190.752,999.512,7.812,-26.855,999.512
1742463190.756,890.625,-30.273,-31.25,886.719
1742463190.76,999.512,-34.18,-37.109,999.512
1742463190.764,774.902,-41.016,-36.621,663.086
1742463190.767,-651.855,-77.637,-43.457,-728.516
1742463190.771,-1000.0,-61.523,-50.781,-1000.0
1742463190.775,-932.617,-28.32,-44.434,-937.012
1742463190.779,-955.078,-31.25,-42.969,-960.449
1742463190.783,-1000.0,-57.129,-49.805,-1000.0
1742463190.786,-172.363,-15.137,-40.039,-114.258
1742463190.79,999.512,3.906,-34.668,999.512
1742463190.794,887.695,-24.902,-41.504,912.109
1742463190.798,999.512,-31.738,-45.898,999.512
1742463190.802,113.281,-56.641,-46.387,-76.66
1742463190.806,-1000.0,-39.551,-41.016,-1000.0
1742463190.81,-974.121,-21.973,-35.156,-963.867
1742463190.813,-915.527,-45.41,-42.48,-923.828
1742463190.817,-1000.0,-47.363,-50.293,-1000.0
1742463190.821,-231.934,-1.465,-49.316,-249.023
1742463190.825,999.512,12.695,-52.734,999.512
1742463190.829,880.859,-29.785,-57.617,886.719
1742463190.786,-172.363,-15.137,-40.039,-114.258
1742463190.79,999.512,3.906,-34.668,999.512
1742463190.794,887.695,-24.902,-41.504,912.109
1742463190.798,999.512,-31.738,-45.898,999.512
1742463190.802,113.281,-56.641,-46.387,-76.66
1742463190.806,-1000.0,-39.551,-41.016,-1000.0
1742463190.81,-974.121,-21.973,-35.156,-963.867
1742463190.813,-915.527,-45.41,-42.48,-923.828
1742463190.817,-1000.0,-47.363,-50.293,-1000.0
1742463190.821,-231.934,-1.465,-49.316,-249.023
1742463190.825,999.512,12.695,-52.734,999.512
1742463190.829,880.859,-29.785,-57.617,886.719
1742463190.845,999.512,-18.555,-47.363,999.512
1742463190.849,349.609,-45.41,-44.922,317.383
1742463190.853,-1000.0,-77.637,-47.363,-1000.0
1742463190.857,-945.801,-41.504,-42.969,-941.895
1742463190.861,-1000.0,-23.438,-40.039,-1000.0
1742463190.865,-747.07,-15.137,-39.062,-660.156
1742463190.869,697.754,-4.883,-38.574,748.535
1742463190.872,999.512,-41.504,-41.504,999.512
1742463190.876,841.797,-55.664,-43.457,865.723
1742463190.88,999.512,-36.133,-41.016,999.512
1742463190.884,168.457,-65.43,-43.457,45.898
1742463190.888,-1000.0,-83.496,-41.016,-1000.0
1742463190.876,-918.457,-47.852,-34.668,-909.668
1742463190.88,-1000.0,-31.738,-23.926,-1000.0
1742463190.884,-227.051,8.789,-14.16,-206.543
1742463190.888,999.512,9.277,-21.973,999.512
1742463190.892,932.129,-46.875,-33.203,920.41
1742463190.896,904.785,-35.645,-29.785,934.082
1742463190.9,999.512,-32.227,-30.762,985.84
1742463190.903,-92.285,-87.891,-46.387,-231.934
1742463190.907,-1000.0,-72.266,-50.293,-1000.0
1742463190.911,-936.523,-38.086,-50.781,-929.688
1742463190.915,-950.195,-47.363,-59.57,-969.238
1742463190.919,-1000.0,-53.711,-60.547,-1000.0
1742463190.876,-918.457,-47.852,-34.668,-909.668
1742463190.88,-1000.0,-31.738,-23.926,-1000.0
1742463190.884,-227.051,8.789,-14.16,-206.543
1742463190.888,999.512,9.277,-21.973,999.512
1742463190.892,932.129,-46.875,-33.203,920.41
1742463190.896,904.785,-35.645,-29.785,934.082
1742463190.9,999.512,-32.227,-30.762,985.84
1742463190.903,-92.285,-87.891,-46.387,-231.934
1742463190.907,-1000.0,-72.266,-50.293,-1000.0
1742463190.911,-936.523,-38.086,-50.781,-929.688
1742463190.915,-950.195,-47.363,-59.57,-969.238
1742463190.919,-1000.0,-53.711,-60.547,-1000.0
1742463190.92,-3.906,-8.301,-54.688,77.637
1742463190.924,999.512,-5.859,-51.27,999.512
1742463190.928,933.105,-42.48,-52.246,973.633
1742463190.932,947.754,-46.387,-46.875,763.672
1742463190.936,-356.934,-57.617,-35.156,-570.312
1742463190.94,-1000.0,-38.086,-23.926,-1000.0
1742463190.944,-935.547,-24.414,-19.043,-940.918
1742463190.947,-942.871,-46.875,-20.996,-947.754
1742463190.951,-1000.0,-54.688,-23.926,-1000.0
1742463190.955,-220.703,-1.953,-19.531,-199.219
1742463190.959,999.512,12.207,-14.648,999.512
1742463190.963,876.465,-28.809,-14.648,877.93
1742463190.92,-3.906,-8.301,-54.688,77.637
1742463190.924,999.512,-5.859,-51.27,999.512
1742463190.928,933.105,-42.48,-52.246,973.633
1742463190.932,947.754,-46.387,-46.875,763.672
1742463190.936,-356.934,-57.617,-35.156,-570.312
1742463190.94,-1000.0,-38.086,-23.926,-1000.0
1742463190.944,-935.547,-24.414,-19.043,-940.918
1742463190.947,-942.871,-46.875,-20.996,-947.754
1742463190.951,-1000.0,-54.688,-23.926,-1000.0
1742463190.955,-220.703,-1.953,-19.531,-199.219
1742463190.959,999.512,12.207,-14.648,999.512
1742463190.963,876.465,-28.809,-14.648,877.93
1742463190.966,999.512,-22.461,-16.113,999.512
1742463190.97,558.594,-43.457,-23.438,488.281
1742463190.974,-896.973,-74.707,-37.109,-918.945
1742463190.978,-981.934,-52.734,-45.41,-971.191
1742463190.982,-1000.0,-42.48,-44.434,-1000.0
1742463190.986,-368.164,8.301,-39.551,-326.66
1742463190.99,990.723,8.789,-42.969,999.512
1742463190.993,960.449,-36.133,-43.457,945.801
1742463190.997,884.277,-27.832,-32.715,910.645
1742463191.001,999.512,-32.227,-31.25,999.512
1742463191.005,-4.883,-66.406,-42.48,-130.859
1742463191.009,-1000.0,-66.895,-48.828,-1000.0
1742463190.966,999.512,-22.461,-16.113,999.512
1742463190.97,558.594,-43.457,-23.438,488.281
1742463190.974,-896.973,-74.707,-37.109,-918.945
1742463190.978,-981.934,-52.734,-45.41,-971.191
1742463190.982,-1000.0,-42.48,-44.434,-1000.0
1742463190.986,-368.164,8.301,-39.551,-326.66
1742463190.99,990.723,8.789,-42.969,999.512
1742463190.993,960.449,-36.133,-43.457,945.801
1742463190.997,884.277,-27.832,-32.715,910.645
1742463191.001,999.512,-32.227,-31.25,999.512
1742463191.005,-4.883,-66.406,-42.48,-130.859
1742463191.009,-1000.0,-66.895,-48.828,-1000.0
1742463191.024,-886.719,-41.504,-45.898,-885.742
1742463191.028,-1000.0,-52.734,-42.969,-1000.0
1742463191.032,-404.297,-15.137,-34.668,-369.629
1742463191.036,967.285,8.301,-28.809,979.98
1742463191.04,981.445,-20.02,-34.18,969.727
1742463191.044,861.816,-21.973,-36.621,877.441
1742463191.048,999.512,-43.457,-38.574,999.512
1742463191.051,187.012,-90.332,-44.434,85.938
1742463191.055,-1000.0,-85.449,-39.551,-1000.0
1742463191.059,-959.961,-49.805,-30.762,-940.918
1742463191.063,-951.172,-40.527,-25.879,-981.445
1742463191.067,-1000.0,-42.48,-30.273,-1000.0
1742463191.024,-886.719,-41.504,-45.898,-885.742
1742463191.028,-1000.0,-52.734,-42.969,-1000.0
1742463191.032,-404.297,-15.137,-34.668,-369.629
1742463191.036,967.285,8.301,-28.809,979.98
1742463191.04,981.445,-20.02,-34.18,969.727
1742463191.044,861.816,-21.973,-36.621,877.441
1742463191.048,999.512,-43.457,-38.574,999.512
1742463191.051,187.012,-90.332,-44.434,85.938
1742463191.055,-1000.0,-85.449,-39.551,-1000.0
1742463191.059,-959.961,-49.805,-30.762,-940.918
1742463191.063,-951.172,-40.527,-25.879,-981.445
1742463191.067,-1000.0,-42.48,-30.273,-1000.0
1742463191.069,145.508,-17.09,-32.227,264.16
1742463191.073,999.512,-27.344,-38.574,999.512
1742463191.077,867.676,-50.293,-40.527,901.367
1742463191.081,999.512,-46.387,-34.18,976.562
1742463191.085,-41.016,-64.453,-30.273,-211.426
1742463191.089,-1000.0,-46.875,-24.902,-1000.0
1742463191.093,-946.289,-29.785,-19.043,-937.5
1742463191.096,-940.43,-42.969,-21.484,-960.449
1742463191.1,-1000.0,-41.992,-32.715,-1000.0
1742463191.104,-74.707,-2.441,-30.762,2.93
1742463191.108,999.512,5.371,-25.879,999.512
1742463191.112,865.234,-31.25,-30.762,864.746
1742463191.069,145.508,-17.09,-32.227,264.16
1742463191.073,999.512,-27.344,-38.574,999.512
1742463191.077,867.676,-50.293,-40.527,901.367
1742463191.081,999.512,-46.387,-34.18,976.562
1742463191.085,-41.016,-64.453,-30.273,-211.426
1742463191.089,-1000.0,-46.875,-24.902,-1000.0
1742463191.093,-946.289,-29.785,-19.043,-937.5
1742463191.096,-940.43,-42.969,-21.484,-960.449
1742463191.1,-1000.0,-41.992,-32.715,-1000.0
1742463191.104,-74.707,-2.441,-30.762,2.93
1742463191.108,999.512,5.371,-25.879,999.512
1742463191.112,865.234,-31.25,-30.762,864.746
1742463191.114,999.512,-16.602,-27.344,999.512
1742463191.118,223.145,-48.34,-27.832,219.238
1742463191.122,-1000.0,-76.172,-33.691,-1000.0
1742463191.126,-916.504,-31.738,-26.855,-918.945
1742463191.13,-1000.0,-22.461,-16.602,-1000.0
1742463191.134,-442.383,0.0,-14.648,-385.254
1742463191.138,951.172,19.043,-16.113,973.633
1742463191.141,988.281,-26.855,-19.531,974.609
1742463191.145,858.887,-48.34,-24.414,872.07
1742463191.149,999.512,-34.18,-20.508,999.512
1742463191.153,186.523,-63.477,-21.973,123.047
1742463191.157,-1000.0,-82.031,-32.227,-1000.0
1742463191.114,999.512,-16.602,-27.344,999.512
1742463191.118,223.145,-48.34,-27.832,219.238
1742463191.122,-1000.0,-76.172,-33.691,-1000.0
1742463191.126,-916.504,-31.738,-26.855,-918.945
1742463191.13,-1000.0,-22.461,-16.602,-1000.0
1742463191.134,-442.383,0.0,-14.648,-385.254
1742463191.138,951.172,19.043,-16.113,973.633
1742463191.141,988.281,-26.855,-19.531,974.609
1742463191.145,858.887,-48.34,-24.414,872.07
1742463191.149,999.512,-34.18,-20.508,999.512
1742463191.153,186.523,-63.477,-21.973,123.047
1742463191.157,-1000.0,-82.031,-32.227,-1000.0
1742463191.161,-917.969,-40.039,-27.344,-912.109
1742463191.165,-1000.0,-38.086,-26.855,-1000.0
1742463191.169,-279.297,-8.789,-30.762,-269.531
1742463191.173,999.512,0.488,-33.691,999.512
1742463191.177,959.961,-41.992,-41.016,959.473
1742463191.181,870.605,-29.297,-39.551,873.047
1742463191.185,999.512,-20.02,-37.109,999.512
1742463191.188,207.52,-76.172,-42.48,200.684
1742463191.192,-1000.0,-93.262,-45.898,-1000.0
1742463191.196,-984.863,-47.852,-42.969,-979.004
1742463191.2,-913.574,-39.551,-34.668,-923.828
1742463191.204,-1000.0,-43.945,-30.762,-1000.0
1742463191.204,-166.504,-12.695,-28.809,-90.332
1742463191.208,999.512,-2.93,-30.762,999.512
1742463191.212,950.684,-37.109,-42.48,942.871
1742463191.216,872.07,-31.738,-40.527,879.395
1742463191.22,999.512,-10.742,-25.879,999.512
1742463191.224,342.285,-58.594,-20.996,319.824
1742463191.228,-1000.0,-96.68,-20.996,-1000.0
1742463191.231,-1000.0,-83.008,-16.602,-990.234
1742463191.235,-913.574,-80.566,-7.812,-931.641
1742463191.239,-1000.0,-67.383,14.16,-1000.0
1742463191.243,-53.711,-37.109,22.461,41.016
1742463191.247,999.512,-43.945,22.949,999.512
1742463191.204,-166.504,-12.695,-28.809,-90.332
1742463191.208,999.512,-2.93,-30.762,999.512
1742463191.212,950.684,-37.109,-42.48,942.871
1742463191.216,872.07,-31.738,-40.527,879.395
1742463191.22,999.512,-10.742,-25.879,999.512
1742463191.224,342.285,-58.594,-20.996,319.824
1742463191.228,-1000.0,-96.68,-20.996,-1000.0
1742463191.231,-1000.0,-83.008,-16.602,-990.234
1742463191.235,-913.574,-80.566,-7.812,-931.641
1742463191.239,-1000.0,-67.383,14.16,-1000.0
1742463191.243,-53.711,-37.109,22.461,41.016
1742463191.247,999.512,-43.945,22.949,999.512
1742463191.251,853.027,-69.824,22.949,854.492
1742463191.255,999.512,-54.199,17.578,999.512
1742463191.259,522.949,-83.496,14.648,460.938
1742463191.263,-917.969,-109.863,6.836,-929.688
1742463191.267,-1000.0,-75.195,4.883,-1000.0
1742463191.271,-879.395,-53.711,8.301,-887.207
1742463191.275,-1000.0,-77.148,-6.348,-1000.0
1742463191.278,-709.961,-76.172,-15.137,-630.371
1742463191.282,730.469,-26.855,-5.371,773.926
1742463191.286,999.512,-47.363,-10.254,999.512
1742463191.29,842.285,-65.918,-11.23,868.164
1742463191.294,999.512,-50.781,-13.672,999.512
1742463191.251,853.027,-69.824,22.949,854.492
1742463191.255,999.512,-54.199,17.578,999.512
1742463191.259,522.949,-83.496,14.648,460.938
1742463191.263,-917.969,-109.863,6.836,-929.688
1742463191.267,-1000.0,-75.195,4.883,-1000.0
1742463191.271,-879.395,-53.711,8.301,-887.207
1742463191.275,-1000.0,-77.148,-6.348,-1000.0
1742463191.278,-709.961,-76.172,-15.137,-630.371
1742463191.282,730.469,-26.855,-5.371,773.926
1742463191.286,999.512,-47.363,-10.254,999.512
1742463191.29,842.285,-65.918,-11.23,868.164
1742463191.294,999.512,-50.781,-13.672,999.512
1742463191.251,853.027,-69.824,22.949,854.492
1742463191.255,999.512,-54.199,17.578,999.512
1742463191.259,522.949,-83.496,14.648,460.938
1742463191.263,-917.969,-109.863,6.836,-929.688
1742463191.267,-1000.0,-75.195,4.883,-1000.0
1742463191.271,-879.395,-53.711,8.301,-887.207
1742463191.275,-1000.0,-77.148,-6.348,-1000.0
1742463191.278,-709.961,-76.172,-15.137,-630.371
1742463191.282,730.469,-26.855,-5.371,773.926
1742463191.286,999.512,-47.363,-10.254,999.512
1742463191.29,842.285,-65.918,-11.23,868.164
1742463191.294,999.512,-50.781,-13.672,999.512
1742463191.295,168.945,-73.242,-22.949,35.645
1742463191.299,-1000.0,-79.59,-17.578,-1000.0
1742463191.303,-906.738,-52.734,-14.648,-899.414
1742463191.307,-1000.0,-60.547,-24.414,-1000.0
1742463191.311,-540.039,-24.902,-27.344,-460.938
1742463191.315,897.461,6.348,-21.973,931.641
1742463191.319,999.512,-42.969,-24.414,982.91
1742463191.322,857.91,-67.871,-25.879,878.418
1742463191.326,999.512,-48.34,-14.648,999.512
1742463191.33,108.398,-69.824,-18.066,16.113
1742463191.334,-1000.0,-76.66,-20.02,-1000.0
1742463191.338,-910.156,-50.781,-10.742,-904.297
1742463191.295,168.945,-73.242,-22.949,35.645
1742463191.299,-1000.0,-79.59,-17.578,-1000.0
1742463191.303,-906.738,-52.734,-14.648,-899.414
1742463191.307,-1000.0,-60.547,-24.414,-1000.0
1742463191.311,-540.039,-24.902,-27.344,-460.938
1742463191.315,897.461,6.348,-21.973,931.641
1742463191.319,999.512,-42.969,-24.414,982.91
1742463191.322,857.91,-67.871,-25.879,878.418
1742463191.326,999.512,-48.34,-14.648,999.512
1742463191.33,108.398,-69.824,-18.066,16.113
1742463191.334,-1000.0,-76.66,-20.02,-1000.0
1742463191.338,-910.156,-50.781,-10.742,-904.297
1742463191.341,-1000.0,-57.617,-10.742,-1000.0
1742463191.345,-229.004,-33.203,-19.043,-225.098
1742463191.349,999.512,-29.297,-29.297,999.512
1742463191.353,963.379,-72.754,-44.434,962.891
1742463191.357,886.719,-75.684,-45.898,887.695
1742463191.361,999.512,-46.875,-36.133,999.512
1742463191.365,844.727,-56.152,-42.48,791.992
1742463191.368,-544.922,-104.98,-56.641,-577.148
1742463191.372,-1000.0,-83.496,-60.547,-1000.0
1742463191.376,-872.07,-57.617,-48.34,-891.113
1742463191.38,-1000.0,-67.383,-43.945,-1000.0
1742463191.384,-209.961,-41.016,-46.875,-94.727
1742463191.341,-1000.0,-57.617,-10.742,-1000.0
1742463191.345,-229.004,-33.203,-19.043,-225.098
1742463191.349,999.512,-29.297,-29.297,999.512
1742463191.353,963.379,-72.754,-44.434,962.891
1742463191.357,886.719,-75.684,-45.898,887.695
1742463191.361,999.512,-46.875,-36.133,999.512
1742463191.365,844.727,-56.152,-42.48,791.992
1742463191.368,-544.922,-104.98,-56.641,-577.148
1742463191.372,-1000.0,-83.496,-60.547,-1000.0
1742463191.376,-872.07,-57.617,-48.34,-891.113
1742463191.38,-1000.0,-67.383,-43.945,-1000.0
1742463191.384,-209.961,-41.016,-46.875,-94.727
1742463191.4,999.512,-20.508,-37.109,999.512
1742463191.404,900.879,-46.875,-38.086,888.184
1742463191.408,974.121,-57.129,-38.086,995.117
1742463191.412,893.066,-69.336,-33.691,811.035
1742463191.416,-483.398,-88.867,-36.133,-546.875
1742463191.42,-1000.0,-69.336,-33.203,-1000.0
1742463191.424,-868.164,-64.453,-41.504,-874.023
1742463191.427,-1000.0,-83.496,-49.805,-1000.0
1742463191.431,-259.766,-37.598,-36.621,-262.207
1742463191.435,999.512,-8.301,-23.438,999.512
1742463191.439,957.031,-48.828,-21.973,950.684
1742463191.443,873.047,-58.594,-26.855,888.184
1742463191.4,999.512,-20.508,-37.109,999.512
1742463191.404,900.879,-46.875,-38.086,888.184
1742463191.408,974.121,-57.129,-38.086,995.117
1742463191.412,893.066,-69.336,-33.691,811.035
1742463191.416,-483.398,-88.867,-36.133,-546.875
1742463191.42,-1000.0,-69.336,-33.203,-1000.0
1742463191.424,-868.164,-64.453,-41.504,-874.023
1742463191.427,-1000.0,-83.496,-49.805,-1000.0
1742463191.431,-259.766,-37.598,-36.621,-262.207
1742463191.435,999.512,-8.301,-23.438,999.512
1742463191.439,957.031,-48.828,-21.973,950.684
1742463191.443,873.047,-58.594,-26.855,888.184
1742463191.459,999.512,-41.504,-26.855,999.512
1742463191.463,187.012,-66.406,-26.367,78.125
1742463191.467,-1000.0,-81.055,-34.18,-1000.0
1742463191.471,-913.574,-44.434,-31.25,-906.738
1742463191.475,-1000.0,-40.527,-29.297,-1000.0
1742463191.479,-370.117,1.465,-28.32,-324.219
1742463191.483,998.047,20.02,-20.508,999.512
1742463191.486,916.016,-24.902,-20.508,909.18
1742463191.49,990.234,-25.879,-23.438,999.512
1742463191.494,798.828,-43.945,-25.391,714.844
1742463191.498,-624.512,-72.266,-25.391,-684.082
1742463191.502,-1000.0,-48.828,-25.391,-1000.0
1742463191.459,999.512,-41.504,-26.855,999.512
1742463191.463,187.012,-66.406,-26.367,78.125
1742463191.467,-1000.0,-81.055,-34.18,-1000.0
1742463191.471,-913.574,-44.434,-31.25,-906.738
1742463191.475,-1000.0,-40.527,-29.297,-1000.0
1742463191.479,-370.117,1.465,-28.32,-324.219
1742463191.483,998.047,20.02,-20.508,999.512
1742463191.486,916.016,-24.902,-20.508,909.18
1742463191.49,990.234,-25.879,-23.438,999.512
1742463191.494,798.828,-43.945,-25.391,714.844
1742463191.498,-624.512,-72.266,-25.391,-684.082
1742463191.502,-1000.0,-48.828,-25.391,-1000.0
1742463191.49,-872.07,-40.527,-28.32,-893.555
1742463191.494,-1000.0,-52.734,-28.32,-1000.0
1742463191.498,-217.773,-23.926,-22.461,-100.586
1742463191.502,999.512,-5.859,-17.578,999.512
1742463191.506,942.383,-22.949,-11.719,926.27
1742463191.51,887.695,-32.227,-14.16,909.668
1742463191.514,999.512,-39.062,-24.902,999.512
1742463191.517,61.035,-89.844,-47.852,-22.949
1742463191.521,-1000.0,-98.633,-55.664,-1000.0
1742463191.525,-904.297,-61.523,-62.012,-900.391
1742463191.529,-1000.0,-74.219,-71.777,-1000.0
1742463191.533,-224.609,-34.668,-56.641,-222.656
1742463191.49,-872.07,-40.527,-28.32,-893.555
1742463191.494,-1000.0,-52.734,-28.32,-1000.0
1742463191.498,-217.773,-23.926,-22.461,-100.586
1742463191.502,999.512,-5.859,-17.578,999.512
1742463191.506,942.383,-22.949,-11.719,926.27
1742463191.51,887.695,-32.227,-14.16,909.668
1742463191.514,999.512,-39.062,-24.902,999.512
1742463191.517,61.035,-89.844,-47.852,-22.949
1742463191.521,-1000.0,-98.633,-55.664,-1000.0
1742463191.525,-904.297,-61.523,-62.012,-900.391
1742463191.529,-1000.0,-74.219,-71.777,-1000.0
1742463191.533,-224.609,-34.668,-56.641,-222.656
1742463191.49,-872.07,-40.527,-28.32,-893.555
1742463191.494,-1000.0,-52.734,-28.32,-1000.0
1742463191.498,-217.773,-23.926,-22.461,-100.586
1742463191.502,999.512,-5.859,-17.578,999.512
1742463191.506,942.383,-22.949,-11.719,926.27
1742463191.51,887.695,-32.227,-14.16,909.668
1742463191.514,999.512,-39.062,-24.902,999.512
1742463191.517,61.035,-89.844,-47.852,-22.949
1742463191.521,-1000.0,-98.633,-55.664,-1000.0
1742463191.525,-904.297,-61.523,-62.012,-900.391
1742463191.529,-1000.0,-74.219,-71.777,-1000.0
1742463191.533,-224.609,-34.668,-56.641,-222.656
1742463191.536,999.512,-8.301,-52.734,999.512
1742463191.54,953.125,-34.18,-60.547,954.102
1742463191.544,873.535,-37.598,-56.641,875.0
1742463191.548,999.512,-35.156,-59.57,999.512
1742463191.552,234.375,-73.73,-66.406,231.445
1742463191.556,-1000.0,-80.078,-58.594,-1000.0
1742463191.56,-927.246,-39.551,-51.758,-928.223
1742463191.563,-1000.0,-62.988,-61.523,-1000.0
1742463191.567,-255.859,-27.344,-62.988,-249.512
1742463191.571,999.512,-10.742,-67.871,999.512
1742463191.575,968.262,-56.641,-76.172,965.332
1742463191.579,862.305,-62.012,-72.266,868.164
1742463191.536,999.512,-8.301,-52.734,999.512
1742463191.54,953.125,-34.18,-60.547,954.102
1742463191.544,873.535,-37.598,-56.641,875.0
1742463191.548,999.512,-35.156,-59.57,999.512
1742463191.552,234.375,-73.73,-66.406,231.445
1742463191.556,-1000.0,-80.078,-58.594,-1000.0
1742463191.56,-927.246,-39.551,-51.758,-928.223
1742463191.563,-1000.0,-62.988,-61.523,-1000.0
1742463191.567,-255.859,-27.344,-62.988,-249.512
1742463191.571,999.512,-10.742,-67.871,999.512
1742463191.575,968.262,-56.641,-76.172,965.332
1742463191.579,862.305,-62.012,-72.266,868.164
1742463191.579,999.512,-49.316,-64.453,999.512
1742463191.583,495.117,-66.406,-59.57,463.379
1742463191.587,-933.105,-93.262,-55.664,-928.223
1742463191.591,-1000.0,-69.824,-51.27,-1000.0
1742463191.595,-883.301,-51.758,-47.363,-887.207
1742463191.599,-1000.0,-58.105,-50.293,-1000.0
1742463191.603,-254.883,-29.785,-54.199,-251.465
1742463191.606,999.512,-31.25,-58.594,999.512
1742463191.61,893.555,-74.219,-66.406,915.527
1742463191.614,999.512,-58.105,-60.059,999.512
1742463191.618,184.57,-61.035,-37.109,29.297
1742463191.622,-1000.0,-59.57,-33.203,-1000.0
1742463191.579,999.512,-49.316,-64.453,999.512
1742463191.583,495.117,-66.406,-59.57,463.379
1742463191.587,-933.105,-93.262,-55.664,-928.223
1742463191.591,-1000.0,-69.824,-51.27,-1000.0
1742463191.595,-883.301,-51.758,-47.363,-887.207
1742463191.599,-1000.0,-58.105,-50.293,-1000.0
1742463191.603,-254.883,-29.785,-54.199,-251.465
1742463191.606,999.512,-31.25,-58.594,999.512
1742463191.61,893.555,-74.219,-66.406,915.527
1742463191.614,999.512,-58.105,-60.059,999.512
1742463191.618,184.57,-61.035,-37.109,29.297
1742463191.622,-1000.0,-59.57,-33.203,-1000.0
1742463191.626,-933.594,-43.945,-30.762,-915.527
1742463191.63,-1000.0,-46.875,-21.484,-1000.0
1742463191.634,-912.109,-29.785,-24.902,-783.691
1742463191.638,472.168,0.977,-16.602,590.332
1742463191.642,999.512,-11.719,-13.184,999.512
1742463191.646,836.426,-17.578,-24.414,843.262
1742463191.65,999.512,-24.902,-45.41,999.512
1742463191.653,189.941,-73.73,-79.59,208.008
1742463191.657,-1000.0,-66.895,-89.844,-1000.0
1742463191.661,-921.875,-16.602,-74.707,-929.688
1742463191.665,-1000.0,-18.066,-64.453,-1000.0
1742463191.669,-227.539,12.207,-48.828,-182.617
1742463191.626,-933.594,-43.945,-30.762,-915.527
1742463191.63,-1000.0,-46.875,-21.484,-1000.0
1742463191.634,-912.109,-29.785,-24.902,-783.691
1742463191.638,472.168,0.977,-16.602,590.332
1742463191.642,999.512,-11.719,-13.184,999.512
1742463191.646,836.426,-17.578,-24.414,843.262
1742463191.65,999.512,-24.902,-45.41,999.512
1742463191.653,189.941,-73.73,-79.59,208.008
1742463191.657,-1000.0,-66.895,-89.844,-1000.0
1742463191.661,-921.875,-16.602,-74.707,-929.688
1742463191.665,-1000.0,-18.066,-64.453,-1000.0
1742463191.669,-227.539,12.207,-48.828,-182.617
1742463191.67,999.512,27.344,-32.227,999.512
1742463191.674,894.043,-2.93,-29.297,887.695
1742463191.678,997.07,-6.836,-39.551,999.512
1742463191.682,810.059,-23.438,-47.852,719.727
1742463191.686,-601.562,-33.691,-40.039,-670.898
1742463191.69,-1000.0,-5.371,-15.625,-1000.0
1742463191.694,-862.305,0.977,12.695,-870.605
1742463191.697,-1000.0,-27.344,17.578,-1000.0
1742463191.701,-403.32,2.93,21.484,-374.512
1742463191.705,965.82,30.273,20.996,975.098
1742463191.709,981.445,-13.672,-4.883,977.539
1742463191.713,926.27,-21.484,-18.555,930.664
1742463191.67,999.512,27.344,-32.227,999.512
1742463191.674,894.043,-2.93,-29.297,887.695
1742463191.678,997.07,-6.836,-39.551,999.512
1742463191.682,810.059,-23.438,-47.852,719.727
1742463191.686,-601.562,-33.691,-40.039,-670.898
1742463191.69,-1000.0,-5.371,-15.625,-1000.0
1742463191.694,-862.305,0.977,12.695,-870.605
1742463191.697,-1000.0,-27.344,17.578,-1000.0
1742463191.701,-403.32,2.93,21.484,-374.512
1742463191.705,965.82,30.273,20.996,975.098
1742463191.709,981.445,-13.672,-4.883,977.539
1742463191.713,926.27,-21.484,-18.555,930.664
1742463191.716,913.086,-15.137,-14.648,912.598
1742463191.72,999.512,-10.742,-13.672,999.512
1742463191.724,215.82,-43.945,-12.695,238.77
1742463191.728,-1000.0,-64.453,-18.066,-1000.0
1742463191.732,-925.781,-27.832,-22.949,-942.383
1742463191.736,-1000.0,-4.883,-14.648,-1000.0
1742463191.74,-228.027,5.371,-12.207,-125.977
1742463191.743,999.512,-13.184,-19.531,999.512
1742463191.747,887.695,-39.551,-20.996,891.602
1742463191.751,999.512,-31.25,-7.324,999.512
1742463191.755,187.012,-57.617,-5.371,77.148
1742463191.759,-1000.0,-62.012,-5.859,-1000.0
1742463191.716,913.086,-15.137,-14.648,912.598
1742463191.72,999.512,-10.742,-13.672,999.512
1742463191.724,215.82,-43.945,-12.695,238.77
1742463191.728,-1000.0,-64.453,-18.066,-1000.0
1742463191.732,-925.781,-27.832,-22.949,-942.383
1742463191.736,-1000.0,-4.883,-14.648,-1000.0
1742463191.74,-228.027,5.371,-12.207,-125.977
1742463191.743,999.512,-13.184,-19.531,999.512
1742463191.747,887.695,-39.551,-20.996,891.602
1742463191.751,999.512,-31.25,-7.324,999.512
1742463191.755,187.012,-57.617,-5.371,77.148
1742463191.759,-1000.0,-62.012,-5.859,-1000.0
1742463191.775,-983.887,-21.973,-1.465,-971.68
1742463191.779,-910.645,-24.902,-4.883,-919.922
1742463191.783,-1000.0,-38.574,3.418,-1000.0
1742463191.787,-220.703,-6.348,0.488,-193.359
1742463191.791,999.512,19.531,0.488,999.512
1742463191.795,875.488,-20.508,-2.441,875.488
1742463191.799,999.512,-21.973,-11.23,999.512
1742463191.802,467.773,-62.988,-38.574,416.992
1742463191.806,-953.613,-93.75,-31.25,-973.145
1742463191.81,-1000.0,-35.645,10.254,-1000.0
1742463191.814,-885.254,-22.461,22.461,-890.137
1742463191.818,-1000.0,-38.574,20.508,-1000.0
1742463191.775,-983.887,-21.973,-1.465,-971.68
1742463191.779,-910.645,-24.902,-4.883,-919.922
1742463191.783,-1000.0,-38.574,3.418,-1000.0
1742463191.787,-220.703,-6.348,0.488,-193.359
1742463191.791,999.512,19.531,0.488,999.512
1742463191.795,875.488,-20.508,-2.441,875.488
1742463191.799,999.512,-21.973,-11.23,999.512
1742463191.802,467.773,-62.988,-38.574,416.992
1742463191.806,-953.613,-93.75,-31.25,-973.145
1742463191.81,-1000.0,-35.645,10.254,-1000.0
1742463191.814,-885.254,-22.461,22.461,-890.137
1742463191.818,-1000.0,-38.574,20.508,-1000.0
1742463191.821,-265.137,0.977,27.344,-265.625
1742463191.825,999.512,24.414,19.531,999.512
1742463191.829,955.566,-13.184,18.555,947.754
1742463191.833,875.488,-20.508,32.227,895.02
1742463191.837,999.512,-17.09,24.414,999.512
1742463191.841,150.391,-39.551,20.02,12.207
1742463191.845,-1000.0,-55.176,16.113,-1000.0
1742463191.848,-947.754,-49.805,9.277,-972.656
1742463191.852,-1000.0,-20.02,21.973,-963.867
1742463191.856,69.824,19.043,30.762,260.254
1742463191.86,999.512,-5.371,24.414,999.512
1742463191.864,877.441,-31.738,13.184,869.141
1742463191.821,-265.137,0.977,27.344,-265.625
1742463191.825,999.512,24.414,19.531,999.512
1742463191.829,955.566,-13.184,18.555,947.754
1742463191.833,875.488,-20.508,32.227,895.02
1742463191.837,999.512,-17.09,24.414,999.512
1742463191.841,150.391,-39.551,20.02,12.207
1742463191.845,-1000.0,-55.176,16.113,-1000.0
1742463191.848,-947.754,-49.805,9.277,-972.656
1742463191.852,-1000.0,-20.02,21.973,-963.867
1742463191.856,69.824,19.043,30.762,260.254
1742463191.86,999.512,-5.371,24.414,999.512
1742463191.864,877.441,-31.738,13.184,869.141
1742463191.864,965.332,-22.949,10.742,997.07
1742463191.868,975.098,-35.645,8.789,866.699
1742463191.872,-335.449,-85.449,0.0,-457.031
1742463191.876,-1000.0,-70.801,-0.977,-1000.0
1742463191.88,-863.281,-33.203,-17.09,-872.07
1742463191.884,-1000.0,-46.875,-34.18,-1000.0
1742463191.888,-617.676,-25.391,-38.574,-588.867
1742463191.891,831.055,-10.254,-60.059,819.336
1742463191.895,956.055,-37.598,-83.008,957.52
1742463191.899,999.512,-20.996,-77.148,999.512
1742463191.903,291.504,-38.086,-59.082,229.004
1742463191.907,-1000.0,-63.477,-66.895,-1000.0
1742463191.864,965.332,-22.949,10.742,997.07
1742463191.868,975.098,-35.645,8.789,866.699
1742463191.872,-335.449,-85.449,0.0,-457.031
1742463191.876,-1000.0,-70.801,-0.977,-1000.0
1742463191.88,-863.281,-33.203,-17.09,-872.07
1742463191.884,-1000.0,-46.875,-34.18,-1000.0
1742463191.888,-617.676,-25.391,-38.574,-588.867
1742463191.891,831.055,-10.254,-60.059,819.336
1742463191.895,956.055,-37.598,-83.008,957.52
1742463191.899,999.512,-20.996,-77.148,999.512
1742463191.903,291.504,-38.086,-59.082,229.004
1742463191.907,-1000.0,-63.477,-66.895,-1000.0
1742463191.911,-1000.0,-42.969,-83.984,-1000.0
1742463191.915,-891.602,-32.227,-87.891,-900.391
1742463191.919,-1000.0,-40.039,-83.496,-1000.0
1742463191.923,-546.875,-23.926,-79.102,-513.184
1742463191.927,903.809,1.953,-81.543,895.996
1742463191.931,939.941,-21.973,-81.543,938.477
1742463191.935,999.512,-31.738,-80.078,999.512
1742463191.938,651.367,-67.871,-89.355,580.078
1742463191.942,-823.73,-92.773,-86.426,-847.656
1742463191.946,-998.535,-55.176,-72.266,-986.816
1742463191.95,-1000.0,-55.176,-78.613,-1000.0
1742463191.954,-660.156,-27.344,-79.59,-538.086
1742463191.911,-1000.0,-42.969,-83.984,-1000.0
1742463191.915,-891.602,-32.227,-87.891,-900.391
1742463191.919,-1000.0,-40.039,-83.496,-1000.0
1742463191.923,-546.875,-23.926,-79.102,-513.184
1742463191.927,903.809,1.953,-81.543,895.996
1742463191.931,939.941,-21.973,-81.543,938.477
1742463191.935,999.512,-31.738,-80.078,999.512
1742463191.938,651.367,-67.871,-89.355,580.078
1742463191.942,-823.73,-92.773,-86.426,-847.656
1742463191.946,-998.535,-55.176,-72.266,-986.816
1742463191.95,-1000.0,-55.176,-78.613,-1000.0
1742463191.954,-660.156,-27.344,-79.59,-538.086
1742463191.955,801.27,0.488,-74.707,872.07
1742463191.959,999.512,-25.391,-67.383,988.281
1742463191.963,855.957,-43.457,-55.176,895.996
1742463191.967,999.512,-59.082,-56.152,999.512
1742463191.971,56.641,-66.895,-57.617,-113.281
1742463191.975,-1000.0,-61.523,-50.293,-1000.0
1742463191.979,-937.988,-45.898,-44.434,-924.805
1742463191.982,-970.215,-58.594,-51.27,-1000.0
1742463191.986,-1000.0,-57.129,-51.27,-966.797
1742463191.99,199.219,-20.02,-45.898,315.43
1742463191.994,999.512,-26.855,-57.129,999.512
1742463191.998,900.879,-45.41,-64.941,895.02
1742463192.001,911.133,-36.621,-60.547,933.594
1742463192.005,999.512,-34.668,-55.176,999.512
1742463192.009,104.004,-70.801,-59.57,-25.391
1742463192.013,-1000.0,-74.707,-65.43,-1000.0
1742463192.017,-918.457,-38.574,-57.129,-924.805
1742463192.021,-1000.0,-35.645,-50.293,-1000.0
1742463192.025,-125.977,-13.672,-44.922,-29.785
1742463192.028,999.512,-22.949,-45.41,999.512
1742463192.032,873.047,-45.41,-46.387,880.371
1742463192.036,999.512,-35.156,-39.062,999.512
1742463192.04,190.918,-60.059,-38.574,84.961
1742463192.044,-1000.0,-72.754,-44.434,-1000.0
1742463192.001,911.133,-36.621,-60.547,933.594
1742463192.005,999.512,-34.668,-55.176,999.512
1742463192.009,104.004,-70.801,-59.57,-25.391
1742463192.013,-1000.0,-74.707,-65.43,-1000.0
1742463192.017,-918.457,-38.574,-57.129,-924.805
1742463192.021,-1000.0,-35.645,-50.293,-1000.0
1742463192.025,-125.977,-13.672,-44.922,-29.785
1742463192.028,999.512,-22.949,-45.41,999.512
1742463192.032,873.047,-45.41,-46.387,880.371
1742463192.036,999.512,-35.156,-39.062,999.512
1742463192.04,190.918,-60.059,-38.574,84.961
1742463192.044,-1000.0,-72.754,-44.434,-1000.0
1742463192.045,-984.863,-39.062,-38.086,-972.656
1742463192.049,-910.156,-38.086,-35.645,-918.945
1742463192.053,-1000.0,-56.641,-40.527,-1000.0
1742463192.057,-220.703,-19.531,-36.133,-198.242
1742463192.061,999.512,7.812,-33.203,999.512
1742463192.065,887.207,-21.973,-32.227,887.207
1742463192.069,999.512,-33.691,-35.156,999.512
1742463192.072,193.359,-86.914,-41.504,168.457
1742463192.076,-1000.0,-102.539,-42.48,-1000.0
1742463192.08,-986.328,-59.57,-41.992,-982.422
1742463192.084,-908.203,-58.594,-34.668,-911.133
1742463192.088,-1000.0,-65.918,-33.203,-1000.0
1742463192.045,-984.863,-39.062,-38.086,-972.656
1742463192.049,-910.156,-38.086,-35.645,-918.945
1742463192.053,-1000.0,-56.641,-40.527,-1000.0
1742463192.057,-220.703,-19.531,-36.133,-198.242
1742463192.061,999.512,7.812,-33.203,999.512
1742463192.065,887.207,-21.973,-32.227,887.207
1742463192.069,999.512,-33.691,-35.156,999.512
1742463192.072,193.359,-86.914,-41.504,168.457
1742463192.076,-1000.0,-102.539,-42.48,-1000.0
1742463192.08,-986.328,-59.57,-41.992,-982.422
1742463192.084,-908.203,-58.594,-34.668,-911.133
1742463192.088,-1000.0,-65.918,-33.203,-1000.0
1742463192.091,-252.93,-26.367,-45.41,-247.559
1742463192.095,999.512,-17.578,-47.852,999.512
1742463192.099,945.801,-56.152,-36.133,938.965
1742463192.103,888.184,-56.641,-34.668,906.738
1742463192.107,999.512,-57.129,-37.109,999.512
1742463192.111,26.855,-81.543,-34.668,-66.895
1742463192.115,-1000.0,-83.984,-36.133,-1000.0
1742463192.118,-900.391,-72.266,-32.227,-914.062
1742463192.122,-1000.0,-53.223,-22.949,-1000.0
1742463192.126,-215.332,-14.648,-12.207,-87.891
1742463192.13,999.512,-22.461,-19.531,999.512
1742463192.134,937.5,-46.387,-27.832,918.945
1742463192.091,-252.93,-26.367,-45.41,-247.559
1742463192.095,999.512,-17.578,-47.852,999.512
1742463192.099,945.801,-56.152,-36.133,938.965
1742463192.103,888.184,-56.641,-34.668,906.738
1742463192.107,999.512,-57.129,-37.109,999.512
1742463192.111,26.855,-81.543,-34.668,-66.895
1742463192.115,-1000.0,-83.984,-36.133,-1000.0
1742463192.118,-900.391,-72.266,-32.227,-914.062
1742463192.122,-1000.0,-53.223,-22.949,-1000.0
1742463192.126,-215.332,-14.648,-12.207,-87.891
1742463192.13,999.512,-22.461,-19.531,999.512
1742463192.134,937.5,-46.387,-27.832,918.945
1742463192.15,894.531,-36.621,-22.461,920.898
1742463192.154,999.512,-29.785,-19.531,999.512
1742463192.158,-0.488,-63.477,-21.973,-91.797
1742463192.162,-1000.0,-65.43,-30.762,-1000.0
1742463192.166,-901.855,-40.039,-32.227,-918.945
1742463192.17,-1000.0,-46.387,-33.203,-1000.0
1742463192.174,-161.133,-29.297,-36.133,-31.738
1742463192.177,999.512,-41.504,-37.598,999.512
1742463192.181,878.418,-57.129,-45.898,875.0
1742463192.185,999.512,-34.668,-44.922,999.512
1742463192.189,191.895,-68.359,-39.062,137.207
1742463192.193,-1000.0,-78.613,-43.945,-1000.0
1742463192.15,894.531,-36.621,-22.461,920.898
1742463192.154,999.512,-29.785,-19.531,999.512
1742463192.158,-0.488,-63.477,-21.973,-91.797
1742463192.162,-1000.0,-65.43,-30.762,-1000.0
1742463192.166,-901.855,-40.039,-32.227,-918.945
1742463192.17,-1000.0,-46.387,-33.203,-1000.0
1742463192.174,-161.133,-29.297,-36.133,-31.738
1742463192.177,999.512,-41.504,-37.598,999.512
1742463192.181,878.418,-57.129,-45.898,875.0
1742463192.185,999.512,-34.668,-44.922,999.512
1742463192.189,191.895,-68.359,-39.062,137.207
1742463192.193,-1000.0,-78.613,-43.945,-1000.0
1742463192.194,-983.398,-48.828,-56.641,-970.215
1742463192.198,-912.109,-49.805,-58.594,-928.711
1742463192.202,-1000.0,-52.246,-51.27,-1000.0
1742463192.206,-202.148,-27.832,-54.199,-98.145
1742463192.21,999.512,3.418,-32.227,999.512
1742463192.214,884.277,4.883,-8.789,878.906
1742463192.218,999.512,-13.184,-9.766,999.512
1742463192.221,192.871,-57.617,-14.16,154.297
1742463192.225,-1000.0,-68.359,-13.672,-1000.0
1742463192.229,-911.133,-27.344,-14.16,-910.645
1742463192.233,-1000.0,-22.461,-15.137,-1000.0
1742463192.237,-441.895,0.0,-16.602,-369.629
1742463192.194,-983.398,-48.828,-56.641,-970.215
1742463192.198,-912.109,-49.805,-58.594,-928.711
1742463192.202,-1000.0,-52.246,-51.27,-1000.0
1742463192.206,-202.148,-27.832,-54.199,-98.145
1742463192.21,999.512,3.418,-32.227,999.512
1742463192.214,884.277,4.883,-8.789,878.906
1742463192.218,999.512,-13.184,-9.766,999.512
1742463192.221,192.871,-57.617,-14.16,154.297
1742463192.225,-1000.0,-68.359,-13.672,-1000.0
1742463192.229,-911.133,-27.344,-14.16,-910.645
1742463192.233,-1000.0,-22.461,-15.137,-1000.0
1742463192.237,-441.895,0.0,-16.602,-369.629
1742463192.24,960.449,25.879,-4.883,986.328
1742463192.244,949.707,0.0,9.277,928.223
1742463192.248,931.152,-20.02,-9.277,974.121
1742463192.252,973.633,-33.691,-18.555,812.988
1742463192.256,-357.422,-35.645,-15.137,-538.574
1742463192.26,-1000.0,-24.414,-27.344,-1000.0
1742463192.264,-860.84,-22.949,-18.555,-869.141
1742463192.267,-1000.0,-18.555,-23.438,-1000.0
1742463192.271,-497.559,19.531,-36.621,-480.469
1742463192.275,917.48,32.227,-27.344,915.039
1742463192.279,999.512,-7.812,-20.508,999.512
1742463192.283,847.656,-21.973,-0.977,854.004
1742463192.24,960.449,25.879,-4.883,986.328
1742463192.244,949.707,0.0,9.277,928.223
1742463192.248,931.152,-20.02,-9.277,974.121
1742463192.252,973.633,-33.691,-18.555,812.988
1742463192.256,-357.422,-35.645,-15.137,-538.574
1742463192.26,-1000.0,-24.414,-27.344,-1000.0
1742463192.264,-860.84,-22.949,-18.555,-869.141
1742463192.267,-1000.0,-18.555,-23.438,-1000.0
1742463192.271,-497.559,19.531,-36.621,-480.469
1742463192.275,917.48,32.227,-27.344,915.039
1742463192.279,999.512,-7.812,-20.508,999.512
1742463192.283,847.656,-21.973,-0.977,854.004
1742463192.286,999.512,-5.371,13.184,999.512
1742463192.29,643.066,-25.391,17.578,585.449
1742463192.294,-815.43,-49.805,15.625,-824.219
1742463192.298,-996.094,-3.906,7.812,-988.281
1742463192.302,-1000.0,14.648,8.301,-1000.0
1742463192.306,-546.875,40.039,19.043,-452.637
1742463192.31,897.949,68.848,29.297,931.152
1742463192.313,944.824,27.344,15.137,944.336
1742463192.317,999.512,27.832,1.953,999.512
1742463192.321,191.406,17.09,0.0,68.359
1742463192.325,-1000.0,1.953,-0.977,-1000.0
1742463192.329,-982.91,10.742,-10.742,-972.168
1742463192.286,999.512,-5.371,13.184,999.512
1742463192.29,643.066,-25.391,17.578,585.449
1742463192.294,-815.43,-49.805,15.625,-824.219
1742463192.298,-996.094,-3.906,7.812,-988.281
1742463192.302,-1000.0,14.648,8.301,-1000.0
1742463192.306,-546.875,40.039,19.043,-452.637
1742463192.31,897.949,68.848,29.297,931.152
1742463192.313,944.824,27.344,15.137,944.336
1742463192.317,999.512,27.832,1.953,999.512
1742463192.321,191.406,17.09,0.0,68.359
1742463192.325,-1000.0,1.953,-0.977,-1000.0
1742463192.329,-982.91,10.742,-10.742,-972.168
1742463192.33,-974.609,5.859,-19.043,-979.004
1742463192.334,-943.848,10.742,-17.578,-947.754
1742463192.338,-1000.0,6.348,-20.996,-1000.0
1742463192.342,-217.773,29.297,-14.16,-167.969
1742463192.346,999.512,39.551,-10.254,999.512
1742463192.35,913.574,5.859,-21.484,942.871
1742463192.354,999.512,-4.883,-23.926,950.684
1742463192.357,-67.383,-44.434,-19.531,-253.906
1742463192.361,-1000.0,-53.223,-17.09,-1000.0
1742463192.365,-954.102,-18.066,1.465,-948.242
1742463192.369,-926.27,-9.766,18.555,-934.082
1742463192.373,-1000.0,-20.02,15.137,-1000.0
1742463192.33,-974.609,5.859,-19.043,-979.004
1742463192.334,-943.848,10.742,-17.578,-947.754
1742463192.338,-1000.0,6.348,-20.996,-1000.0
1742463192.342,-217.773,29.297,-14.16,-167.969
1742463192.346,999.512,39.551,-10.254,999.512
1742463192.35,913.574,5.859,-21.484,942.871
1742463192.354,999.512,-4.883,-23.926,950.684
1742463192.357,-67.383,-44.434,-19.531,-253.906
1742463192.361,-1000.0,-53.223,-17.09,-1000.0
1742463192.365,-954.102,-18.066,1.465,-948.242
1742463192.369,-926.27,-9.766,18.555,-934.082
1742463192.373,-1000.0,-20.02,15.137,-1000.0
1742463192.391,-268.066,19.043,22.461,-264.648
1742463192.395,999.512,39.551,33.203,999.512
1742463192.399,950.195,-4.395,30.273,944.824
1742463192.403,884.766,-20.508,25.391,899.902
1742463192.407,999.512,-29.297,24.902,999.512
1742463192.411,53.711,-49.316,32.227,-22.949
1742463192.415,-1000.0,-56.152,31.738,-1000.0
1742463192.418,-900.391,-53.223,26.367,-900.391
1742463192.422,-1000.0,-45.898,31.738,-1000.0
1742463192.426,-270.508,3.418,44.922,-248.047
1742463192.43,999.512,-4.883,47.363,999.512
1742463192.434,913.086,-54.199,39.551,904.785
1742463192.391,-268.066,19.043,22.461,-264.648
1742463192.395,999.512,39.551,33.203,999.512
1742463192.399,950.195,-4.395,30.273,944.824
1742463192.403,884.766,-20.508,25.391,899.902
1742463192.407,999.512,-29.297,24.902,999.512
1742463192.411,53.711,-49.316,32.227,-22.949
1742463192.415,-1000.0,-56.152,31.738,-1000.0
1742463192.418,-900.391,-53.223,26.367,-900.391
1742463192.422,-1000.0,-45.898,31.738,-1000.0
1742463192.426,-270.508,3.418,44.922,-248.047
1742463192.43,999.512,-4.883,47.363,999.512
1742463192.434,913.086,-54.199,39.551,904.785
1742463192.419,961.426,-44.922,38.086,987.305
1742463192.423,918.945,-60.059,31.25,805.664
1742463192.427,-446.777,-103.516,19.043,-563.477
1742463192.431,-1000.0,-79.102,22.949,-1000.0
1742463192.435,-904.297,-57.129,32.227,-936.035
1742463192.439,-1000.0,-63.477,25.391,-1000.0
1742463192.443,90.82,-44.434,18.555,224.609
1742463192.446,999.512,-69.824,6.836,999.512
1742463192.45,862.305,-90.332,0.0,859.863
1742463192.454,999.512,-79.102,-4.395,999.512
1742463192.458,862.793,-106.934,-17.09,748.047
1742463192.462,-527.344,-143.555,-33.203,-621.094
1742463192.467,-1000.0,-112.793,-38.574,-1000.0
1742463192.471,-930.664,-85.938,-37.598,-968.75
1742463192.475,-1000.0,-69.824,-33.203,-922.363
1742463192.479,256.348,-40.527,-43.945,405.762
1742463192.483,999.512,-55.664,-55.664,999.512
1742463192.487,839.355,-55.176,-55.176,845.215
1742463192.491,999.512,-74.219,-77.637,999.512
1742463192.494,187.012,-127.93,-94.727,180.176
1742463192.498,-1000.0,-101.074,-74.707,-1000.0
1742463192.502,-909.668,-49.316,-47.852,-913.574
1742463192.506,-1000.0,-51.27,-41.992,-1000.0
1742463192.51,-520.508,-25.879,-49.805,-433.105
1742463192.467,-1000.0,-112.793,-38.574,-1000.0
1742463192.471,-930.664,-85.938,-37.598,-968.75
1742463192.475,-1000.0,-69.824,-33.203,-922.363
1742463192.479,256.348,-40.527,-43.945,405.762
1742463192.483,999.512,-55.664,-55.664,999.512
1742463192.487,839.355,-55.176,-55.176,845.215
1742463192.491,999.512,-74.219,-77.637,999.512
1742463192.494,187.012,-127.93,-94.727,180.176
1742463192.498,-1000.0,-101.074,-74.707,-1000.0
1742463192.502,-909.668,-49.316,-47.852,-913.574
1742463192.506,-1000.0,-51.27,-41.992,-1000.0
1742463192.51,-520.508,-25.879,-49.805,-433.105
1742463192.524,908.203,-9.277,-52.246,945.801
1742463192.528,999.512,-32.227,-42.48,987.793
1742463192.532,852.051,-43.457,-42.48,863.281
1742463192.536,999.512,-47.852,-56.641,999.512
1742463192.54,194.824,-61.523,-63.477,178.711
1742463192.544,-1000.0,-74.219,-58.594,-1000.0
1742463192.548,-972.656,-53.711,-45.41,-959.961
1742463192.551,-930.176,-54.199,-45.898,-960.449
1742463192.555,-1000.0,-51.27,-62.5,-1000.0
1742463192.559,-11.23,-28.32,-73.242,155.273
1742463192.563,999.512,-32.227,-73.73,999.512
1742463192.567,848.145,-49.316,-71.289,847.656
1742463192.524,908.203,-9.277,-52.246,945.801
1742463192.528,999.512,-32.227,-42.48,987.793
1742463192.532,852.051,-43.457,-42.48,863.281
1742463192.536,999.512,-47.852,-56.641,999.512
1742463192.54,194.824,-61.523,-63.477,178.711
1742463192.544,-1000.0,-74.219,-58.594,-1000.0
1742463192.548,-972.656,-53.711,-45.41,-959.961
1742463192.551,-930.176,-54.199,-45.898,-960.449
1742463192.555,-1000.0,-51.27,-62.5,-1000.0
1742463192.559,-11.23,-28.32,-73.242,155.273
1742463192.563,999.512,-32.227,-73.73,999.512
1742463192.567,848.145,-49.316,-71.289,847.656
1742463192.57,999.512,-39.551,-72.266,999.512
1742463192.574,483.887,-71.777,-81.055,436.035
1742463192.578,-956.543,-92.285,-91.309,-966.309
1742463192.582,-967.773,-55.664,-97.168,-961.426
1742463192.586,-1000.0,-41.504,-88.867,-1000.0
1742463192.59,-688.477,-17.578,-79.59,-606.934
1742463192.594,771.484,-4.395,-76.66,813.965
1742463192.597,999.512,-42.48,-82.031,999.512
1742463192.601,839.844,-44.922,-85.449,851.562
1742463192.605,999.512,-21.973,-70.801,999.512
1742463192.609,228.027,-55.664,-67.383,200.195
1742463192.613,-1000.0,-70.801,-69.824,-1000.0
1742463192.57,999.512,-39.551,-72.266,999.512
1742463192.574,483.887,-71.777,-81.055,436.035
1742463192.578,-956.543,-92.285,-91.309,-966.309
1742463192.582,-967.773,-55.664,-97.168,-961.426
1742463192.586,-1000.0,-41.504,-88.867,-1000.0
1742463192.59,-688.477,-17.578,-79.59,-606.934
1742463192.594,771.484,-4.395,-76.66,813.965
1742463192.597,999.512,-42.48,-82.031,999.512
1742463192.601,839.844,-44.922,-85.449,851.562
1742463192.605,999.512,-21.973,-70.801,999.512
1742463192.609,228.027,-55.664,-67.383,200.195
1742463192.613,-1000.0,-70.801,-69.824,-1000.0
1742463192.615,-961.426,-22.949,-47.363,-949.219
1742463192.619,-958.984,-22.461,-37.109,-992.676
1742463192.623,-1000.0,-22.461,-35.645,-937.5
1742463192.627,211.426,12.695,-20.996,372.559
1742463192.631,999.512,7.324,-28.32,999.512
1742463192.635,843.262,-15.625,-54.199,862.305
1742463192.639,999.512,-18.555,-68.848,999.512
1742463192.642,165.527,-47.852,-80.566,39.551
1742463192.646,-1000.0,-57.617,-82.031,-1000.0
1742463192.65,-907.715,-43.457,-66.895,-900.879
1742463192.654,-1000.0,-55.664,-58.105,-1000.0
1742463192.658,-593.262,-33.203,-48.34,-500.977
1742463192.615,-961.426,-22.949,-47.363,-949.219
1742463192.619,-958.984,-22.461,-37.109,-992.676
1742463192.623,-1000.0,-22.461,-35.645,-937.5
1742463192.627,211.426,12.695,-20.996,372.559
1742463192.631,999.512,7.324,-28.32,999.512
1742463192.635,843.262,-15.625,-54.199,862.305
1742463192.639,999.512,-18.555,-68.848,999.512
1742463192.642,165.527,-47.852,-80.566,39.551
1742463192.646,-1000.0,-57.617,-82.031,-1000.0
1742463192.65,-907.715,-43.457,-66.895,-900.879
1742463192.654,-1000.0,-55.664,-58.105,-1000.0
1742463192.658,-593.262,-33.203,-48.34,-500.977
1742463192.661,854.492,-0.488,-23.926,887.695
1742463192.665,999.512,-24.902,1.953,999.512
1742463192.669,847.656,-31.25,17.578,858.398
1742463192.673,999.512,-28.32,20.02,999.512
1742463192.677,187.012,-73.73,12.695,161.133
1742463192.681,-1000.0,-77.637,7.812,-1000.0
1742463192.685,-956.543,-43.945,0.977,-941.406
1742463192.688,-958.984,-64.453,-16.602,-994.629
1742463192.692,-1000.0,-59.082,-39.551,-940.43
1742463192.696,190.43,-13.184,-50.781,360.84
1742463192.7,999.512,-25.879,-61.035,999.512
1742463192.704,906.25,-66.406,-70.801,904.785
1742463192.661,854.492,-0.488,-23.926,887.695
1742463192.665,999.512,-24.902,1.953,999.512
1742463192.669,847.656,-31.25,17.578,858.398
1742463192.673,999.512,-28.32,20.02,999.512
1742463192.677,187.012,-73.73,12.695,161.133
1742463192.681,-1000.0,-77.637,7.812,-1000.0
1742463192.685,-956.543,-43.945,0.977,-941.406
1742463192.688,-958.984,-64.453,-16.602,-994.629
1742463192.692,-1000.0,-59.082,-39.551,-940.43
1742463192.696,190.43,-13.184,-50.781,360.84
1742463192.7,999.512,-25.879,-61.035,999.512
1742463192.704,906.25,-66.406,-70.801,904.785
1742463192.705,903.809,-58.105,-54.688,915.039
1742463192.709,999.512,-37.109,-28.809,999.512
1742463192.713,180.664,-67.871,-28.809,116.699
1742463192.717,-1000.0,-81.543,-24.414,-1000.0
1742463192.721,-937.988,-39.551,0.977,-961.426
1742463192.725,-1000.0,-30.273,10.254,-1000.0
1742463192.729,-45.41,-14.648,-11.23,138.184
1742463192.732,999.512,-30.762,-39.551,999.512
1742463192.736,865.234,-50.781,-45.41,860.352
1742463192.74,999.512,-30.273,-35.645,999.512
1742463192.744,756.348,-47.852,-32.227,676.27
1742463192.748,-669.922,-63.477,-37.109,-705.566
1742463192.705,903.809,-58.105,-54.688,915.039
1742463192.709,999.512,-37.109,-28.809,999.512
1742463192.713,180.664,-67.871,-28.809,116.699
1742463192.717,-1000.0,-81.543,-24.414,-1000.0
1742463192.721,-937.988,-39.551,0.977,-961.426
1742463192.725,-1000.0,-30.273,10.254,-1000.0
1742463192.729,-45.41,-14.648,-11.23,138.184
1742463192.732,999.512,-30.762,-39.551,999.512
1742463192.736,865.234,-50.781,-45.41,860.352
1742463192.74,999.512,-30.273,-35.645,999.512
1742463192.744,756.348,-47.852,-32.227,676.27
1742463192.748,-669.922,-63.477,-37.109,-705.566
1742463192.752,-1000.0,-38.574,-49.316,-1000.0
1742463192.756,-872.559,-35.645,-61.035,-881.348
1742463192.76,-1000.0,-33.203,-73.73,-1000.0
1742463192.764,-220.703,4.395,-80.566,-207.52
1742463192.768,999.512,15.625,-69.824,999.512
1742463192.772,882.324,-8.789,-50.293,882.812
1742463192.776,999.512,-13.672,-47.852,999.512
1742463192.779,278.32,-66.895,-65.43,262.207
1742463192.783,-1000.0,-70.801,-76.66,-1000.0
1742463192.787,-1000.0,-21.973,-81.543,-999.512
1742463192.791,-900.879,-13.184,-84.473,-901.367
1742463192.795,-1000.0,-18.066,-97.168,-1000.0
1742463192.752,-1000.0,-38.574,-49.316,-1000.0
1742463192.756,-872.559,-35.645,-61.035,-881.348
1742463192.76,-1000.0,-33.203,-73.73,-1000.0
1742463192.764,-220.703,4.395,-80.566,-207.52
1742463192.768,999.512,15.625,-69.824,999.512
1742463192.772,882.324,-8.789,-50.293,882.812
1742463192.776,999.512,-13.672,-47.852,999.512
1742463192.779,278.32,-66.895,-65.43,262.207
1742463192.783,-1000.0,-70.801,-76.66,-1000.0
1742463192.787,-1000.0,-21.973,-81.543,-999.512
1742463192.791,-900.879,-13.184,-84.473,-901.367
1742463192.795,-1000.0,-18.066,-97.168,-1000.0
1742463192.795,-264.16,8.789,-83.984,-280.762
1742463192.799,999.512,26.855,-47.363,999.512
1742463192.803,955.566,1.465,-48.34,950.195
1742463192.807,875.488,-3.418,-66.895,892.578
1742463192.811,999.512,8.301,-62.988,999.512
1742463192.815,156.25,-15.137,-49.805,22.949
1742463192.819,-1000.0,-29.785,-45.41,-1000.0
1742463192.822,-980.469,-17.09,-63.477,-966.309
1742463192.826,-912.598,-2.93,-75.195,-923.828
1742463192.83,-1000.0,3.906,-83.008,-1000.0
1742463192.834,-221.191,40.039,-90.332,-188.477
1742463192.838,999.512,52.246,-92.773,999.512
1742463192.841,932.129,11.23,-93.262,917.48
1742463192.845,905.273,9.766,-71.777,937.012
1742463192.849,999.512,6.348,-53.223,986.816
1742463192.853,-108.887,-32.715,-51.27,-257.812
1742463192.857,-1000.0,-4.395,-52.246,-1000.0
1742463192.861,-1000.0,25.879,-60.059,-1000.0
1742463192.865,-648.438,19.531,-60.547,-566.406
1742463192.868,787.598,28.809,-58.105,828.613
1742463192.872,999.512,5.859,-44.434,999.512
1742463192.876,843.262,6.348,-20.996,854.004
1742463192.88,999.512,11.23,-19.531,999.512
1742463192.884,189.941,-29.785,-35.156,176.758
1742463192.841,932.129,11.23,-93.262,917.48
1742463192.845,905.273,9.766,-71.777,937.012
1742463192.849,999.512,6.348,-53.223,986.816
1742463192.853,-108.887,-32.715,-51.27,-257.812
1742463192.857,-1000.0,-4.395,-52.246,-1000.0
1742463192.861,-1000.0,25.879,-60.059,-1000.0
1742463192.865,-648.438,19.531,-60.547,-566.406
1742463192.868,787.598,28.809,-58.105,828.613
1742463192.872,999.512,5.859,-44.434,999.512
1742463192.876,843.262,6.348,-20.996,854.004
1742463192.88,999.512,11.23,-19.531,999.512
1742463192.884,189.941,-29.785,-35.156,176.758
1742463192.841,932.129,11.23,-93.262,917.48
1742463192.845,905.273,9.766,-71.777,937.012
1742463192.849,999.512,6.348,-53.223,986.816
1742463192.853,-108.887,-32.715,-51.27,-257.812
1742463192.857,-1000.0,-4.395,-52.246,-1000.0
1742463192.861,-1000.0,25.879,-60.059,-1000.0
1742463192.865,-648.438,19.531,-60.547,-566.406
1742463192.868,787.598,28.809,-58.105,828.613
1742463192.872,999.512,5.859,-44.434,999.512
1742463192.876,843.262,6.348,-20.996,854.004
1742463192.88,999.512,11.23,-19.531,999.512
1742463192.884,189.941,-29.785,-35.156,176.758
1742463192.899,-1000.0,-34.668,-42.48,-1000.0
1742463192.903,-969.727,3.906,-32.715,-965.332
1742463192.907,-934.57,-1.465,-29.785,-944.824
1742463192.911,-1000.0,-6.836,-34.18,-1000.0
1742463192.915,24.902,35.645,-27.344,69.824
1742463192.919,999.512,37.598,-33.691,999.512
1742463192.923,873.047,0.488,-41.016,909.668
1742463192.926,999.512,-7.324,-44.922,979.492
1742463192.93,7.324,-30.762,-48.34,-196.289
1742463192.934,-1000.0,-20.996,-52.246,-1000.0
1742463192.938,-909.18,7.324,-64.941,-900.391
1742463192.942,-1000.0,-15.625,-73.73,-1000.0
1742463192.899,-1000.0,-34.668,-42.48,-1000.0
1742463192.903,-969.727,3.906,-32.715,-965.332
1742463192.907,-934.57,-1.465,-29.785,-944.824
1742463192.911,-1000.0,-6.836,-34.18,-1000.0
1742463192.915,24.902,35.645,-27.344,69.824
1742463192.919,999.512,37.598,-33.691,999.512
1742463192.923,873.047,0.488,-41.016,909.668
1742463192.926,999.512,-7.324,-44.922,979.492
1742463192.93,7.324,-30.762,-48.34,-196.289
1742463192.934,-1000.0,-20.996,-52.246,-1000.0
1742463192.938,-909.18,7.324,-64.941,-900.391
1742463192.942,-1000.0,-15.625,-73.73,-1000.0
1742463192.945,-893.066,-4.883,-62.012,-846.191
1742463192.949,494.141,41.504,-36.621,526.367
1742463192.953,999.512,19.531,-31.738,999.512
1742463192.957,834.473,-19.531,-34.668,846.191
1742463192.961,999.512,-8.301,-30.762,999.512
1742463192.965,229.004,-23.926,-39.551,173.34
1742463192.969,-1000.0,-60.059,-50.293,-1000.0
1742463192.972,-1000.0,-38.574,-51.758,-998.047
1742463192.976,-897.461,-22.461,-56.641,-905.762
1742463192.98,-1000.0,-16.602,-40.039,-1000.0
1742463192.984,-610.352,-1.465,-34.668,-587.891
1742463192.988,846.68,15.625,-47.363,827.637
1742463192.945,-893.066,-4.883,-62.012,-846.191
1742463192.949,494.141,41.504,-36.621,526.367
1742463192.953,999.512,19.531,-31.738,999.512
1742463192.957,834.473,-19.531,-34.668,846.191
1742463192.961,999.512,-8.301,-30.762,999.512
1742463192.965,229.004,-23.926,-39.551,173.34
1742463192.969,-1000.0,-60.059,-50.293,-1000.0
1742463192.972,-1000.0,-38.574,-51.758,-998.047
1742463192.976,-897.461,-22.461,-56.641,-905.762
1742463192.98,-1000.0,-16.602,-40.039,-1000.0
1742463192.984,-610.352,-1.465,-34.668,-587.891
1742463192.988,846.68,15.625,-47.363,827.637
1742463192.945,-893.066,-4.883,-62.012,-846.191
1742463192.949,494.141,41.504,-36.621,526.367
1742463192.953,999.512,19.531,-31.738,999.512
1742463192.957,834.473,-19.531,-34.668,846.191
1742463192.961,999.512,-8.301,-30.762,999.512
1742463192.965,229.004,-23.926,-39.551,173.34
1742463192.969,-1000.0,-60.059,-50.293,-1000.0
1742463192.972,-1000.0,-38.574,-51.758,-998.047
1742463192.976,-897.461,-22.461,-56.641,-905.762
1742463192.98,-1000.0,-16.602,-40.039,-1000.0
1742463192.984,-610.352,-1.465,-34.668,-587.891
1742463192.988,846.68,15.625,-47.363,827.637
1742463192.989,956.543,-5.371,-37.109,953.613
1742463192.993,998.535,-2.93,-34.668,999.512
1742463192.997,701.172,-29.297,-64.453,594.238
1742463193.001,-753.906,-12.695,-19.043,-817.871
1742463193.005,-1000.0,124.512,91.309,-1000.0
1742463193.009,-1000.0,167.969,123.047,-1000.0
1742463193.013,-235.84,185.059,139.648,-157.715
1742463193.016,999.512,200.195,160.156,999.512
1742463193.02,950.684,178.711,157.227,940.918
1742463193.024,875.977,169.922,147.949,885.254
1742463193.028,999.512,166.016,135.742,999.512
1742463193.032,187.012,122.07,115.723,159.18
1742463193.051,-1000.0,115.234,97.656,-1000.0
1742463193.055,-915.039,141.113,92.285,-914.062
1742463193.059,-1000.0,126.465,82.52,-1000.0
1742463193.063,-685.059,143.555,65.918,-622.07
1742463193.067,782.227,159.18,61.035,803.711
1742463193.071,969.727,129.883,62.5,958.984
1742463193.075,999.512,114.746,68.359,999.512
1742463193.078,681.641,72.266,67.871,574.707
1742463193.082,-774.414,44.434,69.336,-836.914
1742463193.086,-1000.0,84.473,62.012,-1000.0
1742463193.09,-866.211,100.098,48.34,-875.977
1742463193.094,-1000.0,77.637,35.156,-1000.0
1742463193.08,-407.715,101.074,37.109,-386.23
1742463193.084,965.82,120.605,54.688,975.098
1742463193.088,970.703,84.961,50.293,957.031
1742463193.092,879.395,69.824,59.57,908.203
1742463193.096,999.512,61.035,63.965,999.512
1742463193.1,-7.324,32.715,55.176,-156.738
1742463193.104,-1000.0,32.715,53.711,-1000.0
1742463193.107,-958.984,44.922,54.199,-952.148
1742463193.111,-924.805,46.387,51.758,-933.594
1742463193.115,-1000.0,48.828,57.129,-1000.0
1742463193.119,-220.703,78.613,57.617,-190.918
1742463193.123,999.512,75.195,33.203,999.512
1742463193.08,-407.715,101.074,37.109,-386.23
1742463193.084,965.82,120.605,54.688,975.098
1742463193.088,970.703,84.961,50.293,957.031
1742463193.092,879.395,69.824,59.57,908.203
1742463193.096,999.512,61.035,63.965,999.512
1742463193.1,-7.324,32.715,55.176,-156.738
1742463193.104,-1000.0,32.715,53.711,-1000.0
1742463193.107,-958.984,44.922,54.199,-952.148
1742463193.111,-924.805,46.387,51.758,-933.594
1742463193.115,-1000.0,48.828,57.129,-1000.0
1742463193.119,-220.703,78.613,57.617,-190.918
1742463193.123,999.512,75.195,33.203,999.512
1742463193.126,878.418,36.133,22.949,877.93
1742463193.13,999.512,49.805,18.066,999.512
1742463193.134,359.375,16.113,-0.488,312.988
1742463193.138,-999.023,-13.184,-28.809,-1000.0
1742463193.142,-962.402,30.273,-35.156,-973.145
1742463193.146,-1000.0,48.828,-31.25,-1000.0
1742463193.15,-90.82,68.359,-32.715,17.09
1742463193.153,999.512,40.039,-35.156,999.512
1742463193.157,924.805,15.137,-22.461,913.574
1742463193.161,896.484,25.879,-26.367,916.992
1742463193.165,999.512,19.043,-74.219,999.512
1742463193.169,80.078,-4.395,-98.633,-3.906
1742463193.126,878.418,36.133,22.949,877.93
1742463193.13,999.512,49.805,18.066,999.512
1742463193.134,359.375,16.113,-0.488,312.988
1742463193.138,-999.023,-13.184,-28.809,-1000.0
1742463193.142,-962.402,30.273,-35.156,-973.145
1742463193.146,-1000.0,48.828,-31.25,-1000.0
1742463193.15,-90.82,68.359,-32.715,17.09
1742463193.153,999.512,40.039,-35.156,999.512
1742463193.157,924.805,15.137,-22.461,913.574
1742463193.161,896.484,25.879,-26.367,916.992
1742463193.165,999.512,19.043,-74.219,999.512
1742463193.169,80.078,-4.395,-98.633,-3.906
1742463193.17,-1000.0,-15.137,-107.91,-1000.0
1742463193.174,-915.527,5.371,-117.188,-909.18
1742463193.178,-1000.0,6.348,-123.047,-1000.0
1742463193.182,-863.77,11.23,-124.512,-760.742
1742463193.186,553.711,54.688,-114.746,637.695
1742463193.19,998.047,36.133,-110.84,981.934
1742463193.194,999.512,5.371,-116.211,999.512
1742463193.197,528.809,-24.902,-120.605,442.383
1742463193.201,-919.434,-44.922,-115.723,-953.125
1742463193.205,-1000.0,-12.207,-103.027,-1000.0
1742463193.209,-873.535,-4.395,-91.309,-882.812
1742463193.213,-1000.0,-4.395,-85.449,-1000.0
1742463193.216,-437.5,24.414,-78.125,-414.062
1742463193.22,963.379,41.016,-71.289,966.309
1742463193.224,931.152,13.672,-69.336,925.781
1742463193.228,981.934,2.93,-73.242,999.512
1742463193.232,808.105,-16.113,-74.707,680.664
1742463193.236,-613.281,-26.367,-61.523,-715.82
1742463193.24,-1000.0,-6.836,-58.594,-1000.0
1742463193.243,-910.645,-8.789,-66.406,-913.086
