timestamps,TP9,AF7,AF8,TP10
1742464668.232,999.512,588.379,177.734,999.512
1742464668.236,-411.621,-690.43,-581.055,-442.871
1742464668.24,-1000.0,-1000.0,-631.836,-1000.0
1742464668.244,-857.91,-256.836,41.016,-851.074
1742464668.248,561.523,999.512,794.922,570.312
1742464668.232,999.512,588.379,177.734,999.512
1742464668.236,-411.621,-690.43,-581.055,-442.871
1742464668.24,-1000.0,-1000.0,-631.836,-1000.0
1742464668.244,-857.91,-256.836,41.016,-851.074
1742464668.248,561.523,999.512,794.922,570.312
1742464668.25,999.512,887.695,455.078,999.512
1742464668.254,-367.188,-692.383,-484.863,-368.652
1742464668.258,-1000.0,-1000.0,-273.926,-1000.0
1742464668.262,-413.574,541.992,525.879,-422.363
1742464668.266,828.613,999.512,764.648,812.988
1742464668.27,999.512,967.285,519.531,999.512
1742464668.274,761.719,184.57,-19.043,761.23
1742464668.277,-640.625,-1000.0,-473.145,-637.207
1742464668.281,-1000.0,-927.734,-135.254,-1000.0
1742464668.285,-938.965,711.914,254.883,-933.594
1742464668.289,-974.609,586.426,21.484,-994.629
1742464668.293,-1000.0,-1000.0,-486.328,-977.051
1742464668.25,999.512,887.695,455.078,999.512
1742464668.254,-367.188,-692.383,-484.863,-368.652
1742464668.258,-1000.0,-1000.0,-273.926,-1000.0
1742464668.262,-413.574,541.992,525.879,-422.363
1742464668.266,828.613,999.512,764.648,812.988
1742464668.27,999.512,967.285,519.531,999.512
1742464668.274,761.719,184.57,-19.043,761.23
1742464668.277,-640.625,-1000.0,-473.145,-637.207
1742464668.281,-1000.0,-927.734,-135.254,-1000.0
1742464668.285,-938.965,711.914,254.883,-933.594
1742464668.289,-974.609,586.426,21.484,-994.629
1742464668.293,-1000.0,-1000.0,-486.328,-977.051
1742464668.295,-987.793,-318.848,-411.621,-1000.0
1742464668.299,354.004,926.758,150.879,74.219
1742464668.303,999.512,999.512,454.102,999.512
1742464668.307,958.984,684.57,-19.531,975.586
1742464668.311,-72.266,-843.75,-822.266,-65.918
1742464668.315,-1000.0,-865.234,-748.047,-1000.0
1742464668.319,-865.234,716.797,-55.176,-866.699
1742464668.322,551.27,999.512,505.859,551.758
1742464668.326,999.512,-48.828,22.461,999.512
1742464668.33,-201.172,-1000.0,-942.871,-150.879
1742464668.334,-1000.0,-852.539,-760.742,-1000.0
1742464668.338,-503.418,491.211,94.238,-493.652
1742464668.295,-987.793,-318.848,-411.621,-1000.0
1742464668.299,354.004,926.758,150.879,74.219
1742464668.303,999.512,999.512,454.102,999.512
1742464668.307,958.984,684.57,-19.531,975.586
1742464668.311,-72.266,-843.75,-822.266,-65.918
1742464668.315,-1000.0,-865.234,-748.047,-1000.0
1742464668.319,-865.234,716.797,-55.176,-866.699
1742464668.322,551.27,999.512,505.859,551.758
1742464668.326,999.512,-48.828,22.461,999.512
1742464668.33,-201.172,-1000.0,-942.871,-150.879
1742464668.334,-1000.0,-852.539,-760.742,-1000.0
1742464668.338,-503.418,491.211,94.238,-493.652
1742464668.34,800.781,999.512,512.695,797.852
1742464668.344,999.512,608.887,351.074,999.512
1742464668.348,836.426,-673.34,-211.426,813.477
1742464668.352,-635.742,-1000.0,-411.133,-660.156
1742464668.356,-1000.0,-667.48,139.16,-1000.0
1742464668.36,485.84,796.387,845.703,476.074
1742464668.364,999.512,905.273,912.598,999.512
1742464668.367,800.293,-612.793,103.027,800.781
1742464668.371,-553.223,-1000.0,-439.941,-563.965
1742464668.375,-1000.0,-782.715,-24.902,-1000.0
1742464668.379,115.723,493.652,547.363,140.625
1742464668.383,999.512,999.512,619.141,999.512
1742464668.401,921.387,299.805,143.066,922.852
1742464668.405,957.031,-645.508,-69.336,958.008
1742464668.409,968.75,640.137,336.426,969.727
1742464668.413,982.91,-409.18,481.445,983.398
1742464668.417,905.273,-1000.0,582.031,909.18
1742464668.421,999.512,823.242,529.785,999.512
1742464668.425,814.941,689.453,94.238,846.68
1742464668.428,-606.934,-796.875,-66.406,-557.617
1742464668.432,-1000.0,-1000.0,150.879,-1000.0
1742464668.436,-974.121,-853.027,281.25,-930.664
1742464668.44,237.793,541.504,510.254,329.102
1742464668.444,999.512,999.512,221.68,999.512
1742464668.401,921.387,299.805,143.066,922.852
1742464668.405,957.031,-645.508,-69.336,958.008
1742464668.409,968.75,640.137,336.426,969.727
1742464668.413,982.91,-409.18,481.445,983.398
1742464668.417,905.273,-1000.0,582.031,909.18
1742464668.421,999.512,823.242,529.785,999.512
1742464668.425,814.941,689.453,94.238,846.68
1742464668.428,-606.934,-796.875,-66.406,-557.617
1742464668.432,-1000.0,-1000.0,150.879,-1000.0
1742464668.436,-974.121,-853.027,281.25,-930.664
1742464668.44,237.793,541.504,510.254,329.102
1742464668.444,999.512,999.512,221.68,999.512
1742464668.431,916.016,-415.039,-56.152,913.086
1742464668.435,911.133,-872.07,366.211,916.992
1742464668.439,999.512,893.066,801.27,999.512
1742464668.443,823.242,565.918,525.879,854.004
1742464668.447,-547.363,-1000.0,-361.328,-539.551
1742464668.451,-1000.0,-896.973,-354.492,-1000.0
1742464668.455,-602.539,663.086,437.012,-334.961
1742464668.458,802.246,999.512,475.586,866.211
1742464668.462,999.512,-311.523,104.004,999.512
1742464668.466,-318.359,-1000.0,-531.738,-28.32
1742464668.47,-1000.0,-972.656,-849.121,-1000.0
1742464668.474,-887.695,263.672,-216.309,-894.043
1742464668.431,916.016,-415.039,-56.152,913.086
1742464668.435,911.133,-872.07,366.211,916.992
1742464668.439,999.512,893.066,801.27,999.512
1742464668.443,823.242,565.918,525.879,854.004
1742464668.447,-547.363,-1000.0,-361.328,-539.551
1742464668.451,-1000.0,-896.973,-354.492,-1000.0
1742464668.455,-602.539,663.086,437.012,-334.961
1742464668.458,802.246,999.512,475.586,866.211
1742464668.462,999.512,-311.523,104.004,999.512
1742464668.466,-318.359,-1000.0,-531.738,-28.32
1742464668.47,-1000.0,-972.656,-849.121,-1000.0
1742464668.474,-887.695,263.672,-216.309,-894.043
1742464668.49,361.328,999.512,366.699,418.945
1742464668.494,999.512,833.008,260.254,999.512
1742464668.498,767.09,160.645,-319.336,794.922
1742464668.502,-636.23,-1000.0,-672.852,-616.699
1742464668.506,-1000.0,-583.984,-291.016,-1000.0
1742464668.51,304.688,786.621,306.641,361.816
1742464668.514,999.512,999.512,395.996,999.512
1742464668.517,900.879,318.359,-48.34,900.391
1742464668.521,982.91,-978.516,-338.867,981.445
1742464668.525,917.969,-988.77,-270.02,932.617
1742464668.529,996.582,626.953,250.0,965.82
1742464668.533,924.805,974.121,406.25,999.512
1742464668.49,361.328,999.512,366.699,418.945
1742464668.494,999.512,833.008,260.254,999.512
1742464668.498,767.09,160.645,-319.336,794.922
1742464668.502,-636.23,-1000.0,-672.852,-616.699
1742464668.506,-1000.0,-583.984,-291.016,-1000.0
1742464668.51,304.688,786.621,306.641,361.816
1742464668.514,999.512,999.512,395.996,999.512
1742464668.517,900.879,318.359,-48.34,900.391
1742464668.521,982.91,-978.516,-338.867,981.445
1742464668.525,917.969,-988.77,-270.02,932.617
1742464668.529,996.582,626.953,250.0,965.82
1742464668.533,924.805,974.121,406.25,999.512
1742464668.535,-498.047,-710.938,-401.855,-324.707
1742464668.539,-1000.0,-1000.0,-936.035,-1000.0
1742464668.543,-958.008,372.07,-310.547,-968.75
1742464668.547,-952.148,999.512,188.965,-932.129
1742464668.551,383.301,918.457,395.02,411.621
1742464668.555,999.512,947.266,280.273,999.512
1742464668.559,639.648,-341.797,-404.297,626.953
1742464668.562,-816.406,-1000.0,-664.551,-797.363
1742464668.566,-1000.0,-876.465,-139.16,-1000.0
1742464668.57,469.238,619.141,629.883,456.055
1742464668.574,999.512,947.754,258.301,999.512
1742464668.578,-115.723,-628.418,-631.836,-83.008
1742464668.535,-498.047,-710.938,-401.855,-324.707
1742464668.539,-1000.0,-1000.0,-936.035,-1000.0
1742464668.543,-958.008,372.07,-310.547,-968.75
1742464668.547,-952.148,999.512,188.965,-932.129
1742464668.551,383.301,918.457,395.02,411.621
1742464668.555,999.512,947.266,280.273,999.512
1742464668.559,639.648,-341.797,-404.297,626.953
1742464668.562,-816.406,-1000.0,-664.551,-797.363
1742464668.566,-1000.0,-876.465,-139.16,-1000.0
1742464668.57,469.238,619.141,629.883,456.055
1742464668.574,999.512,947.754,258.301,999.512
1742464668.578,-115.723,-628.418,-631.836,-83.008
1742464668.58,-1000.0,-1000.0,-585.449,-1000.0
1742464668.584,-859.863,-507.324,63.965,-856.445
1742464668.588,547.852,892.09,627.441,558.594
1742464668.592,999.512,944.824,281.738,999.512
1742464668.596,-186.523,-726.562,-643.555,-137.207
1742464668.6,-1000.0,-988.281,-549.316,-1000.0
1742464668.604,134.766,717.285,474.609,122.07
1742464668.607,999.512,999.512,750.488,999.512
1742464668.611,856.445,-464.355,123.535,878.906
1742464668.615,-414.551,-1000.0,-696.289,-374.512
1742464668.619,-1000.0,-737.305,-557.129,-1000.0
1742464668.623,-741.211,464.355,235.84,-748.047
1742464668.58,-1000.0,-1000.0,-585.449,-1000.0
1742464668.584,-859.863,-507.324,63.965,-856.445
1742464668.588,547.852,892.09,627.441,558.594
1742464668.592,999.512,944.824,281.738,999.512
1742464668.596,-186.523,-726.562,-643.555,-137.207
1742464668.6,-1000.0,-988.281,-549.316,-1000.0
1742464668.604,134.766,717.285,474.609,122.07
1742464668.607,999.512,999.512,750.488,999.512
1742464668.611,856.445,-464.355,123.535,878.906
1742464668.615,-414.551,-1000.0,-696.289,-374.512
1742464668.619,-1000.0,-737.305,-557.129,-1000.0
1742464668.623,-741.211,464.355,235.84,-748.047
1742464668.625,565.43,999.512,712.891,563.965
1742464668.629,999.512,638.672,497.07,999.512
1742464668.633,409.668,-680.664,-148.926,363.77
1742464668.637,-934.082,-1000.0,-278.32,-933.105
1742464668.641,-1000.0,-385.742,266.113,-1000.0
1742464668.645,315.918,952.148,833.496,279.785
1742464668.649,999.512,876.953,929.199,999.512
1742464668.652,387.695,-558.594,41.016,339.844
1742464668.656,-863.281,-1000.0,-562.988,-878.418
1742464668.66,-1000.0,-719.727,-125.0,-1000.0
1742464668.664,-892.578,571.289,449.707,-916.992
1742464668.668,588.867,999.512,694.824,560.059
1742464668.671,999.512,702.637,200.195,999.512
1742464668.675,-604.492,-901.367,-387.695,-606.934
1742464668.679,-1000.0,-206.543,-40.039,-1000.0
1742464668.683,-866.699,887.207,338.379,-857.422
1742464668.687,-1000.0,-616.699,333.496,-1000.0
1742464668.691,-298.828,206.543,421.875,-526.367
1742464668.695,976.074,999.512,386.719,874.512
1742464668.698,979.004,751.465,300.781,999.512
1742464668.702,898.438,-562.988,262.207,876.953
1742464668.706,971.68,-1000.0,218.75,988.77
1742464668.71,999.512,-490.723,28.32,980.469
1742464668.714,-292.48,-296.875,-542.48,-352.539
1742464668.671,999.512,702.637,200.195,999.512
1742464668.675,-604.492,-901.367,-387.695,-606.934
1742464668.679,-1000.0,-206.543,-40.039,-1000.0
1742464668.683,-866.699,887.207,338.379,-857.422
1742464668.687,-1000.0,-616.699,333.496,-1000.0
1742464668.691,-298.828,206.543,421.875,-526.367
1742464668.695,976.074,999.512,386.719,874.512
1742464668.698,979.004,751.465,300.781,999.512
1742464668.702,898.438,-562.988,262.207,876.953
1742464668.706,971.68,-1000.0,218.75,988.77
1742464668.71,999.512,-490.723,28.32,980.469
1742464668.714,-292.48,-296.875,-542.48,-352.539
1742464668.715,-1000.0,-1000.0,-595.703,-1000.0
1742464668.719,-933.105,-796.387,0.488,-932.129
1742464668.723,-1000.0,927.246,365.234,-1000.0
1742464668.727,-942.871,252.441,-46.875,-948.73
1742464668.731,-1000.0,-680.664,-469.727,-1000.0
1742464668.735,-877.93,802.246,-52.734,-922.852
1742464668.739,517.09,999.512,391.602,441.406
1742464668.742,999.512,-156.738,237.305,999.512
1742464668.746,864.746,-1000.0,-259.277,853.027
1742464668.75,-460.449,-1000.0,-846.68,-480.469
1742464668.754,-1000.0,-919.434,-740.723,-1000.0
1742464668.758,-984.863,507.324,-144.043,-979.004
1742464668.76,-884.277,999.512,66.895,-895.02
1742464668.764,709.473,977.051,-28.809,689.941
1742464668.768,959.473,646.484,-577.148,945.801
1742464668.772,-612.305,-905.273,-991.699,-623.047
1742464668.776,-1000.0,-928.223,-724.609,-1000.0
1742464668.78,-261.719,665.527,-52.246,-358.398
1742464668.784,999.512,999.512,179.199,999.512
1742464668.787,747.07,-252.93,-529.785,715.332
1742464668.791,-674.316,-1000.0,-930.664,-721.68
1742464668.795,-1000.0,-1000.0,-581.543,-1000.0
1742464668.799,-722.656,-37.109,-43.457,-790.039
1742464668.803,776.855,999.512,257.812,715.82
1742464668.76,-884.277,999.512,66.895,-895.02
1742464668.764,709.473,977.051,-28.809,689.941
1742464668.768,959.473,646.484,-577.148,945.801
1742464668.772,-612.305,-905.273,-991.699,-623.047
1742464668.776,-1000.0,-928.223,-724.609,-1000.0
1742464668.78,-261.719,665.527,-52.246,-358.398
1742464668.784,999.512,999.512,179.199,999.512
1742464668.787,747.07,-252.93,-529.785,715.332
1742464668.791,-674.316,-1000.0,-930.664,-721.68
1742464668.795,-1000.0,-1000.0,-581.543,-1000.0
1742464668.799,-722.656,-37.109,-43.457,-790.039
1742464668.803,776.855,999.512,257.812,715.82
1742464668.805,924.805,363.281,-452.637,919.434
1742464668.809,-602.539,-1000.0,-987.793,-631.836
1742464668.813,-1000.0,-720.703,-577.148,-1000.0
1742464668.817,-749.023,791.992,-46.875,-759.277
1742464668.821,558.594,967.773,249.023,545.41
1742464668.825,999.512,995.605,33.203,999.512
1742464668.829,794.922,687.012,-295.898,809.082
1742464668.832,-490.234,-708.496,-554.688,-474.121
1742464668.836,-1000.0,-1000.0,-393.555,-1000.0
1742464668.84,-864.258,-678.711,-31.25,-895.508
1742464668.844,470.703,685.059,115.723,409.668
1742464668.848,999.512,999.512,-248.047,999.512
1742464668.805,924.805,363.281,-452.637,919.434
1742464668.809,-602.539,-1000.0,-987.793,-631.836
1742464668.813,-1000.0,-720.703,-577.148,-1000.0
1742464668.817,-749.023,791.992,-46.875,-759.277
1742464668.821,558.594,967.773,249.023,545.41
1742464668.825,999.512,995.605,33.203,999.512
1742464668.829,794.922,687.012,-295.898,809.082
1742464668.832,-490.234,-708.496,-554.688,-474.121
1742464668.836,-1000.0,-1000.0,-393.555,-1000.0
1742464668.84,-864.258,-678.711,-31.25,-895.508
1742464668.844,470.703,685.059,115.723,409.668
1742464668.848,999.512,999.512,-248.047,999.512
1742464668.85,908.203,-129.395,-360.352,910.645
1742464668.854,922.363,-1000.0,-99.609,920.41
1742464668.858,999.512,633.301,303.711,999.512
1742464668.862,856.934,999.023,-54.199,855.469
1742464668.866,-597.656,-914.062,-886.719,-600.586
1742464668.87,-1000.0,-471.68,-518.555,-1000.0
1742464668.874,-925.781,916.016,109.863,-925.781
1742464668.877,-1000.0,-437.5,156.738,-1000.0
1742464668.881,-936.523,-1000.0,-159.18,-942.383
1742464668.885,-1000.0,-795.898,-600.586,-1000.0
1742464668.889,-816.895,484.863,-238.77,-885.254
1742464668.893,666.016,999.512,575.684,577.148
1742464668.85,908.203,-129.395,-360.352,910.645
1742464668.854,922.363,-1000.0,-99.609,920.41
1742464668.858,999.512,633.301,303.711,999.512
1742464668.862,856.934,999.023,-54.199,855.469
1742464668.866,-597.656,-914.062,-886.719,-600.586
1742464668.87,-1000.0,-471.68,-518.555,-1000.0
1742464668.874,-925.781,916.016,109.863,-925.781
1742464668.877,-1000.0,-437.5,156.738,-1000.0
1742464668.881,-936.523,-1000.0,-159.18,-942.383
1742464668.885,-1000.0,-795.898,-600.586,-1000.0
1742464668.889,-816.895,484.863,-238.77,-885.254
1742464668.893,666.016,999.512,575.684,577.148
1742464668.91,996.582,786.621,759.766,999.512
1742464668.914,993.652,-537.598,77.637,980.957
1742464668.918,626.465,-1000.0,-479.004,502.93
1742464668.922,-969.238,-961.914,-427.734,-999.023
1742464668.926,-857.422,81.055,241.699,-845.215
1742464668.93,686.523,999.512,893.066,655.762
1742464668.934,999.512,710.938,690.918,999.512
1742464668.937,63.965,-628.906,-322.754,144.043
1742464668.941,-1000.0,-1000.0,-518.555,-1000.0
1742464668.945,-1000.0,-807.617,35.645,-1000.0
1742464668.949,196.289,540.039,564.941,179.199
1742464668.953,999.512,999.512,697.266,999.512
1742464668.91,996.582,786.621,759.766,999.512
1742464668.914,993.652,-537.598,77.637,980.957
1742464668.918,626.465,-1000.0,-479.004,502.93
1742464668.922,-969.238,-961.914,-427.734,-999.023
1742464668.926,-857.422,81.055,241.699,-845.215
1742464668.93,686.523,999.512,893.066,655.762
1742464668.934,999.512,710.938,690.918,999.512
1742464668.937,63.965,-628.906,-322.754,144.043
1742464668.941,-1000.0,-1000.0,-518.555,-1000.0
1742464668.945,-1000.0,-807.617,35.645,-1000.0
1742464668.949,196.289,540.039,564.941,179.199
1742464668.953,999.512,999.512,697.266,999.512
1742464668.956,749.023,-34.668,-27.344,744.629
1742464668.96,-647.949,-1000.0,-540.527,-657.715
1742464668.964,-1000.0,211.914,47.363,-1000.0
1742464668.968,-927.246,887.695,448.242,-928.223
1742464668.972,-1000.0,-886.23,168.457,-1000.0
1742464668.976,-1000.0,-351.074,-231.934,-1000.0
1742464668.98,-1000.0,968.262,-310.059,-1000.0
1742464668.983,-939.453,-296.875,-232.91,-940.43
1742464668.987,-1000.0,-1000.0,-199.219,-1000.0
1742464668.991,-856.445,-713.379,-24.414,-866.699
1742464668.995,607.91,664.551,53.711,593.75
1742464668.999,999.512,999.512,-280.762,999.512
1742464668.956,749.023,-34.668,-27.344,744.629
1742464668.96,-647.949,-1000.0,-540.527,-657.715
1742464668.964,-1000.0,211.914,47.363,-1000.0
1742464668.968,-927.246,887.695,448.242,-928.223
1742464668.972,-1000.0,-886.23,168.457,-1000.0
1742464668.976,-1000.0,-351.074,-231.934,-1000.0
1742464668.98,-1000.0,968.262,-310.059,-1000.0
1742464668.983,-939.453,-296.875,-232.91,-940.43
1742464668.987,-1000.0,-1000.0,-199.219,-1000.0
1742464668.991,-856.445,-713.379,-24.414,-866.699
1742464668.995,607.91,664.551,53.711,593.75
1742464668.999,999.512,999.512,-280.762,999.512
1742464668.956,749.023,-34.668,-27.344,744.629
1742464668.96,-647.949,-1000.0,-540.527,-657.715
1742464668.964,-1000.0,211.914,47.363,-1000.0
1742464668.968,-927.246,887.695,448.242,-928.223
1742464668.972,-1000.0,-886.23,168.457,-1000.0
1742464668.976,-1000.0,-351.074,-231.934,-1000.0
1742464668.98,-1000.0,968.262,-310.059,-1000.0
1742464668.983,-939.453,-296.875,-232.91,-940.43
1742464668.987,-1000.0,-1000.0,-199.219,-1000.0
1742464668.991,-856.445,-713.379,-24.414,-866.699
1742464668.995,607.91,664.551,53.711,593.75
1742464668.999,999.512,999.512,-280.762,999.512
1742464669.0,909.18,-268.555,-254.883,909.668
1742464669.004,923.828,-1000.0,32.227,924.316
1742464669.008,999.512,733.887,294.922,999.512
1742464669.012,827.637,711.914,-81.543,838.379
1742464669.016,-542.969,-1000.0,-894.043,-543.945
1742464669.02,-1000.0,-914.551,-581.543,-1000.0
1742464669.024,-594.727,749.023,274.414,-501.465
1742464669.027,891.602,942.871,273.438,918.945
1742464669.031,868.164,-591.797,-564.453,856.445
1742464669.035,-704.59,-1000.0,-1000.0,-691.406
1742464669.039,-1000.0,-792.48,-891.113,-1000.0
1742464669.043,-1000.0,505.859,-398.438,-1000.0
1742464669.0,909.18,-268.555,-254.883,909.668
1742464669.004,923.828,-1000.0,32.227,924.316
1742464669.008,999.512,733.887,294.922,999.512
1742464669.012,827.637,711.914,-81.543,838.379
1742464669.016,-542.969,-1000.0,-894.043,-543.945
1742464669.02,-1000.0,-914.551,-581.543,-1000.0
1742464669.024,-594.727,749.023,274.414,-501.465
1742464669.027,891.602,942.871,273.438,918.945
1742464669.031,868.164,-591.797,-564.453,856.445
1742464669.035,-704.59,-1000.0,-1000.0,-691.406
1742464669.039,-1000.0,-792.48,-891.113,-1000.0
1742464669.043,-1000.0,505.859,-398.438,-1000.0
1742464669.046,-229.492,999.512,-20.996,-233.887
1742464669.05,999.512,833.008,-138.184,999.512
1742464669.054,423.828,-497.07,-828.613,364.258
1742464669.058,-1000.0,-1000.0,-1000.0,-1000.0
1742464669.062,-796.875,24.414,-299.316,-800.781
1742464669.066,738.77,999.512,661.621,715.332
1742464669.07,999.512,848.633,520.02,999.512
1742464669.073,895.996,-484.375,-233.398,896.973
1742464669.077,999.512,-1000.0,-239.258,999.512
1742464669.081,908.203,-886.23,-163.574,909.18
1742464669.085,999.512,611.816,-82.52,999.512
1742464669.089,852.051,895.508,-256.836,857.91
1742464669.046,-229.492,999.512,-20.996,-233.887
1742464669.05,999.512,833.008,-138.184,999.512
1742464669.054,423.828,-497.07,-828.613,364.258
1742464669.058,-1000.0,-1000.0,-1000.0,-1000.0
1742464669.062,-796.875,24.414,-299.316,-800.781
1742464669.066,738.77,999.512,661.621,715.332
1742464669.07,999.512,848.633,520.02,999.512
1742464669.073,895.996,-484.375,-233.398,896.973
1742464669.077,999.512,-1000.0,-239.258,999.512
1742464669.081,908.203,-886.23,-163.574,909.18
1742464669.085,999.512,611.816,-82.52,999.512
1742464669.089,852.051,895.508,-256.836,857.91
1742464669.09,-604.492,-850.098,-909.668,-597.656
1742464669.094,-1000.0,-1000.0,-966.797,-1000.0
1742464669.098,-925.781,641.602,-447.754,-925.781
1742464669.102,-1000.0,999.512,-179.688,-1000.0
1742464669.106,-1000.0,-736.328,-390.625,-1000.0
1742464669.11,-1000.0,-482.422,-592.773,-1000.0
1742464669.114,-942.383,956.543,-375.488,-941.895
1742464669.117,-1000.0,-595.215,-419.922,-1000.0
1742464669.121,-891.113,-1000.0,-287.109,-886.719
1742464669.125,563.965,747.07,315.43,570.312
1742464669.129,999.512,927.734,7.812,999.512
1742464669.133,892.578,-812.988,-675.781,893.066
1742464669.135,989.258,-180.664,-371.582,996.094
1742464669.139,901.855,999.512,-91.309,896.973
1742464669.143,999.512,670.41,-12.695,999.512
1742464669.147,371.582,-767.578,-349.121,523.926
1742464669.151,-901.855,-1000.0,-808.594,-835.938
1742464669.155,-1000.0,275.879,-411.133,-1000.0
1742464669.159,-399.902,999.512,344.727,-342.773
1742464669.162,999.512,809.57,341.309,999.512
1742464669.166,632.812,-514.648,-571.289,630.859
1742464669.17,-836.426,-1000.0,-959.961,-819.824
1742464669.174,-1000.0,-250.488,-280.762,-1000.0
1742464669.178,-960.938,942.871,114.746,-968.75
1742464669.135,989.258,-180.664,-371.582,996.094
1742464669.139,901.855,999.512,-91.309,896.973
1742464669.143,999.512,670.41,-12.695,999.512
1742464669.147,371.582,-767.578,-349.121,523.926
1742464669.151,-901.855,-1000.0,-808.594,-835.938
1742464669.155,-1000.0,275.879,-411.133,-1000.0
1742464669.159,-399.902,999.512,344.727,-342.773
1742464669.162,999.512,809.57,341.309,999.512
1742464669.166,632.812,-514.648,-571.289,630.859
1742464669.17,-836.426,-1000.0,-959.961,-819.824
1742464669.174,-1000.0,-250.488,-280.762,-1000.0
1742464669.178,-960.938,942.871,114.746,-968.75
1742464669.181,357.91,994.629,435.547,350.098
1742464669.185,999.512,-269.043,9.766,999.512
1742464669.189,-276.855,-1000.0,-898.438,-307.617
1742464669.193,-1000.0,-875.488,-804.688,-1000.0
1742464669.197,-873.535,386.719,-79.102,-872.07
1742464669.201,588.867,999.512,625.977,595.215
1742464669.205,999.512,705.078,311.523,999.512
1742464669.208,-497.07,-594.238,-816.406,-511.719
1742464669.212,-1000.0,-1000.0,-764.16,-1000.0
1742464669.216,-865.723,-726.562,-37.598,-909.18
1742464669.22,372.07,698.242,434.082,298.828
1742464669.224,999.512,999.512,294.434,999.512
1742464669.181,357.91,994.629,435.547,350.098
1742464669.185,999.512,-269.043,9.766,999.512
1742464669.189,-276.855,-1000.0,-898.438,-307.617
1742464669.193,-1000.0,-875.488,-804.688,-1000.0
1742464669.197,-873.535,386.719,-79.102,-872.07
1742464669.201,588.867,999.512,625.977,595.215
1742464669.205,999.512,705.078,311.523,999.512
1742464669.208,-497.07,-594.238,-816.406,-511.719
1742464669.212,-1000.0,-1000.0,-764.16,-1000.0
1742464669.216,-865.723,-726.562,-37.598,-909.18
1742464669.22,372.07,698.242,434.082,298.828
1742464669.224,999.512,999.512,294.434,999.512
1742464669.225,551.27,-398.438,-396.484,465.332
1742464669.229,-920.898,-1000.0,-659.668,-956.055
1742464669.233,-930.664,-282.715,-87.402,-917.969
1742464669.237,561.523,924.805,625.488,550.293
1742464669.241,999.512,988.77,397.461,999.512
1742464669.245,758.789,165.039,-346.68,730.957
1742464669.249,-612.793,-1000.0,-908.691,-643.066
1742464669.252,-1000.0,-785.645,-597.656,-1000.0
1742464669.256,-942.871,617.676,71.289,-943.848
1742464669.26,-956.543,-536.621,276.855,-961.426
1742464669.264,-1000.0,-1000.0,67.383,-1000.0
1742464669.268,-861.816,546.875,26.855,-910.645
1742464669.285,617.188,999.512,463.379,549.316
1742464669.289,999.512,955.566,547.363,999.512
1742464669.293,983.887,69.824,315.918,986.816
1742464669.297,729.98,-1000.0,-178.711,674.316
1742464669.301,-764.648,-944.336,-517.578,-793.457
1742464669.305,-1000.0,476.562,20.996,-1000.0
1742464669.309,-947.266,999.512,390.625,-945.801
1742464669.312,-965.332,-190.43,133.789,-982.422
1742464669.316,-1000.0,-1000.0,-306.641,-999.023
1742464669.32,-931.641,-801.758,-316.895,-1000.0
1742464669.324,498.047,572.754,606.934,277.344
1742464669.328,999.512,999.512,999.512,999.512
1742464669.285,617.188,999.512,463.379,549.316
1742464669.289,999.512,955.566,547.363,999.512
1742464669.293,983.887,69.824,315.918,986.816
1742464669.297,729.98,-1000.0,-178.711,674.316
1742464669.301,-764.648,-944.336,-517.578,-793.457
1742464669.305,-1000.0,476.562,20.996,-1000.0
1742464669.309,-947.266,999.512,390.625,-945.801
1742464669.312,-965.332,-190.43,133.789,-982.422
1742464669.316,-1000.0,-1000.0,-306.641,-999.023
1742464669.32,-931.641,-801.758,-316.895,-1000.0
1742464669.324,498.047,572.754,606.934,277.344
1742464669.328,999.512,999.512,999.512,999.512
1742464669.345,891.602,968.262,926.758,899.414
1742464669.349,980.469,-283.691,970.703,972.168
1742464669.353,966.309,-1000.0,967.773,966.797
1742464669.357,966.797,501.465,966.797,968.262
1742464669.361,975.586,999.512,966.797,973.145
1742464669.365,897.949,470.215,967.285,903.809
1742464669.369,999.512,287.109,966.797,999.512
1742464669.372,424.805,316.406,966.797,369.629
1742464669.376,-950.195,-937.012,967.285,-963.867
1742464669.38,-1000.0,-1000.0,967.285,-1000.0
1742464669.384,-953.613,549.805,967.285,-957.52
1742464669.388,-1000.0,999.512,967.285,-1000.0
1742464669.375,-1000.0,-615.723,967.285,-1000.0
1742464669.379,-1000.0,-800.293,967.285,-1000.0
1742464669.383,-1000.0,753.906,967.285,-1000.0
1742464669.387,-969.238,999.512,967.285,-1000.0
1742464669.391,-993.652,691.895,967.285,-936.035
1742464669.395,-1000.0,-464.844,967.285,-1000.0
1742464669.399,224.121,430.664,967.285,-440.43
1742464669.402,999.512,999.512,968.262,912.109
1742464669.406,916.016,842.773,963.379,999.512
1742464669.41,927.734,-619.141,964.355,883.789
1742464669.414,977.539,87.402,976.074,986.816
1742464669.418,977.539,999.512,828.613,984.375
1742464669.42,-377.93,-732.422,729.492,-353.516
1742464669.424,-1000.0,-1000.0,898.926,-1000.0
1742464669.428,-945.312,753.906,999.512,-947.266
1742464669.432,-951.172,777.832,889.648,-951.172
1742464669.436,-1000.0,-777.832,641.113,-1000.0
1742464669.44,-899.414,289.551,829.102,-911.621
1742464669.444,517.578,999.512,999.512,498.047
1742464669.447,999.512,821.289,896.484,999.512
1742464669.451,-3.906,-519.043,-132.812,17.09
1742464669.455,-993.652,-1000.0,-993.652,-981.445
1742464669.459,-1000.0,192.383,-562.012,-1000.0
1742464669.463,-870.117,997.07,203.613,-866.699
1742464669.42,-377.93,-732.422,729.492,-353.516
1742464669.424,-1000.0,-1000.0,898.926,-1000.0
1742464669.428,-945.312,753.906,999.512,-947.266
1742464669.432,-951.172,777.832,889.648,-951.172
1742464669.436,-1000.0,-777.832,641.113,-1000.0
1742464669.44,-899.414,289.551,829.102,-911.621
1742464669.444,517.578,999.512,999.512,498.047
1742464669.447,999.512,821.289,896.484,999.512
1742464669.451,-3.906,-519.043,-132.812,17.09
1742464669.455,-993.652,-1000.0,-993.652,-981.445
1742464669.459,-1000.0,192.383,-562.012,-1000.0
1742464669.463,-870.117,997.07,203.613,-866.699
1742464669.466,558.105,967.285,903.809,559.57
1742464669.47,999.512,885.254,917.48,999.512
1742464669.474,891.602,-747.559,422.363,892.578
1742464669.478,984.863,-887.207,665.039,985.352
1742464669.482,959.473,789.062,979.004,964.844
1742464669.486,917.969,-192.383,952.148,913.574
1742464669.49,999.512,-3.906,982.422,999.512
1742464669.493,108.398,154.785,298.34,202.148
1742464669.497,-998.535,-1000.0,-31.738,-984.375
1742464669.501,-1000.0,-707.031,613.77,-1000.0
1742464669.505,-379.395,656.738,969.238,-234.375
1742464669.509,994.629,999.512,942.871,999.512
1742464669.51,920.898,708.984,326.172,907.227
1742464669.514,-677.734,-762.207,-296.875,-661.621
1742464669.518,-1000.0,-989.746,272.461,-1000.0
1742464669.522,580.566,766.602,990.234,566.406
1742464669.526,999.512,996.582,821.289,999.512
1742464669.53,891.602,-741.699,308.105,892.578
1742464669.534,997.07,145.996,325.684,996.094
1742464669.537,908.203,948.73,536.621,913.574
1742464669.541,999.512,-791.016,531.25,999.512
1742464669.545,852.539,-1000.0,501.465,892.578
1742464669.549,-621.582,-982.91,-0.977,-557.129
1742464669.553,-1000.0,-898.926,-68.359,-1000.0
1742464669.51,920.898,708.984,326.172,907.227
1742464669.514,-677.734,-762.207,-296.875,-661.621
1742464669.518,-1000.0,-989.746,272.461,-1000.0
1742464669.522,580.566,766.602,990.234,566.406
1742464669.526,999.512,996.582,821.289,999.512
1742464669.53,891.602,-741.699,308.105,892.578
1742464669.534,997.07,145.996,325.684,996.094
1742464669.537,908.203,948.73,536.621,913.574
1742464669.541,999.512,-791.016,531.25,999.512
1742464669.545,852.539,-1000.0,501.465,892.578
1742464669.549,-621.582,-982.91,-0.977,-557.129
1742464669.553,-1000.0,-898.926,-68.359,-1000.0
1742464669.555,-985.84,578.125,524.414,-991.211
1742464669.559,-884.277,999.512,831.543,-830.566
1742464669.563,702.637,999.512,917.48,737.793
1742464669.567,999.512,397.461,293.457,999.512
1742464669.571,-724.121,-971.191,-206.543,-733.398
1742464669.575,-972.656,-7.324,422.852,-951.66
1742464669.579,571.289,999.512,993.164,600.098
1742464669.582,999.512,532.715,838.379,999.512
1742464669.586,655.273,-815.918,0.488,701.66
1742464669.59,-832.031,-1000.0,-562.988,-780.273
1742464669.594,-972.656,-178.711,113.77,-986.328
1742464669.598,541.504,973.145,875.488,539.551
1742464669.555,-985.84,578.125,524.414,-991.211
1742464669.559,-884.277,999.512,831.543,-830.566
1742464669.563,702.637,999.512,917.48,737.793
1742464669.567,999.512,397.461,293.457,999.512
1742464669.571,-724.121,-971.191,-206.543,-733.398
1742464669.575,-972.656,-7.324,422.852,-951.66
1742464669.579,571.289,999.512,993.164,600.098
1742464669.582,999.512,532.715,838.379,999.512
1742464669.586,655.273,-815.918,0.488,701.66
1742464669.59,-832.031,-1000.0,-562.988,-780.273
1742464669.594,-972.656,-178.711,113.77,-986.328
1742464669.598,541.504,973.145,875.488,539.551
1742464669.601,999.512,977.051,984.375,999.512
1742464669.605,809.57,-229.98,344.238,814.453
1742464669.609,-567.383,-1000.0,-433.105,-566.406
1742464669.613,-1000.0,-804.199,-57.129,-1000.0
1742464669.617,204.59,514.16,728.027,219.727
1742464669.621,999.512,999.512,999.512,999.512
1742464669.625,829.102,685.547,539.551,879.883
1742464669.628,-560.059,-626.465,-358.887,-465.332
1742464669.632,-1000.0,-1000.0,-453.125,-1000.0
1742464669.636,-1000.0,-899.414,-354.004,-1000.0
1742464669.64,-641.602,397.461,18.066,-574.707
1742464669.644,913.574,999.512,189.941,927.246
1742464669.601,999.512,977.051,984.375,999.512
1742464669.605,809.57,-229.98,344.238,814.453
1742464669.609,-567.383,-1000.0,-433.105,-566.406
1742464669.613,-1000.0,-804.199,-57.129,-1000.0
1742464669.617,204.59,514.16,728.027,219.727
1742464669.621,999.512,999.512,999.512,999.512
1742464669.625,829.102,685.547,539.551,879.883
1742464669.628,-560.059,-626.465,-358.887,-465.332
1742464669.632,-1000.0,-1000.0,-453.125,-1000.0
1742464669.636,-1000.0,-899.414,-354.004,-1000.0
1742464669.64,-641.602,397.461,18.066,-574.707
1742464669.644,913.574,999.512,189.941,927.246
1742464669.601,999.512,977.051,984.375,999.512
1742464669.605,809.57,-229.98,344.238,814.453
1742464669.609,-567.383,-1000.0,-433.105,-566.406
1742464669.613,-1000.0,-804.199,-57.129,-1000.0
1742464669.617,204.59,514.16,728.027,219.727
1742464669.621,999.512,999.512,999.512,999.512
1742464669.625,829.102,685.547,539.551,879.883
1742464669.628,-560.059,-626.465,-358.887,-465.332
1742464669.632,-1000.0,-1000.0,-453.125,-1000.0
1742464669.636,-1000.0,-899.414,-354.004,-1000.0
1742464669.64,-641.602,397.461,18.066,-574.707
1742464669.644,913.574,999.512,189.941,927.246
1742464669.66,927.246,18.066,-420.41,924.316
1742464669.664,-626.465,-1000.0,-625.488,-606.934
1742464669.668,-1000.0,-872.07,-170.898,-1000.0
1742464669.672,158.691,540.039,474.121,124.023
1742464669.676,999.512,999.512,528.809,999.512
1742464669.68,916.504,925.781,96.191,923.34
1742464669.684,967.285,-71.777,23.926,963.867
1742464669.687,938.477,-1000.0,115.723,946.289
1742464669.691,955.566,-828.613,283.691,946.289
1742464669.695,999.512,624.023,256.836,999.512
1742464669.699,-255.371,-84.473,-427.246,-158.203
1742464669.703,-1000.0,-1000.0,-839.844,-1000.0
1742464669.66,927.246,18.066,-420.41,924.316
1742464669.664,-626.465,-1000.0,-625.488,-606.934
1742464669.668,-1000.0,-872.07,-170.898,-1000.0
1742464669.672,158.691,540.039,474.121,124.023
1742464669.676,999.512,999.512,528.809,999.512
1742464669.68,916.504,925.781,96.191,923.34
1742464669.684,967.285,-71.777,23.926,963.867
1742464669.687,938.477,-1000.0,115.723,946.289
1742464669.691,955.566,-828.613,283.691,946.289
1742464669.695,999.512,624.023,256.836,999.512
1742464669.699,-255.371,-84.473,-427.246,-158.203
1742464669.703,-1000.0,-1000.0,-839.844,-1000.0
1742464669.705,-935.547,-849.121,-485.84,-947.754
1742464669.709,-1000.0,644.531,29.785,-1000.0
1742464669.713,-964.844,999.512,98.633,-976.074
1742464669.717,-1000.0,-798.34,-465.82,-983.398
1742464669.721,-1000.0,-705.566,-552.734,-1000.0
1742464669.725,296.387,795.41,105.469,164.551
1742464669.729,999.512,999.512,429.688,999.512
1742464669.732,999.512,756.836,106.445,999.512
1742464669.736,376.465,-553.711,-664.551,387.207
1742464669.74,-911.133,-1000.0,-1000.0,-896.973
1742464669.744,-1000.0,-672.363,-695.801,-1000.0
1742464669.748,-325.195,702.148,-60.547,-344.238
1742464669.705,-935.547,-849.121,-485.84,-947.754
1742464669.709,-1000.0,644.531,29.785,-1000.0
1742464669.713,-964.844,999.512,98.633,-976.074
1742464669.717,-1000.0,-798.34,-465.82,-983.398
1742464669.721,-1000.0,-705.566,-552.734,-1000.0
1742464669.725,296.387,795.41,105.469,164.551
1742464669.729,999.512,999.512,429.688,999.512
1742464669.732,999.512,756.836,106.445,999.512
1742464669.736,376.465,-553.711,-664.551,387.207
1742464669.74,-911.133,-1000.0,-1000.0,-896.973
1742464669.744,-1000.0,-672.363,-695.801,-1000.0
1742464669.748,-325.195,702.148,-60.547,-344.238
1742464669.75,999.512,999.512,337.891,990.234
1742464669.754,903.809,-294.434,-348.145,891.113
1742464669.758,-645.996,-1000.0,-999.023,-666.504
1742464669.762,-1000.0,-481.934,-502.441,-1000.0
1742464669.766,373.047,769.043,285.645,355.957
1742464669.77,999.512,999.512,504.395,999.512
1742464669.774,770.508,674.805,-72.754,787.109
1742464669.777,-536.133,-633.789,-892.09,-521.484
1742464669.781,-1000.0,-1000.0,-908.691,-1000.0
1742464669.785,-889.648,-792.48,-359.375,-916.992
1742464669.789,479.004,690.43,310.059,437.988
1742464669.793,999.512,977.539,82.52,999.512
1742464669.795,-306.641,-672.363,-846.68,-328.613
1742464669.799,-1000.0,-1000.0,-1000.0,-1000.0
1742464669.803,-875.488,251.953,-310.059,-866.699
1742464669.807,617.676,999.512,458.008,623.047
1742464669.811,984.375,135.254,-120.605,992.188
1742464669.815,-657.715,-1000.0,-989.746,-643.066
1742464669.819,-1000.0,-806.152,-591.797,-1000.0
1742464669.822,-925.781,505.371,40.527,-925.781
1742464669.826,-1000.0,-401.367,-147.949,-1000.0
1742464669.83,-941.895,-1000.0,-635.742,-944.824
1742464669.834,-1000.0,-707.031,-987.305,-1000.0
1742464669.838,-883.301,640.625,-817.383,-905.762
1742464669.795,-306.641,-672.363,-846.68,-328.613
1742464669.799,-1000.0,-1000.0,-1000.0,-1000.0
1742464669.803,-875.488,251.953,-310.059,-866.699
1742464669.807,617.676,999.512,458.008,623.047
1742464669.811,984.375,135.254,-120.605,992.188
1742464669.815,-657.715,-1000.0,-989.746,-643.066
1742464669.819,-1000.0,-806.152,-591.797,-1000.0
1742464669.822,-925.781,505.371,40.527,-925.781
1742464669.826,-1000.0,-401.367,-147.949,-1000.0
1742464669.83,-941.895,-1000.0,-635.742,-944.824
1742464669.834,-1000.0,-707.031,-987.305,-1000.0
1742464669.838,-883.301,640.625,-817.383,-905.762
1742464669.84,572.754,999.512,-220.215,528.32
1742464669.844,999.512,986.328,-235.84,999.512
1742464669.848,992.676,316.406,-623.047,973.633
1742464669.852,318.359,-1000.0,-951.66,186.523
1742464669.856,-1000.0,-945.801,-1000.0,-1000.0
1742464669.86,-877.441,440.43,-485.84,-866.699
1742464669.864,524.414,999.512,158.691,522.949
1742464669.867,999.512,336.914,-43.457,999.512
1742464669.871,521.484,-914.551,-824.219,427.246
1742464669.875,-936.035,-1000.0,-937.988,-965.332
1742464669.879,-921.875,42.48,-147.949,-903.32
1742464669.883,565.43,999.512,652.832,563.965
1742464669.885,999.512,858.887,667.48,999.512
1742464669.889,766.113,-448.73,-47.852,763.184
1742464669.893,-509.277,-1000.0,-627.93,-523.926
1742464669.897,-1000.0,-828.613,-351.074,-1000.0
1742464669.901,-586.914,447.754,275.391,-530.273
1742464669.905,761.719,999.512,676.27,776.367
1742464669.909,999.512,721.68,252.93,999.512
1742464669.912,-48.34,-585.938,-339.844,-55.176
1742464669.916,-1000.0,-1000.0,-200.684,-1000.0
1742464669.92,-1000.0,-894.531,248.535,-1000.0
1742464669.924,-99.121,359.863,699.707,-141.113
1742464669.928,999.512,999.512,528.32,999.512
1742464669.885,999.512,858.887,667.48,999.512
1742464669.889,766.113,-448.73,-47.852,763.184
1742464669.893,-509.277,-1000.0,-627.93,-523.926
1742464669.897,-1000.0,-828.613,-351.074,-1000.0
1742464669.901,-586.914,447.754,275.391,-530.273
1742464669.905,761.719,999.512,676.27,776.367
1742464669.909,999.512,721.68,252.93,999.512
1742464669.912,-48.34,-585.938,-339.844,-55.176
1742464669.916,-1000.0,-1000.0,-200.684,-1000.0
1742464669.92,-1000.0,-894.531,248.535,-1000.0
1742464669.924,-99.121,359.863,699.707,-141.113
1742464669.928,999.512,999.512,528.32,999.512
1742464669.93,817.383,261.23,-228.027,810.547
1742464669.934,-548.34,-1000.0,-427.734,-580.078
1742464669.938,-1000.0,-897.461,-24.902,-1000.0
1742464669.942,-339.844,622.559,387.207,-289.062
1742464669.946,879.883,999.512,181.641,892.09
1742464669.95,988.281,967.773,-276.855,976.074
1742464669.954,960.938,788.574,-250.0,973.633
1742464669.957,-294.922,-693.359,-314.453,-222.656
1742464669.961,-1000.0,-1000.0,-91.309,-1000.0
1742464669.965,-932.617,-1000.0,2.93,-941.895
1742464669.969,-1000.0,-295.41,-270.996,-1000.0
1742464669.973,-940.918,978.516,-15.625,-942.383
1742464669.93,817.383,261.23,-228.027,810.547
1742464669.934,-548.34,-1000.0,-427.734,-580.078
1742464669.938,-1000.0,-897.461,-24.902,-1000.0
1742464669.942,-339.844,622.559,387.207,-289.062
1742464669.946,879.883,999.512,181.641,892.09
1742464669.95,988.281,967.773,-276.855,976.074
1742464669.954,960.938,788.574,-250.0,973.633
1742464669.957,-294.922,-693.359,-314.453,-222.656
1742464669.961,-1000.0,-1000.0,-91.309,-1000.0
1742464669.965,-932.617,-1000.0,2.93,-941.895
1742464669.969,-1000.0,-295.41,-270.996,-1000.0
1742464669.973,-940.918,978.516,-15.625,-942.383
1742464669.976,-1000.0,-568.848,115.723,-1000.0
1742464669.98,-875.488,-978.516,321.777,-875.0
1742464669.984,583.984,794.922,663.574,584.961
1742464669.988,999.512,999.512,127.93,999.512
1742464669.992,908.691,-462.402,-259.277,909.18
1742464669.996,922.852,-25.879,291.016,925.293
1742464670.0,999.512,999.512,771.484,999.512
1742464670.003,836.426,-213.379,289.551,853.027
1742464670.007,-638.672,-1000.0,-727.539,-613.281
1742464670.011,-1000.0,-1000.0,-676.758,-1000.0
1742464670.015,-1000.0,62.5,-82.031,-1000.0
1742464670.019,-650.391,993.164,366.699,-579.59
1742464669.976,-1000.0,-568.848,115.723,-1000.0
1742464669.98,-875.488,-978.516,321.777,-875.0
1742464669.984,583.984,794.922,663.574,584.961
1742464669.988,999.512,999.512,127.93,999.512
1742464669.992,908.691,-462.402,-259.277,909.18
1742464669.996,922.852,-25.879,291.016,925.293
1742464670.0,999.512,999.512,771.484,999.512
1742464670.003,836.426,-213.379,289.551,853.027
1742464670.007,-638.672,-1000.0,-727.539,-613.281
1742464670.011,-1000.0,-1000.0,-676.758,-1000.0
1742464670.015,-1000.0,62.5,-82.031,-1000.0
1742464670.019,-650.391,993.164,366.699,-579.59
1742464670.035,885.742,986.816,576.172,895.508
1742464670.039,960.449,819.336,128.418,967.285
1742464670.043,-484.375,-562.988,-665.039,-442.871
1742464670.047,-1000.0,-1000.0,-669.922,-1000.0
1742464670.051,-843.262,-364.258,84.961,-829.102
1742464670.055,559.082,960.938,516.113,571.777
1742464670.059,999.512,874.512,-9.277,999.512
1742464670.062,-338.867,-554.688,-812.5,-297.363
1742464670.066,-1000.0,-1000.0,-777.832,-1000.0
1742464670.07,-930.664,-756.348,-328.613,-930.664
1742464670.074,276.367,673.828,83.984,288.086
1742464670.078,999.512,999.512,-144.043,999.512
1742464670.035,885.742,986.816,576.172,895.508
1742464670.039,960.449,819.336,128.418,967.285
1742464670.043,-484.375,-562.988,-665.039,-442.871
1742464670.047,-1000.0,-1000.0,-669.922,-1000.0
1742464670.051,-843.262,-364.258,84.961,-829.102
1742464670.055,559.082,960.938,516.113,571.777
1742464670.059,999.512,874.512,-9.277,999.512
1742464670.062,-338.867,-554.688,-812.5,-297.363
1742464670.066,-1000.0,-1000.0,-777.832,-1000.0
1742464670.07,-930.664,-756.348,-328.613,-930.664
1742464670.074,276.367,673.828,83.984,288.086
1742464670.078,999.512,999.512,-144.043,999.512
1742464670.08,435.059,-453.613,-810.059,401.367
1742464670.084,-986.328,-1000.0,-835.449,-995.605
1742464670.088,-921.387,-19.043,-100.586,-897.949
1742464670.092,617.676,999.512,504.395,637.695
1742464670.096,999.512,527.344,127.441,999.512
1742464670.1,908.203,-783.691,-352.539,908.203
1742464670.104,924.316,592.773,-82.031,931.641
1742464670.107,999.512,923.34,138.184,999.512
1742464670.111,856.934,-807.617,-61.523,904.297
1742464670.115,-597.656,-1000.0,-649.414,-521.484
1742464670.119,-1000.0,-1000.0,-973.145,-1000.0
1742464670.123,-925.781,-639.16,-693.359,-925.781
1742464670.08,435.059,-453.613,-810.059,401.367
1742464670.084,-986.328,-1000.0,-835.449,-995.605
1742464670.088,-921.387,-19.043,-100.586,-897.949
1742464670.092,617.676,999.512,504.395,637.695
1742464670.096,999.512,527.344,127.441,999.512
1742464670.1,908.203,-783.691,-352.539,908.203
1742464670.104,924.316,592.773,-82.031,931.641
1742464670.107,999.512,923.34,138.184,999.512
1742464670.111,856.934,-807.617,-61.523,904.297
1742464670.115,-597.656,-1000.0,-649.414,-521.484
1742464670.119,-1000.0,-1000.0,-973.145,-1000.0
1742464670.123,-925.781,-639.16,-693.359,-925.781
1742464670.126,-1000.0,868.164,-262.695,-1000.0
1742464670.13,-1000.0,72.754,-64.941,-1000.0
1742464670.134,-939.941,-1000.0,-166.992,-942.383
1742464670.138,-1000.0,-676.758,-542.969,-1000.0
1742464670.142,-841.309,712.891,-393.555,-875.0
1742464670.146,546.387,999.512,182.617,506.348
1742464670.15,999.512,978.027,341.309,999.512
1742464670.153,783.691,32.227,-301.27,779.297
1742464670.157,-595.215,-1000.0,-988.77,-600.098
1742464670.161,-1000.0,-912.598,-959.473,-1000.0
1742464670.165,-1000.0,410.645,-455.566,-1000.0
1742464670.169,-649.902,999.512,40.527,-690.43
1742464670.126,-1000.0,868.164,-262.695,-1000.0
1742464670.13,-1000.0,72.754,-64.941,-1000.0
1742464670.134,-939.941,-1000.0,-166.992,-942.383
1742464670.138,-1000.0,-676.758,-542.969,-1000.0
1742464670.142,-841.309,712.891,-393.555,-875.0
1742464670.146,546.387,999.512,182.617,506.348
1742464670.15,999.512,978.027,341.309,999.512
1742464670.153,783.691,32.227,-301.27,779.297
1742464670.157,-595.215,-1000.0,-988.77,-600.098
1742464670.161,-1000.0,-912.598,-959.473,-1000.0
1742464670.165,-1000.0,410.645,-455.566,-1000.0
1742464670.169,-649.902,999.512,40.527,-690.43
1742464670.126,-1000.0,868.164,-262.695,-1000.0
1742464670.13,-1000.0,72.754,-64.941,-1000.0
1742464670.134,-939.941,-1000.0,-166.992,-942.383
1742464670.138,-1000.0,-676.758,-542.969,-1000.0
1742464670.142,-841.309,712.891,-393.555,-875.0
1742464670.146,546.387,999.512,182.617,506.348
1742464670.15,999.512,978.027,341.309,999.512
1742464670.153,783.691,32.227,-301.27,779.297
1742464670.157,-595.215,-1000.0,-988.77,-600.098
1742464670.161,-1000.0,-912.598,-959.473,-1000.0
1742464670.165,-1000.0,410.645,-455.566,-1000.0
1742464670.169,-649.902,999.512,40.527,-690.43
1742464670.17,955.078,881.348,106.934,916.016
1742464670.174,751.465,-319.336,-622.07,655.273
1742464670.178,-935.059,-1000.0,-763.672,-984.863
1742464670.182,-931.152,-541.016,68.848,-912.109
1742464670.186,567.383,806.641,794.434,557.617
1742464670.19,999.512,999.512,852.051,999.512
1742464670.194,746.094,-334.473,34.18,713.379
1742464670.197,-578.125,-1000.0,-546.875,-614.258
1742464670.201,-1000.0,-942.383,-112.793,-1000.0
1742464670.205,-937.5,-922.363,385.254,-954.102
1742464670.209,234.375,492.188,787.598,188.477
1742464670.213,999.512,999.512,521.973,999.512
1742464670.17,955.078,881.348,106.934,916.016
1742464670.174,751.465,-319.336,-622.07,655.273
1742464670.178,-935.059,-1000.0,-763.672,-984.863
1742464670.182,-931.152,-541.016,68.848,-912.109
1742464670.186,567.383,806.641,794.434,557.617
1742464670.19,999.512,999.512,852.051,999.512
1742464670.194,746.094,-334.473,34.18,713.379
1742464670.197,-578.125,-1000.0,-546.875,-614.258
1742464670.201,-1000.0,-942.383,-112.793,-1000.0
1742464670.205,-937.5,-922.363,385.254,-954.102
1742464670.209,234.375,492.188,787.598,188.477
1742464670.213,999.512,999.512,521.973,999.512
1742464670.215,792.969,-318.848,-194.824,725.586
1742464670.219,-565.918,-1000.0,-285.156,-632.812
1742464670.223,-1000.0,-798.828,57.129,-1000.0
1742464670.227,75.195,563.965,507.812,33.203
1742464670.231,982.91,999.512,167.969,962.891
1742464670.235,992.188,937.988,-413.574,999.512
1742464670.239,812.012,-125.488,-444.824,776.367
1742464670.242,-633.789,-1000.0,-550.293,-661.133
1742464670.246,-1000.0,-969.238,-287.598,-1000.0
1742464670.25,-926.758,-1000.0,-321.777,-928.711
1742464670.254,-1000.0,463.867,-532.227,-1000.0
1742464670.258,-942.383,999.512,-154.785,-942.383
1742464670.215,792.969,-318.848,-194.824,725.586
1742464670.219,-565.918,-1000.0,-285.156,-632.812
1742464670.223,-1000.0,-798.828,57.129,-1000.0
1742464670.227,75.195,563.965,507.812,33.203
1742464670.231,982.91,999.512,167.969,962.891
1742464670.235,992.188,937.988,-413.574,999.512
1742464670.239,812.012,-125.488,-444.824,776.367
1742464670.242,-633.789,-1000.0,-550.293,-661.133
1742464670.246,-1000.0,-969.238,-287.598,-1000.0
1742464670.25,-926.758,-1000.0,-321.777,-928.711
1742464670.254,-1000.0,463.867,-532.227,-1000.0
1742464670.258,-942.383,999.512,-154.785,-942.383
1742464670.26,-1000.0,-781.25,10.742,-1000.0
1742464670.264,-891.113,-937.988,168.945,-891.113
1742464670.268,563.965,693.848,282.227,564.453
1742464670.272,999.512,999.512,-320.312,999.512
1742464670.276,909.18,805.176,-573.242,909.668
1742464670.28,912.598,995.117,-279.297,917.969
1742464670.284,999.512,852.539,20.996,999.512
1742464670.287,702.148,-541.992,-252.93,770.02
1742464670.291,-790.527,-1000.0,-947.754,-717.285
1742464670.295,-1000.0,-862.793,-903.32,-1000.0
1742464670.299,-986.816,482.91,-306.641,-987.793
1742464670.303,-893.555,999.512,-49.805,-878.418
1742464670.26,-1000.0,-781.25,10.742,-1000.0
1742464670.264,-891.113,-937.988,168.945,-891.113
1742464670.268,563.965,693.848,282.227,564.453
1742464670.272,999.512,999.512,-320.312,999.512
1742464670.276,909.18,805.176,-573.242,909.668
1742464670.28,912.598,995.117,-279.297,917.969
1742464670.284,999.512,852.539,20.996,999.512
1742464670.287,702.148,-541.992,-252.93,770.02
1742464670.291,-790.527,-1000.0,-947.754,-717.285
1742464670.295,-1000.0,-862.793,-903.32,-1000.0
1742464670.299,-986.816,482.91,-306.641,-987.793
1742464670.303,-893.555,999.512,-49.805,-878.418
1742464670.306,491.211,924.316,-126.465,520.996
1742464670.31,999.512,918.945,-300.781,999.512
1742464670.314,543.457,-426.758,-582.52,465.82
1742464670.318,-908.203,-1000.0,-453.613,-919.922
1742464670.322,-988.281,-858.398,267.578,-997.559
1742464670.326,612.793,628.418,896.484,583.008
1742464670.33,999.512,964.844,475.586,999.512
1742464670.333,-344.727,-640.137,-401.367,-364.258
1742464670.337,-1000.0,-1000.0,-240.723,-1000.0
1742464670.341,-869.629,-187.5,348.145,-861.328
1742464670.345,585.449,999.512,518.066,596.68
1742464670.349,999.512,881.348,-126.953,999.512
1742464670.306,491.211,924.316,-126.465,520.996
1742464670.31,999.512,918.945,-300.781,999.512
1742464670.314,543.457,-426.758,-582.52,465.82
1742464670.318,-908.203,-1000.0,-453.613,-919.922
1742464670.322,-988.281,-858.398,267.578,-997.559
1742464670.326,612.793,628.418,896.484,583.008
1742464670.33,999.512,964.844,475.586,999.512
1742464670.333,-344.727,-640.137,-401.367,-364.258
1742464670.337,-1000.0,-1000.0,-240.723,-1000.0
1742464670.341,-869.629,-187.5,348.145,-861.328
1742464670.345,585.449,999.512,518.066,596.68
1742464670.349,999.512,881.348,-126.953,999.512
1742464670.35,-488.281,-702.637,-915.527,-489.746
1742464670.354,-1000.0,-996.582,-832.52,-1000.0
1742464670.358,-817.383,534.18,-133.789,-835.449
1742464670.362,551.758,999.512,500.488,524.902
1742464670.366,999.512,652.344,159.18,999.512
1742464670.37,904.297,-490.234,-280.762,902.344
1742464670.374,937.5,520.996,125.0,945.801
1742464670.377,987.305,-88.379,124.512,969.727
1742464670.381,949.707,-1000.0,1.953,993.652
1742464670.385,-450.684,-928.223,-398.438,-347.168
1742464670.389,-1000.0,-1000.0,-705.566,-1000.0
1742464670.393,-968.75,299.316,-143.066,-968.75
1742464670.35,-488.281,-702.637,-915.527,-489.746
1742464670.354,-1000.0,-996.582,-832.52,-1000.0
1742464670.358,-817.383,534.18,-133.789,-835.449
1742464670.362,551.758,999.512,500.488,524.902
1742464670.366,999.512,652.344,159.18,999.512
1742464670.37,904.297,-490.234,-280.762,902.344
1742464670.374,937.5,520.996,125.0,945.801
1742464670.377,987.305,-88.379,124.512,969.727
1742464670.381,949.707,-1000.0,1.953,993.652
1742464670.385,-450.684,-928.223,-398.438,-347.168
1742464670.389,-1000.0,-1000.0,-705.566,-1000.0
1742464670.393,-968.75,299.316,-143.066,-968.75
1742464670.41,-924.316,999.512,315.43,-930.664
1742464670.414,445.312,919.434,611.328,421.387
1742464670.418,999.512,971.191,489.258,999.512
1742464670.422,851.074,-470.703,-77.148,793.457
1742464670.426,-656.25,-1000.0,-241.211,-712.891
1742464670.43,-933.105,307.129,417.969,-895.508
1742464670.434,850.586,999.512,985.352,859.375
1742464670.437,930.664,610.352,501.465,929.199
1742464670.441,-679.199,-843.75,-610.352,-671.875
1742464670.445,-1000.0,-1000.0,-638.672,-1000.0
1742464670.449,-946.777,510.742,107.91,-944.336
1742464670.453,-1000.0,999.512,320.312,-1000.0
1742464670.41,-924.316,999.512,315.43,-930.664
1742464670.414,445.312,919.434,611.328,421.387
1742464670.418,999.512,971.191,489.258,999.512
1742464670.422,851.074,-470.703,-77.148,793.457
1742464670.426,-656.25,-1000.0,-241.211,-712.891
1742464670.43,-933.105,307.129,417.969,-895.508
1742464670.434,850.586,999.512,985.352,859.375
1742464670.437,930.664,610.352,501.465,929.199
1742464670.441,-679.199,-843.75,-610.352,-671.875
1742464670.445,-1000.0,-1000.0,-638.672,-1000.0
1742464670.449,-946.777,510.742,107.91,-944.336
1742464670.453,-1000.0,999.512,320.312,-1000.0
1742464670.455,400.879,999.512,393.066,385.742
1742464670.459,999.512,247.07,2.441,999.512
1742464670.463,910.645,-860.352,-78.125,912.109
1742464670.467,909.668,536.133,585.938,915.039
1742464670.471,999.512,999.512,728.027,999.512
1742464670.475,723.633,-116.211,255.859,794.922
1742464670.479,-677.246,-1000.0,-327.148,-594.238
1742464670.482,-1000.0,-1000.0,-320.312,-1000.0
1742464670.486,-834.961,-487.793,192.871,-824.707
1742464670.49,508.301,993.652,633.301,516.602
1742464670.494,999.512,771.484,494.141,999.512
1742464670.498,-90.82,-701.172,-418.945,-64.453
1742464670.455,400.879,999.512,393.066,385.742
1742464670.459,999.512,247.07,2.441,999.512
1742464670.463,910.645,-860.352,-78.125,912.109
1742464670.467,909.668,536.133,585.938,915.039
1742464670.471,999.512,999.512,728.027,999.512
1742464670.475,723.633,-116.211,255.859,794.922
1742464670.479,-677.246,-1000.0,-327.148,-594.238
1742464670.482,-1000.0,-1000.0,-320.312,-1000.0
1742464670.486,-834.961,-487.793,192.871,-824.707
1742464670.49,508.301,993.652,633.301,516.602
1742464670.494,999.512,771.484,494.141,999.512
1742464670.498,-90.82,-701.172,-418.945,-64.453
1742464670.5,-1000.0,-1000.0,-823.73,-1000.0
1742464670.504,-1000.0,-269.043,-218.262,-1000.0
1742464670.508,-924.805,849.609,270.02,-893.555
1742464670.512,619.141,999.512,575.684,645.02
1742464670.516,998.047,547.363,25.391,999.512
1742464670.52,-650.879,-951.172,-663.086,-637.207
1742464670.524,-1000.0,-415.039,-93.75,-1000.0
1742464670.527,217.773,999.512,585.938,210.449
1742464670.531,999.512,909.18,615.723,999.512
1742464670.535,960.449,-552.734,105.469,973.145
1742464670.539,761.719,-1000.0,-194.824,660.645
1742464670.543,-584.961,-951.172,-144.531,-655.273
1742464670.5,-1000.0,-1000.0,-823.73,-1000.0
1742464670.504,-1000.0,-269.043,-218.262,-1000.0
1742464670.508,-924.805,849.609,270.02,-893.555
1742464670.512,619.141,999.512,575.684,645.02
1742464670.516,998.047,547.363,25.391,999.512
1742464670.52,-650.879,-951.172,-663.086,-637.207
1742464670.524,-1000.0,-415.039,-93.75,-1000.0
1742464670.527,217.773,999.512,585.938,210.449
1742464670.531,999.512,909.18,615.723,999.512
1742464670.535,960.449,-552.734,105.469,973.145
1742464670.539,761.719,-1000.0,-194.824,660.645
1742464670.543,-584.961,-951.172,-144.531,-655.273
1742464670.545,-1000.0,-975.098,146.973,-1000.0
1742464670.549,-55.176,350.586,629.883,-50.293
1742464670.553,999.512,999.512,551.27,999.512
1742464670.557,943.359,267.09,20.508,944.336
1742464670.561,960.938,-832.031,-47.363,963.867
1742464670.565,899.414,504.395,315.918,903.809
1742464670.569,999.512,999.512,729.98,999.512
1742464670.572,588.379,-51.27,229.492,710.938
1742464670.576,-879.395,-1000.0,-855.957,-767.09
1742464670.58,-982.422,-854.492,-629.395,-1000.0
1742464670.584,-1000.0,504.395,55.664,-1000.0
1742464670.588,-597.656,999.512,333.984,-429.199
1742464670.545,-1000.0,-975.098,146.973,-1000.0
1742464670.549,-55.176,350.586,629.883,-50.293
1742464670.553,999.512,999.512,551.27,999.512
1742464670.557,943.359,267.09,20.508,944.336
1742464670.561,960.938,-832.031,-47.363,963.867
1742464670.565,899.414,504.395,315.918,903.809
1742464670.569,999.512,999.512,729.98,999.512
1742464670.572,588.379,-51.27,229.492,710.938
1742464670.576,-879.395,-1000.0,-855.957,-767.09
1742464670.58,-982.422,-854.492,-629.395,-1000.0
1742464670.584,-1000.0,504.395,55.664,-1000.0
1742464670.588,-597.656,999.512,333.984,-429.199
1742464670.62,936.523,782.715,265.137,991.699
1742464670.624,-42.48,-495.117,-491.699,-5.859
1742464670.628,-1000.0,-1000.0,-495.605,-1000.0
1742464670.632,-839.355,-688.477,-21.484,-870.605
1742464670.636,452.637,622.07,440.918,426.27
1742464670.64,999.512,999.512,522.949,999.512
1742464670.644,693.359,173.34,-223.633,701.66
1742464670.647,-616.699,-958.984,-800.293,-607.91
1742464670.651,-1000.0,-1000.0,-420.41,-1000.0
1742464670.655,-876.953,-63.477,225.098,-896.484
1742464670.659,589.844,999.512,468.75,564.941
1742464670.663,999.512,746.582,-130.859,999.512
1742464670.62,936.523,782.715,265.137,991.699
1742464670.624,-42.48,-495.117,-491.699,-5.859
1742464670.628,-1000.0,-1000.0,-495.605,-1000.0
1742464670.632,-839.355,-688.477,-21.484,-870.605
1742464670.636,452.637,622.07,440.918,426.27
1742464670.64,999.512,999.512,522.949,999.512
1742464670.644,693.359,173.34,-223.633,701.66
1742464670.647,-616.699,-958.984,-800.293,-607.91
1742464670.651,-1000.0,-1000.0,-420.41,-1000.0
1742464670.655,-876.953,-63.477,225.098,-896.484
1742464670.659,589.844,999.512,468.75,564.941
1742464670.663,999.512,746.582,-130.859,999.512
1742464670.651,-738.77,-901.367,-721.68,-721.68
1742464670.655,-1000.0,-827.637,-1.465,-1000.0
1742464670.659,251.465,308.594,277.344,102.539
1742464670.663,-515.137,-699.219,-757.812,-536.133
1742464670.667,-1000.0,-1000.0,-703.125,-1000.0
1742464670.671,-919.434,-47.852,-111.816,-927.246
1742464670.675,-1000.0,815.918,54.199,-1000.0
1742464670.678,-934.57,-671.387,-692.383,-942.383
1742464670.682,-1000.0,-1000.0,-1000.0,-1000.0
1742464670.686,-770.02,194.824,-630.371,-872.559
1742464670.69,627.441,999.512,169.434,508.301
1742464670.694,999.512,582.031,326.172,999.512
1742464670.651,-738.77,-901.367,-721.68,-721.68
1742464670.655,-1000.0,-827.637,-1.465,-1000.0
1742464670.659,251.465,308.594,277.344,102.539
1742464670.663,-515.137,-699.219,-757.812,-536.133
1742464670.667,-1000.0,-1000.0,-703.125,-1000.0
1742464670.671,-919.434,-47.852,-111.816,-927.246
1742464670.675,-1000.0,815.918,54.199,-1000.0
1742464670.678,-934.57,-671.387,-692.383,-942.383
1742464670.682,-1000.0,-1000.0,-1000.0,-1000.0
1742464670.686,-770.02,194.824,-630.371,-872.559
1742464670.69,627.441,999.512,169.434,508.301
1742464670.694,999.512,582.031,326.172,999.512
1742464670.696,820.801,-397.949,-311.523,794.922
1742464670.7,-578.125,-1000.0,-962.402,-568.848
1742464670.704,-1000.0,-820.801,-707.52,-1000.0
1742464670.708,286.133,530.273,173.34,104.492
1742464670.712,999.512,999.512,470.215,999.512
1742464670.716,799.805,674.316,-54.688,830.078
1742464670.72,-566.406,-622.559,-863.77,-579.102
1742464670.723,-1000.0,-1000.0,-1000.0,-1000.0
1742464670.727,-1000.0,-454.59,-524.414,-1000.0
1742464670.731,-235.84,875.488,67.383,-499.023
1742464670.735,999.512,999.512,93.262,999.512
1742464670.739,360.352,-520.02,-658.691,250.488
1742464670.696,820.801,-397.949,-311.523,794.922
1742464670.7,-578.125,-1000.0,-962.402,-568.848
1742464670.704,-1000.0,-820.801,-707.52,-1000.0
1742464670.708,286.133,530.273,173.34,104.492
1742464670.712,999.512,999.512,470.215,999.512
1742464670.716,799.805,674.316,-54.688,830.078
1742464670.72,-566.406,-622.559,-863.77,-579.102
1742464670.723,-1000.0,-1000.0,-1000.0,-1000.0
1742464670.727,-1000.0,-454.59,-524.414,-1000.0
1742464670.731,-235.84,875.488,67.383,-499.023
1742464670.735,999.512,999.512,93.262,999.512
1742464670.739,360.352,-520.02,-658.691,250.488
1742464670.74,-1000.0,-1000.0,-589.844,-1000.0
1742464670.744,-419.922,574.219,336.914,-654.297
1742464670.748,901.367,999.512,575.195,739.258
1742464670.752,999.512,-366.699,98.145,999.512
1742464670.756,812.012,284.18,-388.672,778.809
1742464670.76,-585.449,-511.23,-735.84,-598.145
1742464670.764,-1000.0,-1000.0,-296.875,-1000.0
1742464670.767,-941.895,683.105,162.598,-937.5
1742464670.771,-958.496,-383.301,-207.52,-976.074
1742464670.775,-1000.0,-1000.0,-645.508,-1000.0
1742464670.779,-889.648,411.133,-351.074,-1000.0
1742464670.783,564.941,999.512,246.582,343.75
1742464670.74,-1000.0,-1000.0,-589.844,-1000.0
1742464670.744,-419.922,574.219,336.914,-654.297
1742464670.748,901.367,999.512,575.195,739.258
1742464670.752,999.512,-366.699,98.145,999.512
1742464670.756,812.012,284.18,-388.672,778.809
1742464670.76,-585.449,-511.23,-735.84,-598.145
1742464670.764,-1000.0,-1000.0,-296.875,-1000.0
1742464670.767,-941.895,683.105,162.598,-937.5
1742464670.771,-958.496,-383.301,-207.52,-976.074
1742464670.775,-1000.0,-1000.0,-645.508,-1000.0
1742464670.779,-889.648,411.133,-351.074,-1000.0
1742464670.783,564.941,999.512,246.582,343.75
1742464670.787,999.512,982.422,467.773,999.512
1742464670.791,995.605,679.688,259.766,986.328
1742464670.795,320.801,-794.434,-398.926,177.734
1742464670.799,-1000.0,-1000.0,-653.32,-1000.0
1742464670.803,-999.023,273.926,52.734,-1000.0
1742464670.807,474.609,999.512,854.004,394.531
1742464670.811,999.512,792.969,749.023,999.512
1742464670.814,-376.465,-543.945,-592.773,-399.414
1742464670.818,-1000.0,-1000.0,-1000.0,-1000.0
1742464670.822,-932.617,-19.043,-236.328,-932.129
1742464670.826,-1000.0,874.023,100.586,-1000.0
1742464670.83,-959.473,-554.199,-342.285,-1000.0
1742464670.83,-1000.0,-1000.0,-850.098,-944.336
1742464670.834,-996.094,-464.355,-954.102,-1000.0
1742464670.838,336.426,752.93,-357.422,-316.895
1742464670.842,999.512,999.512,196.777,970.703
1742464670.846,976.562,644.531,68.359,999.512
1742464670.85,-130.371,-710.938,-685.547,-306.152
1742464670.854,-1000.0,-1000.0,-1000.0,-1000.0
1742464670.857,-948.242,-1000.0,-944.824,-939.453
1742464670.861,-1000.0,249.512,-496.094,-1000.0
1742464670.865,-944.824,999.512,-302.246,-985.84
1742464670.869,-1000.0,-701.172,-778.809,-967.285
1742464670.873,-893.066,-939.941,-941.895,-1000.0
1742464670.83,-1000.0,-1000.0,-850.098,-944.336
1742464670.834,-996.094,-464.355,-954.102,-1000.0
1742464670.838,336.426,752.93,-357.422,-316.895
1742464670.842,999.512,999.512,196.777,970.703
1742464670.846,976.562,644.531,68.359,999.512
1742464670.85,-130.371,-710.938,-685.547,-306.152
1742464670.854,-1000.0,-1000.0,-1000.0,-1000.0
1742464670.857,-948.242,-1000.0,-944.824,-939.453
1742464670.861,-1000.0,249.512,-496.094,-1000.0
1742464670.865,-944.824,999.512,-302.246,-985.84
1742464670.869,-1000.0,-701.172,-778.809,-967.285
1742464670.873,-893.066,-939.941,-941.895,-1000.0
1742464670.878,542.48,646.484,-111.328,-39.551
1742464670.882,999.512,999.512,217.285,999.512
1742464670.886,975.586,540.039,-48.34,981.934
1742464670.89,83.008,-844.727,-529.785,-110.352
1742464670.894,-1000.0,-1000.0,-1000.0,-1000.0
1742464670.898,-833.008,395.508,-210.449,-841.309
1742464670.902,609.863,999.512,773.438,569.824
1742464670.905,999.512,729.492,642.578,999.512
1742464670.909,892.578,-824.219,212.891,892.578
1742464670.913,982.422,-893.555,-21.484,982.91
1742464670.917,966.309,765.625,175.781,966.797
1742464670.921,981.934,-437.5,470.215,984.375
1742464670.878,542.48,646.484,-111.328,-39.551
1742464670.882,999.512,999.512,217.285,999.512
1742464670.886,975.586,540.039,-48.34,981.934
1742464670.89,83.008,-844.727,-529.785,-110.352
1742464670.894,-1000.0,-1000.0,-1000.0,-1000.0
1742464670.898,-833.008,395.508,-210.449,-841.309
1742464670.902,609.863,999.512,773.438,569.824
1742464670.905,999.512,729.492,642.578,999.512
1742464670.909,892.578,-824.219,212.891,892.578
1742464670.913,982.422,-893.555,-21.484,982.91
1742464670.917,966.309,765.625,175.781,966.797
1742464670.921,981.934,-437.5,470.215,984.375
1742464670.935,893.066,-547.852,806.641,899.414
1742464670.939,999.512,999.512,914.062,999.512
1742464670.943,651.367,-78.125,251.953,824.707
1742464670.947,-977.539,-1000.0,-105.469,-788.086
1742464670.951,-425.781,435.547,653.809,-201.66
1742464670.955,996.582,999.512,999.512,999.512
1742464670.959,999.512,590.332,871.094,999.512
1742464670.962,-86.426,-731.445,202.148,657.715
1742464670.966,-1000.0,-1000.0,1.465,-918.457
1742464670.97,-749.512,-223.145,513.672,-767.09
1742464670.974,621.094,999.512,905.273,749.512
1742464670.978,999.512,749.023,745.605,999.512
1742464670.935,893.066,-547.852,806.641,899.414
1742464670.939,999.512,999.512,914.062,999.512
1742464670.943,651.367,-78.125,251.953,824.707
1742464670.947,-977.539,-1000.0,-105.469,-788.086
1742464670.951,-425.781,435.547,653.809,-201.66
1742464670.955,996.582,999.512,999.512,999.512
1742464670.959,999.512,590.332,871.094,999.512
1742464670.962,-86.426,-731.445,202.148,657.715
1742464670.966,-1000.0,-1000.0,1.465,-918.457
1742464670.97,-749.512,-223.145,513.672,-767.09
1742464670.974,621.094,999.512,905.273,749.512
1742464670.978,999.512,749.023,745.605,999.512
1742464670.98,319.824,-609.375,7.324,805.176
1742464670.984,-1000.0,-1000.0,-371.094,-687.5
1742464670.988,-900.879,-636.719,84.961,-998.047
1742464670.992,579.102,667.48,763.184,642.578
1742464670.996,999.512,999.512,892.09,999.512
1742464671.0,950.195,846.68,453.613,994.141
1742464671.004,-114.258,-394.043,-220.215,385.254
1742464671.007,-1000.0,-1000.0,-378.418,-1000.0
1742464671.011,-974.121,-826.66,196.777,-999.512
1742464671.015,454.102,657.227,727.051,531.738
1742464671.019,999.512,976.562,259.766,999.512
1742464671.023,-520.996,-748.535,-662.598,-431.152
1742464670.98,319.824,-609.375,7.324,805.176
1742464670.984,-1000.0,-1000.0,-371.094,-687.5
1742464670.988,-900.879,-636.719,84.961,-998.047
1742464670.992,579.102,667.48,763.184,642.578
1742464670.996,999.512,999.512,892.09,999.512
1742464671.0,950.195,846.68,453.613,994.141
1742464671.004,-114.258,-394.043,-220.215,385.254
1742464671.007,-1000.0,-1000.0,-378.418,-1000.0
1742464671.011,-974.121,-826.66,196.777,-999.512
1742464671.015,454.102,657.227,727.051,531.738
1742464671.019,999.512,976.562,259.766,999.512
1742464671.023,-520.996,-748.535,-662.598,-431.152
1742464671.04,-1000.0,-1000.0,-402.832,-1000.0
1742464671.044,-302.246,540.039,455.566,-227.051
1742464671.048,857.91,999.512,828.125,883.789
1742464671.052,999.512,999.512,480.957,999.512
1742464671.056,624.512,225.098,-164.062,683.105
1742464671.06,-796.387,-962.891,-338.867,-746.094
1742464671.064,-1000.0,-830.566,49.316,-1000.0
1742464671.067,-950.195,-705.566,120.117,-944.824
1742464671.071,-965.82,642.09,76.172,-972.168
1742464671.075,-1000.0,-127.441,-338.867,-1000.0
1742464671.079,-933.105,-1000.0,-326.172,-972.168
1742464671.083,488.77,606.445,316.406,408.691
1742464671.04,-1000.0,-1000.0,-402.832,-1000.0
1742464671.044,-302.246,540.039,455.566,-227.051
1742464671.048,857.91,999.512,828.125,883.789
1742464671.052,999.512,999.512,480.957,999.512
1742464671.056,624.512,225.098,-164.062,683.105
1742464671.06,-796.387,-962.891,-338.867,-746.094
1742464671.064,-1000.0,-830.566,49.316,-1000.0
1742464671.067,-950.195,-705.566,120.117,-944.824
1742464671.071,-965.82,642.09,76.172,-972.168
1742464671.075,-1000.0,-127.441,-338.867,-1000.0
1742464671.079,-933.105,-1000.0,-326.172,-972.168
1742464671.083,488.77,606.445,316.406,408.691
1742464671.071,999.512,999.512,544.922,999.512
1742464671.075,991.211,490.234,203.613,984.375
1742464671.079,214.355,-807.129,-342.285,174.805
1742464671.083,-1000.0,-1000.0,-374.023,-1000.0
1742464671.087,-1000.0,-43.945,301.27,-1000.0
1742464671.091,469.727,999.512,950.195,370.117
1742464671.095,999.512,842.285,898.926,999.512
1742464671.098,-513.184,-570.312,-295.41,-529.785
1742464671.102,-1000.0,-1000.0,-640.625,-1000.0
1742464671.106,-926.758,33.691,169.434,-926.758
1742464671.11,-1000.0,999.512,635.742,-1000.0
1742464671.114,-976.562,-286.133,477.051,-1000.0
1742464671.071,999.512,999.512,544.922,999.512
1742464671.075,991.211,490.234,203.613,984.375
1742464671.079,214.355,-807.129,-342.285,174.805
1742464671.083,-1000.0,-1000.0,-374.023,-1000.0
1742464671.087,-1000.0,-43.945,301.27,-1000.0
1742464671.091,469.727,999.512,950.195,370.117
1742464671.095,999.512,842.285,898.926,999.512
1742464671.098,-513.184,-570.312,-295.41,-529.785
1742464671.102,-1000.0,-1000.0,-640.625,-1000.0
1742464671.106,-926.758,33.691,169.434,-926.758
1742464671.11,-1000.0,999.512,635.742,-1000.0
1742464671.114,-976.562,-286.133,477.051,-1000.0
1742464671.116,-980.469,-1000.0,-80.078,-1000.0
1742464671.12,-1000.0,-247.07,-251.953,-987.305
1742464671.124,140.137,958.984,111.816,-951.172
1742464671.128,999.512,920.41,505.859,-1000.0
1742464671.132,968.262,984.375,856.445,-23.926
1742464671.136,849.121,854.004,533.691,898.438
1742464671.14,-586.914,-548.34,-168.945,-623.047
1742464671.143,-1000.0,-1000.0,-47.363,-1000.0
1742464671.147,-1000.0,-937.5,467.773,-919.434
1742464671.151,-88.867,529.297,708.496,-1000.0
1742464671.155,992.676,996.582,335.449,-965.82
1742464671.159,-718.75,-723.145,-270.996,-988.77
1742464671.116,-980.469,-1000.0,-80.078,-1000.0
1742464671.12,-1000.0,-247.07,-251.953,-987.305
1742464671.124,140.137,958.984,111.816,-951.172
1742464671.128,999.512,920.41,505.859,-1000.0
1742464671.132,968.262,984.375,856.445,-23.926
1742464671.136,849.121,854.004,533.691,898.438
1742464671.14,-586.914,-548.34,-168.945,-623.047
1742464671.143,-1000.0,-1000.0,-47.363,-1000.0
1742464671.147,-1000.0,-937.5,467.773,-919.434
1742464671.151,-88.867,529.297,708.496,-1000.0
1742464671.155,992.676,996.582,335.449,-965.82
1742464671.159,-718.75,-723.145,-270.996,-988.77
1742464671.162,-802.734,-22.949,275.391,-1000.0
1742464671.166,918.457,999.512,955.566,300.293
1742464671.17,999.512,805.176,777.832,999.512
1742464671.174,-450.195,-660.645,-41.016,-543.945
1742464671.178,-1000.0,-1000.0,-542.48,-1000.0
1742464671.182,-928.711,607.422,174.316,-925.781
1742464671.186,-1000.0,956.055,570.312,-1000.0
1742464671.189,-1000.0,-650.391,131.348,-1000.0
1742464671.193,-940.918,-1000.0,-193.848,-1000.0
1742464671.197,-1000.0,-118.652,-385.742,-937.012
1742464671.201,-860.84,991.699,-124.023,-1000.0
1742464671.205,535.645,899.902,329.102,-848.145
1742464671.162,-802.734,-22.949,275.391,-1000.0
1742464671.166,918.457,999.512,955.566,300.293
1742464671.17,999.512,805.176,777.832,999.512
1742464671.174,-450.195,-660.645,-41.016,-543.945
1742464671.178,-1000.0,-1000.0,-542.48,-1000.0
1742464671.182,-928.711,607.422,174.316,-925.781
1742464671.186,-1000.0,956.055,570.312,-1000.0
1742464671.189,-1000.0,-650.391,131.348,-1000.0
1742464671.193,-940.918,-1000.0,-193.848,-1000.0
1742464671.197,-1000.0,-118.652,-385.742,-937.012
1742464671.201,-860.84,991.699,-124.023,-1000.0
1742464671.205,535.645,899.902,329.102,-848.145
1742464671.206,999.512,983.398,765.137,705.078
1742464671.21,848.145,902.832,657.227,993.164
1742464671.214,-490.234,-713.867,-196.289,-614.258
1742464671.218,-1000.0,-884.277,-101.074,-1000.0
1742464671.222,-975.586,729.004,677.246,-916.504
1742464671.226,-967.285,999.512,783.203,-1000.0
1742464671.23,680.664,906.738,687.988,248.535
1742464671.233,417.48,-219.238,-128.906,245.117
1742464671.237,-1000.0,-1000.0,-627.441,-1000.0
1742464671.241,-993.164,-772.949,-51.27,-989.746
1742464671.245,-963.379,537.598,231.934,-973.145
1742464671.249,-1000.0,-296.875,-185.547,-1000.0
1742464671.206,999.512,983.398,765.137,705.078
1742464671.21,848.145,902.832,657.227,993.164
1742464671.214,-490.234,-713.867,-196.289,-614.258
1742464671.218,-1000.0,-884.277,-101.074,-1000.0
1742464671.222,-975.586,729.004,677.246,-916.504
1742464671.226,-967.285,999.512,783.203,-1000.0
1742464671.23,680.664,906.738,687.988,248.535
1742464671.233,417.48,-219.238,-128.906,245.117
1742464671.237,-1000.0,-1000.0,-627.441,-1000.0
1742464671.241,-993.164,-772.949,-51.27,-989.746
1742464671.245,-963.379,537.598,231.934,-973.145
1742464671.249,-1000.0,-296.875,-185.547,-1000.0
1742464671.252,-1000.0,-1000.0,-705.566,-1000.0
1742464671.256,-1000.0,-509.277,-817.871,-1000.0
1742464671.26,-1000.0,920.41,-526.855,-1000.0
1742464671.264,-1000.0,-69.336,-325.684,-1000.0
1742464671.268,-1000.0,-1000.0,-432.617,-1000.0
1742464671.272,-1000.0,485.352,-677.246,-1000.0
1742464671.276,-1000.0,999.512,-749.023,-1000.0
1742464671.279,-923.34,-500.0,-682.617,-1000.0
1742464671.283,-1000.0,-1000.0,-467.773,-1000.0
1742464671.287,-485.352,26.367,-309.57,-1000.0
1742464671.291,999.512,999.512,-656.25,-1000.0
1742464671.295,-314.453,-598.145,-1000.0,-937.012
1742464671.295,-1000.0,-1000.0,-797.852,-1000.0
1742464671.299,660.156,681.152,-124.512,-627.441
1742464671.303,999.512,999.512,18.066,707.031
1742464671.307,945.312,996.094,-304.199,999.512
1742464671.311,856.934,635.742,-597.168,749.023
1742464671.315,-540.039,-729.004,-739.258,-564.453
1742464671.319,-1000.0,-1000.0,-579.102,-1000.0
1742464671.322,-816.406,-662.109,-522.461,-817.871
1742464671.326,547.852,647.461,-301.758,547.852
1742464671.33,999.512,999.512,-727.539,999.512
1742464671.334,891.602,993.164,-762.695,892.09
1742464671.338,981.934,-368.164,-378.906,982.91
1742464671.295,-1000.0,-1000.0,-797.852,-1000.0
1742464671.299,660.156,681.152,-124.512,-627.441
1742464671.303,999.512,999.512,18.066,707.031
1742464671.307,945.312,996.094,-304.199,999.512
1742464671.311,856.934,635.742,-597.168,749.023
1742464671.315,-540.039,-729.004,-739.258,-564.453
1742464671.319,-1000.0,-1000.0,-579.102,-1000.0
1742464671.322,-816.406,-662.109,-522.461,-817.871
1742464671.326,547.852,647.461,-301.758,547.852
1742464671.33,999.512,999.512,-727.539,999.512
1742464671.334,891.602,993.164,-762.695,892.09
1742464671.338,981.934,-368.164,-378.906,982.91
1742464671.355,966.309,-990.723,-133.301,966.797
1742464671.359,966.309,821.777,-105.957,966.797
1742464671.363,966.309,-25.879,-577.637,966.797
1742464671.367,980.469,-1000.0,-537.109,983.887
1742464671.371,895.508,600.586,80.078,905.273
1742464671.375,999.512,999.512,462.891,999.512
1742464671.379,534.18,-231.445,-102.539,796.387
1742464671.382,-823.242,-1000.0,-923.34,-590.332
1742464671.386,-1000.0,-1000.0,-975.586,-1000.0
1742464671.39,-809.57,163.574,-320.801,-756.836
1742464671.394,506.348,999.512,356.934,550.781
1742464671.398,999.512,-164.551,-107.422,999.512
1742464671.355,966.309,-990.723,-133.301,966.797
1742464671.359,966.309,821.777,-105.957,966.797
1742464671.363,966.309,-25.879,-577.637,966.797
1742464671.367,980.469,-1000.0,-537.109,983.887
1742464671.371,895.508,600.586,80.078,905.273
1742464671.375,999.512,999.512,462.891,999.512
1742464671.379,534.18,-231.445,-102.539,796.387
1742464671.382,-823.242,-1000.0,-923.34,-590.332
1742464671.386,-1000.0,-1000.0,-975.586,-1000.0
1742464671.39,-809.57,163.574,-320.801,-756.836
1742464671.394,506.348,999.512,356.934,550.781
1742464671.398,999.512,-164.551,-107.422,999.512
1742464671.401,791.016,-1000.0,-670.41,814.941
1742464671.405,-478.027,-889.16,-680.176,-439.941
1742464671.409,-1000.0,-1000.0,-500.0,-1000.0
1742464671.413,-794.922,-483.887,20.996,-806.641
1742464671.417,648.926,987.305,466.309,634.277
1742464671.421,999.512,841.309,-213.379,999.512
1742464671.425,-494.141,-603.027,-914.551,-492.676
1742464671.428,-1000.0,-1000.0,-939.453,-1000.0
1742464671.432,-936.035,-823.242,-363.77,-933.594
1742464671.436,-978.516,741.211,6.348,-991.211
1742464671.44,-994.141,119.141,-417.48,-971.68
1742464671.444,-1000.0,-1000.0,-656.25,-1000.0
1742464671.401,791.016,-1000.0,-670.41,814.941
1742464671.405,-478.027,-889.16,-680.176,-439.941
1742464671.409,-1000.0,-1000.0,-500.0,-1000.0
1742464671.413,-794.922,-483.887,20.996,-806.641
1742464671.417,648.926,987.305,466.309,634.277
1742464671.421,999.512,841.309,-213.379,999.512
1742464671.425,-494.141,-603.027,-914.551,-492.676
1742464671.428,-1000.0,-1000.0,-939.453,-1000.0
1742464671.432,-936.035,-823.242,-363.77,-933.594
1742464671.436,-978.516,741.211,6.348,-991.211
1742464671.44,-994.141,119.141,-417.48,-971.68
1742464671.444,-1000.0,-1000.0,-656.25,-1000.0
1742464671.445,265.625,512.695,48.828,74.219
1742464671.449,999.512,999.512,485.352,999.512
1742464671.453,940.43,-46.387,-24.414,968.262
1742464671.457,907.715,-1000.0,-770.996,871.094
1742464671.461,-643.066,-1000.0,-997.07,-664.551
1742464671.465,-1000.0,7.812,-519.531,-1000.0
1742464671.469,563.965,999.512,127.93,552.734
1742464671.472,999.512,240.723,118.164,999.512
1742464671.476,891.602,-1000.0,-502.441,892.578
1742464671.48,987.793,-908.691,-826.172,980.957
1742464671.484,938.965,635.742,-487.305,975.586
1742464671.488,953.125,999.512,-88.379,900.879
1742464671.445,265.625,512.695,48.828,74.219
1742464671.449,999.512,999.512,485.352,999.512
1742464671.453,940.43,-46.387,-24.414,968.262
1742464671.457,907.715,-1000.0,-770.996,871.094
1742464671.461,-643.066,-1000.0,-997.07,-664.551
1742464671.465,-1000.0,7.812,-519.531,-1000.0
1742464671.469,563.965,999.512,127.93,552.734
1742464671.472,999.512,240.723,118.164,999.512
1742464671.476,891.602,-1000.0,-502.441,892.578
1742464671.48,987.793,-908.691,-826.172,980.957
1742464671.484,938.965,635.742,-487.305,975.586
1742464671.488,953.125,999.512,-88.379,900.879
1742464671.49,999.512,-407.715,-64.453,999.512
1742464671.494,-153.32,-1000.0,-463.379,482.91
1742464671.498,-1000.0,-824.219,-862.305,-994.141
1742464671.502,-819.824,543.945,-311.523,-917.48
1742464671.506,515.137,999.512,622.559,593.75
1742464671.51,999.512,984.863,833.496,999.512
1742464671.514,825.195,225.098,406.738,963.867
1742464671.517,-408.691,-934.57,-336.426,26.367
1742464671.521,-1000.0,-1000.0,-291.016,-1000.0
1742464671.525,-583.984,-315.918,481.934,-516.602
1742464671.529,798.34,999.512,956.543,874.512
1742464671.533,999.512,-325.195,619.141,999.512
1742464671.49,999.512,-407.715,-64.453,999.512
1742464671.494,-153.32,-1000.0,-463.379,482.91
1742464671.498,-1000.0,-824.219,-862.305,-994.141
1742464671.502,-819.824,543.945,-311.523,-917.48
1742464671.506,515.137,999.512,622.559,593.75
1742464671.51,999.512,984.863,833.496,999.512
1742464671.514,825.195,225.098,406.738,963.867
1742464671.517,-408.691,-934.57,-336.426,26.367
1742464671.521,-1000.0,-1000.0,-291.016,-1000.0
1742464671.525,-583.984,-315.918,481.934,-516.602
1742464671.529,798.34,999.512,956.543,874.512
1742464671.533,999.512,-325.195,619.141,999.512
1742464671.538,904.297,-1000.0,138.184,912.598
1742464671.542,983.398,593.262,373.047,981.934
1742464671.546,966.309,999.512,758.789,966.797
1742464671.55,968.262,-496.094,864.258,966.797
1742464671.554,965.332,-1000.0,872.559,966.797
1742464671.558,911.621,564.453,625.0,966.797
1742464671.562,999.512,999.512,512.695,966.797
1742464671.565,230.469,-368.164,420.898,966.797
1742464671.569,-984.375,-1000.0,435.059,967.285
1742464671.573,-1000.0,-783.691,612.793,967.285
1742464671.577,4.883,708.984,274.414,966.797
1742464671.581,999.512,535.156,-51.27,967.773
1742464671.538,904.297,-1000.0,138.184,912.598
1742464671.542,983.398,593.262,373.047,981.934
1742464671.546,966.309,999.512,758.789,966.797
1742464671.55,968.262,-496.094,864.258,966.797
1742464671.554,965.332,-1000.0,872.559,966.797
1742464671.558,911.621,564.453,625.0,966.797
1742464671.562,999.512,999.512,512.695,966.797
1742464671.565,230.469,-368.164,420.898,966.797
1742464671.569,-984.375,-1000.0,435.059,967.285
1742464671.573,-1000.0,-783.691,612.793,967.285
1742464671.577,4.883,708.984,274.414,966.797
1742464671.581,999.512,535.156,-51.27,967.773
1742464671.538,904.297,-1000.0,138.184,912.598
1742464671.542,983.398,593.262,373.047,981.934
1742464671.546,966.309,999.512,758.789,966.797
1742464671.55,968.262,-496.094,864.258,966.797
1742464671.554,965.332,-1000.0,872.559,966.797
1742464671.558,911.621,564.453,625.0,966.797
1742464671.562,999.512,999.512,512.695,966.797
1742464671.565,230.469,-368.164,420.898,966.797
1742464671.569,-984.375,-1000.0,435.059,967.285
1742464671.573,-1000.0,-783.691,612.793,967.285
1742464671.577,4.883,708.984,274.414,966.797
1742464671.581,999.512,535.156,-51.27,967.773
1742464671.58,-547.363,-1000.0,-11.719,975.586
1742464671.584,-724.121,36.133,429.199,900.879
1742464671.588,999.512,999.512,738.281,999.512
1742464671.592,-34.668,-443.848,14.648,489.258
1742464671.596,-1000.0,-1000.0,-293.457,-1000.0
1742464671.6,-663.574,141.602,368.164,-646.973
1742464671.604,765.137,973.145,817.383,871.582
1742464671.607,999.512,-716.797,440.43,999.512
1742464671.611,905.762,45.41,178.711,908.203
1742464671.615,999.512,999.512,20.996,982.91
1742464671.619,-490.234,-780.273,17.09,966.797
1742464671.623,-1000.0,-1000.0,400.879,967.285
1742464671.58,-547.363,-1000.0,-11.719,975.586
1742464671.584,-724.121,36.133,429.199,900.879
1742464671.588,999.512,999.512,738.281,999.512
1742464671.592,-34.668,-443.848,14.648,489.258
1742464671.596,-1000.0,-1000.0,-293.457,-1000.0
1742464671.6,-663.574,141.602,368.164,-646.973
1742464671.604,765.137,973.145,817.383,871.582
1742464671.607,999.512,-716.797,440.43,999.512
1742464671.611,905.762,45.41,178.711,908.203
1742464671.615,999.512,999.512,20.996,982.91
1742464671.619,-490.234,-780.273,17.09,966.797
1742464671.623,-1000.0,-1000.0,400.879,967.285
1742464671.627,600.098,713.379,938.965,966.797
1742464671.631,999.512,984.375,779.297,966.797
1742464671.635,-272.949,-767.09,482.91,967.285
1742464671.639,-967.773,-944.336,879.883,966.797
1742464671.643,555.176,601.074,971.68,966.797
1742464671.647,999.512,999.512,983.887,966.797
1742464671.651,832.031,708.496,899.414,966.797
1742464671.654,-621.094,-774.414,138.672,966.797
1742464671.658,-1000.0,-1000.0,255.859,966.797
1742464671.662,501.465,667.48,901.367,967.285
1742464671.666,999.512,999.512,998.047,966.797
1742464671.67,481.934,-442.383,617.188,966.797
1742464671.627,600.098,713.379,938.965,966.797
1742464671.631,999.512,984.375,779.297,966.797
1742464671.635,-272.949,-767.09,482.91,967.285
1742464671.639,-967.773,-944.336,879.883,966.797
1742464671.643,555.176,601.074,971.68,966.797
1742464671.647,999.512,999.512,983.887,966.797
1742464671.651,832.031,708.496,899.414,966.797
1742464671.654,-621.094,-774.414,138.672,966.797
1742464671.658,-1000.0,-1000.0,255.859,966.797
1742464671.662,501.465,667.48,901.367,967.285
1742464671.666,999.512,999.512,998.047,966.797
1742464671.67,481.934,-442.383,617.188,966.797
1742464671.671,-955.078,-1000.0,181.641,966.797
1742464671.675,-885.742,-503.418,468.75,966.797
1742464671.679,599.609,735.352,894.531,966.797
1742464671.683,999.512,999.512,999.512,966.797
1742464671.687,757.812,530.762,753.906,966.797
1742464671.691,-536.133,-758.301,97.656,966.797
1742464671.695,-1000.0,-1000.0,46.875,966.797
1742464671.698,-827.637,-819.336,319.824,966.797
1742464671.702,510.254,617.676,854.492,966.797
1742464671.706,999.512,999.512,877.93,967.285
1742464671.71,13.184,-461.914,55.176,966.797
1742464671.714,-1000.0,-1000.0,-302.246,966.797
1742464671.671,-955.078,-1000.0,181.641,966.797
1742464671.675,-885.742,-503.418,468.75,966.797
1742464671.679,599.609,735.352,894.531,966.797
1742464671.683,999.512,999.512,999.512,966.797
1742464671.687,757.812,530.762,753.906,966.797
1742464671.691,-536.133,-758.301,97.656,966.797
1742464671.695,-1000.0,-1000.0,46.875,966.797
1742464671.698,-827.637,-819.336,319.824,966.797
1742464671.702,510.254,617.676,854.492,966.797
1742464671.706,999.512,999.512,877.93,967.285
1742464671.71,13.184,-461.914,55.176,966.797
1742464671.714,-1000.0,-1000.0,-302.246,966.797
1742464671.671,-955.078,-1000.0,181.641,966.797
1742464671.675,-885.742,-503.418,468.75,966.797
1742464671.679,599.609,735.352,894.531,966.797
1742464671.683,999.512,999.512,999.512,966.797
1742464671.687,757.812,530.762,753.906,966.797
1742464671.691,-536.133,-758.301,97.656,966.797
1742464671.695,-1000.0,-1000.0,46.875,966.797
1742464671.698,-827.637,-819.336,319.824,966.797
1742464671.702,510.254,617.676,854.492,966.797
1742464671.706,999.512,999.512,877.93,967.285
1742464671.71,13.184,-461.914,55.176,966.797
1742464671.714,-1000.0,-1000.0,-302.246,966.797
1742464671.718,-734.863,-196.289,195.801,966.797
1742464671.722,836.914,999.512,830.078,966.797
1742464671.726,937.012,140.137,554.199,966.797
1742464671.73,-752.93,-1000.0,-283.691,966.797
1742464671.734,-1000.0,-864.746,-260.254,968.262
1742464671.738,640.625,708.496,494.629,971.191
1742464671.742,999.512,950.195,522.461,907.227
1742464671.745,-609.375,-685.059,-142.578,999.512
1742464671.749,-1000.0,-1000.0,-579.102,386.23
1742464671.753,-905.762,-1000.0,-758.301,-971.68
1742464671.757,-1000.0,-517.09,-440.918,-1000.0
1742464671.761,101.074,910.645,115.234,294.434
1742464671.718,-734.863,-196.289,195.801,966.797
1742464671.722,836.914,999.512,830.078,966.797
1742464671.726,937.012,140.137,554.199,966.797
1742464671.73,-752.93,-1000.0,-283.691,966.797
1742464671.734,-1000.0,-864.746,-260.254,968.262
1742464671.738,640.625,708.496,494.629,971.191
1742464671.742,999.512,950.195,522.461,907.227
1742464671.745,-609.375,-685.059,-142.578,999.512
1742464671.749,-1000.0,-1000.0,-579.102,386.23
1742464671.753,-905.762,-1000.0,-758.301,-971.68
1742464671.757,-1000.0,-517.09,-440.918,-1000.0
1742464671.761,101.074,910.645,115.234,294.434
1742464671.775,999.512,993.164,127.441,999.512
1742464671.779,185.059,-501.953,-645.508,471.191
1742464671.783,-1000.0,-1000.0,-1000.0,-882.812
1742464671.787,-1000.0,325.684,-678.711,-1000.0
1742464671.791,-967.285,999.512,-362.793,-944.824
1742464671.795,-1000.0,-488.77,-567.383,-1000.0
1742464671.799,-945.312,-1000.0,-895.508,-973.633
1742464671.802,-1000.0,-987.305,-1000.0,-983.887
1742464671.806,-896.973,-866.211,-995.605,-1000.0
1742464671.81,455.566,696.289,-506.836,103.027
1742464671.814,999.512,975.098,-281.25,999.512
1742464671.818,634.766,-547.852,-813.965,347.168
1742464671.775,999.512,993.164,127.441,999.512
1742464671.779,185.059,-501.953,-645.508,471.191
1742464671.783,-1000.0,-1000.0,-1000.0,-882.812
1742464671.787,-1000.0,325.684,-678.711,-1000.0
1742464671.791,-967.285,999.512,-362.793,-944.824
1742464671.795,-1000.0,-488.77,-567.383,-1000.0
1742464671.799,-945.312,-1000.0,-895.508,-973.633
1742464671.802,-1000.0,-987.305,-1000.0,-983.887
1742464671.806,-896.973,-866.211,-995.605,-1000.0
1742464671.81,455.566,696.289,-506.836,103.027
1742464671.814,999.512,975.098,-281.25,999.512
1742464671.818,634.766,-547.852,-813.965,347.168
1742464671.821,-860.352,-1000.0,-1000.0,-920.41
1742464671.825,-948.73,-665.039,-822.754,-1000.0
1742464671.829,572.266,627.441,-163.574,33.203
1742464671.833,999.512,999.512,146.973,999.512
1742464671.837,782.227,723.633,-183.105,815.918
1742464671.841,-499.023,-755.371,-755.859,-622.559
1742464671.845,-1000.0,-968.262,-532.715,-1000.0
1742464671.848,-822.266,605.469,-65.43,-1000.0
1742464671.852,508.301,999.512,159.668,-783.691
1742464671.856,999.512,937.988,225.586,769.043
1742464671.86,-3.418,-207.031,-575.195,-49.805
1742464671.864,-1000.0,-1000.0,-996.582,-1000.0
1742464671.821,-860.352,-1000.0,-1000.0,-920.41
1742464671.825,-948.73,-665.039,-822.754,-1000.0
1742464671.829,572.266,627.441,-163.574,33.203
1742464671.833,999.512,999.512,146.973,999.512
1742464671.837,782.227,723.633,-183.105,815.918
1742464671.841,-499.023,-755.371,-755.859,-622.559
1742464671.845,-1000.0,-968.262,-532.715,-1000.0
1742464671.848,-822.266,605.469,-65.43,-1000.0
1742464671.852,508.301,999.512,159.668,-783.691
1742464671.856,999.512,937.988,225.586,769.043
1742464671.86,-3.418,-207.031,-575.195,-49.805
1742464671.864,-1000.0,-1000.0,-996.582,-1000.0
1742464671.821,-860.352,-1000.0,-1000.0,-920.41
1742464671.825,-948.73,-665.039,-822.754,-1000.0
1742464671.829,572.266,627.441,-163.574,33.203
1742464671.833,999.512,999.512,146.973,999.512
1742464671.837,782.227,723.633,-183.105,815.918
1742464671.841,-499.023,-755.371,-755.859,-622.559
1742464671.845,-1000.0,-968.262,-532.715,-1000.0
1742464671.848,-822.266,605.469,-65.43,-1000.0
1742464671.852,508.301,999.512,159.668,-783.691
1742464671.856,999.512,937.988,225.586,769.043
1742464671.86,-3.418,-207.031,-575.195,-49.805
1742464671.864,-1000.0,-1000.0,-996.582,-1000.0
1742464671.865,-975.098,-232.91,-464.355,-934.082
1742464671.869,-980.469,999.512,-135.254,-994.629
1742464671.873,-1000.0,606.934,-405.273,-1000.0
1742464671.877,-945.312,-439.453,-873.535,-1000.0
1742464671.881,-1000.0,356.445,-987.793,-1000.0
1742464671.885,-979.98,-366.699,-735.352,-1000.0
1742464671.889,612.793,479.98,-129.883,-1000.0
1742464671.892,865.234,496.582,-288.574,-1000.0
1742464671.896,-759.766,-1000.0,-929.199,-962.891
1742464671.9,-1000.0,-1000.0,-918.945,-1000.0
1742464671.904,-132.324,291.016,-228.516,-1000.0
1742464671.908,918.457,999.512,400.879,247.07
1742464671.912,999.512,927.734,632.324,999.512
1742464671.916,395.02,-169.434,75.684,172.363
1742464671.92,-943.848,-1000.0,-402.344,-1000.0
1742464671.924,-1000.0,-765.625,129.883,-999.512
1742464671.928,-953.613,562.988,620.117,-967.773
1742464671.932,-1000.0,999.512,744.141,-1000.0
1742464671.936,-942.871,673.34,418.457,-958.984
1742464671.939,-1000.0,-800.293,-204.102,-1000.0
1742464671.943,-878.418,-926.758,103.027,-985.84
1742464671.947,500.488,698.73,836.426,299.316
1742464671.951,999.512,999.512,999.512,999.512
1742464671.955,766.113,-222.656,501.465,740.234
1742464671.912,999.512,927.734,632.324,999.512
1742464671.916,395.02,-169.434,75.684,172.363
1742464671.92,-943.848,-1000.0,-402.344,-1000.0
1742464671.924,-1000.0,-765.625,129.883,-999.512
1742464671.928,-953.613,562.988,620.117,-967.773
1742464671.932,-1000.0,999.512,744.141,-1000.0
1742464671.936,-942.871,673.34,418.457,-958.984
1742464671.939,-1000.0,-800.293,-204.102,-1000.0
1742464671.943,-878.418,-926.758,103.027,-985.84
1742464671.947,500.488,698.73,836.426,299.316
1742464671.951,999.512,999.512,999.512,999.512
1742464671.955,766.113,-222.656,501.465,740.234
1742464671.955,-524.414,-1000.0,-295.898,-569.824
1742464671.959,-1000.0,-803.223,45.898,-1000.0
1742464671.963,-817.871,524.902,751.465,-843.262
1742464671.967,493.164,999.512,979.004,476.074
1742464671.971,999.512,753.906,698.73,999.512
1742464671.975,122.559,-565.43,20.508,25.879
1742464671.979,-948.73,-1000.0,29.785,-963.379
1742464671.982,-1000.0,-939.453,391.113,-1000.0
1742464671.986,-454.59,273.438,782.715,-536.133
1742464671.99,975.586,999.512,844.238,946.289
1742464671.994,877.441,154.297,80.566,861.328
1742464671.998,-647.949,-1000.0,-433.594,-688.965
1742464671.955,-524.414,-1000.0,-295.898,-569.824
1742464671.959,-1000.0,-803.223,45.898,-1000.0
1742464671.963,-817.871,524.902,751.465,-843.262
1742464671.967,493.164,999.512,979.004,476.074
1742464671.971,999.512,753.906,698.73,999.512
1742464671.975,122.559,-565.43,20.508,25.879
1742464671.979,-948.73,-1000.0,29.785,-963.379
1742464671.982,-1000.0,-939.453,391.113,-1000.0
1742464671.986,-454.59,273.438,782.715,-536.133
1742464671.99,975.586,999.512,844.238,946.289
1742464671.994,877.441,154.297,80.566,861.328
1742464671.998,-647.949,-1000.0,-433.594,-688.965
1742464672.045,-1000.0,-952.637,-201.172,-1000.0
1742464672.049,-925.781,568.848,196.289,-927.246
1742464672.053,-1000.0,11.23,-269.531,-1000.0
1742464672.057,-942.383,-1000.0,-989.258,-1000.0
1742464672.061,-1000.0,-413.574,-969.238,-1000.0
1742464672.065,-891.113,846.191,-849.121,-1000.0
1742464672.069,570.801,976.074,-397.949,-1000.0
1742464672.072,999.512,971.191,21.484,-1000.0
1742464672.076,999.512,-155.762,-218.262,-1000.0
1742464672.08,401.855,-1000.0,-564.941,-1000.0
1742464672.084,-1000.0,-1000.0,-998.047,-1000.0
1742464672.088,-424.805,-241.211,-734.375,-1000.0
1742464672.045,-1000.0,-952.637,-201.172,-1000.0
1742464672.049,-925.781,568.848,196.289,-927.246
1742464672.053,-1000.0,11.23,-269.531,-1000.0
1742464672.057,-942.383,-1000.0,-989.258,-1000.0
1742464672.061,-1000.0,-413.574,-969.238,-1000.0
1742464672.065,-891.113,846.191,-849.121,-1000.0
1742464672.069,570.801,976.074,-397.949,-1000.0
1742464672.072,999.512,971.191,21.484,-1000.0
1742464672.076,999.512,-155.762,-218.262,-1000.0
1742464672.08,401.855,-1000.0,-564.941,-1000.0
1742464672.084,-1000.0,-1000.0,-998.047,-1000.0
1742464672.088,-424.805,-241.211,-734.375,-1000.0
1742464672.09,972.168,999.512,15.137,-1000.0
1742464672.094,939.453,98.145,-34.668,-1000.0
1742464672.098,999.512,-1000.0,-267.578,-1000.0
1742464672.102,-90.82,-1000.0,-684.57,-1000.0
1742464672.106,-1000.0,-699.707,-820.801,-1000.0
1742464672.11,319.824,902.344,-128.418,-1000.0
1742464672.114,982.422,353.027,-13.672,-1000.0
1742464672.117,-595.703,-1000.0,-590.332,-1000.0
1742464672.121,-1000.0,-1000.0,-967.773,-1000.0
1742464672.125,-1000.0,-164.062,-937.012,-1000.0
1742464672.129,-428.223,958.984,-612.305,-1000.0
1742464672.133,999.512,999.512,-250.0,-1000.0
1742464672.09,972.168,999.512,15.137,-1000.0
1742464672.094,939.453,98.145,-34.668,-1000.0
1742464672.098,999.512,-1000.0,-267.578,-1000.0
1742464672.102,-90.82,-1000.0,-684.57,-1000.0
1742464672.106,-1000.0,-699.707,-820.801,-1000.0
1742464672.11,319.824,902.344,-128.418,-1000.0
1742464672.114,982.422,353.027,-13.672,-1000.0
1742464672.117,-595.703,-1000.0,-590.332,-1000.0
1742464672.121,-1000.0,-1000.0,-967.773,-1000.0
1742464672.125,-1000.0,-164.062,-937.012,-1000.0
1742464672.129,-428.223,958.984,-612.305,-1000.0
1742464672.133,999.512,999.512,-250.0,-1000.0
1742464672.136,843.262,414.551,-204.59,-1000.0
1742464672.14,-509.277,-883.301,-726.074,-1000.0
1742464672.144,-1000.0,-1000.0,-986.816,-1000.0
1742464672.148,-374.023,-151.367,-505.859,-1000.0
1742464672.152,868.652,974.121,-131.348,-1000.0
1742464672.156,999.512,999.512,-53.223,-1000.0
1742464672.16,176.758,110.84,-521.484,-1000.0
1742464672.163,-983.887,-1000.0,-941.895,-933.105
1742464672.167,-1000.0,-1000.0,-694.336,-1000.0
1742464672.171,-199.219,-182.617,67.383,-317.871
1742464672.175,979.98,999.512,774.902,975.586
1742464672.179,999.512,759.277,313.477,999.512
1742464672.136,843.262,414.551,-204.59,-1000.0
1742464672.14,-509.277,-883.301,-726.074,-1000.0
1742464672.144,-1000.0,-1000.0,-986.816,-1000.0
1742464672.148,-374.023,-151.367,-505.859,-1000.0
1742464672.152,868.652,974.121,-131.348,-1000.0
1742464672.156,999.512,999.512,-53.223,-1000.0
1742464672.16,176.758,110.84,-521.484,-1000.0
1742464672.163,-983.887,-1000.0,-941.895,-933.105
1742464672.167,-1000.0,-1000.0,-694.336,-1000.0
1742464672.171,-199.219,-182.617,67.383,-317.871
1742464672.175,979.98,999.512,774.902,975.586
1742464672.179,999.512,759.277,313.477,999.512
1742464672.181,73.242,-580.566,-430.176,-49.316
1742464672.185,-1000.0,-1000.0,-343.262,-1000.0
1742464672.189,-184.082,28.32,416.016,-381.836
1742464672.193,999.512,999.512,840.332,957.52
1742464672.197,946.777,894.531,547.852,986.328
1742464672.201,938.965,999.512,261.719,922.852
1742464672.205,975.586,34.18,293.457,980.957
1742464672.208,951.66,-1000.0,447.754,957.52
1742464672.212,927.246,-367.188,770.02,919.434
1742464672.216,999.512,999.512,776.367,999.512
1742464672.22,-51.758,-148.438,52.734,26.367
1742464672.224,-1000.0,-1000.0,61.523,-1000.0
1742464672.181,73.242,-580.566,-430.176,-49.316
1742464672.185,-1000.0,-1000.0,-343.262,-1000.0
1742464672.189,-184.082,28.32,416.016,-381.836
1742464672.193,999.512,999.512,840.332,957.52
1742464672.197,946.777,894.531,547.852,986.328
1742464672.201,938.965,999.512,261.719,922.852
1742464672.205,975.586,34.18,293.457,980.957
1742464672.208,951.66,-1000.0,447.754,957.52
1742464672.212,927.246,-367.188,770.02,919.434
1742464672.216,999.512,999.512,776.367,999.512
1742464672.22,-51.758,-148.438,52.734,26.367
1742464672.224,-1000.0,-1000.0,61.523,-1000.0
1742464672.225,-1000.0,-119.629,812.012,-1000.0
1742464672.229,-210.938,999.512,986.816,-174.316
1742464672.233,999.512,862.305,921.875,999.512
1742464672.237,950.195,-670.41,566.406,946.777
1742464672.241,944.824,-408.691,416.992,954.102
1742464672.245,904.297,999.512,778.809,921.875
1742464672.249,999.512,999.512,999.512,999.512
1742464672.252,279.785,23.926,712.891,818.359
1742464672.256,-958.496,-1000.0,-36.133,-477.539
1742464672.26,-1000.0,-1000.0,-305.664,-1000.0
1742464672.264,-435.547,-150.879,262.207,-312.5
1742464672.268,923.828,977.051,915.039,965.82
1742464672.271,994.141,999.512,983.398,977.539
1742464672.275,918.457,287.109,549.805,927.246
1742464672.279,979.98,-1000.0,50.781,978.027
1742464672.283,976.562,-136.23,370.605,966.797
1742464672.287,893.555,999.512,799.805,966.797
1742464672.291,999.512,999.512,941.406,966.797
1742464672.295,427.246,255.859,452.637,966.797
1742464672.298,-994.629,-1000.0,-265.137,967.285
1742464672.302,-1000.0,-737.305,69.336,967.285
1742464672.306,447.266,886.23,801.758,966.797
1742464672.31,948.73,400.391,720.215,967.285
1742464672.314,-575.684,-1000.0,-157.227,967.285
1742464672.271,994.141,999.512,983.398,977.539
1742464672.275,918.457,287.109,549.805,927.246
1742464672.279,979.98,-1000.0,50.781,978.027
1742464672.283,976.562,-136.23,370.605,966.797
1742464672.287,893.555,999.512,799.805,966.797
1742464672.291,999.512,999.512,941.406,966.797
1742464672.295,427.246,255.859,452.637,966.797
1742464672.298,-994.629,-1000.0,-265.137,967.285
1742464672.302,-1000.0,-737.305,69.336,967.285
1742464672.306,447.266,886.23,801.758,966.797
1742464672.31,948.73,400.391,720.215,967.285
1742464672.314,-575.684,-1000.0,-157.227,967.285
1742464672.33,-1000.0,-831.543,-369.141,966.797
1742464672.334,-26.367,537.109,200.684,966.797
1742464672.338,999.512,999.512,667.48,966.797
1742464672.342,932.617,999.512,933.594,966.797
1742464672.346,948.73,-210.449,771.973,966.797
1742464672.35,970.215,3.418,585.449,966.797
1742464672.354,979.98,250.488,607.91,966.797
1742464672.357,893.066,-504.883,694.336,966.797
1742464672.361,999.512,999.512,999.512,966.797
1742464672.365,578.125,291.504,639.648,966.797
1742464672.369,-1000.0,-1000.0,-38.086,966.797
1742464672.373,-432.129,-294.922,333.984,966.797
1742464672.33,-1000.0,-831.543,-369.141,966.797
1742464672.334,-26.367,537.109,200.684,966.797
1742464672.338,999.512,999.512,667.48,966.797
1742464672.342,932.617,999.512,933.594,966.797
1742464672.346,948.73,-210.449,771.973,966.797
1742464672.35,970.215,3.418,585.449,966.797
1742464672.354,979.98,250.488,607.91,966.797
1742464672.357,893.066,-504.883,694.336,966.797
1742464672.361,999.512,999.512,999.512,966.797
1742464672.365,578.125,291.504,639.648,966.797
1742464672.369,-1000.0,-1000.0,-38.086,966.797
1742464672.373,-432.129,-294.922,333.984,966.797
1742464672.361,999.512,999.512,968.75,966.797
1742464672.365,917.48,368.164,944.336,966.797
1742464672.369,999.512,-938.477,613.77,967.285
1742464672.373,-43.457,-1000.0,77.637,967.285
1742464672.377,-1000.0,-571.777,-31.25,967.285
1742464672.381,332.52,980.469,489.746,966.797
1742464672.385,999.512,458.008,523.926,966.797
1742464672.388,-153.32,-949.219,-152.344,966.797
1742464672.392,-1000.0,-1000.0,-710.938,966.797
1742464672.396,-992.676,-451.66,-661.133,966.797
1742464672.4,138.672,828.613,-134.766,966.797
1742464672.404,999.512,999.512,161.133,966.797
1742464672.361,999.512,999.512,968.75,966.797
1742464672.365,917.48,368.164,944.336,966.797
1742464672.369,999.512,-938.477,613.77,967.285
1742464672.373,-43.457,-1000.0,77.637,967.285
1742464672.377,-1000.0,-571.777,-31.25,967.285
1742464672.381,332.52,980.469,489.746,966.797
1742464672.385,999.512,458.008,523.926,966.797
1742464672.388,-153.32,-949.219,-152.344,966.797
1742464672.392,-1000.0,-1000.0,-710.938,966.797
1742464672.396,-992.676,-451.66,-661.133,966.797
1742464672.4,138.672,828.613,-134.766,966.797
1742464672.404,999.512,999.512,161.133,966.797
1742464672.42,287.109,161.621,-89.844,967.285
1742464672.424,-1000.0,-1000.0,-715.82,966.797
1742464672.428,-1000.0,-371.582,-757.812,966.797
1742464672.432,257.324,999.512,-215.82,978.516
1742464672.436,999.512,758.301,-229.004,893.555
1742464672.44,999.512,826.66,-533.691,999.512
1742464672.444,222.656,219.238,-812.5,435.059
1742464672.447,-996.094,-1000.0,-1000.0,-913.574
1742464672.451,-1000.0,-1000.0,-826.66,-1000.0
1742464672.455,-190.918,-136.719,-43.945,-85.449
1742464672.459,999.512,997.07,444.824,999.512
1742464672.463,950.195,999.512,-15.137,938.965
1742464672.42,287.109,161.621,-89.844,967.285
1742464672.424,-1000.0,-1000.0,-715.82,966.797
1742464672.428,-1000.0,-371.582,-757.812,966.797
1742464672.432,257.324,999.512,-215.82,978.516
1742464672.436,999.512,758.301,-229.004,893.555
1742464672.44,999.512,826.66,-533.691,999.512
1742464672.444,222.656,219.238,-812.5,435.059
1742464672.447,-996.094,-1000.0,-1000.0,-913.574
1742464672.451,-1000.0,-1000.0,-826.66,-1000.0
1742464672.455,-190.918,-136.719,-43.945,-85.449
1742464672.459,999.512,997.07,444.824,999.512
1742464672.463,950.195,999.512,-15.137,938.965
1742464672.465,938.965,-84.961,-254.395,946.289
1742464672.469,973.145,22.461,159.18,971.68
1742464672.473,966.309,323.73,269.531,966.797
1742464672.477,967.285,-811.523,244.629,967.285
1742464672.481,902.832,569.824,180.664,967.285
1742464672.485,999.512,999.512,-92.773,966.797
1742464672.489,196.289,-25.879,-241.211,966.797
1742464672.492,-1000.0,-1000.0,-223.145,967.285
1742464672.496,-985.84,-1000.0,114.258,966.797
1742464672.5,-973.145,230.957,-131.348,966.797
1742464672.504,-944.824,479.004,-573.242,966.797
1742464672.508,-1000.0,-1000.0,-497.07,966.797
1742464672.465,938.965,-84.961,-254.395,946.289
1742464672.469,973.145,22.461,159.18,971.68
1742464672.473,966.309,323.73,269.531,966.797
1742464672.477,967.285,-811.523,244.629,967.285
1742464672.481,902.832,569.824,180.664,967.285
1742464672.485,999.512,999.512,-92.773,966.797
1742464672.489,196.289,-25.879,-241.211,966.797
1742464672.492,-1000.0,-1000.0,-223.145,967.285
1742464672.496,-985.84,-1000.0,114.258,966.797
1742464672.5,-973.145,230.957,-131.348,966.797
1742464672.504,-944.824,479.004,-573.242,966.797
1742464672.508,-1000.0,-1000.0,-497.07,966.797
1742464672.465,938.965,-84.961,-254.395,946.289
1742464672.469,973.145,22.461,159.18,971.68
1742464672.473,966.309,323.73,269.531,966.797
1742464672.477,967.285,-811.523,244.629,967.285
1742464672.481,902.832,569.824,180.664,967.285
1742464672.485,999.512,999.512,-92.773,966.797
1742464672.489,196.289,-25.879,-241.211,966.797
1742464672.492,-1000.0,-1000.0,-223.145,967.285
1742464672.496,-985.84,-1000.0,114.258,966.797
1742464672.5,-973.145,230.957,-131.348,966.797
1742464672.504,-944.824,479.004,-573.242,966.797
1742464672.508,-1000.0,-1000.0,-497.07,966.797
1742464672.51,-284.668,-229.004,-55.664,966.797
1742464672.514,999.512,999.512,459.961,966.797
1742464672.518,748.047,279.297,147.949,966.797
1742464672.522,-888.672,-1000.0,-182.617,967.285
1742464672.526,-284.18,-197.266,506.836,966.797
1742464672.53,999.512,999.512,965.82,966.797
1742464672.534,974.609,999.512,984.375,966.797
1742464672.537,839.355,202.637,778.809,966.797
1742464672.541,-496.582,-1000.0,-18.066,966.797
1742464672.545,-1000.0,-941.895,-312.012,966.797
1742464672.549,-1000.0,-1000.0,-24.414,966.797
1742464672.553,-278.809,-97.656,528.32,967.285
1742464672.51,-284.668,-229.004,-55.664,966.797
1742464672.514,999.512,999.512,459.961,966.797
1742464672.518,748.047,279.297,147.949,966.797
1742464672.522,-888.672,-1000.0,-182.617,967.285
1742464672.526,-284.18,-197.266,506.836,966.797
1742464672.53,999.512,999.512,965.82,966.797
1742464672.534,974.609,999.512,984.375,966.797
1742464672.537,839.355,202.637,778.809,966.797
1742464672.541,-496.582,-1000.0,-18.066,966.797
1742464672.545,-1000.0,-941.895,-312.012,966.797
1742464672.549,-1000.0,-1000.0,-24.414,966.797
1742464672.553,-278.809,-97.656,528.32,967.285
1742464672.555,999.512,999.512,588.867,967.285
1742464672.559,167.969,0.488,-216.797,966.797
1742464672.563,-1000.0,-1000.0,-483.887,966.797
1742464672.567,-370.605,-118.652,36.621,979.492
1742464672.571,922.852,999.512,450.684,898.438
1742464672.575,999.512,999.512,298.828,999.512
1742464672.579,156.738,187.5,-303.711,582.031
1742464672.582,-1000.0,-1000.0,-773.438,-870.605
1742464672.586,-1000.0,-960.449,-391.113,-1000.0
1742464672.59,56.152,317.871,516.113,365.723
1742464672.594,999.512,999.512,920.898,999.512
1742464672.598,392.09,120.117,167.969,903.809
1742464672.555,999.512,999.512,588.867,967.285
1742464672.559,167.969,0.488,-216.797,966.797
1742464672.563,-1000.0,-1000.0,-483.887,966.797
1742464672.567,-370.605,-118.652,36.621,979.492
1742464672.571,922.852,999.512,450.684,898.438
1742464672.575,999.512,999.512,298.828,999.512
1742464672.579,156.738,187.5,-303.711,582.031
1742464672.582,-1000.0,-1000.0,-773.438,-870.605
1742464672.586,-1000.0,-960.449,-391.113,-1000.0
1742464672.59,56.152,317.871,516.113,365.723
1742464672.594,999.512,999.512,920.898,999.512
1742464672.598,392.09,120.117,167.969,903.809
1742464672.6,-1000.0,-1000.0,-292.48,971.191
1742464672.604,-230.957,-177.734,425.293,967.285
1742464672.608,999.512,999.512,992.188,966.797
1742464672.612,999.512,999.512,974.609,966.797
1742464672.616,356.934,102.051,424.316,966.797
1742464672.62,-1000.0,-1000.0,59.082,966.797
1742464672.624,-67.383,259.277,691.406,966.797
1742464672.627,999.512,999.512,999.512,966.797
1742464672.631,999.512,-349.121,944.824,967.285
1742464672.635,367.676,-1000.0,675.781,967.285
1742464672.639,-1000.0,-1000.0,304.199,967.285
1742464672.643,-353.516,-206.055,624.023,967.285
1742464672.646,999.512,999.512,980.957,967.285
1742464672.65,999.512,676.27,981.934,967.285
1742464672.654,-119.141,-667.969,470.215,966.797
1742464672.658,-1000.0,-1000.0,-102.051,967.285
1742464672.662,-944.336,-185.059,148.438,970.215
1742464672.666,442.871,999.512,774.414,953.613
1742464672.67,962.891,376.465,758.789,928.223
1742464672.673,-604.98,-993.164,-142.09,999.512
1742464672.677,-1000.0,-975.098,-744.629,40.039
1742464672.681,-1000.0,-1000.0,-488.281,-1000.0
1742464672.685,-231.445,-104.004,181.641,-181.152
1742464672.689,999.512,999.512,769.531,999.512
1742464672.646,999.512,999.512,980.957,967.285
1742464672.65,999.512,676.27,981.934,967.285
1742464672.654,-119.141,-667.969,470.215,966.797
1742464672.658,-1000.0,-1000.0,-102.051,967.285
1742464672.662,-944.336,-185.059,148.438,970.215
1742464672.666,442.871,999.512,774.414,953.613
1742464672.67,962.891,376.465,758.789,928.223
1742464672.673,-604.98,-993.164,-142.09,999.512
1742464672.677,-1000.0,-975.098,-744.629,40.039
1742464672.681,-1000.0,-1000.0,-488.281,-1000.0
1742464672.685,-231.445,-104.004,181.641,-181.152
1742464672.689,999.512,999.512,769.531,999.512
1742464672.69,949.707,822.266,628.906,947.266
1742464672.694,938.965,-488.77,33.203,939.941
1742464672.698,973.633,-1000.0,-28.32,974.121
1742464672.702,964.844,46.875,342.285,967.773
1742464672.706,907.227,999.512,448.73,904.297
1742464672.71,999.512,999.512,-20.508,999.512
1742464672.714,146.973,58.105,-718.262,187.012
1742464672.717,-1000.0,-1000.0,-1000.0,-1000.0
1742464672.721,-978.516,-1000.0,-899.902,-983.887
1742464672.725,-976.074,-98.145,-463.379,-973.145
1742464672.729,-1000.0,600.586,-576.172,-1000.0
1742464672.733,-1000.0,-1000.0,-1000.0,-1000.0
1742464672.69,949.707,822.266,628.906,947.266
1742464672.694,938.965,-488.77,33.203,939.941
1742464672.698,973.633,-1000.0,-28.32,974.121
1742464672.702,964.844,46.875,342.285,967.773
1742464672.706,907.227,999.512,448.73,904.297
1742464672.71,999.512,999.512,-20.508,999.512
1742464672.714,146.973,58.105,-718.262,187.012
1742464672.717,-1000.0,-1000.0,-1000.0,-1000.0
1742464672.721,-978.516,-1000.0,-899.902,-983.887
1742464672.725,-976.074,-98.145,-463.379,-973.145
1742464672.729,-1000.0,600.586,-576.172,-1000.0
1742464672.733,-1000.0,-1000.0,-1000.0,-1000.0
1742464672.735,-1000.0,-452.637,-1000.0,-1000.0
1742464672.739,-1000.0,999.512,-870.605,-1000.0
1742464672.743,-1000.0,263.184,-638.672,-1000.0
1742464672.747,-1000.0,-1000.0,-650.879,-1000.0
1742464672.751,-937.988,-32.715,-874.023,-928.711
1742464672.755,-1000.0,999.512,-1000.0,-1000.0
1742464672.759,-207.52,864.746,-690.918,-416.504
1742464672.762,965.332,999.512,-114.258,882.812
1742464672.766,999.512,151.855,-89.844,999.512
1742464672.77,367.676,-1000.0,-632.812,269.043
1742464672.774,-981.934,-937.012,-948.73,-1000.0
1742464672.778,-1000.0,-1000.0,-828.613,-1000.0
1742464672.735,-1000.0,-452.637,-1000.0,-1000.0
1742464672.739,-1000.0,999.512,-870.605,-1000.0
1742464672.743,-1000.0,263.184,-638.672,-1000.0
1742464672.747,-1000.0,-1000.0,-650.879,-1000.0
1742464672.751,-937.988,-32.715,-874.023,-928.711
1742464672.755,-1000.0,999.512,-1000.0,-1000.0
1742464672.759,-207.52,864.746,-690.918,-416.504
1742464672.762,965.332,999.512,-114.258,882.812
1742464672.766,999.512,151.855,-89.844,999.512
1742464672.77,367.676,-1000.0,-632.812,269.043
1742464672.774,-981.934,-937.012,-948.73,-1000.0
1742464672.778,-1000.0,-1000.0,-828.613,-1000.0
1742464673.26,969.238,501.953,114.258,941.895
1742464673.264,-257.812,-790.039,-757.812,-342.285
1742464673.268,-1000.0,-1000.0,-711.426,-1000.0
1742464673.272,-759.277,-78.125,-28.809,-884.277
1742464673.276,497.559,986.328,433.594,301.758
1742464673.28,999.512,999.512,282.227,999.512
1742464673.284,285.645,126.953,-452.148,289.551
1742464673.287,-923.34,-1000.0,-612.793,-922.363
1742464673.291,-1000.0,-1000.0,-76.172,-1000.0
1742464673.295,-319.824,-150.879,474.609,-363.281
1742464673.299,974.121,985.84,535.156,952.637
1742464673.303,973.145,999.512,-31.738,982.422
1742464672.795,-956.055,24.902,-696.289,-962.891
1742464672.799,-1000.0,999.512,-812.988,-1000.0
1742464672.803,-1000.0,-557.129,-1000.0,-1000.0
1742464672.807,-916.016,-707.52,-995.117,-1000.0
1742464672.811,-1000.0,812.012,-1000.0,-1000.0
1742464672.815,-409.668,999.512,-994.629,-1000.0
1742464672.819,811.523,265.137,-966.309,-1000.0
1742464672.822,-505.371,-1000.0,-995.605,-1000.0
1742464672.826,-1000.0,-993.652,-1000.0,-1000.0
1742464672.83,-859.375,-914.551,-991.699,-1000.0
1742464672.834,-1000.0,-1000.0,-1000.0,-1000.0
1742464672.838,-276.855,-10.254,-898.926,-1000.0
1742464672.795,-956.055,24.902,-696.289,-962.891
1742464672.799,-1000.0,999.512,-812.988,-1000.0
1742464672.803,-1000.0,-557.129,-1000.0,-1000.0
1742464672.807,-916.016,-707.52,-995.117,-1000.0
1742464672.811,-1000.0,812.012,-1000.0,-1000.0
1742464672.815,-409.668,999.512,-994.629,-1000.0
1742464672.819,811.523,265.137,-966.309,-1000.0
1742464672.822,-505.371,-1000.0,-995.605,-1000.0
1742464672.826,-1000.0,-993.652,-1000.0,-1000.0
1742464672.83,-859.375,-914.551,-991.699,-1000.0
1742464672.834,-1000.0,-1000.0,-1000.0,-1000.0
1742464672.838,-276.855,-10.254,-898.926,-1000.0
1742464672.795,-956.055,24.902,-696.289,-962.891
1742464672.799,-1000.0,999.512,-812.988,-1000.0
1742464672.803,-1000.0,-557.129,-1000.0,-1000.0
1742464672.807,-916.016,-707.52,-995.117,-1000.0
1742464672.811,-1000.0,812.012,-1000.0,-1000.0
1742464672.815,-409.668,999.512,-994.629,-1000.0
1742464672.819,811.523,265.137,-966.309,-1000.0
1742464672.822,-505.371,-1000.0,-995.605,-1000.0
1742464672.826,-1000.0,-993.652,-1000.0,-1000.0
1742464672.83,-859.375,-914.551,-991.699,-1000.0
1742464672.834,-1000.0,-1000.0,-1000.0,-1000.0
1742464672.838,-276.855,-10.254,-898.926,-1000.0
1742464672.855,999.512,999.512,-878.418,-1000.0
1742464672.859,167.969,-262.207,-1000.0,-1000.0
1742464672.863,-1000.0,-1000.0,-1000.0,-1000.0
1742464672.867,-569.336,-161.621,-893.555,-1000.0
1742464672.871,787.598,984.375,-517.578,-1000.0
1742464672.875,999.512,999.512,-275.879,-1000.0
1742464672.879,135.742,109.863,-608.398,-1000.0
1742464672.882,-988.77,-1000.0,-1000.0,-1000.0
1742464672.886,-1000.0,-1000.0,-847.656,-1000.0
1742464672.89,-235.352,83.984,-275.879,-1000.0
1742464672.894,999.512,938.477,-59.082,-1000.0
1742464672.898,-40.039,-673.828,-751.465,-1000.0
1742464672.855,999.512,999.512,-878.418,-1000.0
1742464672.859,167.969,-262.207,-1000.0,-1000.0
1742464672.863,-1000.0,-1000.0,-1000.0,-1000.0
1742464672.867,-569.336,-161.621,-893.555,-1000.0
1742464672.871,787.598,984.375,-517.578,-1000.0
1742464672.875,999.512,999.512,-275.879,-1000.0
1742464672.879,135.742,109.863,-608.398,-1000.0
1742464672.882,-988.77,-1000.0,-1000.0,-1000.0
1742464672.886,-1000.0,-1000.0,-847.656,-1000.0
1742464672.89,-235.352,83.984,-275.879,-1000.0
1742464672.894,999.512,938.477,-59.082,-1000.0
1742464672.898,-40.039,-673.828,-751.465,-1000.0
1742464672.885,-1000.0,-1000.0,-892.09,-1000.0
1742464672.889,123.535,700.195,-55.176,-1000.0
1742464672.893,999.512,784.668,371.582,-1000.0
1742464672.897,912.109,-956.055,197.754,-1000.0
1742464672.901,959.961,-186.523,-37.598,-1000.0
1742464672.905,980.957,999.512,-7.324,-1000.0
1742464672.909,908.203,999.512,184.082,-1000.0
1742464672.912,999.512,152.344,330.078,-1000.0
1742464672.916,753.906,-1000.0,290.527,-1000.0
1742464672.92,-587.891,-934.57,-83.496,-937.5
1742464672.924,-1000.0,-1000.0,-362.793,-1000.0
1742464672.928,-145.996,-154.785,155.762,-210.938
1742464672.885,-1000.0,-1000.0,-892.09,-1000.0
1742464672.889,123.535,700.195,-55.176,-1000.0
1742464672.893,999.512,784.668,371.582,-1000.0
1742464672.897,912.109,-956.055,197.754,-1000.0
1742464672.901,959.961,-186.523,-37.598,-1000.0
1742464672.905,980.957,999.512,-7.324,-1000.0
1742464672.909,908.203,999.512,184.082,-1000.0
1742464672.912,999.512,152.344,330.078,-1000.0
1742464672.916,753.906,-1000.0,290.527,-1000.0
1742464672.92,-587.891,-934.57,-83.496,-937.5
1742464672.924,-1000.0,-1000.0,-362.793,-1000.0
1742464672.928,-145.996,-154.785,155.762,-210.938
1742464672.885,-1000.0,-1000.0,-892.09,-1000.0
1742464672.889,123.535,700.195,-55.176,-1000.0
1742464672.893,999.512,784.668,371.582,-1000.0
1742464672.897,912.109,-956.055,197.754,-1000.0
1742464672.901,959.961,-186.523,-37.598,-1000.0
1742464672.905,980.957,999.512,-7.324,-1000.0
1742464672.909,908.203,999.512,184.082,-1000.0
1742464672.912,999.512,152.344,330.078,-1000.0
1742464672.916,753.906,-1000.0,290.527,-1000.0
1742464672.92,-587.891,-934.57,-83.496,-937.5
1742464672.924,-1000.0,-1000.0,-362.793,-1000.0
1742464672.928,-145.996,-154.785,155.762,-210.938
1742464672.931,979.492,999.512,910.156,998.535
1742464672.935,979.004,423.828,812.988,967.285
1742464672.939,861.328,-904.785,39.551,894.043
1742464672.943,-376.953,-1000.0,-558.594,-309.082
1742464672.947,-1000.0,-873.047,-354.98,-1000.0
1742464672.951,-529.297,326.172,282.227,-496.094
1742464672.955,999.512,999.512,770.02,999.512
1742464672.958,385.742,119.141,-55.664,393.066
1742464672.962,-1000.0,-1000.0,-1000.0,-1000.0
1742464672.966,-996.094,-1000.0,-918.945,-1000.0
1742464672.97,-959.961,-185.059,-577.148,-958.984
1742464672.974,-1000.0,999.512,-279.297,-1000.0
1742464672.931,979.492,999.512,910.156,998.535
1742464672.935,979.004,423.828,812.988,967.285
1742464672.939,861.328,-904.785,39.551,894.043
1742464672.943,-376.953,-1000.0,-558.594,-309.082
1742464672.947,-1000.0,-873.047,-354.98,-1000.0
1742464672.951,-529.297,326.172,282.227,-496.094
1742464672.955,999.512,999.512,770.02,999.512
1742464672.958,385.742,119.141,-55.664,393.066
1742464672.962,-1000.0,-1000.0,-1000.0,-1000.0
1742464672.966,-996.094,-1000.0,-918.945,-1000.0
1742464672.97,-959.961,-185.059,-577.148,-958.984
1742464672.974,-1000.0,999.512,-279.297,-1000.0
1742464672.976,-1000.0,132.324,-563.965,-1000.0
1742464672.98,-1000.0,-1000.0,-1000.0,-1000.0
1742464672.984,-1000.0,-252.93,-906.25,-1000.0
1742464672.988,-1000.0,999.512,-495.117,-1000.0
1742464672.992,-1000.0,-244.141,-511.23,-1000.0
1742464672.996,-1000.0,-626.465,-831.543,-1000.0
1742464673.0,-1000.0,177.734,-1000.0,-1000.0
1742464673.003,-1000.0,-887.207,-992.676,-1000.0
1742464673.007,-1000.0,-1000.0,-1000.0,-1000.0
1742464673.011,-1000.0,-923.34,-972.168,-1000.0
1742464673.015,-997.559,460.449,-929.199,-1000.0
1742464673.019,-942.383,-5.371,-983.887,-1000.0
1742464672.976,-1000.0,132.324,-563.965,-1000.0
1742464672.98,-1000.0,-1000.0,-1000.0,-1000.0
1742464672.984,-1000.0,-252.93,-906.25,-1000.0
1742464672.988,-1000.0,999.512,-495.117,-1000.0
1742464672.992,-1000.0,-244.141,-511.23,-1000.0
1742464672.996,-1000.0,-626.465,-831.543,-1000.0
1742464673.0,-1000.0,177.734,-1000.0,-1000.0
1742464673.003,-1000.0,-887.207,-992.676,-1000.0
1742464673.007,-1000.0,-1000.0,-1000.0,-1000.0
1742464673.011,-1000.0,-923.34,-972.168,-1000.0
1742464673.015,-997.559,460.449,-929.199,-1000.0
1742464673.019,-942.383,-5.371,-983.887,-1000.0
1742464673.02,-1000.0,-1000.0,-1000.0,-1000.0
1742464673.024,-201.66,548.34,-601.074,-1000.0
1742464673.028,999.512,497.07,-187.012,-1000.0
1742464673.032,999.512,-1000.0,-392.578,-1000.0
1742464673.036,-471.191,-1000.0,-853.516,-1000.0
1742464673.04,-733.398,-22.461,-723.145,-1000.0
1742464673.044,878.418,999.512,-198.242,-1000.0
1742464673.047,999.512,-67.383,-130.859,-1000.0
1742464673.051,910.156,-1000.0,-161.621,-1000.0
1742464673.055,917.48,-141.113,-404.785,-1000.0
1742464673.059,999.512,999.512,-560.059,-1000.0
1742464673.063,248.047,-33.691,-502.441,-928.711
1742464673.02,-1000.0,-1000.0,-1000.0,-1000.0
1742464673.024,-201.66,548.34,-601.074,-1000.0
1742464673.028,999.512,497.07,-187.012,-1000.0
1742464673.032,999.512,-1000.0,-392.578,-1000.0
1742464673.036,-471.191,-1000.0,-853.516,-1000.0
1742464673.04,-733.398,-22.461,-723.145,-1000.0
1742464673.044,878.418,999.512,-198.242,-1000.0
1742464673.047,999.512,-67.383,-130.859,-1000.0
1742464673.051,910.156,-1000.0,-161.621,-1000.0
1742464673.055,917.48,-141.113,-404.785,-1000.0
1742464673.059,999.512,999.512,-560.059,-1000.0
1742464673.063,248.047,-33.691,-502.441,-928.711
1742464673.02,-1000.0,-1000.0,-1000.0,-1000.0
1742464673.024,-201.66,548.34,-601.074,-1000.0
1742464673.028,999.512,497.07,-187.012,-1000.0
1742464673.032,999.512,-1000.0,-392.578,-1000.0
1742464673.036,-471.191,-1000.0,-853.516,-1000.0
1742464673.04,-733.398,-22.461,-723.145,-1000.0
1742464673.044,878.418,999.512,-198.242,-1000.0
1742464673.047,999.512,-67.383,-130.859,-1000.0
1742464673.051,910.156,-1000.0,-161.621,-1000.0
1742464673.055,917.48,-141.113,-404.785,-1000.0
1742464673.059,999.512,999.512,-560.059,-1000.0
1742464673.063,248.047,-33.691,-502.441,-928.711
1742464673.066,-1000.0,-1000.0,-155.762,-1000.0
1742464673.07,-174.805,213.867,345.215,-210.938
1742464673.074,999.512,561.035,-36.621,999.512
1742464673.078,-90.82,-1000.0,-713.867,-307.617
1742464673.082,-1000.0,-1000.0,-439.941,-1000.0
1742464673.086,-35.645,516.113,455.566,-169.434
1742464673.09,999.512,515.625,505.371,999.512
1742464673.093,617.676,-1000.0,-437.5,541.504
1742464673.097,-799.316,-1000.0,-933.594,-889.648
1742464673.101,-1000.0,-911.621,-887.695,-978.516
1742464673.105,-1000.0,-1000.0,-543.457,-1000.0
1742464673.109,-307.129,-120.117,-5.371,-470.703
1742464673.066,-1000.0,-1000.0,-155.762,-1000.0
1742464673.07,-174.805,213.867,345.215,-210.938
1742464673.074,999.512,561.035,-36.621,999.512
1742464673.078,-90.82,-1000.0,-713.867,-307.617
1742464673.082,-1000.0,-1000.0,-439.941,-1000.0
1742464673.086,-35.645,516.113,455.566,-169.434
1742464673.09,999.512,515.625,505.371,999.512
1742464673.093,617.676,-1000.0,-437.5,541.504
1742464673.097,-799.316,-1000.0,-933.594,-889.648
1742464673.101,-1000.0,-911.621,-887.695,-978.516
1742464673.105,-1000.0,-1000.0,-543.457,-1000.0
1742464673.109,-307.129,-120.117,-5.371,-470.703
1742464673.066,-1000.0,-1000.0,-155.762,-1000.0
1742464673.07,-174.805,213.867,345.215,-210.938
1742464673.074,999.512,561.035,-36.621,999.512
1742464673.078,-90.82,-1000.0,-713.867,-307.617
1742464673.082,-1000.0,-1000.0,-439.941,-1000.0
1742464673.086,-35.645,516.113,455.566,-169.434
1742464673.09,999.512,515.625,505.371,999.512
1742464673.093,617.676,-1000.0,-437.5,541.504
1742464673.097,-799.316,-1000.0,-933.594,-889.648
1742464673.101,-1000.0,-911.621,-887.695,-978.516
1742464673.105,-1000.0,-1000.0,-543.457,-1000.0
1742464673.109,-307.129,-120.117,-5.371,-470.703
1742464673.11,999.512,999.512,50.293,999.512
1742464673.114,783.691,338.867,-520.996,674.316
1742464673.118,-645.02,-1000.0,-764.16,-755.859
1742464673.122,-1000.0,-510.254,-293.945,-1000.0
1742464673.126,99.609,869.629,482.91,-142.578
1742464673.13,999.512,999.512,420.41,999.512
1742464673.134,237.305,135.742,-447.266,240.234
1742464673.137,-977.051,-1000.0,-913.574,-1000.0
1742464673.141,-1000.0,-1000.0,-395.02,-956.055
1742464673.145,-786.621,-1.465,136.719,-1000.0
1742464673.149,646.484,999.512,287.598,161.621
1742464673.153,960.938,376.465,-202.637,916.992
1742464673.11,999.512,999.512,50.293,999.512
1742464673.114,783.691,338.867,-520.996,674.316
1742464673.118,-645.02,-1000.0,-764.16,-755.859
1742464673.122,-1000.0,-510.254,-293.945,-1000.0
1742464673.126,99.609,869.629,482.91,-142.578
1742464673.13,999.512,999.512,420.41,999.512
1742464673.134,237.305,135.742,-447.266,240.234
1742464673.137,-977.051,-1000.0,-913.574,-1000.0
1742464673.141,-1000.0,-1000.0,-395.02,-956.055
1742464673.145,-786.621,-1.465,136.719,-1000.0
1742464673.149,646.484,999.512,287.598,161.621
1742464673.153,960.938,376.465,-202.637,916.992
1742464673.17,-498.535,-941.406,-818.848,-580.566
1742464673.174,-1000.0,-1000.0,-409.668,-1000.0
1742464673.178,-237.793,-73.73,297.852,-349.121
1742464673.182,999.512,999.512,517.578,999.512
1742464673.186,895.508,293.457,-97.656,841.309
1742464673.19,-422.363,-982.422,-395.996,-513.672
1742464673.194,-1000.0,-1000.0,-1.953,-1000.0
1742464673.197,-216.797,-41.992,569.336,-241.211
1742464673.201,999.512,999.512,543.457,999.512
1742464673.205,161.621,-137.207,-545.41,148.926
1742464673.209,-1000.0,-1000.0,-1000.0,-1000.0
1742464673.213,-1000.0,-193.359,-468.262,-1000.0
1742464673.17,-498.535,-941.406,-818.848,-580.566
1742464673.174,-1000.0,-1000.0,-409.668,-1000.0
1742464673.178,-237.793,-73.73,297.852,-349.121
1742464673.182,999.512,999.512,517.578,999.512
1742464673.186,895.508,293.457,-97.656,841.309
1742464673.19,-422.363,-982.422,-395.996,-513.672
1742464673.194,-1000.0,-1000.0,-1.953,-1000.0
1742464673.197,-216.797,-41.992,569.336,-241.211
1742464673.201,999.512,999.512,543.457,999.512
1742464673.205,161.621,-137.207,-545.41,148.926
1742464673.209,-1000.0,-1000.0,-1000.0,-1000.0
1742464673.213,-1000.0,-193.359,-468.262,-1000.0
1742464673.215,-434.082,986.816,239.746,-643.555
1742464673.219,999.512,999.512,417.969,959.961
1742464673.223,226.562,93.262,-501.465,248.535
1742464673.227,-1000.0,-1000.0,-995.117,-1000.0
1742464673.231,-1000.0,-343.262,-382.324,-1000.0
1742464673.235,120.117,999.512,438.477,-163.086
1742464673.239,999.512,966.309,656.25,999.512
1742464673.242,129.883,-278.32,-339.355,151.367
1742464673.246,-1000.0,-1000.0,-892.09,-1000.0
1742464673.25,-1000.0,-594.238,-304.688,-1000.0
1742464673.254,-208.008,661.621,317.383,-288.086
1742464673.258,999.512,999.512,643.066,999.512
1742464673.215,-434.082,986.816,239.746,-643.555
1742464673.219,999.512,999.512,417.969,959.961
1742464673.223,226.562,93.262,-501.465,248.535
1742464673.227,-1000.0,-1000.0,-995.117,-1000.0
1742464673.231,-1000.0,-343.262,-382.324,-1000.0
1742464673.235,120.117,999.512,438.477,-163.086
1742464673.239,999.512,966.309,656.25,999.512
1742464673.242,129.883,-278.32,-339.355,151.367
1742464673.246,-1000.0,-1000.0,-892.09,-1000.0
1742464673.25,-1000.0,-594.238,-304.688,-1000.0
1742464673.254,-208.008,661.621,317.383,-288.086
