timestamps,TP9,AF7,AF8,TP10
1742467721.448,966.309,327.637,966.797,967.285
1742467721.452,966.309,-1000.0,966.797,967.285
1742467721.456,966.309,-974.609,966.797,966.797
1742467721.46,966.309,-961.426,966.797,966.797
1742467721.464,966.309,-1000.0,969.727,966.797
1742467721.468,966.309,243.652,956.055,966.797
1742467721.472,966.309,999.512,962.891,966.797
1742467721.475,966.309,964.355,965.82,967.285
1742467721.479,966.309,-187.5,454.59,966.797
1742467721.483,966.309,-1000.0,39.062,966.797
1742467721.487,966.309,-873.047,305.176,966.797
1742467721.491,966.309,-1000.0,494.141,966.797
1742467721.913,-1000.0,-1000.0,-1000.0,-1000.0
1742467721.917,-1000.0,-1000.0,-1000.0,-1000.0
1742467721.921,-1000.0,-986.816,-1000.0,-1000.0
1742467721.925,-1000.0,-959.961,-1000.0,-1000.0
1742467721.929,-1000.0,-1000.0,-1000.0,-1000.0
1742467721.933,-1000.0,5.371,-1000.0,-1000.0
1742467721.937,-1000.0,999.512,-1000.0,-1000.0
1742467721.94,-1000.0,999.512,-1000.0,-1000.0
1742467721.944,-1000.0,237.793,-1000.0,-1000.0
1742467721.948,-1000.0,-1000.0,-1000.0,-1000.0
1742467721.952,-1000.0,-994.141,-1000.0,-1000.0
1742467721.956,-1000.0,-973.633,-1000.0,-1000.0
1742467722.006,-1000.0,999.512,-892.578,-1000.0
1742467722.01,-1000.0,123.047,-1000.0,-1000.0
1742467722.014,-1000.0,-1000.0,-996.094,-1000.0
1742467722.018,-1000.0,-928.711,-983.398,-1000.0
1742467722.022,-1000.0,-1000.0,-1000.0,-1000.0
1742467722.026,-1000.0,-171.387,-830.566,-1000.0
1742467722.03,-1000.0,999.512,-625.977,-1000.0
1742467722.033,-1000.0,938.477,-919.922,-1000.0
1742467722.037,-1000.0,-351.562,-1000.0,-1000.0
1742467722.041,-1000.0,-1000.0,-987.793,-1000.0
1742467722.045,-1000.0,-935.547,-1000.0,-1000.0
1742467722.049,-1000.0,-945.312,-991.699,-1000.0
1742467722.243,-1000.0,-1000.0,-988.281,-1000.0
1742467722.247,-1000.0,-1000.0,-1000.0,-1000.0
1742467722.251,-1000.0,-979.004,-978.516,-1000.0
1742467722.255,-1000.0,-974.121,-980.469,-1000.0
1742467722.259,-1000.0,-1000.0,-1000.0,-1000.0
1742467722.263,-1000.0,38.086,-797.852,-1000.0
1742467722.267,-1000.0,999.512,-615.723,-1000.0
1742467722.27,-1000.0,308.105,-919.434,-1000.0
1742467722.274,-1000.0,-1000.0,-1000.0,-1000.0
1742467722.278,-1000.0,-952.637,-987.305,-1000.0
1742467722.282,-1000.0,-1000.0,-1000.0,-1000.0
1742467722.286,-1000.0,-259.277,-964.844,-1000.0
1742467722.243,-1000.0,-1000.0,-988.281,-1000.0
1742467722.247,-1000.0,-1000.0,-1000.0,-1000.0
1742467722.251,-1000.0,-979.004,-978.516,-1000.0
1742467722.255,-1000.0,-974.121,-980.469,-1000.0
1742467722.259,-1000.0,-1000.0,-1000.0,-1000.0
1742467722.263,-1000.0,38.086,-797.852,-1000.0
1742467722.267,-1000.0,999.512,-615.723,-1000.0
1742467722.27,-1000.0,308.105,-919.434,-1000.0
1742467722.274,-1000.0,-1000.0,-1000.0,-1000.0
1742467722.278,-1000.0,-952.637,-987.305,-1000.0
1742467722.282,-1000.0,-1000.0,-1000.0,-1000.0
1742467722.286,-1000.0,-259.277,-964.844,-1000.0
1742467722.663,-1000.0,765.137,374.023,-1000.0
1742467722.667,27.832,999.512,697.754,203.613
1742467722.671,999.512,910.645,674.316,999.512
1742467722.675,917.969,979.98,151.367,912.598
1742467722.679,972.168,981.445,152.344,979.98
1742467722.683,894.043,893.066,599.609,901.855
1742467722.687,999.512,999.512,924.805,999.512
1742467722.69,548.34,529.297,709.473,687.988
1742467722.694,-895.508,-908.691,-479.004,-751.465
1742467722.698,-1000.0,-1000.0,-930.176,-1000.0
1742467722.702,-882.324,-884.277,-59.082,-886.23
1742467722.706,-1000.0,-1000.0,527.832,-1000.0
1742467723.323,-1000.0,-1000.0,-461.914,-1000.0
1742467723.327,69.336,-49.805,87.402,-113.281
1742467723.331,999.512,999.512,849.121,999.512
1742467723.335,915.039,927.734,382.324,936.035
1742467723.339,966.309,964.355,-283.203,954.59
1742467723.343,939.941,921.387,-153.32,942.383
1742467723.347,951.172,999.512,60.059,955.078
1742467723.35,999.512,868.652,36.133,999.512
1742467723.354,-223.633,-500.488,-596.191,-236.328
1742467723.358,-1000.0,-1000.0,-1000.0,-1000.0
1742467723.362,-938.477,-934.57,-993.164,-939.941
1742467723.366,-1000.0,-1000.0,-936.523,-1000.0
1742467723.458,-1000.0,-926.758,-1000.0,-1000.0
1742467723.462,-1000.0,-1000.0,-1000.0,-1000.0
1742467723.466,-1000.0,-481.934,-1000.0,-1000.0
1742467723.47,-1000.0,999.512,-1000.0,-1000.0
1742467723.474,-1000.0,77.148,-1000.0,-1000.0
1742467723.478,-1000.0,-1000.0,-1000.0,-1000.0
1742467723.482,-1000.0,-954.59,-1000.0,-1000.0
1742467723.485,-1000.0,-982.422,-1000.0,-1000.0
1742467723.489,-1000.0,-1000.0,-1000.0,-1000.0
1742467723.493,-1000.0,-1000.0,-1000.0,-1000.0
1742467723.497,-1000.0,-1000.0,-1000.0,-1000.0
1742467723.501,-1000.0,-1000.0,-1000.0,-1000.0
1742467723.548,-1000.0,-1000.0,-963.867,-1000.0
1742467723.552,-1000.0,-762.207,-938.477,-936.523
1742467723.556,-1000.0,639.16,-526.855,-1000.0
1742467723.56,-1000.0,999.512,-24.414,-239.258
1742467723.564,-1000.0,902.344,-24.414,999.512
1742467723.568,-1000.0,921.875,-229.98,901.367
1742467723.572,-1000.0,999.512,-251.953,999.512
1742467723.575,-1000.0,132.812,-356.934,105.957
1742467723.579,-1000.0,-1000.0,-515.137,-1000.0
1742467723.583,-1000.0,-967.773,-483.398,-973.633
1742467723.587,-937.5,-929.688,-358.398,-917.48
1742467723.591,-1000.0,-1000.0,-355.957,-1000.0
1742467723.653,966.309,452.148,960.449,966.797
1742467723.657,966.309,-891.602,968.262,966.797
1742467723.661,966.309,-1000.0,966.797,967.285
1742467723.665,966.309,-138.672,966.797,966.797
1742467723.669,966.309,999.512,966.797,966.797
1742467723.673,966.309,957.031,966.797,966.797
1742467723.677,966.309,882.324,966.797,967.285
1742467723.68,966.309,999.512,966.797,966.797
1742467723.684,966.309,632.812,966.797,966.797
1742467723.688,966.309,-745.605,967.285,966.797
1742467723.692,966.309,-1000.0,966.797,966.797
1742467723.696,966.309,-1000.0,966.797,967.285
1742467724.958,-1000.0,-1000.0,-220.703,-1000.0
1742467724.962,-213.867,-202.637,270.508,-212.402
1742467724.966,967.773,966.309,850.586,969.238
1742467724.97,999.512,999.512,533.203,999.512
1742467724.974,282.227,394.531,-319.824,286.133
1742467724.978,-1000.0,-969.238,-560.547,-1000.0
1742467724.982,-1000.0,-1000.0,5.371,-1000.0
1742467724.985,-964.355,-958.984,155.273,-963.379
1742467724.989,-1000.0,-990.723,-512.207,-1000.0
1742467724.993,-948.242,-978.516,-752.93,-942.383
1742467724.997,-1000.0,-1000.0,-392.578,-1000.0
1742467725.001,-99.121,122.559,216.797,-164.551
1742467725.753,-758.789,-410.156,-987.793,-867.188
1742467725.757,671.875,958.984,-1000.0,523.438
1742467725.761,999.512,984.375,-1000.0,999.512
1742467725.765,901.855,924.316,-999.512,900.879
1742467725.769,980.469,979.004,-1000.0,978.027
1742467725.773,966.309,972.656,-981.445,966.797
1742467725.777,966.309,943.359,-981.934,967.285
1742467725.78,966.309,946.777,-1000.0,966.797
1742467725.784,966.309,999.512,-1000.0,966.797
1742467725.788,966.309,-172.363,-999.512,967.285
1742467725.792,966.309,-1000.0,-990.723,966.797
1742467725.796,966.309,-1000.0,-1000.0,966.797
1742467726.503,974.121,929.688,852.539,955.078
1742467726.507,977.051,996.582,768.555,984.375
1742467726.511,926.27,918.457,291.504,923.828
1742467726.515,977.539,980.469,445.312,979.004
1742467726.519,976.562,976.074,683.105,980.957
1742467726.523,893.555,895.508,822.754,892.578
1742467726.527,999.512,999.512,847.656,999.512
1742467726.53,395.508,364.258,352.539,493.652
1742467726.534,-987.793,-1000.0,-625.488,-934.57
1742467726.538,-1000.0,-1000.0,-616.211,-1000.0
1742467726.542,-965.332,-970.215,111.816,-957.031
1742467726.546,-940.918,-938.477,244.629,-943.848
1742467726.698,915.039,999.512,-783.203,860.352
1742467726.702,999.512,940.918,-635.254,999.512
1742467726.706,864.746,879.395,-124.512,873.535
1742467726.71,999.512,999.512,105.469,997.559
1742467726.714,844.727,437.5,-104.492,939.453
1742467726.718,-544.434,-961.426,-561.035,-389.648
1742467726.722,-1000.0,-1000.0,-529.785,-1000.0
1742467726.725,-933.594,-952.637,-107.91,-935.059
1742467726.729,-1000.0,-1000.0,-42.48,-1000.0
1742467726.733,-1000.0,-1000.0,-258.789,-1000.0
1742467726.737,-937.5,-937.988,-497.07,-937.5
1742467726.741,-1000.0,-1000.0,-461.426,-1000.0
1742467727.073,-1000.0,-1000.0,-876.465,-1000.0
1742467727.077,-1000.0,-954.102,-1000.0,-1000.0
1742467727.081,-1000.0,-1000.0,-1000.0,-1000.0
1742467727.085,-1000.0,-840.332,-993.652,-1000.0
1742467727.089,-1000.0,521.973,-895.508,-1000.0
1742467727.093,-1000.0,999.512,-820.312,-1000.0
1742467727.097,-1000.0,881.836,-920.41,-1000.0
1742467727.1,-1000.0,999.512,-1000.0,-1000.0
1742467727.104,-1000.0,-172.363,-995.117,-1000.0
1742467727.108,-1000.0,-1000.0,-1000.0,-1000.0
1742467727.112,-1000.0,-949.219,-906.738,-1000.0
1742467727.116,-944.824,-929.688,-884.277,-979.98
1742467727.208,999.512,999.512,750.977,999.512
1742467727.212,949.707,962.402,289.062,946.777
1742467727.216,938.965,867.676,258.301,941.895
1742467727.22,973.145,999.512,720.215,972.656
1742467727.224,966.309,523.438,711.914,966.797
1742467727.228,966.309,-1000.0,689.453,966.797
1742467727.232,966.309,-349.609,790.527,966.797
1742467727.235,966.309,999.512,618.652,967.285
1742467727.239,966.309,953.613,642.578,967.285
1742467727.243,966.309,932.129,865.723,966.797
1742467727.247,966.309,976.562,977.051,966.797
1742467727.251,966.309,966.797,960.938,966.797
1742467727.628,966.309,455.078,966.797,966.797
1742467727.632,966.309,-1000.0,966.797,966.797
1742467727.636,966.309,-820.801,966.797,967.285
1742467727.64,966.309,644.531,966.797,966.797
1742467727.644,966.309,999.512,966.797,966.797
1742467727.648,966.309,891.602,968.262,966.797
1742467727.652,966.309,936.523,957.52,966.797
1742467727.655,966.309,999.512,972.656,966.797
1742467727.659,966.309,-7.324,901.855,966.797
1742467727.663,966.309,-1000.0,542.969,966.797
1742467727.667,966.309,-968.262,162.109,966.797
1742467727.671,966.309,-952.148,-105.469,966.797
1742467727.778,-1000.0,-1000.0,-1000.0,-1000.0
1742467727.782,-1000.0,-1000.0,-997.559,-1000.0
1742467727.786,-1000.0,-992.676,-1000.0,-1000.0
1742467727.79,-935.547,-949.707,-1000.0,-1000.0
1742467727.794,-1000.0,-1000.0,-1000.0,-1000.0
1742467727.798,-269.531,-154.785,-1000.0,-1000.0
1742467727.802,999.512,999.512,-1000.0,-1000.0
1742467727.805,29.785,154.297,-1000.0,-1000.0
1742467727.809,-1000.0,-1000.0,-1000.0,-1000.0
1742467727.813,-959.473,-963.379,-996.094,-1000.0
1742467727.817,-983.398,-937.988,-990.234,-1000.0
1742467727.821,-1000.0,-1000.0,-1000.0,-1000.0
1742467728.573,-1000.0,-972.168,-979.98,-1000.0
1742467728.577,-925.781,-1000.0,-977.539,-927.246
1742467728.581,-1000.0,-1000.0,-1000.0,-1000.0
1742467728.585,-545.41,289.062,-785.156,-481.445
1742467728.589,890.137,999.512,-145.508,922.363
1742467728.593,999.512,905.762,92.773,999.023
1742467728.597,850.586,907.227,-253.418,855.469
1742467728.6,999.512,999.512,-364.746,999.512
1742467728.604,178.223,187.012,-476.562,193.359
1742467728.608,-1000.0,-1000.0,-988.77,-1000.0
1742467728.612,-982.91,-984.863,-876.953,-985.352
1742467728.616,-974.609,-971.191,-826.66,-973.145
1742467729.608,-1000.0,-1000.0,-1000.0,-1000.0
1742467729.612,-1000.0,-1000.0,-1000.0,-1000.0
1742467729.616,-1000.0,-964.844,-1000.0,-1000.0
1742467729.62,-1000.0,-1000.0,-972.656,-1000.0
1742467729.624,-1000.0,-1000.0,-1000.0,-1000.0
1742467729.628,-1000.0,292.969,-657.227,-1000.0
1742467729.632,-1000.0,999.512,181.641,-980.957
1742467729.635,-938.477,903.32,756.348,-972.656
1742467729.639,-1000.0,971.191,971.68,-1000.0
1742467729.643,-207.52,967.285,954.59,79.59
1742467729.647,999.512,966.797,965.82,999.512
1742467729.651,948.242,967.285,967.773,917.969
1742467729.743,966.309,901.367,965.82,966.797
1742467729.747,966.309,999.512,946.289,966.797
1742467729.751,966.309,240.234,999.512,966.797
1742467729.755,966.309,-1000.0,710.449,966.797
1742467729.759,966.309,-992.676,24.902,980.957
1742467729.763,966.309,-968.75,83.496,901.855
1742467729.767,966.309,-1000.0,112.793,999.512
1742467729.77,966.309,-1000.0,-689.453,658.203
1742467729.774,966.309,-1000.0,-1000.0,-764.16
1742467729.778,973.145,-1000.0,-976.074,-1000.0
1742467729.782,937.5,-1000.0,-999.023,-940.43
1742467729.786,956.055,-1000.0,-1000.0,-1000.0
1742467729.878,-1000.0,-1000.0,-1000.0,-1000.0
1742467729.882,-1000.0,-1000.0,-1000.0,-1000.0
1742467729.886,-1000.0,-963.379,-1000.0,-1000.0
1742467729.89,-1000.0,-1000.0,-990.723,-1000.0
1742467729.894,-1000.0,-990.234,-1000.0,-1000.0
1742467729.898,-1000.0,317.871,-916.016,-1000.0
1742467729.902,-1000.0,999.512,-676.27,-1000.0
1742467729.905,-1000.0,999.512,-823.73,-1000.0
1742467729.909,-1000.0,182.129,-1000.0,-1000.0
1742467729.913,-1000.0,-1000.0,-988.77,-1000.0
1742467729.917,-1000.0,-982.422,-1000.0,-1000.0
1742467729.921,-1000.0,-973.633,-833.496,-1000.0
1742467730.584,-1000.0,-90.332,-679.688,-1000.0
1742467730.588,-1000.0,999.512,-224.609,-1000.0
1742467730.592,-1000.0,853.027,-540.527,-1000.0
1742467730.596,-925.781,999.512,-622.07,-929.688
1742467730.6,-1000.0,346.68,-309.082,-1000.0
1742467730.604,-616.699,-351.074,271.973,-392.578
1742467730.608,999.512,992.188,999.512,913.086
1742467730.611,469.238,919.434,633.301,999.512
1742467730.615,-973.145,-530.762,-294.434,58.105
1742467730.619,-1000.0,-1000.0,-176.758,-1000.0
1742467730.623,-59.57,19.531,697.754,213.867
1742467730.627,999.512,999.512,991.699,999.512
1742467730.823,949.219,927.246,-208.008,950.684
1742467730.827,939.453,958.008,-175.293,939.453
1742467730.831,973.145,931.641,88.867,973.633
1742467730.835,966.309,999.512,-42.969,967.285
1742467730.839,978.516,745.605,-213.379,978.027
1742467730.843,892.09,-467.285,49.316,894.531
1742467730.847,999.512,-1000.0,326.66,999.512
1742467730.85,441.895,-958.984,183.594,419.434
1742467730.854,-965.332,-999.023,-658.203,-971.191
1742467730.858,-1000.0,-1000.0,-945.312,-1000.0
1742467730.862,-889.648,-937.5,-242.676,-887.695
1742467730.866,-1000.0,-1000.0,228.516,-1000.0
1742467730.958,966.309,163.574,966.797,966.797
1742467730.962,966.309,999.512,966.797,967.285
1742467730.966,966.309,840.332,966.797,966.797
1742467730.97,966.309,999.512,966.797,966.797
1742467730.974,966.797,384.277,966.797,967.773
1742467730.978,963.867,-1000.0,969.238,964.844
1742467730.982,908.203,-319.824,938.965,908.203
1742467730.985,999.512,999.512,999.512,999.512
1742467730.989,131.836,98.145,687.988,143.555
1742467730.993,-1000.0,-1000.0,315.43,-1000.0
1742467730.997,-976.074,-966.797,787.598,-978.027
1742467731.001,-977.051,-978.027,999.512,-976.562
1742467732.264,-1000.0,-1000.0,-997.559,-1000.0
1742467732.268,-1000.0,-677.734,-1000.0,-1000.0
1742467732.272,-1000.0,680.176,-614.258,-1000.0
1742467732.276,-1000.0,999.512,-535.645,-1000.0
1742467732.28,-1000.0,240.234,-948.242,-1000.0
1742467732.284,-1000.0,-1000.0,-1000.0,-1000.0
1742467732.288,-1000.0,-1000.0,-991.211,-1000.0
1742467732.291,-1000.0,-963.867,-1000.0,-1000.0
1742467732.295,-1000.0,-1000.0,-1000.0,-1000.0
1742467732.299,-1000.0,-999.023,-1000.0,-1000.0
1742467732.303,-1000.0,-940.918,-995.605,-999.023
1742467732.307,-937.988,-1000.0,-989.746,-940.918
1742467732.368,-946.777,999.512,-1000.0,-954.102
1742467732.372,-1000.0,940.918,-1000.0,-1000.0
1742467732.376,-179.688,919.434,-1000.0,-87.402
1742467732.38,999.512,963.867,-1000.0,999.512
1742467732.384,689.941,999.512,-1000.0,999.512
1742467732.388,-724.121,-261.719,-1000.0,-176.758
1742467732.392,-1000.0,-1000.0,-1000.0,-1000.0
1742467732.395,-937.012,-938.477,-1000.0,-944.336
1742467732.399,-1000.0,-1000.0,-1000.0,-996.582
1742467732.403,-1000.0,-1000.0,-1000.0,-1000.0
1742467732.407,-1000.0,-1000.0,-1000.0,-1000.0
1742467732.411,-931.152,-938.477,-982.422,-933.594
1742467732.698,942.871,940.43,967.285,957.031
1742467732.702,971.68,983.398,966.797,968.75
1742467732.706,966.309,895.02,967.285,966.797
1742467732.71,966.309,999.512,966.797,966.797
1742467732.714,966.309,458.008,966.797,966.797
1742467732.718,966.309,-1000.0,966.797,966.797
1742467732.722,966.309,-290.039,966.797,967.285
1742467732.725,966.309,999.512,966.797,966.797
1742467732.729,966.309,272.461,967.285,966.797
1742467732.733,966.309,-1000.0,966.797,967.285
1742467732.737,966.309,-935.059,966.797,966.797
1742467732.741,966.309,-1000.0,966.797,966.797
1742467734.003,-937.5,-942.871,434.082,-937.5
1742467734.007,-1000.0,-1000.0,12.207,-1000.0
1742467734.011,-220.703,-164.551,156.738,-220.703
1742467734.015,999.512,999.512,893.066,999.512
1742467734.019,949.707,943.359,891.113,950.684
1742467734.023,938.965,953.125,884.277,939.941
1742467734.027,973.145,900.879,722.656,973.633
1742467734.03,966.309,999.512,459.473,966.797
1742467734.034,966.309,375.977,319.824,967.285
1742467734.038,966.797,-1000.0,-127.441,967.285
1742467734.042,903.32,-1000.0,-95.703,904.785
1742467734.046,999.512,-895.02,-163.086,999.512
1742467734.709,957.031,947.266,779.297,948.73
1742467734.713,989.746,999.512,518.066,991.211
1742467734.717,901.855,849.121,703.613,910.156
1742467734.721,951.172,999.512,989.258,936.523
1742467734.725,999.512,470.703,586.426,999.512
1742467734.729,-135.742,-937.5,-449.707,-10.742
1742467734.733,-1000.0,-1000.0,-1000.0,-1000.0
1742467734.736,-946.289,-950.684,-984.375,-958.496
1742467734.74,-1000.0,-1000.0,-979.98,-1000.0
1742467734.744,-927.246,-931.152,-748.535,-936.035
1742467734.748,-1000.0,-1000.0,-819.336,-1000.0
1742467734.752,-571.777,-683.594,-1000.0,-700.195
1742467734.948,-1000.0,-1000.0,683.105,-1000.0
1742467734.952,-963.379,-928.711,544.434,-980.469
1742467734.956,-1000.0,-1000.0,140.137,-971.191
1742467734.96,-997.559,-440.43,148.438,-1000.0
1742467734.964,314.941,942.871,682.617,88.867
1742467734.968,999.512,992.188,990.234,999.512
1742467734.972,830.566,857.91,941.895,844.727
1742467734.975,999.512,999.512,796.387,999.512
1742467734.979,613.281,208.984,316.895,593.75
1742467734.983,-833.008,-1000.0,-193.359,-838.379
1742467734.987,-1000.0,-987.305,25.879,-1000.0
1742467734.991,-940.918,-978.027,384.277,-943.359
1742467735.639,979.98,212.402,-137.207,979.492
1742467735.643,911.621,-1000.0,-621.094,910.156
1742467735.647,999.512,-988.281,-604.98,999.512
1742467735.651,817.383,-971.191,-192.383,745.117
1742467735.655,-585.938,-1000.0,-419.922,-644.531
1742467735.659,-1000.0,-1000.0,-601.074,-1000.0
1742467735.663,-934.082,-1000.0,-299.316,-938.477
1742467735.666,-1000.0,-1000.0,-410.645,-1000.0
1742467735.67,-1000.0,-1000.0,-349.121,-1000.0
1742467735.674,-983.887,-956.543,-551.27,-996.582
1742467735.678,-964.355,-1000.0,-982.422,-944.336
1742467735.682,-1000.0,-921.875,-997.559,-1000.0
1742467735.698,41.504,416.992,-984.375,-146.973
1742467735.702,999.512,999.512,-591.797,999.512
1742467735.706,916.992,839.844,-0.488,940.43
1742467735.71,958.008,999.512,103.027,945.312
1742467735.714,967.773,710.938,-359.375,971.68
1742467735.718,972.656,-882.324,-411.621,975.098
1742467735.722,939.453,-352.051,220.215,934.57
1742467735.725,950.684,999.512,472.168,966.309
1742467735.729,999.512,371.094,229.004,983.398
1742467735.733,-216.309,-1000.0,-584.473,-290.039
1742467735.737,-1000.0,-1000.0,-837.891,-1000.0
1742467735.741,-945.312,-965.82,-198.242,-951.66
1742467736.043,-973.145,-990.234,-135.742,-973.145
1742467736.047,-1000.0,-939.941,-113.281,-1000.0
1742467736.051,-1000.0,-1000.0,-60.059,-1000.0
1742467736.055,-1000.0,-675.293,-25.391,-1000.0
1742467736.059,-1000.0,760.742,355.469,-1000.0
1742467736.063,-1000.0,965.82,772.461,-1000.0
1742467736.067,-1000.0,999.512,853.516,-1000.0
1742467736.07,-998.535,516.602,286.621,-992.676
1742467736.074,-941.406,-855.957,-230.957,-951.172
1742467736.078,-1000.0,-1000.0,66.406,-1000.0
1742467736.082,-177.734,-91.797,719.238,-88.379
1742467736.086,999.512,999.512,999.512,999.512
1742467736.253,-1000.0,-1000.0,-511.719,-1000.0
1742467736.257,-213.379,-254.883,217.285,-242.676
1742467736.261,999.512,999.512,979.492,999.512
1742467736.265,949.707,956.055,851.562,955.078
1742467736.269,939.453,949.707,298.34,938.477
1742467736.273,969.727,923.34,535.156,971.68
1742467736.277,909.18,999.512,999.512,909.18
1742467736.28,999.512,837.402,928.711,999.512
1742467736.284,120.605,-546.875,-46.875,129.395
1742467736.288,-1000.0,-1000.0,-1000.0,-1000.0
1742467736.292,-974.609,-934.57,-842.773,-976.074
1742467736.296,-978.027,-1000.0,-283.203,-977.539
1742467736.493,999.512,999.512,336.914,999.512
1742467736.497,912.109,908.203,65.918,915.039
1742467736.501,900.391,902.344,34.668,898.438
1742467736.505,999.512,999.512,-28.809,999.512
1742467736.509,441.895,221.191,-355.957,462.891
1742467736.513,-964.844,-1000.0,-826.172,-950.684
1742467736.517,-1000.0,-989.258,-790.039,-1000.0
1742467736.52,-952.148,-970.215,-468.75,-950.684
1742467736.524,-1000.0,-1000.0,-589.844,-1000.0
1742467736.528,-1000.0,-1000.0,-827.637,-1000.0
1742467736.532,-926.758,-934.082,-917.48,-925.781
1742467736.536,-1000.0,-1000.0,-1000.0,-1000.0
1742467736.628,-877.441,-937.5,-608.887,-884.766
1742467736.632,-1000.0,-1000.0,-732.422,-1000.0
1742467736.636,-221.191,-220.703,54.688,-221.68
1742467736.64,999.512,999.512,910.156,999.512
1742467736.644,949.707,951.172,770.508,950.684
1742467736.648,938.965,939.453,258.789,939.453
1742467736.652,976.074,912.109,349.121,974.121
1742467736.655,950.684,999.512,590.82,963.867
1742467736.659,928.711,173.828,148.438,909.668
1742467736.663,999.512,-1000.0,-169.434,999.512
1742467736.667,-60.547,-988.281,-290.039,125.0
1742467736.671,-1000.0,-948.73,-522.461,-1000.0
1742467736.868,-1000.0,-1000.0,-1000.0,-1000.0
1742467736.872,-1000.0,-1000.0,-995.605,-1000.0
1742467736.876,-1000.0,-973.633,-1000.0,-1000.0
1742467736.88,-1000.0,-978.516,-933.594,-1000.0
1742467736.884,-1000.0,-1000.0,-882.324,-1000.0
1742467736.888,-1000.0,161.133,-521.973,-1000.0
1742467736.892,-1000.0,999.512,-529.785,-1000.0
1742467736.895,-1000.0,-262.695,-1000.0,-1000.0
1742467736.899,-1000.0,-1000.0,-1000.0,-1000.0
1742467736.903,-1000.0,-871.582,-849.121,-1000.0
1742467736.907,-1000.0,-1000.0,-791.992,-1000.0
1742467736.911,-986.328,-581.055,-926.27,-987.793
1742467737.003,-945.801,-929.688,-76.66,-961.426
1742467737.007,-1000.0,-1000.0,-562.5,-1000.0
1742467737.011,-850.586,-392.09,-474.609,-983.887
1742467737.015,549.316,967.285,161.621,338.867
1742467737.019,999.512,984.375,576.66,999.512
1742467737.023,901.367,908.691,450.684,902.832
1742467737.027,915.527,945.312,-61.035,910.156
1742467737.03,999.512,999.512,-373.047,999.512
1742467737.034,187.012,-79.59,-664.062,187.012
1742467737.038,-1000.0,-1000.0,-1000.0,-1000.0
1742467737.042,-983.887,-953.125,-861.328,-983.887
1742467737.046,-982.91,-1000.0,-822.754,-978.516
1742467737.47,999.512,999.512,768.555,999.512
1742467737.474,908.203,926.758,890.137,935.547
1742467737.478,903.809,894.043,571.777,886.719
1742467737.482,999.512,999.512,417.48,999.512
1742467737.486,187.012,129.395,-219.238,163.086
1742467737.49,-1000.0,-1000.0,-437.5,-1000.0
1742467737.494,-983.887,-976.562,406.738,-980.469
1742467737.497,-973.145,-978.516,471.191,-975.098
1742467737.501,-1000.0,-1000.0,-37.109,-1000.0
1742467737.505,-934.57,-947.266,-500.0,-934.082
1742467737.509,-1000.0,-1000.0,-410.156,-1000.0
1742467737.513,-268.555,-123.047,366.211,-273.926
1742467737.843,966.309,365.723,369.629,966.797
1742467737.847,966.309,-1000.0,-49.316,967.285
1742467737.851,966.309,-980.469,484.375,966.797
1742467737.855,966.309,-1000.0,895.996,966.797
1742467737.859,966.309,115.234,729.492,966.797
1742467737.863,975.098,999.512,560.059,973.145
1742467737.867,930.664,843.75,726.562,940.43
1742467737.87,970.703,999.512,844.727,952.148
1742467737.874,974.609,490.723,721.68,999.512
1742467737.878,-269.043,-854.98,-28.809,-148.438
1742467737.882,-1000.0,-1000.0,-743.652,-1000.0
1742467737.886,-156.25,-227.539,-209.473,-170.41
1742467738.639,999.512,999.512,812.5,999.512
1742467738.643,758.301,971.191,279.297,949.707
1742467738.647,-554.688,-188.477,-295.898,-231.934
1742467738.651,-1000.0,-1000.0,-250.977,-1000.0
1742467738.655,-935.059,-1000.0,259.766,-939.453
1742467738.659,-1000.0,-217.773,473.633,-1000.0
1742467738.663,-1000.0,980.469,421.875,-1000.0
1742467738.666,-1000.0,999.512,241.211,-1000.0
1742467738.67,-1000.0,122.07,197.266,-1000.0
1742467738.674,-937.5,-1000.0,209.961,-937.5
1742467738.678,-1000.0,-1000.0,358.887,-1000.0
1742467738.682,-221.191,-69.336,569.336,-220.703
1742467738.968,979.492,990.723,415.527,981.445
1742467738.972,966.309,896.484,688.965,966.797
1742467738.976,966.309,999.512,795.898,966.797
1742467738.98,966.309,421.875,642.09,966.797
1742467738.984,966.309,-1000.0,49.805,967.285
1742467738.988,968.75,-527.832,286.133,971.68
1742467738.992,901.367,873.047,942.383,898.926
1742467738.995,999.512,999.512,999.512,999.512
1742467738.999,234.863,170.898,427.246,275.879
1742467739.003,-1000.0,-984.863,-720.215,-987.793
1742467739.007,-1000.0,-1000.0,-671.875,-1000.0
1742467739.011,-9.766,-167.969,396.973,-90.332
1742467739.391,-1000.0,176.758,-750.977,-1000.0
1742467739.395,-1000.0,999.512,-412.598,-1000.0
1742467739.399,-1000.0,878.906,-445.801,-1000.0
1742467739.403,-935.547,999.512,-669.434,-934.082
1742467739.407,-1000.0,-208.984,-1000.0,-1000.0
1742467739.411,-250.488,-333.496,-319.824,-273.438
1742467739.415,999.512,999.512,927.734,999.512
1742467739.418,954.59,962.891,829.59,959.473
1742467739.422,936.523,936.523,394.531,935.547
1742467739.426,976.074,981.445,180.664,975.098
1742467739.43,956.543,897.461,270.508,966.797
1742467739.434,919.434,999.512,595.215,905.273
1742467739.493,765.625,596.68,395.508,704.59
1742467739.497,999.512,999.512,736.816,999.512
1742467739.501,905.273,900.391,849.609,905.273
1742467739.505,981.934,981.934,789.062,980.957
1742467739.509,968.262,960.449,382.324,969.727
1742467739.513,954.102,897.461,268.066,954.59
1742467739.517,922.852,999.512,688.965,924.805
1742467739.52,999.512,178.711,595.215,999.512
1742467739.524,-13.184,-1000.0,-264.16,-15.625
1742467739.528,-1000.0,-983.398,-744.141,-1000.0
1742467739.532,-951.66,-973.145,-624.023,-954.102
1742467739.536,-935.059,-945.801,-399.902,-933.105
1742467739.823,452.637,222.168,390.625,240.234
1742467739.827,999.512,999.512,876.953,999.512
1742467739.831,899.902,893.066,499.023,903.809
1742467739.835,982.422,999.512,33.691,976.562
1742467739.839,896.973,762.695,-273.926,897.461
1742467739.843,999.512,929.688,92.773,999.512
1742467739.847,297.852,405.762,188.965,313.477
1742467739.85,-1000.0,-995.605,-639.648,-1000.0
1742467739.854,-1000.0,-1000.0,-1000.0,-1000.0
1742467739.858,-964.355,-957.031,-986.328,-962.891
1742467739.862,-1000.0,-1000.0,-924.316,-1000.0
1742467739.866,-1000.0,-1000.0,-805.664,-1000.0
1742467740.663,-973.145,-1000.0,-1000.0,-982.91
1742467740.667,-1000.0,-1000.0,-1000.0,-1000.0
1742467740.671,-1000.0,-995.605,-1000.0,-1000.0
1742467740.675,-1000.0,-945.801,-1000.0,-1000.0
1742467740.679,-1000.0,-1000.0,-1000.0,-1000.0
1742467740.683,-1000.0,-166.504,-1000.0,-1000.0
1742467740.687,-1000.0,999.512,-1000.0,-1000.0
1742467740.69,-1000.0,945.312,-1000.0,-1000.0
1742467740.694,-1000.0,-329.102,-1000.0,-1000.0
1742467740.698,-1000.0,-1000.0,-1000.0,-1000.0
1742467740.702,-1000.0,-953.125,-1000.0,-1000.0
1742467740.706,-941.895,-944.824,-998.535,-972.168
1742467740.799,966.309,999.512,640.625,966.797
1742467740.803,966.309,999.512,419.922,966.797
1742467740.807,966.309,315.43,118.652,967.285
1742467740.811,966.309,-968.262,27.832,966.797
1742467740.815,966.309,-1000.0,254.883,966.797
1742467740.819,966.309,-186.035,722.656,966.797
1742467740.823,966.309,999.512,809.082,966.797
1742467740.826,966.309,123.535,-111.816,967.285
1742467740.83,965.82,-1000.0,-485.352,967.285
1742467740.834,905.762,-973.145,-3.906,905.273
1742467740.838,999.512,-976.074,589.844,999.512
1742467740.842,164.551,-1000.0,460.449,177.734
1742467742.253,973.633,961.426,-635.254,973.633
1742467742.257,903.809,889.16,-558.594,904.297
1742467742.261,999.512,999.512,-278.32,999.512
1742467742.265,186.035,186.035,-526.367,187.988
1742467742.269,-1000.0,-1000.0,-1000.0,-1000.0
1742467742.273,-1000.0,-1000.0,-349.609,-1000.0
1742467742.277,-179.688,-190.918,764.16,-165.039
1742467742.28,970.703,966.797,976.074,999.512
1742467742.284,999.512,999.512,940.918,937.5
1742467742.288,717.773,191.406,967.773,985.352
1742467742.292,-660.156,-1000.0,967.773,-232.422
1742467742.296,-1000.0,-1000.0,967.285,-1000.0
1742467742.584,999.512,999.512,-459.473,976.074
1742467742.588,957.031,949.219,-744.141,978.027
1742467742.592,941.406,944.336,-1000.0,932.129
1742467742.596,950.195,957.031,-862.305,955.078
1742467742.6,944.824,931.641,-530.762,943.848
1742467742.604,999.512,999.512,-252.441,999.512
1742467742.608,-182.617,-80.078,-653.809,-163.086
1742467742.611,-1000.0,-1000.0,-1000.0,-1000.0
1742467742.615,-941.406,-950.195,-980.957,-944.824
1742467742.619,-998.535,-992.676,-999.023,-996.582
1742467742.623,-1000.0,-1000.0,-971.68,-1000.0
1742467742.627,-1000.0,-931.641,-983.887,-1000.0
1742467742.868,999.512,999.512,372.559,999.512
1742467742.872,950.195,950.684,-282.715,948.242
1742467742.876,938.965,939.453,-524.902,940.918
1742467742.88,973.145,987.793,-140.625,973.145
1742467742.884,966.309,895.508,162.109,966.797
1742467742.888,966.309,999.512,371.094,966.797
1742467742.892,966.309,552.734,-87.891,966.797
1742467742.895,966.309,-875.0,-753.906,966.797
1742467742.899,966.309,-1000.0,-709.961,966.797
1742467742.903,966.309,-944.824,-738.281,966.797
1742467742.907,966.309,-1000.0,-960.449,966.797
1742467742.911,966.309,-1000.0,-994.141,966.797
1742467743.71,-1000.0,-1000.0,-282.227,-959.961
1742467743.714,-1000.0,-998.535,-461.426,-1000.0
1742467743.718,-974.121,-963.867,231.445,-961.426
1742467743.722,-937.5,-951.66,549.805,-942.383
1742467743.726,-1000.0,-1000.0,395.996,-1000.0
1742467743.73,-419.434,-165.039,370.117,-410.645
1742467743.734,959.473,999.512,936.035,960.938
1742467743.737,984.863,940.43,926.27,984.375
1742467743.741,859.863,886.23,539.062,861.328
1742467743.745,999.512,999.512,415.039,999.512
1742467743.749,187.012,129.883,-229.492,187.012
1742467743.753,-1000.0,-1000.0,-849.609,-1000.0
1742467744.744,614.746,-1000.0,38.574,577.148
1742467744.748,-837.891,-1000.0,-678.223,-856.445
1742467744.752,-1000.0,-961.426,-1000.0,-1000.0
1742467744.756,-924.316,-1000.0,-832.52,-907.715
1742467744.76,-1000.0,-983.398,-485.84,-1000.0
1742467744.764,179.199,339.355,386.23,40.527
1742467744.768,999.512,999.512,956.543,999.512
1742467744.771,999.512,999.512,301.27,999.512
1742467744.775,186.523,192.871,-670.898,106.445
1742467744.779,-1000.0,-1000.0,-812.988,-1000.0
1742467744.783,-984.863,-984.863,-48.34,-975.586
1742467744.787,-910.156,-910.156,491.211,-915.527
1742467745.164,-1000.0,666.016,-479.004,-1000.0
1742467745.168,-1000.0,-917.48,-874.512,-1000.0
1742467745.172,-1000.0,-1000.0,-1000.0,-1000.0
1742467745.176,-1000.0,-913.574,-783.691,-1000.0
1742467745.18,-1000.0,-1000.0,-691.406,-1000.0
1742467745.184,-1000.0,51.758,-555.176,-1000.0
1742467745.188,-1000.0,999.512,-418.457,-1000.0
1742467745.191,-1000.0,999.512,-784.668,-1000.0
1742467745.195,-1000.0,6.836,-999.512,-1000.0
1742467745.199,-997.559,-1000.0,-929.199,-1000.0
1742467745.203,-942.871,-987.305,-597.168,-1000.0
1742467745.207,-1000.0,-918.945,-394.531,-928.711
1742467745.538,972.656,867.188,-643.555,970.703
1742467745.542,966.309,-333.496,-831.543,966.797
1742467745.546,966.309,-1000.0,-970.703,966.797
1742467745.55,966.309,-526.855,-984.863,966.797
1742467745.554,966.309,860.352,-1000.0,966.797
1742467745.558,966.309,961.426,-781.738,966.797
1742467745.562,966.309,972.656,-581.055,966.797
1742467745.565,966.309,804.199,-804.688,966.797
1742467745.569,966.309,-612.305,-987.793,966.797
1742467745.573,966.309,-1000.0,-1000.0,967.285
1742467745.577,972.656,-935.547,-930.664,971.68
1742467745.581,897.461,-1000.0,-476.074,900.391
1742467745.913,-1000.0,-1000.0,-1000.0,-1000.0
1742467745.917,-1000.0,-1000.0,-1000.0,-1000.0
1742467745.921,-1000.0,-1000.0,-1000.0,-1000.0
1742467745.925,-1000.0,-939.453,-998.535,-1000.0
1742467745.929,-1000.0,-1000.0,-999.023,-1000.0
1742467745.933,-1000.0,-207.031,-1000.0,-1000.0
1742467745.937,-1000.0,991.211,-912.598,-1000.0
1742467745.94,-1000.0,999.512,-911.621,-1000.0
1742467745.944,-1000.0,55.176,-1000.0,-1000.0
1742467745.948,-1000.0,-1000.0,-999.023,-1000.0
1742467745.952,-1000.0,-970.215,-999.512,-1000.0
1742467745.956,-1000.0,-980.957,-998.535,-1000.0
1742467746.378,999.512,-1000.0,420.898,999.512
1742467746.382,727.539,-1000.0,183.105,775.391
1742467746.386,-702.637,-961.426,-522.461,-628.906
1742467746.39,-1000.0,-1000.0,-783.691,-1000.0
1742467746.394,-936.035,-956.543,-265.625,-936.035
1742467746.398,-1000.0,307.617,267.09,-1000.0
1742467746.402,-1000.0,999.512,292.48,-1000.0
1742467746.405,-1000.0,905.273,-88.379,-1000.0
1742467746.409,-1000.0,-332.031,-688.477,-1000.0
1742467746.413,-1000.0,-1000.0,-959.473,-1000.0
1742467746.417,-1000.0,-946.777,-865.234,-1000.0
1742467746.421,-991.211,-962.402,-842.285,-999.023
1742467746.71,-947.754,-1000.0,-1000.0,-950.684
1742467746.714,-994.141,-1000.0,-966.797,-992.676
1742467746.718,-1000.0,-988.281,-722.656,-1000.0
1742467746.722,-1000.0,-957.52,-716.797,-1000.0
1742467746.726,-1000.0,-1000.0,-972.656,-1000.0
1742467746.73,-1000.0,-7.324,-989.746,-1000.0
1742467746.734,-1000.0,999.512,-896.973,-1000.0
1742467746.737,-1000.0,999.512,-949.219,-1000.0
1742467746.741,-1000.0,430.664,-1000.0,-1000.0
1742467746.745,-1000.0,-957.52,-997.559,-1000.0
1742467746.749,-1000.0,-1000.0,-1000.0,-1000.0
1742467746.753,-1000.0,-935.547,-1000.0,-1000.0
1742467746.859,-1000.0,-932.129,-1000.0,-1000.0
1742467746.863,-1000.0,-1000.0,-1000.0,-1000.0
1742467746.867,-1000.0,-118.652,-1000.0,-1000.0
1742467746.871,-1000.0,999.512,-1000.0,-1000.0
1742467746.875,-1000.0,574.219,-1000.0,-1000.0
1742467746.879,-1000.0,-655.762,-1000.0,-1000.0
1742467746.883,-1000.0,-1000.0,-1000.0,-1000.0
1742467746.886,-1000.0,-944.336,-1000.0,-1000.0
1742467746.89,-1000.0,-1000.0,-1000.0,-1000.0
1742467746.894,-1000.0,-1000.0,-1000.0,-1000.0
1742467746.898,-1000.0,-931.641,-1000.0,-1000.0
1742467746.902,-1000.0,-1000.0,-1000.0,-1000.0
1742467747.879,966.309,999.512,926.27,966.797
1742467747.883,966.309,946.289,674.805,967.285
1742467747.887,966.309,876.465,353.027,966.797
1742467747.891,966.309,999.512,596.68,966.797
1742467747.895,965.82,379.395,678.223,966.797
1742467747.899,966.797,-919.434,423.34,966.797
1742467747.903,962.891,-1000.0,128.418,966.797
1742467747.906,901.855,-82.52,-403.809,967.285
1742467747.91,999.512,892.578,-674.805,967.285
1742467747.914,-9.277,-744.141,-741.699,966.797
1742467747.918,-398.438,-757.324,-590.82,966.797
1742467747.922,999.512,862.305,-263.672,966.797
1742467748.164,-1000.0,-1000.0,-432.617,-1000.0
1742467748.168,-974.609,-946.777,-745.605,-1000.0
1742467748.172,-981.934,-1000.0,-979.98,-938.477
1742467748.176,-1000.0,-833.496,-670.898,-1000.0
1742467748.18,102.539,486.816,-322.266,-262.695
1742467748.184,999.512,999.512,123.047,999.512
1742467748.188,127.441,124.023,-275.391,124.512
1742467748.191,-1000.0,-1000.0,-1000.0,-1000.0
1742467748.195,-983.398,-989.746,-994.141,-971.68
1742467748.199,-973.145,-904.785,-984.375,-976.562
1742467748.203,-1000.0,-1000.0,-1000.0,-1000.0
1742467748.207,-1000.0,-327.637,-993.652,-1000.0
1742467749.333,966.309,945.801,40.527,967.285
1742467749.337,904.297,923.828,282.227,904.297
1742467749.341,999.512,999.512,606.934,999.512
1742467749.345,178.223,-77.637,141.113,183.594
1742467749.349,-1000.0,-1000.0,-437.012,-1000.0
1742467749.353,-982.91,-953.613,290.039,-983.398
1742467749.357,-988.77,-1000.0,735.84,-988.281
1742467749.36,-935.059,-936.035,507.324,-943.359
1742467749.364,-1000.0,-1000.0,282.227,-1000.0
1742467749.368,-608.887,-717.285,609.863,-739.746
1742467749.372,831.543,724.609,999.512,689.941
1742467749.376,999.512,999.512,954.102,999.512
1742467750.308,966.309,999.512,946.777,966.797
1742467750.312,966.309,852.051,972.168,967.285
1742467750.316,966.309,999.512,926.758,967.285
1742467750.32,966.309,597.168,845.215,966.797
1742467750.324,976.562,-1000.0,678.223,981.934
1742467750.328,893.066,-442.871,749.023,895.02
1742467750.332,999.512,999.512,999.512,999.512
1742467750.335,400.879,361.328,459.473,590.82
1742467750.339,-984.863,-1000.0,-621.582,-853.027
1742467750.343,-1000.0,-1000.0,-771.484,-1000.0
1742467750.347,-955.566,-958.008,-731.445,-941.895
1742467750.351,-1000.0,-1000.0,-944.336,-1000.0
1742467750.743,-1000.0,-1000.0,-1000.0,-1000.0
1742467750.747,-1000.0,-1000.0,-1000.0,-1000.0
1742467750.751,-1000.0,-986.328,-1000.0,-1000.0
1742467750.755,-1000.0,-956.055,-1000.0,-1000.0
1742467750.759,-1000.0,-1000.0,-1000.0,-1000.0
1742467750.763,-1000.0,-16.602,-1000.0,-1000.0
1742467750.767,-1000.0,999.512,-1000.0,-1000.0
1742467750.77,-1000.0,-188.477,-1000.0,-1000.0
1742467750.774,-1000.0,-1000.0,-1000.0,-1000.0
1742467750.778,-1000.0,-944.824,-1000.0,-1000.0
1742467750.782,-1000.0,-995.117,-1000.0,-1000.0
1742467750.786,-1000.0,-1000.0,-1000.0,-1000.0
1742467751.209,966.309,880.859,966.797,966.797
1742467751.213,966.309,966.797,967.285,966.797
1742467751.217,966.309,906.25,961.426,966.797
1742467751.221,966.309,999.512,984.863,966.797
1742467751.225,966.309,258.789,889.16,966.797
1742467751.229,966.309,-1000.0,861.816,966.797
1742467751.233,966.309,-300.293,965.82,966.797
1742467751.236,966.309,999.512,962.402,966.797
1742467751.24,966.309,242.188,542.969,966.797
1742467751.244,966.309,-1000.0,-113.77,966.797
1742467751.248,966.309,-1000.0,-330.566,966.797
1742467751.252,966.309,-936.523,-118.652,966.797
1742467751.778,-942.383,-1000.0,-857.422,-808.594
1742467751.782,-1000.0,-991.211,-806.152,-1000.0
1742467751.786,-961.426,-969.238,-462.891,-950.195
1742467751.79,-967.773,-947.266,-580.566,-976.562
1742467751.794,-1000.0,-1000.0,-888.672,-1000.0
1742467751.798,-921.387,-187.988,-397.461,-979.98
1742467751.802,430.176,975.098,566.895,327.148
1742467751.805,999.512,999.512,418.457,999.512
1742467751.809,999.512,559.082,-165.527,999.512
1742467751.813,-51.758,-839.844,-718.75,-18.555
1742467751.817,-1000.0,-992.188,-811.523,-1000.0
1742467751.821,-979.004,-1000.0,-215.82,-969.238
1742467751.778,-942.383,-1000.0,-857.422,-808.594
1742467751.782,-1000.0,-991.211,-806.152,-1000.0
1742467751.786,-961.426,-969.238,-462.891,-950.195
1742467751.79,-967.773,-947.266,-580.566,-976.562
1742467751.794,-1000.0,-1000.0,-888.672,-1000.0
1742467751.798,-921.387,-187.988,-397.461,-979.98
1742467751.802,430.176,975.098,566.895,327.148
1742467751.805,999.512,999.512,418.457,999.512
1742467751.809,999.512,559.082,-165.527,999.512
1742467751.813,-51.758,-839.844,-718.75,-18.555
1742467751.817,-1000.0,-992.188,-811.523,-1000.0
1742467751.821,-979.004,-1000.0,-215.82,-969.238
1742467752.243,-932.617,-939.453,-959.473,-940.918
1742467752.247,-1000.0,-1000.0,-944.336,-1000.0
1742467752.251,-540.039,-309.57,-1000.0,-736.816
1742467752.255,892.578,999.512,-367.676,694.824
1742467752.259,999.512,978.027,-84.961,999.512
1742467752.263,913.086,872.559,-449.219,903.809
1742467752.267,981.445,999.512,-639.648,980.957
1742467752.27,966.309,686.035,-1000.0,966.797
1742467752.274,966.309,-708.008,-982.422,966.797
1742467752.278,978.027,-1000.0,-717.773,981.934
1742467752.282,892.578,-940.918,-358.887,895.996
1742467752.286,999.512,-1000.0,-65.43,999.512
1742467752.935,-1000.0,-1000.0,-1000.0,-1000.0
1742467752.939,-1000.0,-603.027,-1000.0,-1000.0
1742467752.943,-1000.0,760.742,-1000.0,-1000.0
1742467752.947,-1000.0,999.512,-1000.0,-1000.0
1742467752.951,-1000.0,619.629,-999.023,-1000.0
1742467752.955,-1000.0,-707.031,-990.723,-1000.0
1742467752.959,-1000.0,-1000.0,-1000.0,-1000.0
1742467752.962,-1000.0,-939.941,-812.012,-1000.0
1742467752.966,-997.559,-953.125,-648.438,-1000.0
1742467752.97,-1000.0,-1000.0,-545.898,-1000.0
1742467752.974,-987.305,-191.406,-416.992,-1000.0
1742467752.978,-899.414,999.512,-477.539,-935.059
1742467753.683,-1000.0,-1000.0,-755.371,-1000.0
1742467753.687,-239.258,-215.82,-181.641,-258.301
1742467753.691,999.512,999.512,573.242,999.512
1742467753.695,953.125,950.195,350.098,956.543
1742467753.699,937.5,943.359,-45.898,936.523
1742467753.703,987.793,958.984,276.367,988.281
1742467753.707,894.043,929.199,593.262,908.203
1742467753.71,999.512,999.512,432.129,999.512
1742467753.714,602.051,6.348,-339.355,826.66
1742467753.718,-994.629,-1000.0,-902.344,-752.441
1742467753.722,-733.398,-807.129,-410.156,-753.418
1742467753.726,815.918,562.988,592.773,835.449
1742467754.254,-939.453,-1000.0,532.227,-938.965
1742467754.258,-1000.0,-988.77,484.375,-1000.0
1742467754.262,-956.055,-963.867,338.379,-956.055
1742467754.266,-1000.0,-1000.0,196.777,-1000.0
1742467754.27,-132.812,-49.316,666.504,-132.324
1742467754.274,999.512,999.512,974.121,999.512
1742467754.278,950.195,875.0,970.703,950.684
1742467754.281,941.406,999.512,878.906,941.895
1742467754.285,973.145,232.422,192.871,973.633
1742467754.289,966.309,-997.559,64.453,966.797
1742467754.293,967.773,-1000.0,643.555,968.75
1742467754.297,957.52,-170.41,885.742,959.473
1742467754.433,-938.965,-943.359,-46.387,-937.012
1742467754.437,-1000.0,-1000.0,-375.0,-1000.0
1742467754.441,-251.465,-168.457,299.316,-312.988
1742467754.445,999.512,999.512,970.215,999.512
1742467754.449,885.742,887.695,702.148,902.832
1742467754.453,999.512,999.512,374.023,999.512
1742467754.457,646.973,812.012,189.453,698.73
1742467754.46,-805.176,-603.027,-375.0,-731.445
1742467754.464,-1000.0,-1000.0,-475.098,-1000.0
1742467754.468,-949.707,-940.43,-113.77,-944.824
1742467754.472,-967.285,-984.863,-243.652,-987.793
1742467754.476,-1000.0,-986.328,-497.07,-983.887
1742467754.764,-949.707,-958.496,-1000.0,-952.148
1742467754.768,-973.633,-1000.0,-869.629,-970.703
1742467754.772,-1000.0,-945.312,-767.09,-1000.0
1742467754.776,276.367,394.531,-471.68,253.906
1742467754.78,999.512,999.512,-232.91,999.512
1742467754.784,901.855,867.676,164.062,905.762
1742467754.788,908.203,980.957,604.004,906.738
1742467754.791,999.512,947.754,160.156,999.512
1742467754.795,168.945,-332.52,-515.625,178.223
1742467754.799,-1000.0,-1000.0,-848.145,-1000.0
1742467754.803,-1000.0,-1000.0,-362.305,-1000.0
1742467754.807,-368.652,-360.84,336.426,-370.605
1742467756.278,966.309,-327.637,968.75,966.797
1742467756.282,966.309,999.512,957.52,966.797
1742467756.286,966.309,887.695,977.539,966.797
1742467756.29,966.309,999.512,947.266,966.797
1742467756.294,966.309,118.652,683.105,967.285
1742467756.298,966.309,-692.871,781.25,966.797
1742467756.302,966.309,738.77,978.027,966.797
1742467756.305,966.309,999.512,990.234,966.797
1742467756.309,966.309,258.789,418.945,966.797
1742467756.313,966.309,-1000.0,-287.598,966.797
1742467756.317,966.309,-876.953,262.207,966.797
1742467756.321,966.309,525.391,957.031,966.797
1742467756.548,999.512,999.512,-847.656,61.523
1742467756.552,909.18,917.48,-845.703,999.512
1742467756.556,999.512,999.512,-1000.0,868.164
1742467756.56,-47.363,-58.594,-996.094,-417.48
1742467756.564,-1000.0,-1000.0,-998.047,-1000.0
1742467756.568,-953.125,-951.66,-1000.0,-937.5
1742467756.572,-990.723,-991.211,-1000.0,-1000.0
1742467756.575,-1000.0,-1000.0,-1000.0,-1000.0
1742467756.579,-1000.0,-1000.0,-1000.0,-1000.0
1742467756.583,-1000.0,-1000.0,-1000.0,-1000.0
1742467756.587,-1000.0,-1000.0,-1000.0,-1000.0
1742467756.591,-1000.0,-1000.0,-1000.0,-1000.0
1742467756.879,937.012,463.867,-1000.0,966.797
1742467756.883,973.633,-857.422,-1000.0,966.797
1742467756.887,966.309,-1000.0,-1000.0,967.285
1742467756.891,966.309,-38.574,-1000.0,966.797
1742467756.895,966.309,999.512,-1000.0,966.797
1742467756.899,976.562,939.941,-991.211,980.957
1742467756.903,894.043,881.348,-997.07,907.227
1742467756.906,999.512,999.512,-1000.0,999.512
1742467756.91,379.883,281.25,-999.512,739.746
1742467756.914,-1000.0,-1000.0,-1000.0,-683.594
1742467756.918,-942.383,-930.176,-996.582,-1000.0
1742467756.922,-1000.0,-1000.0,-988.281,-1000.0
1742467758.14,-1000.0,-753.418,253.418,-1000.0
1742467758.144,-1000.0,588.379,668.945,-1000.0
1742467758.148,-1000.0,999.512,933.594,-1000.0
1742467758.152,-1000.0,904.297,910.156,-1000.0
1742467758.156,-1000.0,986.328,667.969,-1000.0
1742467758.16,-1000.0,-220.703,405.762,-1000.0
1742467758.164,-1000.0,-1000.0,473.145,-1000.0
1742467758.167,-1000.0,-950.684,318.848,-1000.0
1742467758.171,-1000.0,-1000.0,344.238,-1000.0
1742467758.175,-1000.0,-964.355,324.707,-1000.0
1742467758.179,-1000.0,-1000.0,-161.133,-1000.0
1742467758.183,-1000.0,-975.098,-12.207,-1000.0
1742467758.38,966.309,900.391,966.797,966.797
1742467758.384,966.309,968.262,966.797,966.797
1742467758.388,966.309,967.285,967.285,966.797
1742467758.392,966.309,966.797,966.797,966.797
1742467758.396,965.82,967.285,966.797,966.797
1742467758.4,966.309,975.586,966.797,966.797
1742467758.404,966.309,896.484,966.797,967.285
1742467758.407,966.309,999.512,966.797,967.285
1742467758.411,966.309,331.543,967.285,966.797
1742467758.415,966.309,-948.73,966.797,967.285
1742467758.419,966.309,-1000.0,967.285,966.797
1742467758.423,966.309,-706.543,967.285,966.797
1742467758.904,-1000.0,-1000.0,-1000.0,-1000.0
1742467758.908,-1000.0,-1000.0,-1000.0,-1000.0
1742467758.912,-983.398,-936.035,-982.91,-999.512
1742467758.916,-965.332,-1000.0,-1000.0,-939.941
1742467758.92,-1000.0,-244.629,-935.547,-1000.0
1742467758.924,43.945,999.512,-241.699,-194.824
1742467758.928,999.512,954.59,321.289,999.512
1742467758.931,917.969,937.988,-150.391,946.777
1742467758.935,957.52,974.609,-532.715,941.895
1742467758.939,967.773,966.797,92.285,973.145
1742467758.943,966.309,966.797,854.492,966.797
1742467758.947,965.82,966.797,992.188,966.797
1742467760.209,-1000.0,-1000.0,-1000.0,-1000.0
1742467760.213,-1000.0,-1000.0,-1000.0,-1000.0
1742467760.217,-1000.0,-988.281,-1000.0,-1000.0
1742467760.221,-1000.0,-957.52,-994.629,-1000.0
1742467760.225,-1000.0,-1000.0,-1000.0,-1000.0
1742467760.229,-1000.0,-20.996,-995.605,-1000.0
1742467760.233,-1000.0,999.512,-801.758,-1000.0
1742467760.236,-1000.0,999.512,-782.715,-1000.0
1742467760.24,-1000.0,150.391,-970.703,-1000.0
1742467760.244,-1000.0,-1000.0,-998.535,-1000.0
1742467760.248,-1000.0,-1000.0,-984.375,-1000.0
1742467760.252,-1000.0,-895.508,-611.816,-1000.0
1742467761.289,938.965,939.941,-1000.0,941.895
1742467761.293,973.633,986.328,-1000.0,973.145
1742467761.297,963.379,908.691,-1000.0,967.285
1742467761.301,909.668,999.512,-1000.0,904.785
1742467761.305,999.512,702.637,-1000.0,999.512
1742467761.309,124.512,-683.594,-1000.0,182.129
1742467761.313,-1000.0,-1000.0,-1000.0,-1000.0
1742467761.316,-975.586,-941.406,-1000.0,-983.398
1742467761.32,-989.258,-1000.0,-1000.0,-985.84
1742467761.324,-932.129,-934.082,-1000.0,-933.105
1742467761.328,-1000.0,-1000.0,-1000.0,-1000.0
1742467761.332,-454.59,-284.18,-1000.0,-477.539
1742467761.484,-1000.0,-1000.0,-1000.0,-1000.0
1742467761.488,-1000.0,-80.566,-1000.0,-1000.0
1742467761.492,-1000.0,999.512,-1000.0,-1000.0
1742467761.496,-1000.0,-157.227,-998.535,-1000.0
1742467761.5,-1000.0,-1000.0,-1000.0,-1000.0
1742467761.504,-1000.0,-211.914,-993.164,-1000.0
1742467761.508,-1000.0,999.512,-957.031,-1000.0
1742467761.511,-1000.0,811.523,-984.375,-1000.0
1742467761.515,-1000.0,-588.867,-1000.0,-1000.0
1742467761.519,-1000.0,-1000.0,-998.047,-1000.0
1742467761.523,-1000.0,-934.57,-1000.0,-1000.0
1742467761.527,-1000.0,-1000.0,-1000.0,-1000.0
1742467761.664,-1000.0,322.754,842.285,-1000.0
1742467761.668,-960.938,-941.895,652.344,-944.336
1742467761.672,-1000.0,-1000.0,889.16,-1000.0
1742467761.676,-981.445,-441.895,987.305,-834.961
1742467761.68,337.891,909.18,956.055,567.871
1742467761.684,999.512,999.512,967.773,999.512
1742467761.688,846.68,847.656,965.332,901.855
1742467761.691,999.512,999.512,967.773,979.004
1742467761.695,798.828,362.793,968.75,966.797
1742467761.699,-602.051,-1000.0,921.875,974.609
1742467761.703,-1000.0,-1000.0,914.551,930.176
1742467761.707,-935.059,-958.984,961.914,983.398
1742467762.083,988.281,999.512,-472.168,999.512
1742467762.087,850.098,843.75,-899.902,853.027
1742467762.091,999.512,999.512,-902.832,999.512
1742467762.095,511.23,321.777,-827.637,379.883
1742467762.099,-924.805,-1000.0,-987.305,-993.652
1742467762.103,-1000.0,-1000.0,-1000.0,-1000.0
1742467762.107,-946.777,-962.402,-994.141,-957.52
1742467762.11,-1000.0,-1000.0,-1000.0,-1000.0
1742467762.114,-1000.0,-1000.0,-1000.0,-1000.0
1742467762.118,-1000.0,-1000.0,-1000.0,-1000.0
1742467762.122,-1000.0,-1000.0,-1000.0,-1000.0
1742467762.126,-1000.0,-1000.0,-1000.0,-1000.0
1742467762.414,-1000.0,999.512,979.004,-1000.0
1742467762.418,-1000.0,947.754,961.914,-1000.0
1742467762.422,-928.711,941.895,966.309,-933.594
1742467762.426,-1000.0,973.633,967.773,-1000.0
1742467762.43,-379.883,967.285,966.797,-289.062
1742467762.434,977.539,977.539,966.797,999.512
1742467762.438,976.562,894.531,966.797,962.402
1742467762.441,926.27,999.512,966.797,934.082
1742467762.445,977.539,405.762,966.797,975.586
1742467762.449,966.309,-957.031,967.285,967.285
1742467762.453,966.309,-997.559,966.797,966.797
1742467762.457,966.309,-1000.0,966.797,966.797
1742467762.923,-866.699,-939.453,-161.133,-725.098
1742467762.927,-1000.0,-1000.0,164.062,-1000.0
1742467762.931,-630.371,-784.668,822.266,-599.609
1742467762.935,749.023,642.09,997.559,745.605
1742467762.939,999.512,999.512,605.469,999.512
1742467762.943,909.18,895.996,562.988,915.527
1742467762.947,914.551,928.223,974.121,911.621
1742467762.95,999.512,999.512,999.512,999.512
1742467762.954,256.836,83.496,423.34,308.594
1742467762.958,-1000.0,-1000.0,-672.852,-1000.0
1742467762.962,-995.117,-970.703,-871.582,-1000.0
1742467762.966,-967.285,-980.469,-494.141,-963.379
1742467763.077,-1000.0,930.176,-900.879,-1000.0
1742467763.081,-350.098,955.078,-502.441,-484.863
1742467763.085,989.258,950.195,-36.621,923.34
1742467763.089,971.68,999.512,-36.133,998.047
1742467763.093,928.711,771.973,-665.527,918.457
1742467763.097,976.562,641.113,-577.148,980.469
1742467763.101,966.309,984.375,275.391,966.797
1742467763.104,966.309,999.512,331.055,967.285
1742467763.108,966.309,-245.605,-171.387,967.285
1742467763.112,966.309,-1000.0,-634.277,966.797
1742467763.116,966.309,-1000.0,-587.891,966.797
1742467763.12,966.309,-760.254,47.852,967.285
1742467763.209,-707.52,-897.949,-1000.0,-919.922
1742467763.213,725.098,484.863,-1000.0,448.242
1742467763.217,999.512,999.512,-1000.0,999.512
1742467763.221,904.297,901.367,-1000.0,895.02
1742467763.225,919.922,914.551,-1000.0,924.316
1742467763.229,999.512,999.512,-1000.0,999.512
1742467763.233,163.574,187.5,-1000.0,91.309
1742467763.236,-1000.0,-1000.0,-1000.0,-1000.0
1742467763.24,-980.469,-983.887,-1000.0,-973.145
1742467763.244,-975.098,-973.145,-1000.0,-979.492
1742467763.248,-1000.0,-1000.0,-1000.0,-1000.0
1742467763.252,-1000.0,-964.844,-1000.0,-1000.0
1742467763.299,-1000.0,-1000.0,-990.234,-1000.0
1742467763.303,-470.703,-542.48,-1000.0,-555.664
1742467763.307,933.105,892.09,-868.652,879.395
1742467763.311,994.141,999.512,-721.191,999.512
1742467763.315,918.945,915.039,-907.227,913.086
1742467763.319,979.98,977.051,-803.223,982.422
1742467763.323,967.285,913.574,-647.461,965.82
1742467763.326,903.809,999.512,-574.707,906.25
1742467763.33,999.512,96.191,-542.48,999.512
1742467763.334,187.012,-1000.0,-668.457,164.062
1742467763.338,-1000.0,-972.168,-719.238,-1000.0
1742467763.342,-990.723,-990.723,-884.766,-983.887
1742467763.673,903.809,938.965,942.383,902.832
1742467763.677,999.512,999.512,988.77,999.512
1742467763.681,243.164,-52.246,354.004,267.09
1742467763.685,-1000.0,-1000.0,-220.215,-1000.0
1742467763.689,-203.613,-208.496,415.039,-200.195
1742467763.693,999.512,999.512,962.402,999.512
1742467763.697,943.359,936.523,976.562,942.383
1742467763.7,938.965,994.141,666.992,939.941
1742467763.704,973.145,-157.227,160.156,973.145
1742467763.708,966.797,-1000.0,118.164,969.727
1742467763.712,903.32,-948.73,394.043,901.855
1742467763.716,999.512,-995.605,513.184,999.512
1742467764.094,-1000.0,-1000.0,-12.695,-1000.0
1742467764.098,-937.5,-938.965,-199.219,-934.57
1742467764.102,-1000.0,-1000.0,-317.383,-1000.0
1742467764.106,-208.984,-195.801,164.062,-253.418
1742467764.11,990.723,999.512,783.691,976.562
1742467764.114,982.422,936.523,569.824,992.188
1742467764.118,865.723,997.07,106.934,845.703
1742467764.121,-469.238,-237.305,-648.926,-471.68
1742467764.125,-1000.0,-1000.0,-985.84,-1000.0
1742467764.129,-882.812,-875.0,-641.602,-873.047
1742467764.133,-1000.0,-1000.0,-542.48,-1000.0
1742467764.137,-110.352,-221.191,-455.078,-220.703
1742467765.52,-99.609,-431.152,-1000.0,150.879
1742467765.524,-1000.0,-1000.0,-997.07,-1000.0
1742467765.528,-1000.0,-1000.0,-1000.0,-1000.0
1742467765.532,90.82,-3.906,-949.707,258.301
1742467765.536,999.512,999.512,-937.012,999.512
1742467765.54,912.109,926.758,-1000.0,907.227
1742467765.544,968.75,888.672,-967.773,967.773
1742467765.547,935.059,999.512,-943.359,967.285
1742467765.551,965.332,276.367,-1000.0,967.285
1742467765.555,981.934,-1000.0,-1000.0,967.285
1742467765.559,-297.852,-999.512,-1000.0,967.285
1742467765.563,-1000.0,-903.32,-991.211,966.797
1742467766.388,966.309,999.512,951.172,966.797
1742467766.392,966.309,913.086,981.445,966.797
1742467766.396,966.309,892.09,930.176,966.797
1742467766.4,966.309,999.512,871.094,966.797
1742467766.404,966.309,372.07,956.055,966.797
1742467766.408,966.309,-625.488,964.355,966.797
1742467766.412,966.309,703.125,980.957,966.797
1742467766.415,966.309,999.512,889.648,966.797
1742467766.419,966.309,-153.32,663.574,966.797
1742467766.423,966.309,-1000.0,816.895,966.797
1742467766.427,966.309,-149.414,993.652,966.797
1742467766.431,966.309,999.512,958.008,966.797
1742467767.514,966.309,344.238,111.328,966.797
1742467767.518,972.656,999.512,-234.863,979.98
1742467767.522,896.973,840.82,-246.094,893.066
1742467767.526,999.512,999.512,126.953,999.512
1742467767.53,304.688,187.988,-6.836,474.121
1742467767.534,-1000.0,-1000.0,-430.664,-944.336
1742467767.538,-1000.0,-984.375,-735.352,-1000.0
1742467767.541,-963.379,-973.145,-651.855,-949.707
1742467767.545,-1000.0,-1000.0,-171.387,-1000.0
1742467767.549,-1000.0,-1000.0,145.996,-1000.0
1742467767.553,-929.688,-931.641,189.453,-929.199
1742467767.557,-1000.0,-1000.0,-36.133,-1000.0
1742467769.059,-1000.0,-1000.0,-668.457,-1000.0
1742467769.063,-971.191,-1000.0,-208.984,-986.816
1742467769.067,-951.172,-953.125,166.016,-947.266
1742467769.071,-1000.0,-1000.0,26.367,-993.652
1742467769.075,-1000.0,-800.293,-109.863,-1000.0
1742467769.079,270.508,567.871,478.027,197.266
1742467769.083,999.512,999.512,999.512,999.512
1742467769.086,901.367,956.055,930.664,906.25
1742467769.09,970.215,816.895,573.242,967.285
1742467769.094,966.309,-550.781,136.719,967.285
1742467769.098,966.309,-1000.0,311.035,966.797
1742467769.102,966.797,-1000.0,742.188,967.773
1742467770.379,512.207,412.109,569.336,602.539
1742467770.383,999.512,999.512,508.789,999.512
1742467770.387,899.414,878.906,371.582,903.809
1742467770.391,977.539,999.512,475.098,979.004
1742467770.395,966.309,709.961,360.84,966.797
1742467770.399,966.309,635.742,472.168,966.797
1742467770.403,966.309,939.453,461.914,966.797
1742467770.406,966.309,999.512,380.859,967.285
1742467770.41,966.309,311.035,417.969,966.797
1742467770.414,966.309,-1000.0,30.273,966.797
1742467770.418,966.309,-1000.0,-40.039,967.285
1742467770.422,966.309,-902.344,-32.715,967.285
1742467770.709,-1000.0,-1000.0,-1000.0,-1000.0
1742467770.713,-1000.0,-928.223,-1000.0,-1000.0
1742467770.717,-1000.0,-1000.0,-1000.0,-1000.0
1742467770.721,-1000.0,-460.938,-1000.0,-1000.0
1742467770.725,-1000.0,931.152,-1000.0,-1000.0
1742467770.729,-1000.0,999.512,-1000.0,-1000.0
1742467770.733,-1000.0,853.027,-1000.0,-1000.0
1742467770.736,-1000.0,999.512,-1000.0,-1000.0
1742467770.74,-1000.0,618.164,-1000.0,-1000.0
1742467770.744,-1000.0,-750.488,-1000.0,-1000.0
1742467770.748,-1000.0,-1000.0,-1000.0,-1000.0
1742467770.752,-1000.0,-118.652,-1000.0,-1000.0
1742467771.175,966.309,969.238,-1000.0,966.797
1742467771.179,966.309,999.512,-998.535,966.797
1742467771.183,966.309,332.52,-1000.0,967.285
1742467771.187,966.309,-928.711,-994.141,967.285
1742467771.191,966.309,-1000.0,-978.027,967.285
1742467771.195,966.309,-206.055,-994.141,966.797
1742467771.199,966.309,979.492,-996.094,966.797
1742467771.202,966.309,999.512,-976.074,966.797
1742467771.206,966.309,-34.18,-1000.0,966.797
1742467771.21,967.773,-1000.0,-638.672,971.68
1742467771.214,957.031,-962.891,83.984,944.824
1742467771.218,917.969,-985.84,375.488,948.242
1742467771.308,-740.723,-965.82,966.797,-1000.0
1742467771.312,675.781,373.047,967.285,198.73
1742467771.316,999.512,999.512,966.797,999.512
1742467771.32,904.297,901.367,967.285,906.25
1742467771.324,979.492,983.398,966.797,967.773
1742467771.328,966.797,929.199,960.449,965.82
1742467771.332,903.32,978.027,958.496,907.227
1742467771.335,999.512,951.172,914.062,999.512
1742467771.339,187.012,-361.328,460.938,151.367
1742467771.343,-1000.0,-1000.0,39.551,-1000.0
1742467771.347,-983.887,-936.523,259.277,-979.004
1742467771.351,-973.145,-1000.0,477.051,-975.586
1742467773.336,-1000.0,-1000.0,-767.578,-1000.0
1742467773.34,-630.371,-619.141,-34.18,-740.234
1742467773.344,780.762,808.594,722.656,652.832
1742467773.348,999.512,999.512,505.371,999.512
1742467773.352,908.691,906.25,180.176,909.18
1742467773.356,916.504,924.805,579.102,911.133
1742467773.36,999.512,999.512,716.309,999.512
1742467773.363,225.586,129.395,-102.051,309.57
1742467773.367,-1000.0,-1000.0,-966.797,-1000.0
1742467773.371,-990.234,-976.074,-826.66,-1000.0
1742467773.375,-969.727,-977.539,-181.152,-963.379
1742467773.379,-1000.0,-1000.0,132.324,-1000.0
1742467773.709,705.078,406.25,-120.117,412.598
1742467773.713,999.512,999.512,355.469,999.512
1742467773.717,904.297,900.391,437.5,900.879
1742467773.721,980.469,975.586,160.156,975.098
1742467773.725,973.633,971.68,-234.863,977.539
1742467773.729,895.996,899.414,-44.922,894.531
1742467773.733,999.512,999.512,393.555,999.512
1742467773.736,319.336,266.602,88.379,393.555
1742467773.74,-1000.0,-1000.0,-770.02,-988.281
1742467773.744,-1000.0,-1000.0,-1000.0,-1000.0
1742467773.748,-937.5,-951.172,-854.98,-939.941
1742467773.752,-990.723,-971.68,-208.984,-977.051
1742467774.504,-1000.0,-1000.0,-686.035,-1000.0
1742467774.508,-1000.0,-594.238,-474.121,-1000.0
1742467774.512,-1000.0,833.984,174.805,-1000.0
1742467774.516,-1000.0,999.512,213.867,-1000.0
1742467774.52,-932.129,911.621,1.953,-927.734
1742467774.524,-1000.0,981.934,-166.016,-1000.0
1742467774.528,-321.289,979.492,-47.363,-436.523
1742467774.531,999.512,895.996,581.055,949.219
1742467774.535,966.797,999.512,695.801,988.281
1742467774.539,930.664,488.77,99.121,921.875
1742467774.543,975.586,-930.176,-412.598,979.492
1742467774.547,966.309,-979.98,-190.918,966.797
1742467774.958,999.512,-1000.0,-1000.0,999.512
1742467774.962,342.773,-1000.0,-1000.0,375.0
1742467774.966,-1000.0,-997.559,-1000.0,-1000.0
1742467774.97,-943.359,-942.871,-1000.0,-948.242
1742467774.974,-1000.0,-1000.0,-1000.0,-1000.0
1742467774.978,-307.617,-151.855,-1000.0,-342.285
1742467774.982,999.512,989.746,-1000.0,997.07
1742467774.985,962.402,999.512,-1000.0,969.238
1742467774.989,933.105,709.961,-1000.0,930.664
1742467774.993,975.586,-838.379,-1000.0,976.562
1742467774.997,966.309,-318.848,-1000.0,966.797
1742467775.001,967.285,999.512,-1000.0,967.285
1742467775.074,-1000.0,-1000.0,-1000.0,-1000.0
1742467775.078,-1000.0,-833.496,-1000.0,-1000.0
1742467775.082,-1000.0,466.797,-1000.0,-1000.0
1742467775.086,-1000.0,999.512,-1000.0,-1000.0
1742467775.09,-937.5,407.227,-967.773,-937.5
1742467775.094,-1000.0,-1000.0,-1000.0,-1000.0
1742467775.098,-209.473,-154.297,-656.25,-210.938
1742467775.101,992.188,999.512,-40.039,999.512
1742467775.105,978.516,999.512,-548.828,962.402
1742467775.109,878.418,464.844,-1000.0,926.758
1742467775.113,-449.707,-915.527,-987.793,-358.398
1742467775.117,-1000.0,-1000.0,-990.723,-1000.0
1742467775.583,-975.586,-934.57,-161.133,-988.281
1742467775.587,-980.469,-1000.0,-349.609,-956.543
1742467775.591,-1000.0,-660.645,-36.621,-1000.0
1742467775.595,154.297,755.859,461.426,-24.414
1742467775.599,999.512,999.512,740.723,999.512
1742467775.603,907.715,847.656,202.637,925.293
1742467775.607,966.797,999.512,-149.414,956.543
1742467775.61,955.566,172.852,-194.824,956.543
1742467775.614,921.387,-1000.0,-282.715,926.758
1742467775.618,999.512,-981.934,-121.582,999.512
1742467775.622,-3.418,-974.121,-340.82,-24.414
1742467775.626,-1000.0,-1000.0,-767.09,-1000.0
1742467777.73,-1000.0,-1000.0,-999.023,-1000.0
1742467777.734,-1000.0,-239.746,-1000.0,-1000.0
1742467777.738,-1000.0,970.215,-1000.0,-1000.0
1742467777.742,-1000.0,999.512,-1000.0,-1000.0
1742467777.746,-1000.0,142.09,-1000.0,-1000.0
1742467777.75,-1000.0,-1000.0,-1000.0,-1000.0
1742467777.754,-1000.0,-981.934,-1000.0,-1000.0
1742467777.757,-1000.0,-974.121,-995.117,-1000.0
1742467777.761,-1000.0,-1000.0,-1000.0,-1000.0
1742467777.765,-1000.0,-1000.0,-992.188,-1000.0
1742467777.769,-1000.0,-1000.0,-793.457,-1000.0
1742467777.773,-1000.0,-930.664,-713.379,-1000.0
1742467778.959,-1000.0,-957.52,967.285,-1000.0
1742467778.963,-1000.0,-1000.0,967.285,-1000.0
1742467778.967,-1000.0,-875.977,967.285,-1000.0
1742467778.971,-1000.0,496.094,967.285,-1000.0
1742467778.975,-1000.0,999.512,967.285,-1000.0
1742467778.979,-1000.0,887.207,967.285,-1000.0
1742467778.983,-1000.0,999.512,967.285,-1000.0
1742467778.986,-1000.0,-196.289,967.285,-1000.0
1742467778.99,-1000.0,-1000.0,968.262,-1000.0
1742467778.994,-1000.0,-944.336,960.449,-1000.0
1742467778.998,-1000.0,-997.559,961.914,-1000.0
1742467779.002,-1000.0,-1000.0,974.121,-1000.0
1742467780.084,966.309,-1000.0,966.797,966.797
1742467780.088,966.309,-1000.0,967.285,967.285
1742467780.092,966.309,198.73,966.797,967.285
1742467780.096,966.309,999.512,966.797,967.285
1742467780.1,966.797,897.949,967.285,967.773
1742467780.104,903.32,923.34,966.797,904.297
1742467780.108,999.512,999.512,966.797,999.512
1742467780.111,186.523,0.488,966.797,187.012
1742467780.115,-1000.0,-1000.0,967.285,-1000.0
1742467780.119,-984.375,-961.914,967.285,-983.887
1742467780.123,-975.586,-986.816,966.797,-978.516
1742467780.127,-941.895,-940.918,966.797,-938.965
