timestamps,TP9,AF7,AF8,TP10
1742469245.787,-141.602,-302.734,-104.98,-148.926
1742469245.788,88.867,117.676,-130.371,195.801
1742469245.792,567.871,264.16,42.48,250.977
1742469245.796,-674.316,-676.758,-97.656,-554.199
1742469245.8,375.488,485.352,-95.215,472.168
1742469245.804,-376.953,-417.969,-101.562,-445.312
1742469245.808,506.836,497.07,187.988,469.727
1742469245.812,-62.012,-187.012,294.922,-245.117
1742469245.815,-846.68,-741.211,9.277,-562.5
1742469245.819,588.867,538.086,85.938,553.711
1742469245.823,-419.434,-503.906,197.754,-505.371
1742469245.827,523.438,516.602,429.199,532.227
1742469245.831,-230.957,-286.133,465.82,-335.449
1742469245.834,-664.551,-446.289,359.863,-416.504
1742469245.838,453.125,301.27,331.543,289.062
1742469245.842,-538.086,-581.055,6.836,-545.898
1742469245.846,241.211,360.84,68.359,352.539
1742469245.85,-57.617,-67.871,124.023,-111.328
1742469245.854,386.23,338.867,224.609,341.309
1742469245.858,-532.227,-443.359,64.941,-429.688
1742469245.861,-104.98,142.578,-179.688,32.227
1742469245.865,164.062,-40.527,-231.445,-39.062
1742469245.869,-498.535,-415.527,-150.879,-316.406
1742469245.873,450.684,444.824,-150.879,277.832
1742469245.877,-438.477,-457.52,-202.148,-490.234
1742469245.834,-664.551,-446.289,359.863,-416.504
1742469245.838,453.125,301.27,331.543,289.062
1742469245.842,-538.086,-581.055,6.836,-545.898
1742469245.846,241.211,360.84,68.359,352.539
1742469245.85,-57.617,-67.871,124.023,-111.328
1742469245.854,386.23,338.867,224.609,341.309
1742469245.858,-532.227,-443.359,64.941,-429.688
1742469245.861,-104.98,142.578,-179.688,32.227
1742469245.865,164.062,-40.527,-231.445,-39.062
1742469245.869,-498.535,-415.527,-150.879,-316.406
1742469245.873,450.684,444.824,-150.879,277.832
1742469245.877,-438.477,-457.52,-202.148,-490.234
1742469245.88,276.855,349.609,20.508,332.031
1742469245.884,-375.488,-432.129,-33.203,-436.523
1742469245.888,524.902,534.18,111.816,556.641
1742469245.892,757.324,671.875,379.395,391.602
1742469245.896,-792.969,-773.926,155.273,-798.828
1742469245.9,593.262,540.039,315.43,621.582
1742469245.904,-385.254,-456.543,208.984,-420.41
1742469245.907,-258.301,-29.297,-80.078,-1.953
1742469245.911,719.727,622.559,13.672,515.625
1742469245.915,-669.922,-652.344,-56.641,-584.473
1742469245.919,632.324,687.5,159.18,700.195
1742469245.923,-297.363,-384.766,287.109,-347.168
1742469245.88,276.855,349.609,20.508,332.031
1742469245.884,-375.488,-432.129,-33.203,-436.523
1742469245.888,524.902,534.18,111.816,556.641
1742469245.892,757.324,671.875,379.395,391.602
1742469245.896,-792.969,-773.926,155.273,-798.828
1742469245.9,593.262,540.039,315.43,621.582
1742469245.904,-385.254,-456.543,208.984,-420.41
1742469245.907,-258.301,-29.297,-80.078,-1.953
1742469245.911,719.727,622.559,13.672,515.625
1742469245.915,-669.922,-652.344,-56.641,-584.473
1742469245.919,632.324,687.5,159.18,700.195
1742469245.923,-297.363,-384.766,287.109,-347.168
1742469245.938,-347.168,-223.633,215.82,-27.344
1742469245.942,654.785,460.449,212.402,495.605
1742469245.946,-557.129,-594.727,82.52,-523.438
1742469245.95,269.043,362.793,215.332,407.715
1742469245.954,-276.367,-268.066,220.215,-295.898
1742469245.958,296.387,245.117,252.441,274.902
1742469245.962,-292.48,-278.809,-29.297,-241.699
1742469245.965,6.836,101.562,-253.418,77.637
1742469245.969,-130.859,-251.953,-381.836,-116.211
1742469245.973,-149.902,-124.512,-382.812,40.039
1742469245.977,538.086,100.098,-333.496,333.008
1742469245.981,-433.594,-464.355,-336.426,-293.945
1742469245.938,-347.168,-223.633,215.82,-27.344
1742469245.942,654.785,460.449,212.402,495.605
1742469245.946,-557.129,-594.727,82.52,-523.438
1742469245.95,269.043,362.793,215.332,407.715
1742469245.954,-276.367,-268.066,220.215,-295.898
1742469245.958,296.387,245.117,252.441,274.902
1742469245.962,-292.48,-278.809,-29.297,-241.699
1742469245.965,6.836,101.562,-253.418,77.637
1742469245.969,-130.859,-251.953,-381.836,-116.211
1742469245.973,-149.902,-124.512,-382.812,40.039
1742469245.977,538.086,100.098,-333.496,333.008
1742469245.981,-433.594,-464.355,-336.426,-293.945
1742469245.984,429.688,468.262,-285.156,405.762
1742469245.988,-342.285,-427.734,-408.691,-407.715
1742469245.992,408.203,407.715,-267.09,435.547
1742469245.996,-309.57,-375.977,-141.113,-337.891
1742469246.0,180.176,248.047,-122.559,256.836
1742469246.004,667.48,556.641,-144.043,314.453
1742469246.008,-708.008,-611.816,-407.227,-608.398
1742469246.011,298.828,360.84,-701.172,388.184
1742469246.015,-232.422,-291.504,-684.57,-323.73
1742469246.019,136.719,104.98,-702.148,190.43
1742469246.023,-93.262,-98.633,-806.152,-123.535
1742469246.027,166.016,180.664,-727.051,153.809
1742469245.984,429.688,468.262,-285.156,405.762
1742469245.988,-342.285,-427.734,-408.691,-407.715
1742469245.992,408.203,407.715,-267.09,435.547
1742469245.996,-309.57,-375.977,-141.113,-337.891
1742469246.0,180.176,248.047,-122.559,256.836
1742469246.004,667.48,556.641,-144.043,314.453
1742469246.008,-708.008,-611.816,-407.227,-608.398
1742469246.011,298.828,360.84,-701.172,388.184
1742469246.015,-232.422,-291.504,-684.57,-323.73
1742469246.019,136.719,104.98,-702.148,190.43
1742469246.023,-93.262,-98.633,-806.152,-123.535
1742469246.027,166.016,180.664,-727.051,153.809
1742469246.028,-276.855,-291.504,-715.332,-237.305
1742469246.032,320.801,249.023,-535.156,264.648
1742469246.036,-214.355,-283.203,-566.895,-221.191
1742469246.04,197.754,236.816,-398.926,231.934
1742469246.044,588.867,332.031,-89.355,323.242
1742469246.048,-277.832,-110.84,122.559,-150.391
1742469246.052,537.598,540.527,125.488,418.457
1742469246.055,-463.379,-571.777,-284.18,-551.27
1742469246.059,395.02,404.297,-374.512,437.5
1742469246.063,-309.57,-379.395,-375.488,-333.984
1742469246.067,215.332,234.863,-263.672,313.965
1742469246.071,773.926,594.727,-65.43,562.988
1742469246.028,-276.855,-291.504,-715.332,-237.305
1742469246.032,320.801,249.023,-535.156,264.648
1742469246.036,-214.355,-283.203,-566.895,-221.191
1742469246.04,197.754,236.816,-398.926,231.934
1742469246.044,588.867,332.031,-89.355,323.242
1742469246.048,-277.832,-110.84,122.559,-150.391
1742469246.052,537.598,540.527,125.488,418.457
1742469246.055,-463.379,-571.777,-284.18,-551.27
1742469246.059,395.02,404.297,-374.512,437.5
1742469246.063,-309.57,-379.395,-375.488,-333.984
1742469246.067,215.332,234.863,-263.672,313.965
1742469246.071,773.926,594.727,-65.43,562.988
1742469246.073,-625.488,-658.203,-211.914,-537.109
1742469246.077,310.059,360.352,-320.312,400.391
1742469246.081,-328.613,-312.988,-421.875,-376.465
1742469246.085,353.027,280.273,-330.566,318.848
1742469246.089,-88.867,-172.852,-319.336,-117.188
1742469246.093,250.488,352.539,-121.582,281.25
1742469246.097,225.586,48.34,-161.621,12.695
1742469246.1,-770.02,-722.168,-386.719,-525.391
1742469246.104,568.359,554.688,-169.434,603.516
1742469246.108,-456.543,-549.805,-151.367,-537.598
1742469246.112,556.152,592.285,-95.215,608.887
1742469246.116,644.531,472.656,-39.062,366.211
1742469246.073,-625.488,-658.203,-211.914,-537.109
1742469246.077,310.059,360.352,-320.312,400.391
1742469246.081,-328.613,-312.988,-421.875,-376.465
1742469246.085,353.027,280.273,-330.566,318.848
1742469246.089,-88.867,-172.852,-319.336,-117.188
1742469246.093,250.488,352.539,-121.582,281.25
1742469246.097,225.586,48.34,-161.621,12.695
1742469246.1,-770.02,-722.168,-386.719,-525.391
1742469246.104,568.359,554.688,-169.434,603.516
1742469246.108,-456.543,-549.805,-151.367,-537.598
1742469246.112,556.152,592.285,-95.215,608.887
1742469246.116,644.531,472.656,-39.062,366.211
1742469246.119,-745.605,-749.512,-333.496,-659.18
1742469246.123,331.543,368.164,-222.168,456.543
1742469246.127,-299.316,-307.129,-159.18,-314.453
1742469246.131,409.668,312.5,86.914,353.516
1742469246.135,-27.832,-69.336,211.914,-79.102
1742469246.139,-41.504,131.348,90.332,-23.926
1742469246.143,-361.816,-417.969,-176.27,-343.75
1742469246.146,-50.781,-4.883,-111.816,136.719
1742469246.15,680.176,429.199,124.512,424.805
1742469246.154,-605.957,-630.371,31.738,-564.941
1742469246.158,298.828,397.949,36.621,372.559
1742469246.162,-310.547,-350.098,-19.531,-383.789
1742469246.119,-745.605,-749.512,-333.496,-659.18
1742469246.123,331.543,368.164,-222.168,456.543
1742469246.127,-299.316,-307.129,-159.18,-314.453
1742469246.131,409.668,312.5,86.914,353.516
1742469246.135,-27.832,-69.336,211.914,-79.102
1742469246.139,-41.504,131.348,90.332,-23.926
1742469246.143,-361.816,-417.969,-176.27,-343.75
1742469246.146,-50.781,-4.883,-111.816,136.719
1742469246.15,680.176,429.199,124.512,424.805
1742469246.154,-605.957,-630.371,31.738,-564.941
1742469246.158,298.828,397.949,36.621,372.559
1742469246.162,-310.547,-350.098,-19.531,-383.789
1742469246.163,446.777,401.367,115.234,395.508
1742469246.167,-284.668,-394.531,146.973,-332.031
1742469246.171,-235.352,-169.434,232.422,-33.203
1742469246.175,796.875,726.562,365.234,492.188
1742469246.179,-686.523,-685.547,122.559,-699.219
1742469246.183,603.027,594.238,342.773,649.902
1742469246.187,-201.66,-300.781,421.875,-352.539
1742469246.19,-727.539,-561.523,20.996,-379.883
1742469246.194,472.656,408.203,-283.203,364.746
1742469246.198,-603.027,-574.219,-500.488,-524.414
1742469246.202,615.234,629.395,-163.086,692.383
1742469246.206,-171.387,-354.98,175.293,-263.672
1742469246.163,446.777,401.367,115.234,395.508
1742469246.167,-284.668,-394.531,146.973,-332.031
1742469246.171,-235.352,-169.434,232.422,-33.203
1742469246.175,796.875,726.562,365.234,492.188
1742469246.179,-686.523,-685.547,122.559,-699.219
1742469246.183,603.027,594.238,342.773,649.902
1742469246.187,-201.66,-300.781,421.875,-352.539
1742469246.19,-727.539,-561.523,20.996,-379.883
1742469246.194,472.656,408.203,-283.203,364.746
1742469246.198,-603.027,-574.219,-500.488,-524.414
1742469246.202,615.234,629.395,-163.086,692.383
1742469246.206,-171.387,-354.98,175.293,-263.672
1742469246.209,-220.215,-152.344,295.898,27.344
1742469246.213,394.531,266.113,65.918,211.914
1742469246.217,-640.137,-546.387,-331.543,-557.129
1742469246.221,476.562,552.734,-98.633,586.914
1742469246.225,-365.234,-357.91,13.672,-370.117
1742469246.229,409.668,351.074,136.719,386.23
1742469246.233,-204.102,-322.266,115.234,-178.711
1742469246.236,-314.941,-27.832,-207.52,-28.809
1742469246.24,541.992,285.156,-374.023,427.734
1742469246.244,-464.844,-546.875,-287.598,-322.754
1742469246.248,385.254,357.422,-224.609,314.453
1742469246.252,-270.996,-373.535,-170.898,-403.32
1742469246.209,-220.215,-152.344,295.898,27.344
1742469246.213,394.531,266.113,65.918,211.914
1742469246.217,-640.137,-546.387,-331.543,-557.129
1742469246.221,476.562,552.734,-98.633,586.914
1742469246.225,-365.234,-357.91,13.672,-370.117
1742469246.229,409.668,351.074,136.719,386.23
1742469246.233,-204.102,-322.266,115.234,-178.711
1742469246.236,-314.941,-27.832,-207.52,-28.809
1742469246.24,541.992,285.156,-374.023,427.734
1742469246.244,-464.844,-546.875,-287.598,-322.754
1742469246.248,385.254,357.422,-224.609,314.453
1742469246.252,-270.996,-373.535,-170.898,-403.32
1742469246.253,297.852,327.637,-76.172,338.379
1742469246.257,-403.809,-411.621,-86.914,-371.094
1742469246.261,299.805,305.176,56.641,335.449
1742469246.265,283.203,129.883,25.879,20.996
1742469246.269,-590.332,-406.738,-50.293,-416.016
1742469246.273,613.77,685.059,130.371,563.965
1742469246.277,-297.852,-314.453,188.477,-410.645
1742469246.28,212.891,232.422,231.934,279.297
1742469246.284,-319.824,-275.879,165.039,-282.227
1742469246.288,-86.426,-28.809,-2.441,-34.18
1742469246.292,-117.676,-124.023,-93.75,-157.715
1742469246.296,198.73,205.078,176.27,138.672
1742469246.253,297.852,327.637,-76.172,338.379
1742469246.257,-403.809,-411.621,-86.914,-371.094
1742469246.261,299.805,305.176,56.641,335.449
1742469246.265,283.203,129.883,25.879,20.996
1742469246.269,-590.332,-406.738,-50.293,-416.016
1742469246.273,613.77,685.059,130.371,563.965
1742469246.277,-297.852,-314.453,188.477,-410.645
1742469246.28,212.891,232.422,231.934,279.297
1742469246.284,-319.824,-275.879,165.039,-282.227
1742469246.288,-86.426,-28.809,-2.441,-34.18
1742469246.292,-117.676,-124.023,-93.75,-157.715
1742469246.296,198.73,205.078,176.27,138.672
1742469246.299,-270.996,-294.922,232.422,-248.535
1742469246.303,139.648,108.887,252.93,131.836
1742469246.307,-287.598,-268.555,33.203,-292.969
1742469246.311,25.879,133.789,49.805,62.012
1742469246.315,262.695,142.578,146.973,70.312
1742469246.319,-157.227,22.461,307.617,-98.633
1742469246.323,339.844,-34.668,510.254,180.176
1742469246.326,-562.012,-695.801,520.996,-429.199
1742469246.33,460.449,522.949,529.785,437.988
1742469246.334,-486.816,-560.059,95.703,-570.801
1742469246.338,461.914,509.766,18.066,479.98
1742469246.342,479.98,415.527,101.562,99.121
1742469246.299,-270.996,-294.922,232.422,-248.535
1742469246.303,139.648,108.887,252.93,131.836
1742469246.307,-287.598,-268.555,33.203,-292.969
1742469246.311,25.879,133.789,49.805,62.012
1742469246.315,262.695,142.578,146.973,70.312
1742469246.319,-157.227,22.461,307.617,-98.633
1742469246.323,339.844,-34.668,510.254,180.176
1742469246.326,-562.012,-695.801,520.996,-429.199
1742469246.33,460.449,522.949,529.785,437.988
1742469246.334,-486.816,-560.059,95.703,-570.801
1742469246.338,461.914,509.766,18.066,479.98
1742469246.342,479.98,415.527,101.562,99.121
1742469246.358,-623.047,-495.117,-113.77,-471.191
1742469246.362,398.926,337.891,-220.703,397.949
1742469246.366,-361.816,-410.156,-262.207,-391.602
1742469246.37,265.137,312.5,-91.797,366.211
1742469246.374,-180.664,-216.797,13.672,-212.402
1742469246.378,466.309,391.602,386.719,397.461
1742469246.382,-296.387,-419.434,287.109,-293.457
1742469246.385,-490.723,-293.945,46.875,-113.281
1742469246.389,688.965,607.91,170.41,567.383
1742469246.393,-560.059,-615.723,159.668,-505.371
1742469246.397,518.555,621.094,241.699,590.82
1742469246.401,-450.684,-433.105,115.723,-564.453
1742469246.358,-623.047,-495.117,-113.77,-471.191
1742469246.362,398.926,337.891,-220.703,397.949
1742469246.366,-361.816,-410.156,-262.207,-391.602
1742469246.37,265.137,312.5,-91.797,366.211
1742469246.374,-180.664,-216.797,13.672,-212.402
1742469246.378,466.309,391.602,386.719,397.461
1742469246.382,-296.387,-419.434,287.109,-293.457
1742469246.385,-490.723,-293.945,46.875,-113.281
1742469246.389,688.965,607.91,170.41,567.383
1742469246.393,-560.059,-615.723,159.668,-505.371
1742469246.397,518.555,621.094,241.699,590.82
1742469246.401,-450.684,-433.105,115.723,-564.453
1742469246.404,-762.695,-522.949,-245.117,-372.559
1742469246.408,683.105,681.152,-218.262,700.195
1742469246.412,-426.758,-494.141,-387.207,-509.277
1742469246.416,405.762,344.238,-539.062,385.254
1742469246.42,-138.184,-119.141,-525.879,-155.273
1742469246.424,213.379,357.422,-525.391,225.098
1742469246.428,-32.715,-227.539,-641.113,-102.539
1742469246.431,-318.359,-288.086,-574.707,-74.219
1742469246.435,610.352,460.938,-512.207,479.492
1742469246.439,-534.668,-556.641,-665.527,-505.371
1742469246.443,267.578,336.914,-614.258,336.914
1742469246.447,-321.777,-340.82,-609.375,-368.652
1742469246.404,-762.695,-522.949,-245.117,-372.559
1742469246.408,683.105,681.152,-218.262,700.195
1742469246.412,-426.758,-494.141,-387.207,-509.277
1742469246.416,405.762,344.238,-539.062,385.254
1742469246.42,-138.184,-119.141,-525.879,-155.273
1742469246.424,213.379,357.422,-525.391,225.098
1742469246.428,-32.715,-227.539,-641.113,-102.539
1742469246.431,-318.359,-288.086,-574.707,-74.219
1742469246.435,610.352,460.938,-512.207,479.492
1742469246.439,-534.668,-556.641,-665.527,-505.371
1742469246.443,267.578,336.914,-614.258,336.914
1742469246.447,-321.777,-340.82,-609.375,-368.652
1742469246.449,504.883,430.664,-307.129,417.48
1742469246.453,-103.516,-250.0,23.438,-228.516
1742469246.457,-290.039,-166.992,174.316,-176.758
1742469246.461,378.906,208.496,161.621,59.082
1742469246.465,-696.777,-658.691,-46.387,-600.098
1742469246.469,298.34,388.672,-364.258,348.633
1742469246.473,-302.734,-352.539,-764.16,-410.645
1742469246.476,275.879,267.09,-838.867,303.711
1742469246.48,-455.078,-426.758,-810.547,-436.035
1742469246.484,144.531,210.938,-645.02,77.637
1742469246.488,539.551,417.48,-583.496,116.211
1742469246.492,-512.695,-314.941,-567.383,-489.746
1742469246.449,504.883,430.664,-307.129,417.48
1742469246.453,-103.516,-250.0,23.438,-228.516
1742469246.457,-290.039,-166.992,174.316,-176.758
1742469246.461,378.906,208.496,161.621,59.082
1742469246.465,-696.777,-658.691,-46.387,-600.098
1742469246.469,298.34,388.672,-364.258,348.633
1742469246.473,-302.734,-352.539,-764.16,-410.645
1742469246.476,275.879,267.09,-838.867,303.711
1742469246.48,-455.078,-426.758,-810.547,-436.035
1742469246.484,144.531,210.938,-645.02,77.637
1742469246.488,539.551,417.48,-583.496,116.211
1742469246.492,-512.695,-314.941,-567.383,-489.746
1742469246.449,504.883,430.664,-307.129,417.48
1742469246.453,-103.516,-250.0,23.438,-228.516
1742469246.457,-290.039,-166.992,174.316,-176.758
1742469246.461,378.906,208.496,161.621,59.082
1742469246.465,-696.777,-658.691,-46.387,-600.098
1742469246.469,298.34,388.672,-364.258,348.633
1742469246.473,-302.734,-352.539,-764.16,-410.645
1742469246.476,275.879,267.09,-838.867,303.711
1742469246.48,-455.078,-426.758,-810.547,-436.035
1742469246.484,144.531,210.938,-645.02,77.637
1742469246.488,539.551,417.48,-583.496,116.211
1742469246.492,-512.695,-314.941,-567.383,-489.746
1742469246.493,210.938,126.953,-754.395,19.531
1742469246.497,-464.355,-504.395,-883.789,-496.094
1742469246.501,295.41,421.875,-665.039,357.91
1742469246.505,-371.094,-398.438,-512.207,-422.363
1742469246.509,496.582,491.699,-224.609,416.992
1742469246.513,-23.438,-65.43,-205.566,-271.973
1742469246.517,-785.156,-659.18,-331.055,-695.801
1742469246.52,378.906,318.848,-395.508,244.141
1742469246.524,-457.031,-525.879,-627.93,-520.508
1742469246.528,223.633,268.555,-540.527,291.504
1742469246.532,-299.316,-283.691,-446.777,-302.734
1742469246.536,390.625,318.848,-102.539,294.434
1742469246.493,210.938,126.953,-754.395,19.531
1742469246.497,-464.355,-504.395,-883.789,-496.094
1742469246.501,295.41,421.875,-665.039,357.91
1742469246.505,-371.094,-398.438,-512.207,-422.363
1742469246.509,496.582,491.699,-224.609,416.992
1742469246.513,-23.438,-65.43,-205.566,-271.973
1742469246.517,-785.156,-659.18,-331.055,-695.801
1742469246.52,378.906,318.848,-395.508,244.141
1742469246.524,-457.031,-525.879,-627.93,-520.508
1742469246.528,223.633,268.555,-540.527,291.504
1742469246.532,-299.316,-283.691,-446.777,-302.734
1742469246.536,390.625,318.848,-102.539,294.434
1742469246.538,-213.867,-228.516,101.562,-251.953
1742469246.542,-49.316,-6.836,213.379,10.742
1742469246.546,97.656,-233.398,281.25,-47.363
1742469246.55,-445.312,-319.824,193.359,-188.477
1742469246.554,515.625,515.625,38.574,449.219
1742469246.558,-392.09,-284.668,18.555,-410.645
1742469246.562,290.527,423.34,276.855,328.125
1742469246.565,-323.242,-405.273,99.121,-388.672
1742469246.569,476.562,429.199,289.551,447.754
1742469246.573,-289.062,-399.902,295.898,-386.719
1742469246.577,-691.895,-429.199,84.961,-510.742
1742469246.581,580.078,545.41,288.574,480.957
1742469246.583,-451.172,-551.27,234.375,-454.59
1742469246.587,225.098,273.926,250.977,286.621
1742469246.591,-312.988,-277.344,1.465,-343.262
1742469246.595,193.848,202.637,-154.785,197.266
1742469246.599,-173.828,-161.133,-223.633,-174.805
1742469246.603,284.18,298.34,-20.508,299.805
1742469246.607,-172.852,-368.164,-34.18,-176.27
1742469246.61,-622.07,-486.328,-232.422,-271.484
1742469246.614,536.133,503.906,-284.18,403.32
1742469246.618,-583.008,-568.848,-371.582,-531.25
1742469246.622,586.914,650.879,-223.633,657.715
1742469246.626,-368.652,-389.648,-146.484,-423.828
1742469246.583,-451.172,-551.27,234.375,-454.59
1742469246.587,225.098,273.926,250.977,286.621
1742469246.591,-312.988,-277.344,1.465,-343.262
1742469246.595,193.848,202.637,-154.785,197.266
1742469246.599,-173.828,-161.133,-223.633,-174.805
1742469246.603,284.18,298.34,-20.508,299.805
1742469246.607,-172.852,-368.164,-34.18,-176.27
1742469246.61,-622.07,-486.328,-232.422,-271.484
1742469246.614,536.133,503.906,-284.18,403.32
1742469246.618,-583.008,-568.848,-371.582,-531.25
1742469246.622,586.914,650.879,-223.633,657.715
1742469246.626,-368.652,-389.648,-146.484,-423.828
1742469246.583,-451.172,-551.27,234.375,-454.59
1742469246.587,225.098,273.926,250.977,286.621
1742469246.591,-312.988,-277.344,1.465,-343.262
1742469246.595,193.848,202.637,-154.785,197.266
1742469246.599,-173.828,-161.133,-223.633,-174.805
1742469246.603,284.18,298.34,-20.508,299.805
1742469246.607,-172.852,-368.164,-34.18,-176.27
1742469246.61,-622.07,-486.328,-232.422,-271.484
1742469246.614,536.133,503.906,-284.18,403.32
1742469246.618,-583.008,-568.848,-371.582,-531.25
1742469246.622,586.914,650.879,-223.633,657.715
1742469246.626,-368.652,-389.648,-146.484,-423.828
1742469246.628,-453.125,-304.688,-164.062,-132.812
1742469246.632,525.879,404.785,-144.043,309.082
1742469246.636,-529.297,-521.973,-92.285,-536.621
1742469246.64,359.863,425.781,163.086,443.359
1742469246.644,-352.539,-340.332,72.754,-381.348
1742469246.648,306.152,311.523,101.074,308.594
1742469246.652,-428.223,-481.934,-74.219,-395.996
1742469246.655,-340.82,-159.668,-181.152,-57.129
1742469246.659,717.285,542.969,42.969,504.883
1742469246.663,-612.305,-684.082,-43.457,-562.5
1742469246.667,539.551,630.371,107.91,629.395
1742469246.671,-457.52,-481.445,122.559,-572.754
1742469246.628,-453.125,-304.688,-164.062,-132.812
1742469246.632,525.879,404.785,-144.043,309.082
1742469246.636,-529.297,-521.973,-92.285,-536.621
1742469246.64,359.863,425.781,163.086,443.359
1742469246.644,-352.539,-340.332,72.754,-381.348
1742469246.648,306.152,311.523,101.074,308.594
1742469246.652,-428.223,-481.934,-74.219,-395.996
1742469246.655,-340.82,-159.668,-181.152,-57.129
1742469246.659,717.285,542.969,42.969,504.883
1742469246.663,-612.305,-684.082,-43.457,-562.5
1742469246.667,539.551,630.371,107.91,629.395
1742469246.671,-457.52,-481.445,122.559,-572.754
1742469246.675,-769.531,-557.617,-165.039,-469.238
1742469246.679,717.285,776.855,49.805,541.016
1742469246.683,-460.938,-448.73,234.375,-602.539
1742469246.687,369.629,286.133,174.805,395.508
1742469246.691,11.23,-22.461,184.082,-48.34
1742469246.695,-122.07,-8.789,230.957,-42.48
1742469246.699,-85.449,-154.297,64.941,-49.316
1742469246.702,259.277,228.516,172.852,229.98
1742469246.706,-197.754,-245.117,228.027,-203.125
1742469246.71,-138.672,-56.152,128.418,-48.828
1742469246.714,-175.781,-238.77,52.246,-185.547
1742469246.718,126.953,197.754,234.863,189.453
1742469246.733,432.617,302.734,228.516,175.781
1742469246.737,-570.312,-485.84,14.648,-385.254
1742469246.741,501.953,533.691,-32.715,501.953
1742469246.745,-497.559,-573.73,-334.473,-583.496
1742469246.749,570.312,587.402,-303.223,526.367
1742469246.753,309.57,222.168,-229.98,-84.473
1742469246.757,-832.031,-808.105,-387.207,-605.469
1742469246.76,479.492,422.852,-216.797,558.105
1742469246.764,-396.973,-387.695,-274.902,-491.699
1742469246.768,367.188,297.363,-153.32,341.309
1742469246.772,12.695,-152.832,176.27,-65.43
1742469246.776,62.012,120.605,252.93,76.66
1742469246.733,432.617,302.734,228.516,175.781
1742469246.737,-570.312,-485.84,14.648,-385.254
1742469246.741,501.953,533.691,-32.715,501.953
1742469246.745,-497.559,-573.73,-334.473,-583.496
1742469246.749,570.312,587.402,-303.223,526.367
1742469246.753,309.57,222.168,-229.98,-84.473
1742469246.757,-832.031,-808.105,-387.207,-605.469
1742469246.76,479.492,422.852,-216.797,558.105
1742469246.764,-396.973,-387.695,-274.902,-491.699
1742469246.768,367.188,297.363,-153.32,341.309
1742469246.772,12.695,-152.832,176.27,-65.43
1742469246.776,62.012,120.605,252.93,76.66
1742469246.779,-242.676,-312.988,-45.41,-291.016
1742469246.783,-580.566,-413.574,-190.918,-307.617
1742469246.787,534.18,272.461,21.973,311.035
1742469246.791,-281.25,-334.961,305.176,-327.148
1742469246.795,321.289,369.629,349.609,262.207
1742469246.799,-261.719,-255.371,272.461,-294.922
1742469246.803,303.223,401.367,283.203,323.73
1742469246.806,-547.852,-522.461,-102.051,-539.062
1742469246.81,112.305,151.855,-279.297,225.586
1742469246.814,374.023,135.254,-185.547,141.113
1742469246.818,-417.48,-283.203,-39.551,-305.664
1742469246.822,234.375,183.105,-140.137,31.738
1742469246.779,-242.676,-312.988,-45.41,-291.016
1742469246.783,-580.566,-413.574,-190.918,-307.617
1742469246.787,534.18,272.461,21.973,311.035
1742469246.791,-281.25,-334.961,305.176,-327.148
1742469246.795,321.289,369.629,349.609,262.207
1742469246.799,-261.719,-255.371,272.461,-294.922
1742469246.803,303.223,401.367,283.203,323.73
1742469246.806,-547.852,-522.461,-102.051,-539.062
1742469246.81,112.305,151.855,-279.297,225.586
1742469246.814,374.023,135.254,-185.547,141.113
1742469246.818,-417.48,-283.203,-39.551,-305.664
1742469246.822,234.375,183.105,-140.137,31.738
1742469246.824,-492.188,-481.934,-222.168,-496.094
1742469246.828,430.176,500.488,156.25,501.465
1742469246.832,-409.18,-380.371,225.586,-421.387
1742469246.836,231.934,246.582,267.09,229.004
1742469246.84,-273.438,-244.629,85.449,-324.219
1742469246.844,-121.582,239.746,67.383,-103.516
1742469246.848,281.25,177.734,94.238,-27.832
1742469246.851,-821.777,-848.145,-208.496,-781.738
1742469246.855,359.375,375.977,-310.547,316.895
1742469246.859,-433.105,-510.254,-301.758,-548.828
1742469246.863,493.652,470.703,95.215,435.059
1742469246.867,-0.488,-91.309,194.824,-220.215
1742469246.824,-492.188,-481.934,-222.168,-496.094
1742469246.828,430.176,500.488,156.25,501.465
1742469246.832,-409.18,-380.371,225.586,-421.387
1742469246.836,231.934,246.582,267.09,229.004
1742469246.84,-273.438,-244.629,85.449,-324.219
1742469246.844,-121.582,239.746,67.383,-103.516
1742469246.848,281.25,177.734,94.238,-27.832
1742469246.851,-821.777,-848.145,-208.496,-781.738
1742469246.855,359.375,375.977,-310.547,316.895
1742469246.859,-433.105,-510.254,-301.758,-548.828
1742469246.863,493.652,470.703,95.215,435.059
1742469246.867,-0.488,-91.309,194.824,-220.215
1742469246.869,-797.852,-576.66,-70.801,-631.836
1742469246.873,450.684,526.855,-71.777,253.906
1742469246.877,-368.164,-359.863,12.695,-523.926
1742469246.881,167.48,260.254,149.414,180.664
1742469246.885,-202.637,-198.242,254.883,-296.875
1742469246.889,271.973,228.027,520.02,236.816
1742469246.893,-406.25,-345.215,330.078,-347.656
1742469246.896,236.328,249.023,364.258,230.469
1742469246.9,4.395,-137.207,569.336,-105.469
1742469246.904,-451.66,-341.309,689.941,-364.746
1742469246.908,312.5,107.91,839.355,41.992
1742469246.912,-89.355,194.824,927.246,-133.301
1742469246.869,-797.852,-576.66,-70.801,-631.836
1742469246.873,450.684,526.855,-71.777,253.906
1742469246.877,-368.164,-359.863,12.695,-523.926
1742469246.881,167.48,260.254,149.414,180.664
1742469246.885,-202.637,-198.242,254.883,-296.875
1742469246.889,271.973,228.027,520.02,236.816
1742469246.893,-406.25,-345.215,330.078,-347.656
1742469246.896,236.328,249.023,364.258,230.469
1742469246.9,4.395,-137.207,569.336,-105.469
1742469246.904,-451.66,-341.309,689.941,-364.746
1742469246.908,312.5,107.91,839.355,41.992
1742469246.912,-89.355,194.824,927.246,-133.301
1742469246.913,224.609,78.125,976.562,41.992
1742469246.917,-541.992,-595.215,961.426,-465.332
1742469246.921,319.336,468.75,968.75,303.711
1742469246.925,-342.285,-416.016,966.797,-461.914
1742469246.929,500.0,472.168,967.285,470.215
1742469246.933,-256.348,-297.363,965.332,-304.688
1742469246.937,-575.684,-401.855,967.773,-290.527
1742469246.94,452.637,246.094,951.66,280.273
1742469246.944,-393.066,-439.453,961.426,-282.715
1742469246.948,366.699,346.191,942.871,379.395
1742469246.952,-179.688,-111.816,944.336,-226.074
1742469246.956,211.426,278.32,941.406,236.816
1742469246.913,224.609,78.125,976.562,41.992
1742469246.917,-541.992,-595.215,961.426,-465.332
1742469246.921,319.336,468.75,968.75,303.711
1742469246.925,-342.285,-416.016,966.797,-461.914
1742469246.929,500.0,472.168,967.285,470.215
1742469246.933,-256.348,-297.363,965.332,-304.688
1742469246.937,-575.684,-401.855,967.773,-290.527
1742469246.94,452.637,246.094,951.66,280.273
1742469246.944,-393.066,-439.453,961.426,-282.715
1742469246.948,366.699,346.191,942.871,379.395
1742469246.952,-179.688,-111.816,944.336,-226.074
1742469246.956,211.426,278.32,941.406,236.816
1742469246.961,-370.117,-483.887,568.359,-409.668
1742469246.965,520.996,532.227,529.297,502.93
1742469246.969,-8.301,-130.859,593.262,-184.082
1742469246.973,-838.379,-791.016,260.254,-546.875
1742469246.977,438.965,383.789,131.348,440.43
1742469246.981,-172.363,-137.695,205.566,-201.66
1742469246.985,45.41,-228.516,52.734,16.602
1742469246.988,-423.34,-578.125,-152.344,-301.27
1742469246.992,375.488,462.891,-169.922,456.543
1742469246.996,-583.496,-629.395,-487.305,-576.172
1742469247.0,-109.863,-24.902,-608.398,191.895
1742469247.004,813.477,523.926,-391.113,645.02
1742469246.961,-370.117,-483.887,568.359,-409.668
1742469246.965,520.996,532.227,529.297,502.93
1742469246.969,-8.301,-130.859,593.262,-184.082
1742469246.973,-838.379,-791.016,260.254,-546.875
1742469246.977,438.965,383.789,131.348,440.43
1742469246.981,-172.363,-137.695,205.566,-201.66
1742469246.985,45.41,-228.516,52.734,16.602
1742469246.988,-423.34,-578.125,-152.344,-301.27
1742469246.992,375.488,462.891,-169.922,456.543
1742469246.996,-583.496,-629.395,-487.305,-576.172
1742469247.0,-109.863,-24.902,-608.398,191.895
1742469247.004,813.477,523.926,-391.113,645.02
1742469247.004,-432.129,-547.363,-245.605,-337.402
1742469247.008,293.945,309.57,-215.82,383.789
1742469247.012,-192.871,-282.227,-360.84,-274.414
1742469247.016,175.293,186.035,-417.969,230.957
1742469247.02,-214.355,-222.656,-398.926,-187.988
1742469247.024,401.855,372.07,-177.734,343.262
1742469247.028,-462.891,-509.277,-432.129,-430.664
1742469247.031,-610.84,-496.094,-821.777,-166.016
1742469247.035,652.832,455.078,-688.477,576.66
1742469247.039,-460.938,-582.52,-430.664,-415.527
1742469247.043,507.812,542.48,-165.527,571.289
1742469247.047,-504.883,-505.371,-215.82,-524.902
1742469247.004,-432.129,-547.363,-245.605,-337.402
1742469247.008,293.945,309.57,-215.82,383.789
1742469247.012,-192.871,-282.227,-360.84,-274.414
1742469247.016,175.293,186.035,-417.969,230.957
1742469247.02,-214.355,-222.656,-398.926,-187.988
1742469247.024,401.855,372.07,-177.734,343.262
1742469247.028,-462.891,-509.277,-432.129,-430.664
1742469247.031,-610.84,-496.094,-821.777,-166.016
1742469247.035,652.832,455.078,-688.477,576.66
1742469247.039,-460.938,-582.52,-430.664,-415.527
1742469247.043,507.812,542.48,-165.527,571.289
1742469247.047,-504.883,-505.371,-215.82,-524.902
1742469247.53,-704.59,-559.57,869.629,-647.949
1742469247.534,171.875,231.445,630.859,-215.332
1742469247.538,-168.457,-60.547,680.176,-261.719
1742469247.542,706.055,333.984,674.316,863.77
1742469247.546,-332.52,-690.918,445.312,999.512
1742469247.55,126.953,442.383,691.895,920.41
1742469247.554,999.512,555.176,814.941,973.145
1742469247.557,-603.027,-933.105,534.18,855.469
1742469247.561,-1000.0,-195.801,448.242,932.129
1742469247.565,-1000.0,-363.281,419.434,982.91
1742469247.569,-810.059,-559.082,546.387,957.031
1742469247.573,922.363,800.293,915.527,975.098
1742469247.004,-432.129,-547.363,-245.605,-337.402
1742469247.008,293.945,309.57,-215.82,383.789
1742469247.012,-192.871,-282.227,-360.84,-274.414
1742469247.016,175.293,186.035,-417.969,230.957
1742469247.02,-214.355,-222.656,-398.926,-187.988
1742469247.024,401.855,372.07,-177.734,343.262
1742469247.028,-462.891,-509.277,-432.129,-430.664
1742469247.031,-610.84,-496.094,-821.777,-166.016
1742469247.035,652.832,455.078,-688.477,576.66
1742469247.039,-460.938,-582.52,-430.664,-415.527
1742469247.043,507.812,542.48,-165.527,571.289
1742469247.047,-504.883,-505.371,-215.82,-524.902
1742469247.048,-274.414,-208.984,-428.711,-13.672
1742469247.052,398.926,166.504,-563.965,235.84
1742469247.056,-512.695,-395.996,-657.715,-308.594
1742469247.06,492.188,535.156,-671.387,551.27
1742469247.064,-301.758,-402.344,-856.445,-400.391
1742469247.068,333.496,297.363,-764.16,330.566
1742469247.072,-353.516,-326.66,-791.992,-317.871
1742469247.075,118.164,128.906,-932.617,167.48
1742469247.079,107.91,-233.398,-902.344,6.348
1742469247.083,10.254,6.836,-523.438,151.855
1742469247.087,810.547,600.586,-261.23,700.684
1742469247.091,-485.352,-624.512,-317.383,-439.453
1742469247.048,-274.414,-208.984,-428.711,-13.672
1742469247.052,398.926,166.504,-563.965,235.84
1742469247.056,-512.695,-395.996,-657.715,-308.594
1742469247.06,492.188,535.156,-671.387,551.27
1742469247.064,-301.758,-402.344,-856.445,-400.391
1742469247.068,333.496,297.363,-764.16,330.566
1742469247.072,-353.516,-326.66,-791.992,-317.871
1742469247.075,118.164,128.906,-932.617,167.48
1742469247.079,107.91,-233.398,-902.344,6.348
1742469247.083,10.254,6.836,-523.438,151.855
1742469247.087,810.547,600.586,-261.23,700.684
1742469247.091,-485.352,-624.512,-317.383,-439.453
1742469247.109,341.309,411.133,-185.547,425.293
1742469247.113,-518.555,-538.086,-357.91,-447.754
1742469247.117,290.527,301.27,-378.906,415.039
1742469247.121,639.16,412.109,-266.602,349.609
1742469247.125,-674.316,-611.328,-328.613,-523.926
1742469247.129,355.469,465.332,-245.605,466.797
1742469247.133,-202.148,-252.93,-266.602,-294.922
1742469247.136,131.348,120.117,-340.332,169.922
1742469247.14,-185.547,-189.941,-426.758,-187.5
1742469247.144,77.148,85.938,-191.895,88.379
1742469247.148,-156.25,-130.371,-83.496,-132.324
1742469247.152,187.5,189.941,31.25,189.453
1742469247.109,341.309,411.133,-185.547,425.293
1742469247.113,-518.555,-538.086,-357.91,-447.754
1742469247.117,290.527,301.27,-378.906,415.039
1742469247.121,639.16,412.109,-266.602,349.609
1742469247.125,-674.316,-611.328,-328.613,-523.926
1742469247.129,355.469,465.332,-245.605,466.797
1742469247.133,-202.148,-252.93,-266.602,-294.922
1742469247.136,131.348,120.117,-340.332,169.922
1742469247.14,-185.547,-189.941,-426.758,-187.5
1742469247.144,77.148,85.938,-191.895,88.379
1742469247.148,-156.25,-130.371,-83.496,-132.324
1742469247.152,187.5,189.941,31.25,189.453
1742469247.154,-374.023,-326.66,-77.637,-311.523
1742469247.158,221.68,186.035,-156.25,231.445
1742469247.162,-315.43,-347.656,-315.918,-287.598
1742469247.166,-127.93,62.012,-356.445,-39.062
1742469247.17,492.676,340.82,-231.934,280.762
1742469247.174,46.875,219.238,-162.598,121.094
1742469247.178,548.34,433.105,-117.676,366.211
1742469247.181,-603.027,-720.215,-259.766,-584.473
1742469247.185,474.609,493.164,-124.023,552.246
1742469247.189,-421.387,-540.527,113.281,-414.551
1742469247.193,-32.715,-84.473,375.977,154.297
1742469247.197,794.434,545.41,706.055,433.105
1742469247.154,-374.023,-326.66,-77.637,-311.523
1742469247.158,221.68,186.035,-156.25,231.445
1742469247.162,-315.43,-347.656,-315.918,-287.598
1742469247.166,-127.93,62.012,-356.445,-39.062
1742469247.17,492.676,340.82,-231.934,280.762
1742469247.174,46.875,219.238,-162.598,121.094
1742469247.178,548.34,433.105,-117.676,366.211
1742469247.181,-603.027,-720.215,-259.766,-584.473
1742469247.185,474.609,493.164,-124.023,552.246
1742469247.189,-421.387,-540.527,113.281,-414.551
1742469247.193,-32.715,-84.473,375.977,154.297
1742469247.197,794.434,545.41,706.055,433.105
1742469247.198,-736.816,-767.09,671.875,-823.73
1742469247.202,302.734,298.34,451.66,351.562
1742469247.206,-251.465,-270.508,305.664,-269.531
1742469247.21,215.332,195.312,558.105,199.219
1742469247.214,-8.789,-43.945,645.508,-100.586
1742469247.218,-44.434,96.68,675.781,-13.672
1742469247.222,-217.285,-398.926,651.367,-215.82
1742469247.225,-315.43,-243.652,649.902,-30.273
1742469247.229,794.434,659.18,809.082,724.609
1742469247.233,-525.391,-651.855,693.359,-574.707
1742469247.237,520.02,580.078,691.895,548.34
1742469247.241,-333.984,-362.305,423.34,-409.18
1742469247.198,-736.816,-767.09,671.875,-823.73
1742469247.202,302.734,298.34,451.66,351.562
1742469247.206,-251.465,-270.508,305.664,-269.531
1742469247.21,215.332,195.312,558.105,199.219
1742469247.214,-8.789,-43.945,645.508,-100.586
1742469247.218,-44.434,96.68,675.781,-13.672
1742469247.222,-217.285,-398.926,651.367,-215.82
1742469247.225,-315.43,-243.652,649.902,-30.273
1742469247.229,794.434,659.18,809.082,724.609
1742469247.233,-525.391,-651.855,693.359,-574.707
1742469247.237,520.02,580.078,691.895,548.34
1742469247.241,-333.984,-362.305,423.34,-409.18
1742469247.245,-823.73,-587.402,-63.965,-514.648
1742469247.249,583.984,562.988,-64.453,497.07
1742469247.253,-313.477,-333.984,135.254,-414.062
1742469247.257,174.316,236.328,68.359,196.289
1742469247.261,-271.484,-308.594,-290.527,-357.91
1742469247.265,349.121,306.641,-118.652,287.598
1742469247.269,-320.312,-411.621,61.035,-299.316
1742469247.272,114.258,119.141,134.277,177.246
1742469247.276,295.41,64.453,229.98,34.668
1742469247.28,-620.605,-495.117,266.602,-449.219
1742469247.284,467.773,428.223,242.676,354.98
1742469247.288,-311.523,-384.766,213.379,-350.098
1742469247.288,237.793,308.594,400.879,381.836
1742469247.292,-303.711,-270.996,392.09,-300.293
1742469247.296,106.445,123.047,348.633,129.395
1742469247.3,-530.273,-391.602,200.195,-469.727
1742469247.304,-67.871,332.52,363.77,-581.055
1742469247.308,88.379,129.395,607.91,-560.547
1742469247.312,-848.633,-271.973,583.984,-1000.0
1742469247.315,440.43,474.121,364.258,-447.266
1742469247.319,-648.926,-662.109,80.566,-895.508
1742469247.323,-99.121,252.93,231.445,-1000.0
1742469247.327,999.512,435.059,396.973,-954.102
1742469247.331,865.723,422.852,522.949,-996.094
1742469247.288,237.793,308.594,400.879,381.836
1742469247.292,-303.711,-270.996,392.09,-300.293
1742469247.296,106.445,123.047,348.633,129.395
1742469247.3,-530.273,-391.602,200.195,-469.727
1742469247.304,-67.871,332.52,363.77,-581.055
1742469247.308,88.379,129.395,607.91,-560.547
1742469247.312,-848.633,-271.973,583.984,-1000.0
1742469247.315,440.43,474.121,364.258,-447.266
1742469247.319,-648.926,-662.109,80.566,-895.508
1742469247.323,-99.121,252.93,231.445,-1000.0
1742469247.327,999.512,435.059,396.973,-954.102
1742469247.331,865.723,422.852,522.949,-996.094
1742469247.334,-737.793,-658.203,168.945,-1000.0
1742469247.338,-846.68,-100.586,-39.062,-911.621
1742469247.342,650.879,818.848,232.91,-770.02
1742469247.346,-500.977,-738.281,395.996,-968.75
1742469247.35,262.695,466.309,437.012,-149.414
1742469247.354,68.848,211.426,216.797,-614.746
1742469247.358,-1000.0,-974.609,-113.281,-1000.0
1742469247.361,486.816,477.051,-50.781,272.461
1742469247.365,-655.273,-581.055,-228.516,-610.84
1742469247.369,-586.426,-164.551,-255.371,-807.129
1742469247.373,282.227,89.844,-138.672,-486.328
1742469247.377,-787.109,-790.527,-341.797,-954.59
1742469247.334,-737.793,-658.203,168.945,-1000.0
1742469247.338,-846.68,-100.586,-39.062,-911.621
1742469247.342,650.879,818.848,232.91,-770.02
1742469247.346,-500.977,-738.281,395.996,-968.75
1742469247.35,262.695,466.309,437.012,-149.414
1742469247.354,68.848,211.426,216.797,-614.746
1742469247.358,-1000.0,-974.609,-113.281,-1000.0
1742469247.361,486.816,477.051,-50.781,272.461
1742469247.365,-655.273,-581.055,-228.516,-610.84
1742469247.369,-586.426,-164.551,-255.371,-807.129
1742469247.373,282.227,89.844,-138.672,-486.328
1742469247.377,-787.109,-790.527,-341.797,-954.59
1742469247.379,469.727,632.324,-163.086,-21.973
1742469247.383,-549.805,-644.531,-93.262,-778.32
1742469247.387,-805.176,-574.219,-126.953,-815.918
1742469247.391,534.668,489.258,119.141,-141.602
1742469247.395,-571.289,-574.219,106.934,-835.938
1742469247.399,308.594,385.742,261.719,-48.828
1742469247.403,-426.758,-447.754,238.77,-598.145
1742469247.406,-167.969,-22.949,282.715,-444.336
1742469247.41,154.297,-52.246,348.633,-469.727
1742469247.414,-583.984,-398.438,305.664,-637.207
1742469247.418,367.676,397.461,444.824,-140.625
1742469247.422,-559.57,-676.27,312.5,-759.766
1742469247.379,469.727,632.324,-163.086,-21.973
1742469247.383,-549.805,-644.531,-93.262,-778.32
1742469247.387,-805.176,-574.219,-126.953,-815.918
1742469247.391,534.668,489.258,119.141,-141.602
1742469247.395,-571.289,-574.219,106.934,-835.938
1742469247.399,308.594,385.742,261.719,-48.828
1742469247.403,-426.758,-447.754,238.77,-598.145
1742469247.406,-167.969,-22.949,282.715,-444.336
1742469247.41,154.297,-52.246,348.633,-469.727
1742469247.414,-583.984,-398.438,305.664,-637.207
1742469247.418,367.676,397.461,444.824,-140.625
1742469247.422,-559.57,-676.27,312.5,-759.766
1742469247.438,357.91,373.535,314.941,274.414
1742469247.442,-596.68,-597.168,215.332,-608.398
1742469247.446,-581.543,-357.91,173.34,-494.629
1742469247.45,441.406,330.078,168.945,-170.41
1742469247.454,-679.199,-686.035,-87.891,-684.57
1742469247.458,434.082,492.188,23.926,383.789
1742469247.462,-612.305,-608.887,-50.781,-654.297
1742469247.465,-446.777,-314.941,-82.031,-244.629
1742469247.469,291.992,6.348,15.625,-151.367
1742469247.473,-508.789,-452.148,-134.766,-403.809
1742469247.477,382.324,374.023,-80.566,255.371
1742469247.481,-250.488,-330.078,109.863,-279.785
1742469247.438,357.91,373.535,314.941,274.414
1742469247.442,-596.68,-597.168,215.332,-608.398
1742469247.446,-581.543,-357.91,173.34,-494.629
1742469247.45,441.406,330.078,168.945,-170.41
1742469247.454,-679.199,-686.035,-87.891,-684.57
1742469247.458,434.082,492.188,23.926,383.789
1742469247.462,-612.305,-608.887,-50.781,-654.297
1742469247.465,-446.777,-314.941,-82.031,-244.629
1742469247.469,291.992,6.348,15.625,-151.367
1742469247.473,-508.789,-452.148,-134.766,-403.809
1742469247.477,382.324,374.023,-80.566,255.371
1742469247.481,-250.488,-330.078,109.863,-279.785
1742469247.483,178.711,147.949,286.621,192.383
1742469247.487,-392.578,-440.918,-39.551,-405.273
1742469247.491,536.621,489.746,-176.27,554.688
1742469247.495,-62.5,-246.094,-42.969,-40.039
1742469247.499,-419.922,-163.086,74.707,-133.301
1742469247.503,521.484,519.043,309.57,62.5
1742469247.507,-733.887,-725.098,164.551,-805.176
1742469247.51,537.109,562.988,125.488,661.621
1742469247.514,-235.352,-416.016,-26.855,-354.492
1742469247.518,-1000.0,-747.07,-299.316,-984.375
1742469247.522,895.508,999.512,92.773,442.383
1742469247.526,280.762,-245.605,758.301,-371.094
1742469247.483,178.711,147.949,286.621,192.383
1742469247.487,-392.578,-440.918,-39.551,-405.273
1742469247.491,536.621,489.746,-176.27,554.688
1742469247.495,-62.5,-246.094,-42.969,-40.039
1742469247.499,-419.922,-163.086,74.707,-133.301
1742469247.503,521.484,519.043,309.57,62.5
1742469247.507,-733.887,-725.098,164.551,-805.176
1742469247.51,537.109,562.988,125.488,661.621
1742469247.514,-235.352,-416.016,-26.855,-354.492
1742469247.518,-1000.0,-747.07,-299.316,-984.375
1742469247.522,895.508,999.512,92.773,442.383
1742469247.526,280.762,-245.605,758.301,-371.094
1742469247.573,414.551,-406.738,961.426,943.848
1742469247.577,-955.078,-625.488,877.441,930.176
1742469247.581,632.324,899.414,806.641,999.512
1742469247.585,-64.941,-396.484,620.117,572.266
1742469247.589,-136.23,45.41,704.102,703.125
1742469247.593,999.512,902.344,763.184,999.512
1742469247.597,-614.258,-606.445,440.918,-266.602
1742469247.6,491.211,453.125,378.418,547.852
1742469247.604,490.234,-245.605,255.371,765.137
1742469247.608,-620.117,-627.93,214.844,220.703
1742469247.612,660.156,585.449,340.82,601.074
1742469247.616,-613.281,-686.035,166.992,-653.32
1742469247.573,414.551,-406.738,961.426,943.848
1742469247.577,-955.078,-625.488,877.441,930.176
1742469247.581,632.324,899.414,806.641,999.512
1742469247.585,-64.941,-396.484,620.117,572.266
1742469247.589,-136.23,45.41,704.102,703.125
1742469247.593,999.512,902.344,763.184,999.512
1742469247.597,-614.258,-606.445,440.918,-266.602
1742469247.6,491.211,453.125,378.418,547.852
1742469247.604,490.234,-245.605,255.371,765.137
1742469247.608,-620.117,-627.93,214.844,220.703
1742469247.612,660.156,585.449,340.82,601.074
1742469247.616,-613.281,-686.035,166.992,-653.32
1742469247.619,157.227,270.508,-91.797,365.723
1742469247.623,229.492,-84.961,-123.535,140.137
1742469247.627,-231.445,-173.34,79.102,54.199
1742469247.631,642.09,492.188,218.75,551.27
1742469247.635,-463.867,-537.598,113.77,-416.504
1742469247.639,322.754,388.672,332.031,484.863
1742469247.643,-277.344,-294.922,506.836,-253.418
1742469247.646,446.777,265.137,781.25,452.148
1742469247.65,3.418,-324.707,761.23,185.059
1742469247.654,-79.59,-114.258,796.875,173.34
1742469247.658,316.895,-134.766,994.141,245.605
1742469247.662,-246.094,-167.969,958.984,65.918
1742469247.664,684.082,627.93,965.82,698.73
1742469247.668,-398.926,-541.992,967.773,-415.527
1742469247.672,450.684,460.938,967.285,520.996
1742469247.676,-336.914,-422.852,967.285,-233.398
1742469247.68,46.875,177.246,966.797,257.812
1742469247.684,645.02,625.488,966.797,354.492
1742469247.688,-604.492,-398.926,967.285,-526.367
1742469247.691,458.008,389.16,966.797,516.113
1742469247.695,-414.062,-567.383,967.285,-413.086
1742469247.699,550.781,627.93,966.797,624.023
1742469247.703,562.5,460.449,966.797,364.746
1742469247.707,-811.035,-784.668,967.285,-533.203
1742469247.708,472.168,505.371,966.797,616.699
1742469247.712,-565.43,-586.914,967.285,-542.48
1742469247.716,163.574,161.133,966.797,359.863
1742469247.72,921.387,744.629,966.797,767.09
1742469247.724,-612.305,-623.047,967.285,-458.008
1742469247.728,550.293,564.453,967.285,682.129
1742469247.732,-349.609,-451.66,967.285,-277.344
1742469247.735,-117.188,-15.137,966.797,229.492
1742469247.739,942.871,659.668,966.797,887.695
1742469247.743,-636.23,-711.914,967.285,-508.789
1742469247.747,650.879,652.832,967.285,762.207
1742469247.751,176.758,-45.898,966.797,225.098
1742469247.708,472.168,505.371,966.797,616.699
1742469247.712,-565.43,-586.914,967.285,-542.48
1742469247.716,163.574,161.133,966.797,359.863
1742469247.72,921.387,744.629,966.797,767.09
1742469247.724,-612.305,-623.047,967.285,-458.008
1742469247.728,550.293,564.453,967.285,682.129
1742469247.732,-349.609,-451.66,967.285,-277.344
1742469247.735,-117.188,-15.137,966.797,229.492
1742469247.739,942.871,659.668,966.797,887.695
1742469247.743,-636.23,-711.914,967.285,-508.789
1742469247.747,650.879,652.832,967.285,762.207
1742469247.751,176.758,-45.898,966.797,225.098
1742469247.754,-430.176,-166.504,966.797,-48.828
1742469247.758,416.016,9.766,967.285,417.969
1742469247.762,-381.348,-512.207,967.285,-187.5
1742469247.766,465.332,562.012,966.797,604.98
1742469247.77,-410.645,-489.746,967.285,-418.945
1742469247.774,557.617,526.367,967.285,568.359
1742469247.778,295.41,-44.922,966.797,284.18
1742469247.781,-697.266,-699.707,967.285,-323.73
1742469247.785,562.012,520.996,966.797,602.539
1742469247.789,-361.328,-447.754,967.285,-414.062
1742469247.793,439.941,447.754,966.797,449.707
1742469247.797,-395.508,-383.789,966.797,-415.039
1742469247.754,-430.176,-166.504,966.797,-48.828
1742469247.758,416.016,9.766,967.285,417.969
1742469247.762,-381.348,-512.207,967.285,-187.5
1742469247.766,465.332,562.012,966.797,604.98
1742469247.77,-410.645,-489.746,967.285,-418.945
1742469247.774,557.617,526.367,967.285,568.359
1742469247.778,295.41,-44.922,966.797,284.18
1742469247.781,-697.266,-699.707,967.285,-323.73
1742469247.785,562.012,520.996,966.797,602.539
1742469247.789,-361.328,-447.754,967.285,-414.062
1742469247.793,439.941,447.754,966.797,449.707
1742469247.797,-395.508,-383.789,966.797,-415.039
1742469247.813,-278.809,-90.332,967.773,-51.27
1742469247.817,656.738,520.02,964.355,454.59
1742469247.821,-541.016,-421.875,970.703,-546.875
1742469247.825,303.223,401.855,961.914,269.531
1742469247.829,-365.234,-476.562,918.945,-463.867
1742469247.833,519.043,517.578,953.125,497.07
1742469247.837,-153.32,-241.211,966.797,-254.395
1742469247.84,-727.051,-555.664,968.75,-515.625
1742469247.844,362.305,307.617,920.41,132.324
1742469247.848,-619.629,-521.973,857.422,-751.465
1742469247.852,391.113,487.793,952.637,390.625
1742469247.856,-565.918,-480.469,963.867,-596.68
1742469247.813,-278.809,-90.332,967.773,-51.27
1742469247.817,656.738,520.02,964.355,454.59
1742469247.821,-541.016,-421.875,970.703,-546.875
1742469247.825,303.223,401.855,961.914,269.531
1742469247.829,-365.234,-476.562,918.945,-463.867
1742469247.833,519.043,517.578,953.125,497.07
1742469247.837,-153.32,-241.211,966.797,-254.395
1742469247.84,-727.051,-555.664,968.75,-515.625
1742469247.844,362.305,307.617,920.41,132.324
1742469247.848,-619.629,-521.973,857.422,-751.465
1742469247.852,391.113,487.793,952.637,390.625
1742469247.856,-565.918,-480.469,963.867,-596.68
1742469247.873,-176.758,214.355,985.84,-266.602
1742469247.877,250.0,91.797,887.695,-100.586
1742469247.881,-724.609,-658.691,726.562,-645.508
1742469247.885,554.688,657.227,916.992,622.559
1742469247.889,-400.879,-418.457,979.492,-404.785
1742469247.893,466.797,482.91,955.078,482.422
1742469247.897,155.273,-61.523,941.895,35.645
1742469247.9,-910.645,-768.555,801.27,-646.973
1742469247.904,483.398,522.461,677.246,595.703
1742469247.908,-453.125,-544.434,524.414,-496.582
1742469247.912,511.719,510.742,727.539,523.926
1742469247.916,265.625,46.387,794.922,59.082
1742469247.873,-176.758,214.355,985.84,-266.602
1742469247.877,250.0,91.797,887.695,-100.586
1742469247.881,-724.609,-658.691,726.562,-645.508
1742469247.885,554.688,657.227,916.992,622.559
1742469247.889,-400.879,-418.457,979.492,-404.785
1742469247.893,466.797,482.91,955.078,482.422
1742469247.897,155.273,-61.523,941.895,35.645
1742469247.9,-910.645,-768.555,801.27,-646.973
1742469247.904,483.398,522.461,677.246,595.703
1742469247.908,-453.125,-544.434,524.414,-496.582
1742469247.912,511.719,510.742,727.539,523.926
1742469247.916,265.625,46.387,794.922,59.082
1742469247.918,-887.207,-829.102,442.383,-722.656
1742469247.922,414.062,477.539,441.895,552.246
1742469247.926,-322.754,-346.191,435.547,-336.914
1742469247.93,385.254,319.336,575.195,357.422
1742469247.934,-246.094,-255.371,443.848,-245.605
1742469247.938,218.262,386.23,522.461,311.523
1742469247.942,672.852,409.18,552.246,540.527
1742469247.945,-592.773,-566.406,295.898,-415.039
1742469247.949,434.57,305.176,423.828,485.84
1742469247.953,-397.949,-562.012,305.176,-405.762
1742469247.957,539.551,533.203,238.77,580.566
1742469247.961,9.766,-201.66,320.312,21.484
1742469247.918,-887.207,-829.102,442.383,-722.656
1742469247.922,414.062,477.539,441.895,552.246
1742469247.926,-322.754,-346.191,435.547,-336.914
1742469247.93,385.254,319.336,575.195,357.422
1742469247.934,-246.094,-255.371,443.848,-245.605
1742469247.938,218.262,386.23,522.461,311.523
1742469247.942,672.852,409.18,552.246,540.527
1742469247.945,-592.773,-566.406,295.898,-415.039
1742469247.949,434.57,305.176,423.828,485.84
1742469247.953,-397.949,-562.012,305.176,-405.762
1742469247.957,539.551,533.203,238.77,580.566
1742469247.961,9.766,-201.66,320.312,21.484
1742469247.949,-346.191,-194.824,446.289,-85.938
1742469247.953,631.348,466.309,419.434,517.09
1742469247.957,-458.008,-511.23,277.832,-351.562
1742469247.961,269.531,325.195,182.617,401.855
1742469247.965,-240.723,-282.715,143.555,-264.16
1742469247.969,318.848,241.699,612.793,344.727
1742469247.973,-265.137,-299.805,628.418,-188.965
1742469247.976,137.207,226.562,487.305,218.75
1742469247.98,-262.695,-329.102,230.469,-310.547
1742469247.984,-511.23,-256.836,193.359,-276.855
1742469247.988,952.637,965.82,588.379,807.129
1742469247.992,-759.766,-783.203,596.68,-794.922
1742469247.949,-346.191,-194.824,446.289,-85.938
1742469247.953,631.348,466.309,419.434,517.09
1742469247.957,-458.008,-511.23,277.832,-351.562
1742469247.961,269.531,325.195,182.617,401.855
1742469247.965,-240.723,-282.715,143.555,-264.16
1742469247.969,318.848,241.699,612.793,344.727
1742469247.973,-265.137,-299.805,628.418,-188.965
1742469247.976,137.207,226.562,487.305,218.75
1742469247.98,-262.695,-329.102,230.469,-310.547
1742469247.984,-511.23,-256.836,193.359,-276.855
1742469247.988,952.637,965.82,588.379,807.129
1742469247.992,-759.766,-783.203,596.68,-794.922
1742469247.949,-346.191,-194.824,446.289,-85.938
1742469247.953,631.348,466.309,419.434,517.09
1742469247.957,-458.008,-511.23,277.832,-351.562
1742469247.961,269.531,325.195,182.617,401.855
1742469247.965,-240.723,-282.715,143.555,-264.16
1742469247.969,318.848,241.699,612.793,344.727
1742469247.973,-265.137,-299.805,628.418,-188.965
1742469247.976,137.207,226.562,487.305,218.75
1742469247.98,-262.695,-329.102,230.469,-310.547
1742469247.984,-511.23,-256.836,193.359,-276.855
1742469247.988,952.637,965.82,588.379,807.129
1742469247.992,-759.766,-783.203,596.68,-794.922
1742469247.993,26.367,50.293,454.59,245.605
1742469247.997,247.07,-32.227,356.934,58.105
1742469248.001,-661.621,-562.988,379.395,-536.621
1742469248.005,555.176,604.004,558.594,602.539
1742469248.009,-397.461,-475.098,524.414,-451.66
1742469248.013,501.465,472.656,766.113,496.094
1742469248.017,-208.496,-352.051,704.59,-300.293
1742469248.02,-934.57,-824.219,292.48,-696.289
1742469248.024,506.836,507.812,213.867,565.43
1742469248.028,-340.82,-402.344,258.789,-406.25
1742469248.032,387.695,342.285,413.086,390.625
1742469248.036,-431.641,-454.102,175.293,-386.23
1742469247.993,26.367,50.293,454.59,245.605
1742469247.997,247.07,-32.227,356.934,58.105
1742469248.001,-661.621,-562.988,379.395,-536.621
1742469248.005,555.176,604.004,558.594,602.539
1742469248.009,-397.461,-475.098,524.414,-451.66
1742469248.013,501.465,472.656,766.113,496.094
1742469248.017,-208.496,-352.051,704.59,-300.293
1742469248.02,-934.57,-824.219,292.48,-696.289
1742469248.024,506.836,507.812,213.867,565.43
1742469248.028,-340.82,-402.344,258.789,-406.25
1742469248.032,387.695,342.285,413.086,390.625
1742469248.036,-431.641,-454.102,175.293,-386.23
1742469248.039,31.738,165.039,204.102,191.406
1742469248.043,652.832,415.527,294.922,510.742
1742469248.047,-584.473,-575.684,61.035,-457.52
1742469248.051,419.434,472.168,238.77,516.602
1742469248.055,-331.543,-374.023,253.418,-371.582
1742469248.059,367.188,351.562,365.234,338.379
1742469248.063,-334.961,-425.293,364.746,-342.285
1742469248.066,3.906,48.34,457.031,129.883
1742469248.07,758.789,502.441,476.074,569.336
1742469248.074,-791.992,-822.754,212.891,-733.398
1742469248.078,625.0,682.129,307.129,678.223
1742469248.082,-253.906,-314.941,306.152,-309.082
1742469248.084,-513.672,-301.758,195.801,-194.336
1742469248.088,749.512,548.828,179.199,721.191
1742469248.092,-341.797,-414.062,260.742,-337.891
1742469248.096,233.398,283.203,458.008,322.754
1742469248.1,-298.34,-395.02,212.402,-330.078
1742469248.104,467.285,412.598,446.777,425.781
1742469248.108,-340.82,-483.398,533.203,-355.957
1742469248.111,-652.344,-516.602,349.609,-335.449
1742469248.115,578.125,487.793,341.309,454.59
1742469248.119,-502.93,-524.902,350.098,-517.578
1742469248.123,447.266,478.516,533.203,548.828
1742469248.127,-434.082,-443.848,406.25,-399.902
1742469248.084,-513.672,-301.758,195.801,-194.336
1742469248.088,749.512,548.828,179.199,721.191
1742469248.092,-341.797,-414.062,260.742,-337.891
1742469248.096,233.398,283.203,458.008,322.754
1742469248.1,-298.34,-395.02,212.402,-330.078
1742469248.104,467.285,412.598,446.777,425.781
1742469248.108,-340.82,-483.398,533.203,-355.957
1742469248.111,-652.344,-516.602,349.609,-335.449
1742469248.115,578.125,487.793,341.309,454.59
1742469248.119,-502.93,-524.902,350.098,-517.578
1742469248.123,447.266,478.516,533.203,548.828
1742469248.127,-434.082,-443.848,406.25,-399.902
1742469248.128,135.742,228.516,384.277,273.438
1742469248.132,339.355,162.598,353.027,163.574
1742469248.136,-745.605,-658.691,204.59,-658.203
1742469248.14,490.234,567.383,361.328,540.039
1742469248.144,-370.117,-368.164,295.41,-406.738
1742469248.148,368.164,301.758,464.355,346.68
1742469248.152,-290.039,-281.738,413.574,-281.738
1742469248.155,-172.852,73.242,275.879,-105.957
1742469248.159,-62.988,-200.684,55.664,-148.926
1742469248.163,-565.918,-438.477,-0.488,-365.234
1742469248.167,899.414,862.305,273.926,721.191
1742469248.171,-741.211,-798.34,205.078,-842.773
1742469248.128,135.742,228.516,384.277,273.438
1742469248.132,339.355,162.598,353.027,163.574
1742469248.136,-745.605,-658.691,204.59,-658.203
1742469248.14,490.234,567.383,361.328,540.039
1742469248.144,-370.117,-368.164,295.41,-406.738
1742469248.148,368.164,301.758,464.355,346.68
1742469248.152,-290.039,-281.738,413.574,-281.738
1742469248.155,-172.852,73.242,275.879,-105.957
1742469248.159,-62.988,-200.684,55.664,-148.926
1742469248.163,-565.918,-438.477,-0.488,-365.234
1742469248.167,899.414,862.305,273.926,721.191
1742469248.171,-741.211,-798.34,205.078,-842.773
1742469248.173,-396.973,-238.281,45.898,-37.109
1742469248.177,687.988,457.031,46.875,586.914
1742469248.181,-475.098,-514.648,113.281,-468.262
1742469248.185,333.984,418.457,186.035,422.852
1742469248.189,-455.566,-404.297,-49.805,-427.246
1742469248.193,231.934,285.156,78.613,250.488
1742469248.197,-227.051,-372.07,110.352,-264.648
1742469248.2,-524.414,-337.891,62.988,-262.207
1742469248.204,722.656,640.137,220.703,617.676
1742469248.208,-718.262,-793.457,-9.277,-766.602
1742469248.212,494.629,470.703,-37.109,485.352
1742469248.216,17.09,-134.277,109.375,-165.039
1742469248.701,-474.121,-486.816,-159.18,-613.77
1742469248.705,284.668,290.527,-190.918,264.16
1742469248.709,-291.016,-324.707,-158.691,-330.566
1742469248.713,25.879,97.168,1.465,-0.977
1742469248.717,321.777,188.477,-5.859,128.906
1742469248.721,-299.805,-162.598,-2.441,-252.93
1742469248.725,-256.348,-254.883,-95.215,-223.633
1742469248.728,204.102,276.855,22.461,160.645
1742469248.732,-29.297,-251.465,61.523,-187.012
1742469248.736,-725.098,-606.445,-117.188,-514.16
1742469248.74,744.141,702.148,2.93,617.188
1742469248.744,-678.711,-750.977,-58.105,-783.691
1742469248.173,-396.973,-238.281,45.898,-37.109
1742469248.177,687.988,457.031,46.875,586.914
1742469248.181,-475.098,-514.648,113.281,-468.262
1742469248.185,333.984,418.457,186.035,422.852
1742469248.189,-455.566,-404.297,-49.805,-427.246
1742469248.193,231.934,285.156,78.613,250.488
1742469248.197,-227.051,-372.07,110.352,-264.648
1742469248.2,-524.414,-337.891,62.988,-262.207
1742469248.204,722.656,640.137,220.703,617.676
1742469248.208,-718.262,-793.457,-9.277,-766.602
1742469248.212,494.629,470.703,-37.109,485.352
1742469248.216,17.09,-134.277,109.375,-165.039
1742469248.173,-396.973,-238.281,45.898,-37.109
1742469248.177,687.988,457.031,46.875,586.914
1742469248.181,-475.098,-514.648,113.281,-468.262
1742469248.185,333.984,418.457,186.035,422.852
1742469248.189,-455.566,-404.297,-49.805,-427.246
1742469248.193,231.934,285.156,78.613,250.488
1742469248.197,-227.051,-372.07,110.352,-264.648
1742469248.2,-524.414,-337.891,62.988,-262.207
1742469248.204,722.656,640.137,220.703,617.676
1742469248.208,-718.262,-793.457,-9.277,-766.602
1742469248.212,494.629,470.703,-37.109,485.352
1742469248.216,17.09,-134.277,109.375,-165.039
1742469248.233,-384.277,-205.566,244.141,-249.023
1742469248.237,489.746,352.539,219.727,305.176
1742469248.241,-562.012,-564.453,102.539,-507.324
1742469248.245,287.109,380.859,121.094,376.465
1742469248.249,-311.523,-368.164,-49.316,-396.484
1742469248.253,451.172,437.5,235.352,416.504
1742469248.257,-316.406,-405.762,277.832,-423.34
1742469248.26,-898.926,-757.324,34.18,-697.754
1742469248.264,473.633,474.609,-54.199,380.371
1742469248.268,-509.277,-539.551,-134.766,-587.891
1742469248.272,509.766,518.066,236.328,527.832
1742469248.276,-251.953,-375.0,312.012,-393.555
1742469248.233,-384.277,-205.566,244.141,-249.023
1742469248.237,489.746,352.539,219.727,305.176
1742469248.241,-562.012,-564.453,102.539,-507.324
1742469248.245,287.109,380.859,121.094,376.465
1742469248.249,-311.523,-368.164,-49.316,-396.484
1742469248.253,451.172,437.5,235.352,416.504
1742469248.257,-316.406,-405.762,277.832,-423.34
1742469248.26,-898.926,-757.324,34.18,-697.754
1742469248.264,473.633,474.609,-54.199,380.371
1742469248.268,-509.277,-539.551,-134.766,-587.891
1742469248.272,509.766,518.066,236.328,527.832
1742469248.276,-251.953,-375.0,312.012,-393.555
1742469248.279,-913.574,-811.523,116.699,-676.27
1742469248.283,481.934,443.848,27.344,444.336
1742469248.287,-333.496,-376.465,48.34,-439.941
1742469248.291,256.836,277.832,351.562,291.992
1742469248.295,-311.035,-286.133,248.535,-308.594
1742469248.299,338.867,387.207,402.832,313.965
1742469248.303,-218.75,-326.66,354.004,-339.355
1742469248.306,-894.043,-794.922,9.277,-655.273
1742469248.31,710.938,705.078,201.66,772.461
1742469248.314,-640.625,-637.695,268.066,-597.168
1742469248.318,197.754,272.461,313.965,281.25
1742469248.322,217.285,68.848,247.559,-15.625
1742469248.279,-913.574,-811.523,116.699,-676.27
1742469248.283,481.934,443.848,27.344,444.336
1742469248.287,-333.496,-376.465,48.34,-439.941
1742469248.291,256.836,277.832,351.562,291.992
1742469248.295,-311.035,-286.133,248.535,-308.594
1742469248.299,338.867,387.207,402.832,313.965
1742469248.303,-218.75,-326.66,354.004,-339.355
1742469248.306,-894.043,-794.922,9.277,-655.273
1742469248.31,710.938,705.078,201.66,772.461
1742469248.314,-640.625,-637.695,268.066,-597.168
1742469248.318,197.754,272.461,313.965,281.25
1742469248.322,217.285,68.848,247.559,-15.625
1742469248.324,-752.441,-565.43,125.488,-634.766
1742469248.328,512.695,502.93,210.449,536.133
1742469248.332,-314.453,-404.785,-11.23,-371.582
1742469248.336,339.844,338.379,145.02,359.863
1742469248.34,-381.348,-334.961,90.82,-348.633
1742469248.344,227.051,383.301,83.008,258.789
1742469248.348,285.645,11.719,145.02,86.914
1742469248.351,-801.27,-776.367,39.551,-610.352
1742469248.355,603.027,590.332,98.633,668.457
1742469248.359,-585.449,-615.723,-85.449,-617.676
1742469248.363,303.223,438.477,53.223,395.508
1742469248.367,699.707,514.16,247.559,462.402
1742469248.324,-752.441,-565.43,125.488,-634.766
1742469248.328,512.695,502.93,210.449,536.133
1742469248.332,-314.453,-404.785,-11.23,-371.582
1742469248.336,339.844,338.379,145.02,359.863
1742469248.34,-381.348,-334.961,90.82,-348.633
1742469248.344,227.051,383.301,83.008,258.789
1742469248.348,285.645,11.719,145.02,86.914
1742469248.351,-801.27,-776.367,39.551,-610.352
1742469248.355,603.027,590.332,98.633,668.457
1742469248.359,-585.449,-615.723,-85.449,-617.676
1742469248.363,303.223,438.477,53.223,395.508
1742469248.367,699.707,514.16,247.559,462.402
1742469248.368,-736.328,-732.91,47.852,-674.316
1742469248.372,381.836,412.109,67.871,453.125
1742469248.376,-460.449,-388.672,-141.113,-475.098
1742469248.38,289.551,326.66,-26.367,291.504
1742469248.384,25.391,-186.035,16.113,-72.754
1742469248.388,-104.98,70.312,45.898,54.199
1742469248.392,690.918,517.578,246.094,549.805
1742469248.395,-669.922,-782.715,-53.223,-692.383
1742469248.399,454.59,429.688,-223.633,481.445
1742469248.403,-341.797,-379.883,-228.516,-340.82
1742469248.407,209.961,254.883,29.785,256.348
1742469248.411,309.082,85.938,45.898,112.793
1742469248.368,-736.328,-732.91,47.852,-674.316
1742469248.372,381.836,412.109,67.871,453.125
1742469248.376,-460.449,-388.672,-141.113,-475.098
1742469248.38,289.551,326.66,-26.367,291.504
1742469248.384,25.391,-186.035,16.113,-72.754
1742469248.388,-104.98,70.312,45.898,54.199
1742469248.392,690.918,517.578,246.094,549.805
1742469248.395,-669.922,-782.715,-53.223,-692.383
1742469248.399,454.59,429.688,-223.633,481.445
1742469248.403,-341.797,-379.883,-228.516,-340.82
1742469248.407,209.961,254.883,29.785,256.348
1742469248.411,309.082,85.938,45.898,112.793
1742469248.415,-651.367,-425.293,-59.57,-501.465
1742469248.419,472.168,501.465,-104.004,436.523
1742469248.423,-366.211,-437.012,-256.348,-416.504
1742469248.427,282.715,363.281,-33.691,329.102
1742469248.431,-434.57,-407.715,-73.242,-409.668
1742469248.435,337.402,429.688,89.844,319.336
1742469248.439,297.363,236.328,238.77,-37.598
1742469248.442,-814.941,-689.941,23.438,-617.188
1742469248.446,552.246,534.18,-7.324,662.598
1742469248.45,-512.695,-601.562,-80.566,-551.758
1742469248.454,442.383,459.961,65.43,522.949
1742469248.458,553.223,395.508,116.699,364.746
1742469248.458,-829.59,-799.805,-209.473,-727.539
1742469248.462,450.195,465.332,-102.539,557.129
1742469248.466,-440.43,-402.344,-71.289,-407.715
1742469248.47,245.117,266.113,75.684,241.211
1742469248.474,-119.141,-143.555,10.254,-229.492
1742469248.478,-471.68,-71.289,-87.891,-375.977
1742469248.482,339.844,21.973,6.836,89.844
1742469248.485,-721.68,-823.242,-54.199,-664.551
1742469248.489,484.863,620.117,-6.348,564.941
1742469248.493,-618.652,-680.176,-348.145,-668.457
1742469248.497,-497.07,-321.289,-497.07,-232.91
1742469248.501,783.691,674.316,-221.68,627.93
1742469248.458,-829.59,-799.805,-209.473,-727.539
1742469248.462,450.195,465.332,-102.539,557.129
1742469248.466,-440.43,-402.344,-71.289,-407.715
1742469248.47,245.117,266.113,75.684,241.211
1742469248.474,-119.141,-143.555,10.254,-229.492
1742469248.478,-471.68,-71.289,-87.891,-375.977
1742469248.482,339.844,21.973,6.836,89.844
1742469248.485,-721.68,-823.242,-54.199,-664.551
1742469248.489,484.863,620.117,-6.348,564.941
1742469248.493,-618.652,-680.176,-348.145,-668.457
1742469248.497,-497.07,-321.289,-497.07,-232.91
1742469248.501,783.691,674.316,-221.68,627.93
1742469248.503,-488.281,-570.312,-198.73,-597.168
1742469248.507,457.52,428.711,-227.539,487.305
1742469248.511,-425.293,-432.617,-396.973,-433.594
1742469248.515,-171.875,63.477,-277.344,-82.52
1742469248.519,605.957,418.945,-99.609,363.77
1742469248.523,-342.773,-46.875,-22.949,-281.738
1742469248.527,480.957,555.176,118.652,474.121
1742469248.53,-506.348,-632.324,-196.289,-562.988
1742469248.534,491.699,494.141,-300.293,489.258
1742469248.538,-172.363,-375.0,-371.582,-232.91
1742469248.542,-562.988,-442.871,-315.918,-294.922
1742469248.546,904.297,827.637,4.883,839.844
1742469248.503,-488.281,-570.312,-198.73,-597.168
1742469248.507,457.52,428.711,-227.539,487.305
1742469248.511,-425.293,-432.617,-396.973,-433.594
1742469248.515,-171.875,63.477,-277.344,-82.52
1742469248.519,605.957,418.945,-99.609,363.77
1742469248.523,-342.773,-46.875,-22.949,-281.738
1742469248.527,480.957,555.176,118.652,474.121
1742469248.53,-506.348,-632.324,-196.289,-562.988
1742469248.534,491.699,494.141,-300.293,489.258
1742469248.538,-172.363,-375.0,-371.582,-232.91
1742469248.542,-562.988,-442.871,-315.918,-294.922
1742469248.546,904.297,827.637,4.883,839.844
1742469248.549,-724.609,-767.578,-370.605,-769.043
1742469248.553,276.367,372.559,-500.0,382.324
1742469248.557,649.902,311.523,-329.102,409.18
1742469248.561,-616.211,-619.141,-298.828,-519.531
1742469248.565,432.129,484.375,-166.992,471.68
1742469248.569,-316.406,-330.566,-126.465,-404.785
1742469248.573,245.605,285.645,-164.062,256.836
1742469248.576,-483.398,-495.605,-422.363,-431.152
1742469248.58,106.445,168.457,-259.766,159.18
1742469248.584,520.02,218.75,-130.371,240.723
1742469248.588,-666.992,-642.09,-172.852,-622.07
1742469248.592,423.34,479.492,53.223,424.805
1742469248.549,-724.609,-767.578,-370.605,-769.043
1742469248.553,276.367,372.559,-500.0,382.324
1742469248.557,649.902,311.523,-329.102,409.18
1742469248.561,-616.211,-619.141,-298.828,-519.531
1742469248.565,432.129,484.375,-166.992,471.68
1742469248.569,-316.406,-330.566,-126.465,-404.785
1742469248.573,245.605,285.645,-164.062,256.836
1742469248.576,-483.398,-495.605,-422.363,-431.152
1742469248.58,106.445,168.457,-259.766,159.18
1742469248.584,520.02,218.75,-130.371,240.723
1742469248.588,-666.992,-642.09,-172.852,-622.07
1742469248.592,423.34,479.492,53.223,424.805
1742469248.61,-286.621,-347.656,-145.996,-391.113
1742469248.614,339.844,267.578,-52.246,338.867
1742469248.618,-348.145,-371.094,-164.551,-288.086
1742469248.622,173.34,192.871,-207.031,232.422
1742469248.626,291.992,142.578,-217.285,205.078
1742469248.63,103.516,314.941,-116.699,197.266
1742469248.634,680.664,435.547,-1.465,556.152
1742469248.637,-633.789,-772.461,-283.203,-623.047
1742469248.641,420.898,461.426,-211.426,469.727
1742469248.645,-431.641,-403.32,-267.578,-425.293
1742469248.649,178.711,336.426,-116.699,250.488
1742469248.653,686.035,515.137,56.152,421.387
1742469248.61,-286.621,-347.656,-145.996,-391.113
1742469248.614,339.844,267.578,-52.246,338.867
1742469248.618,-348.145,-371.094,-164.551,-288.086
1742469248.622,173.34,192.871,-207.031,232.422
1742469248.626,291.992,142.578,-217.285,205.078
1742469248.63,103.516,314.941,-116.699,197.266
1742469248.634,680.664,435.547,-1.465,556.152
1742469248.637,-633.789,-772.461,-283.203,-623.047
1742469248.641,420.898,461.426,-211.426,469.727
1742469248.645,-431.641,-403.32,-267.578,-425.293
1742469248.649,178.711,336.426,-116.699,250.488
1742469248.653,686.035,515.137,56.152,421.387
1742469248.654,-705.078,-729.004,-158.203,-662.109
1742469248.658,341.309,384.277,-111.328,439.941
1742469248.662,-407.715,-367.188,-193.359,-420.898
1742469248.666,426.758,430.664,67.383,400.391
1742469248.67,-54.688,-138.184,204.59,-175.781
1742469248.674,-476.074,-107.422,160.645,-371.094
1742469248.678,728.027,683.105,230.957,447.266
1742469248.681,-953.613,-979.492,-158.203,-1000.0
1742469248.685,133.789,334.473,-296.875,174.316
1742469248.689,345.215,137.207,-126.953,-28.809
1742469248.693,-657.227,-546.387,32.227,-602.539
1742469248.697,480.957,494.141,80.566,367.676
1742469248.654,-705.078,-729.004,-158.203,-662.109
1742469248.658,341.309,384.277,-111.328,439.941
1742469248.662,-407.715,-367.188,-193.359,-420.898
1742469248.666,426.758,430.664,67.383,400.391
1742469248.67,-54.688,-138.184,204.59,-175.781
1742469248.674,-476.074,-107.422,160.645,-371.094
1742469248.678,728.027,683.105,230.957,447.266
1742469248.681,-953.613,-979.492,-158.203,-1000.0
1742469248.685,133.789,334.473,-296.875,174.316
1742469248.689,345.215,137.207,-126.953,-28.809
1742469248.693,-657.227,-546.387,32.227,-602.539
1742469248.697,480.957,494.141,80.566,367.676
1742469248.743,97.656,214.355,-118.164,249.023
1742469248.747,655.762,372.559,-115.723,338.379
1742469248.751,-697.266,-667.969,-206.055,-697.266
1742469248.755,380.371,467.773,-25.879,430.176
1742469248.759,-442.871,-401.855,-148.438,-478.516
1742469248.763,290.039,328.613,-62.012,282.227
1742469248.767,-242.676,-416.992,-56.152,-294.434
1742469248.77,-657.227,-494.141,-271.484,-356.445
1742469248.774,909.18,860.352,-242.188,730.469
1742469248.778,-756.348,-838.379,-355.957,-854.98
1742469248.782,-26.367,30.762,-402.344,252.93
1742469248.786,814.453,567.383,-223.633,569.336
1742469248.743,97.656,214.355,-118.164,249.023
1742469248.747,655.762,372.559,-115.723,338.379
1742469248.751,-697.266,-667.969,-206.055,-697.266
1742469248.755,380.371,467.773,-25.879,430.176
1742469248.759,-442.871,-401.855,-148.438,-478.516
1742469248.763,290.039,328.613,-62.012,282.227
1742469248.767,-242.676,-416.992,-56.152,-294.434
1742469248.77,-657.227,-494.141,-271.484,-356.445
1742469248.774,909.18,860.352,-242.188,730.469
1742469248.778,-756.348,-838.379,-355.957,-854.98
1742469248.782,-26.367,30.762,-402.344,252.93
1742469248.786,814.453,567.383,-223.633,569.336
1742469248.788,-576.172,-635.742,-149.902,-602.051
1742469248.792,360.84,410.645,-131.348,459.473
1742469248.796,-483.887,-436.523,-313.477,-438.477
1742469248.8,312.988,380.859,-183.594,333.984
1742469248.804,412.598,211.914,-51.758,157.227
1742469248.808,-462.891,-175.781,-3.418,-294.434
1742469248.812,781.25,833.984,163.574,685.547
1742469248.815,-661.133,-704.102,-133.789,-731.445
1742469248.819,243.652,304.688,-120.117,315.43
1742469248.823,288.086,8.301,42.48,8.301
1742469248.827,-587.402,-460.449,98.633,-429.688
1742469248.831,819.824,824.707,415.039,749.512
1742469248.833,-732.422,-789.062,106.445,-821.289
1742469248.837,-138.672,83.008,-145.996,58.105
1742469248.841,655.762,439.453,-83.984,466.797
1742469248.845,-495.117,-512.695,-65.918,-383.789
1742469248.849,352.539,371.582,50.293,375.0
1742469248.853,-217.285,-181.152,79.59,-295.41
1742469248.857,172.852,169.922,-1.953,181.152
1742469248.86,-352.539,-445.312,-294.922,-411.133
1742469248.864,476.562,458.984,-204.59,441.895
1742469248.868,-124.512,-318.359,-241.699,-219.238
1742469248.872,-810.547,-607.91,-350.098,-608.887
1742469248.876,604.98,621.094,-229.98,531.738
1742469248.833,-732.422,-789.062,106.445,-821.289
1742469248.837,-138.672,83.008,-145.996,58.105
1742469248.841,655.762,439.453,-83.984,466.797
1742469248.845,-495.117,-512.695,-65.918,-383.789
1742469248.849,352.539,371.582,50.293,375.0
1742469248.853,-217.285,-181.152,79.59,-295.41
1742469248.857,172.852,169.922,-1.953,181.152
1742469248.86,-352.539,-445.312,-294.922,-411.133
1742469248.864,476.562,458.984,-204.59,441.895
1742469248.868,-124.512,-318.359,-241.699,-219.238
1742469248.872,-810.547,-607.91,-350.098,-608.887
1742469248.876,604.98,621.094,-229.98,531.738
1742469248.879,-404.297,-477.051,-241.211,-494.629
1742469248.883,449.219,417.48,-21.973,435.547
1742469248.887,-345.215,-387.207,-60.547,-351.562
1742469248.891,-161.621,-58.594,-162.598,-1.953
1742469248.895,411.621,315.43,-150.879,248.535
1742469248.899,-125.488,203.613,36.133,-41.016
1742469248.903,602.051,557.617,105.957,584.473
1742469248.906,-503.906,-654.297,-299.805,-521.484
1742469248.91,425.781,476.074,-243.164,469.238
1742469248.914,-499.023,-537.109,-410.645,-495.605
1742469248.918,-298.828,-183.594,-348.145,-83.496
1742469248.922,910.645,865.723,111.816,819.824
1742469248.879,-404.297,-477.051,-241.211,-494.629
1742469248.883,449.219,417.48,-21.973,435.547
1742469248.887,-345.215,-387.207,-60.547,-351.562
1742469248.891,-161.621,-58.594,-162.598,-1.953
1742469248.895,411.621,315.43,-150.879,248.535
1742469248.899,-125.488,203.613,36.133,-41.016
1742469248.903,602.051,557.617,105.957,584.473
1742469248.906,-503.906,-654.297,-299.805,-521.484
1742469248.91,425.781,476.074,-243.164,469.238
1742469248.914,-499.023,-537.109,-410.645,-495.605
1742469248.918,-298.828,-183.594,-348.145,-83.496
1742469248.922,910.645,865.723,111.816,819.824
1742469248.924,-537.109,-544.922,-38.086,-608.887
1742469248.928,295.41,287.598,-141.602,330.566
1742469248.932,-427.246,-453.125,-424.805,-409.18
1742469248.936,71.777,244.141,-364.746,179.688
1742469248.94,767.578,644.531,-20.02,536.133
1742469248.944,-563.477,-470.215,-86.426,-559.082
1742469248.948,201.66,105.469,-314.453,195.801
1742469248.951,-451.172,-596.68,-572.754,-526.367
1742469248.955,434.082,437.5,-419.434,374.023
1742469248.959,-200.684,-278.32,-319.824,-264.648
1742469248.963,30.273,104.492,-123.535,63.477
1742469248.967,269.531,89.844,-175.781,-0.977
1742469248.924,-537.109,-544.922,-38.086,-608.887
1742469248.928,295.41,287.598,-141.602,330.566
1742469248.932,-427.246,-453.125,-424.805,-409.18
1742469248.936,71.777,244.141,-364.746,179.688
1742469248.94,767.578,644.531,-20.02,536.133
1742469248.944,-563.477,-470.215,-86.426,-559.082
1742469248.948,201.66,105.469,-314.453,195.801
1742469248.951,-451.172,-596.68,-572.754,-526.367
1742469248.955,434.082,437.5,-419.434,374.023
1742469248.959,-200.684,-278.32,-319.824,-264.648
1742469248.963,30.273,104.492,-123.535,63.477
1742469248.967,269.531,89.844,-175.781,-0.977
1742469248.984,-763.672,-662.109,-398.438,-702.637
1742469248.988,431.641,500.488,-328.125,459.473
1742469248.992,-288.574,-326.172,-345.703,-355.957
1742469248.996,301.758,287.109,-167.969,296.387
1742469249.0,-251.465,-185.059,-194.824,-245.605
1742469249.004,-51.27,62.5,-200.684,-90.332
1742469249.008,-404.297,-393.555,-291.016,-450.195
1742469249.011,-62.012,88.867,-300.293,6.836
1742469249.015,304.688,26.855,-367.188,83.984
1742469249.019,-630.859,-602.051,-463.379,-492.676
1742469249.023,586.914,683.594,-303.711,633.301
1742469249.027,-524.414,-515.625,-381.348,-503.418
1742469248.984,-763.672,-662.109,-398.438,-702.637
1742469248.988,431.641,500.488,-328.125,459.473
1742469248.992,-288.574,-326.172,-345.703,-355.957
1742469248.996,301.758,287.109,-167.969,296.387
1742469249.0,-251.465,-185.059,-194.824,-245.605
1742469249.004,-51.27,62.5,-200.684,-90.332
1742469249.008,-404.297,-393.555,-291.016,-450.195
1742469249.011,-62.012,88.867,-300.293,6.836
1742469249.015,304.688,26.855,-367.188,83.984
1742469249.019,-630.859,-602.051,-463.379,-492.676
1742469249.023,586.914,683.594,-303.711,633.301
1742469249.027,-524.414,-515.625,-381.348,-503.418
1742469249.029,250.488,248.047,-380.371,287.598
1742469249.033,-243.164,-338.867,-380.859,-360.352
1742469249.037,-625.488,-435.547,-314.453,-485.352
1742469249.041,419.434,363.281,-233.398,109.863
1742469249.045,-693.848,-640.137,-349.609,-819.336
1742469249.049,453.125,572.266,46.387,495.117
1742469249.053,-472.168,-556.152,82.52,-565.43
1742469249.056,-1000.0,-828.125,-181.641,-943.359
1742469249.06,665.039,773.926,-58.594,524.902
1742469249.064,-626.953,-717.773,-210.938,-797.363
1742469249.068,-966.797,-771.973,-457.52,-895.508
1742469249.072,517.578,592.285,-272.461,431.152
1742469249.029,250.488,248.047,-380.371,287.598
1742469249.033,-243.164,-338.867,-380.859,-360.352
1742469249.037,-625.488,-435.547,-314.453,-485.352
1742469249.041,419.434,363.281,-233.398,109.863
1742469249.045,-693.848,-640.137,-349.609,-819.336
1742469249.049,453.125,572.266,46.387,495.117
1742469249.053,-472.168,-556.152,82.52,-565.43
1742469249.056,-1000.0,-828.125,-181.641,-943.359
1742469249.06,665.039,773.926,-58.594,524.902
1742469249.064,-626.953,-717.773,-210.938,-797.363
1742469249.068,-966.797,-771.973,-457.52,-895.508
1742469249.072,517.578,592.285,-272.461,431.152
1742469249.074,-511.23,-473.145,-253.906,-575.684
1742469249.078,214.355,259.766,-268.066,106.934
1742469249.082,-339.844,-397.461,-474.609,-424.805
1742469249.086,-327.637,-43.945,-422.852,-239.746
1742469249.09,716.309,591.797,-151.367,423.828
1742469249.094,-496.582,-373.047,-199.219,-545.41
1742469249.098,284.668,357.91,-349.121,230.957
1742469249.101,-380.859,-500.488,-594.238,-476.074
1742469249.105,398.438,398.926,-535.156,389.16
1742469249.109,-170.898,-330.078,-462.402,-287.109
1742469249.113,-389.16,-276.367,-254.883,-201.172
1742469249.117,917.969,837.402,46.875,655.762
1742469249.074,-511.23,-473.145,-253.906,-575.684
1742469249.078,214.355,259.766,-268.066,106.934
1742469249.082,-339.844,-397.461,-474.609,-424.805
1742469249.086,-327.637,-43.945,-422.852,-239.746
1742469249.09,716.309,591.797,-151.367,423.828
1742469249.094,-496.582,-373.047,-199.219,-545.41
1742469249.098,284.668,357.91,-349.121,230.957
1742469249.101,-380.859,-500.488,-594.238,-476.074
1742469249.105,398.438,398.926,-535.156,389.16
1742469249.109,-170.898,-330.078,-462.402,-287.109
1742469249.113,-389.16,-276.367,-254.883,-201.172
1742469249.117,917.969,837.402,46.875,655.762
1742469249.118,-758.301,-772.461,-204.59,-868.652
1742469249.122,294.434,288.086,-229.004,367.676
1742469249.126,251.465,-89.355,-96.68,62.012
1742469249.13,-284.18,-195.801,85.449,-145.02
1742469249.134,643.555,542.969,198.73,532.227
1742469249.138,-381.348,-337.891,230.469,-353.027
1742469249.142,270.996,416.992,248.047,378.418
1742469249.145,-305.664,-363.281,-43.945,-320.801
1742469249.149,476.562,418.945,88.379,446.777
1742469249.153,-291.504,-409.18,62.988,-279.785
1742469249.157,-490.723,-340.82,-33.203,-104.004
1742469249.161,796.387,687.5,104.004,704.102
1742469249.118,-758.301,-772.461,-204.59,-868.652
1742469249.122,294.434,288.086,-229.004,367.676
1742469249.126,251.465,-89.355,-96.68,62.012
1742469249.13,-284.18,-195.801,85.449,-145.02
1742469249.134,643.555,542.969,198.73,532.227
1742469249.138,-381.348,-337.891,230.469,-353.027
1742469249.142,270.996,416.992,248.047,378.418
1742469249.145,-305.664,-363.281,-43.945,-320.801
1742469249.149,476.562,418.945,88.379,446.777
1742469249.153,-291.504,-409.18,62.988,-279.785
1742469249.157,-490.723,-340.82,-33.203,-104.004
1742469249.161,796.387,687.5,104.004,704.102
1742469249.165,-509.277,-573.242,167.48,-521.973
1742469249.169,532.715,596.191,345.703,615.234
1742469249.173,-347.168,-365.723,155.273,-392.09
1742469249.177,-660.156,-458.984,-41.504,-279.297
1742469249.181,546.875,472.168,61.035,520.02
1742469249.185,-293.457,-106.934,289.551,-262.207
1742469249.189,367.188,461.426,440.918,407.227
1742469249.192,-276.855,-408.203,154.785,-344.238
1742469249.196,377.441,379.395,197.754,383.789
1742469249.2,-437.5,-492.676,10.254,-393.066
1742469249.204,-44.922,24.414,81.543,175.293
1742469249.208,901.367,798.828,457.031,777.832
1742469249.209,-604.98,-669.434,152.344,-659.668
1742469249.213,516.113,495.117,168.457,496.582
1742469249.217,-400.879,-441.895,62.5,-430.176
1742469249.221,-294.922,-106.934,-111.816,-46.875
1742469249.225,859.375,832.031,118.164,739.746
1742469249.229,-455.078,-509.766,195.801,-557.617
1742469249.233,353.516,347.656,190.918,371.582
1742469249.236,-489.258,-466.797,95.215,-434.082
1742469249.24,175.293,186.035,221.68,216.797
1742469249.244,255.859,-3.418,222.656,16.602
1742469249.248,-693.848,-585.449,62.5,-494.629
1742469249.252,532.715,580.078,112.305,505.371
1742469249.209,-604.98,-669.434,152.344,-659.668
1742469249.213,516.113,495.117,168.457,496.582
1742469249.217,-400.879,-441.895,62.5,-430.176
1742469249.221,-294.922,-106.934,-111.816,-46.875
1742469249.225,859.375,832.031,118.164,739.746
1742469249.229,-455.078,-509.766,195.801,-557.617
1742469249.233,353.516,347.656,190.918,371.582
1742469249.236,-489.258,-466.797,95.215,-434.082
1742469249.24,175.293,186.035,221.68,216.797
1742469249.244,255.859,-3.418,222.656,16.602
1742469249.248,-693.848,-585.449,62.5,-494.629
1742469249.252,532.715,580.078,112.305,505.371
1742469249.254,-335.449,-388.672,24.902,-486.816
1742469249.258,256.348,231.934,16.602,273.926
1742469249.262,-293.457,-289.551,-92.773,-257.324
1742469249.266,306.152,280.762,163.574,268.066
1742469249.27,58.105,24.902,322.266,-86.426
1742469249.274,-104.98,122.07,375.977,-92.773
1742469249.278,-68.848,-166.504,275.391,-99.609
1742469249.281,-229.98,-26.367,193.848,-115.234
1742469249.285,329.59,194.336,220.215,118.652
1742469249.289,-523.438,-518.555,210.938,-432.617
1742469249.293,584.961,690.918,476.562,663.086
1742469249.297,-591.797,-592.773,362.305,-564.941
1742469249.299,251.465,294.434,397.461,391.602
1742469249.303,649.902,309.57,551.27,441.406
1742469249.307,-599.121,-601.074,450.684,-471.191
1742469249.311,466.797,526.855,492.188,515.137
1742469249.315,-369.629,-442.871,355.469,-435.547
1742469249.319,509.766,496.582,581.543,499.023
1742469249.323,-196.289,-292.48,531.738,-283.691
1742469249.326,-814.453,-679.688,63.477,-499.023
1742469249.33,556.152,477.051,-98.145,549.316
1742469249.334,-460.449,-360.84,-166.504,-467.285
1742469249.338,465.82,530.273,-115.234,530.762
1742469249.342,-251.953,-370.117,-39.062,-233.398
1742469249.299,251.465,294.434,397.461,391.602
1742469249.303,649.902,309.57,551.27,441.406
1742469249.307,-599.121,-601.074,450.684,-471.191
1742469249.311,466.797,526.855,492.188,515.137
1742469249.315,-369.629,-442.871,355.469,-435.547
1742469249.319,509.766,496.582,581.543,499.023
1742469249.323,-196.289,-292.48,531.738,-283.691
1742469249.326,-814.453,-679.688,63.477,-499.023
1742469249.33,556.152,477.051,-98.145,549.316
1742469249.334,-460.449,-360.84,-166.504,-467.285
1742469249.338,465.82,530.273,-115.234,530.762
1742469249.342,-251.953,-370.117,-39.062,-233.398
1742469249.359,90.82,208.496,107.422,246.582
1742469249.363,317.383,116.211,17.578,176.758
1742469249.367,-729.004,-641.113,-97.168,-619.141
1742469249.371,518.066,605.469,210.449,586.914
1742469249.375,-421.387,-441.406,228.027,-451.172
1742469249.379,535.645,501.465,354.98,516.602
1742469249.383,38.086,-209.473,268.066,-37.598
1742469249.386,-826.172,-771.484,-20.508,-548.34
1742469249.39,659.18,679.688,153.809,762.207
1742469249.394,-552.246,-617.676,136.23,-522.461
1742469249.398,431.152,421.875,260.254,518.555
1742469249.402,552.246,395.508,406.738,334.473
1742469249.359,90.82,208.496,107.422,246.582
1742469249.363,317.383,116.211,17.578,176.758
1742469249.367,-729.004,-641.113,-97.168,-619.141
1742469249.371,518.066,605.469,210.449,586.914
1742469249.375,-421.387,-441.406,228.027,-451.172
1742469249.379,535.645,501.465,354.98,516.602
1742469249.383,38.086,-209.473,268.066,-37.598
1742469249.386,-826.172,-771.484,-20.508,-548.34
1742469249.39,659.18,679.688,153.809,762.207
1742469249.394,-552.246,-617.676,136.23,-522.461
1742469249.398,431.152,421.875,260.254,518.555
1742469249.402,552.246,395.508,406.738,334.473
1742469249.405,-845.215,-858.887,76.66,-777.832
1742469249.409,484.863,447.754,-47.363,564.453
1742469249.413,-398.438,-379.395,-87.891,-378.906
1742469249.417,380.371,324.219,140.625,410.156
1742469249.421,427.734,112.305,252.441,302.734
1742469249.425,-423.828,-133.301,269.043,-251.953
1742469249.429,296.875,-55.176,221.68,172.852
1742469249.432,-547.852,-670.41,57.617,-490.723
1742469249.436,445.801,603.516,262.695,524.902
1742469249.44,-584.961,-658.691,257.812,-558.105
1742469249.444,57.129,153.32,207.031,299.805
1742469249.448,811.523,662.598,348.633,649.902
1742469249.405,-845.215,-858.887,76.66,-777.832
1742469249.409,484.863,447.754,-47.363,564.453
1742469249.413,-398.438,-379.395,-87.891,-378.906
1742469249.417,380.371,324.219,140.625,410.156
1742469249.421,427.734,112.305,252.441,302.734
1742469249.425,-423.828,-133.301,269.043,-251.953
1742469249.429,296.875,-55.176,221.68,172.852
1742469249.432,-547.852,-670.41,57.617,-490.723
1742469249.436,445.801,603.516,262.695,524.902
1742469249.44,-584.961,-658.691,257.812,-558.105
1742469249.444,57.129,153.32,207.031,299.805
1742469249.448,811.523,662.598,348.633,649.902
1742469249.45,-635.742,-649.414,291.016,-582.52
1742469249.454,424.805,474.121,458.008,505.859
1742469249.458,-568.848,-502.441,455.078,-532.715
1742469249.462,-20.996,51.758,273.926,138.672
1742469249.466,484.375,241.211,166.992,361.328
1742469249.47,-66.895,200.195,395.996,55.176
1742469249.474,695.801,683.105,562.988,647.461
1742469249.477,-530.762,-662.109,195.801,-578.125
1742469249.481,439.453,448.73,131.836,435.059
1742469249.485,-404.785,-480.957,31.25,-406.25
1742469249.489,-353.516,-210.449,105.469,-112.793
1742469249.493,602.539,508.789,160.645,394.531
1742469249.45,-635.742,-649.414,291.016,-582.52
1742469249.454,424.805,474.121,458.008,505.859
1742469249.458,-568.848,-502.441,455.078,-532.715
1742469249.462,-20.996,51.758,273.926,138.672
1742469249.466,484.375,241.211,166.992,361.328
1742469249.47,-66.895,200.195,395.996,55.176
1742469249.474,695.801,683.105,562.988,647.461
1742469249.477,-530.762,-662.109,195.801,-578.125
1742469249.481,439.453,448.73,131.836,435.059
1742469249.485,-404.785,-480.957,31.25,-406.25
1742469249.489,-353.516,-210.449,105.469,-112.793
1742469249.493,602.539,508.789,160.645,394.531
1742469249.494,-634.766,-662.109,-313.965,-673.828
1742469249.498,313.965,354.492,-450.684,388.184
1742469249.502,-420.41,-372.07,-498.535,-408.203
1742469249.506,263.184,269.043,-413.086,238.281
1742469249.51,-27.832,-96.68,-258.301,-172.852
1742469249.514,82.031,206.055,111.328,93.262
1742469249.518,425.781,238.281,169.922,201.172
1742469249.521,-909.668,-945.801,-176.758,-929.199
1742469249.525,623.535,591.309,-78.613,585.938
1742469249.529,-454.102,-553.711,-64.453,-523.926
1742469249.533,-569.336,-386.23,-6.836,-443.848
1742469249.537,516.602,418.457,137.207,208.496
1742469249.539,-601.074,-603.027,39.551,-718.262
1742469249.543,323.242,377.93,34.18,372.559
1742469249.547,-392.578,-366.211,-90.332,-391.602
1742469249.551,409.18,403.809,137.695,372.559
1742469249.555,164.551,17.09,225.586,-17.578
1742469249.559,-444.824,-8.789,221.191,-305.176
1742469249.563,807.617,864.258,431.152,667.969
1742469249.566,-734.375,-813.477,290.527,-808.594
1742469249.57,251.953,240.723,231.445,281.738
1742469249.574,21.484,-89.355,174.316,-101.074
1742469249.578,-524.414,-220.703,228.516,-364.258
1742469249.582,493.652,347.656,346.68,351.562
1742469249.584,-565.918,-644.043,202.637,-563.477
1742469249.588,332.031,406.738,159.18,373.047
1742469249.592,-506.348,-443.359,-98.145,-528.809
1742469249.596,258.301,360.84,-72.754,225.586
1742469249.6,271.973,119.629,-32.227,24.414
1742469249.604,-317.871,-9.277,177.246,-263.184
1742469249.608,508.789,496.094,314.941,278.809
1742469249.611,-586.426,-689.453,-106.934,-707.031
1742469249.615,337.891,334.473,-72.266,338.379
1742469249.619,-222.168,-228.516,59.082,-258.301
1742469249.623,361.328,334.473,188.965,318.359
1742469249.627,-255.859,-328.613,104.492,-282.227
1742469249.584,-565.918,-644.043,202.637,-563.477
1742469249.588,332.031,406.738,159.18,373.047
1742469249.592,-506.348,-443.359,-98.145,-528.809
1742469249.596,258.301,360.84,-72.754,225.586
1742469249.6,271.973,119.629,-32.227,24.414
1742469249.604,-317.871,-9.277,177.246,-263.184
1742469249.608,508.789,496.094,314.941,278.809
1742469249.611,-586.426,-689.453,-106.934,-707.031
1742469249.615,337.891,334.473,-72.266,338.379
1742469249.619,-222.168,-228.516,59.082,-258.301
1742469249.623,361.328,334.473,188.965,318.359
1742469249.627,-255.859,-328.613,104.492,-282.227
1742469249.628,-272.949,-85.938,117.188,-92.285
1742469249.632,439.941,241.699,50.293,253.906
1742469249.636,-695.312,-687.5,-208.008,-666.504
1742469249.64,477.539,549.316,127.93,547.363
1742469249.644,-445.312,-465.332,170.41,-439.941
1742469249.648,306.152,400.391,234.375,368.164
1742469249.652,217.285,105.469,181.641,43.945
1742469249.655,-998.535,-969.238,-230.957,-872.559
1742469249.659,601.074,602.539,-89.844,646.484
1742469249.663,-574.707,-616.211,-12.207,-583.984
1742469249.667,-202.637,-111.328,15.625,19.531
1742469249.671,688.477,544.922,170.41,485.352
1742469249.628,-272.949,-85.938,117.188,-92.285
1742469249.632,439.941,241.699,50.293,253.906
1742469249.636,-695.312,-687.5,-208.008,-666.504
1742469249.64,477.539,549.316,127.93,547.363
1742469249.644,-445.312,-465.332,170.41,-439.941
1742469249.648,306.152,400.391,234.375,368.164
1742469249.652,217.285,105.469,181.641,43.945
1742469249.655,-998.535,-969.238,-230.957,-872.559
1742469249.659,601.074,602.539,-89.844,646.484
1742469249.663,-574.707,-616.211,-12.207,-583.984
1742469249.667,-202.637,-111.328,15.625,19.531
1742469249.671,688.477,544.922,170.41,485.352
1742469249.675,-662.109,-716.797,41.016,-722.656
1742469249.679,406.738,351.074,62.988,439.453
1742469249.683,-371.582,-369.629,-65.918,-347.168
1742469249.687,271.484,250.977,61.035,304.688
1742469249.691,219.727,8.789,140.137,143.066
1742469249.695,-250.0,-131.348,154.785,-110.84
1742469249.699,-96.191,-389.16,180.176,-72.266
1742469249.702,-380.859,-345.703,161.133,-149.414
1742469249.706,569.824,474.609,188.477,518.066
1742469249.71,-543.945,-654.297,34.668,-596.191
1742469249.714,512.207,512.207,-12.207,511.719
1742469249.718,-229.98,-285.645,-20.02,-217.773
1742469249.675,-662.109,-716.797,41.016,-722.656
1742469249.679,406.738,351.074,62.988,439.453
1742469249.683,-371.582,-369.629,-65.918,-347.168
1742469249.687,271.484,250.977,61.035,304.688
1742469249.691,219.727,8.789,140.137,143.066
1742469249.695,-250.0,-131.348,154.785,-110.84
1742469249.699,-96.191,-389.16,180.176,-72.266
1742469249.702,-380.859,-345.703,161.133,-149.414
1742469249.706,569.824,474.609,188.477,518.066
1742469249.71,-543.945,-654.297,34.668,-596.191
1742469249.714,512.207,512.207,-12.207,511.719
1742469249.718,-229.98,-285.645,-20.02,-217.773
1742469249.735,44.922,91.797,126.465,169.922
1742469249.739,553.711,296.875,104.98,416.992
1742469249.743,-349.121,-135.254,136.719,-189.453
1742469249.747,188.477,106.934,13.672,134.766
1742469249.751,-479.492,-530.273,-139.16,-391.602
1742469249.755,440.918,540.039,195.312,533.691
1742469249.759,-497.07,-458.984,41.504,-481.445
1742469249.762,228.516,262.695,-20.508,280.273
1742469249.766,-57.617,-192.871,-75.195,-141.602
1742469249.77,-597.168,-421.875,-154.785,-331.543
1742469249.774,999.512,742.188,90.82,838.867
1742469249.778,-622.07,-821.289,149.902,-791.016
1742469249.735,44.922,91.797,126.465,169.922
1742469249.739,553.711,296.875,104.98,416.992
1742469249.743,-349.121,-135.254,136.719,-189.453
1742469249.747,188.477,106.934,13.672,134.766
1742469249.751,-479.492,-530.273,-139.16,-391.602
1742469249.755,440.918,540.039,195.312,533.691
1742469249.759,-497.07,-458.984,41.504,-481.445
1742469249.762,228.516,262.695,-20.508,280.273
1742469249.766,-57.617,-192.871,-75.195,-141.602
1742469249.77,-597.168,-421.875,-154.785,-331.543
1742469249.774,999.512,742.188,90.82,838.867
1742469249.778,-622.07,-821.289,149.902,-791.016
1742469249.779,-354.98,-185.059,8.789,-44.922
1742469249.783,676.758,437.012,-41.992,541.504
1742469249.787,-507.812,-568.359,-21.484,-485.352
1742469249.791,234.863,289.062,142.09,376.953
1742469249.795,-207.031,-243.164,194.336,-227.051
1742469249.799,270.996,207.52,367.188,253.418
1742469249.803,-301.758,-266.602,123.047,-240.723
1742469249.806,250.0,275.879,65.918,265.625
1742469249.81,-175.293,-323.242,55.664,-166.992
1742469249.814,-186.035,-114.258,57.129,25.391
1742469249.818,644.531,176.758,154.297,463.867
1742469249.822,-594.238,-704.102,132.812,-559.57
1742469249.779,-354.98,-185.059,8.789,-44.922
1742469249.783,676.758,437.012,-41.992,541.504
1742469249.787,-507.812,-568.359,-21.484,-485.352
1742469249.791,234.863,289.062,142.09,376.953
1742469249.795,-207.031,-243.164,194.336,-227.051
1742469249.799,270.996,207.52,367.188,253.418
1742469249.803,-301.758,-266.602,123.047,-240.723
1742469249.806,250.0,275.879,65.918,265.625
1742469249.81,-175.293,-323.242,55.664,-166.992
1742469249.814,-186.035,-114.258,57.129,25.391
1742469249.818,644.531,176.758,154.297,463.867
1742469249.822,-594.238,-704.102,132.812,-559.57
1742469249.824,282.227,426.758,112.305,408.691
1742469249.828,-301.758,-331.055,53.223,-306.152
1742469249.832,392.578,349.121,152.344,364.258
1742469249.836,-386.719,-406.738,-90.82,-385.254
1742469249.84,-254.883,-8.789,-98.145,-44.922
1742469249.844,745.117,687.5,101.562,564.453
1742469249.848,-551.758,-525.391,131.348,-568.848
1742469249.851,310.547,363.77,292.969,393.555
1742469249.855,-414.062,-392.09,65.918,-404.785
1742469249.859,87.891,100.586,-42.969,120.605
1742469249.863,-117.188,-94.727,-31.25,-156.738
1742469249.867,160.645,245.117,245.605,110.352
1742469249.824,282.227,426.758,112.305,408.691
1742469249.828,-301.758,-331.055,53.223,-306.152
1742469249.832,392.578,349.121,152.344,364.258
1742469249.836,-386.719,-406.738,-90.82,-385.254
1742469249.84,-254.883,-8.789,-98.145,-44.922
1742469249.844,745.117,687.5,101.562,564.453
1742469249.848,-551.758,-525.391,131.348,-568.848
1742469249.851,310.547,363.77,292.969,393.555
1742469249.855,-414.062,-392.09,65.918,-404.785
1742469249.859,87.891,100.586,-42.969,120.605
1742469249.863,-117.188,-94.727,-31.25,-156.738
1742469249.867,160.645,245.117,245.605,110.352
1742469249.869,-259.277,-402.344,86.426,-328.125
1742469249.873,-638.184,-430.664,-166.504,-411.133
1742469249.877,565.918,360.352,-44.434,379.883
1742469249.881,-567.871,-618.164,-62.012,-618.652
1742469249.885,440.43,503.906,109.375,471.68
1742469249.889,-258.301,-280.273,226.074,-302.246
1742469249.893,87.402,130.371,281.25,167.48
1742469249.896,-129.883,-340.332,-20.02,-188.965
1742469249.9,-699.219,-499.512,-314.453,-389.648
1742469249.904,678.711,660.645,-200.684,643.066
1742469249.908,-415.039,-523.438,-107.422,-521.973
1742469249.912,475.586,375.977,-50.781,463.867
1742469249.869,-259.277,-402.344,86.426,-328.125
1742469249.873,-638.184,-430.664,-166.504,-411.133
1742469249.877,565.918,360.352,-44.434,379.883
1742469249.881,-567.871,-618.164,-62.012,-618.652
1742469249.885,440.43,503.906,109.375,471.68
1742469249.889,-258.301,-280.273,226.074,-302.246
1742469249.893,87.402,130.371,281.25,167.48
1742469249.896,-129.883,-340.332,-20.02,-188.965
1742469249.9,-699.219,-499.512,-314.453,-389.648
1742469249.904,678.711,660.645,-200.684,643.066
1742469249.908,-415.039,-523.438,-107.422,-521.973
1742469249.912,475.586,375.977,-50.781,463.867
1742469249.915,-255.371,-295.898,-96.68,-260.742
1742469249.919,-126.953,-90.332,-36.133,40.527
1742469249.923,312.5,-206.055,2.93,228.516
1742469249.927,-162.109,-101.562,146.484,2.441
1742469249.931,622.559,601.562,189.941,563.477
1742469249.935,-375.488,-333.008,153.32,-364.258
1742469249.939,321.777,457.031,203.125,375.977
1742469249.942,-436.523,-460.449,-204.59,-450.195
1742469249.946,401.855,382.324,-130.859,420.898
1742469249.95,38.086,-202.637,-125.977,-100.098
1742469249.954,-612.793,-416.016,-191.406,-457.031
1742469249.958,495.605,424.805,38.086,407.227
1742469249.96,-453.125,-447.266,-99.121,-448.242
1742469249.964,226.074,297.363,-208.496,289.551
1742469249.968,-249.023,-306.641,-392.09,-293.457
1742469249.972,373.535,332.52,-268.066,375.977
1742469249.976,-276.367,-247.07,-304.688,-264.648
1742469249.98,174.805,313.477,-132.812,175.293
1742469249.984,104.004,-159.18,-61.035,-9.766
1742469249.987,-564.941,-463.867,-101.562,-338.867
1742469249.991,667.48,606.934,84.473,571.289
1742469249.995,-538.086,-635.254,-111.816,-630.371
1742469249.999,537.598,519.531,-127.441,504.395
1742469250.003,-67.871,-175.781,-12.695,-196.289
1742469249.96,-453.125,-447.266,-99.121,-448.242
1742469249.964,226.074,297.363,-208.496,289.551
1742469249.968,-249.023,-306.641,-392.09,-293.457
1742469249.972,373.535,332.52,-268.066,375.977
1742469249.976,-276.367,-247.07,-304.688,-264.648
1742469249.98,174.805,313.477,-132.812,175.293
1742469249.984,104.004,-159.18,-61.035,-9.766
1742469249.987,-564.941,-463.867,-101.562,-338.867
1742469249.991,667.48,606.934,84.473,571.289
1742469249.995,-538.086,-635.254,-111.816,-630.371
1742469249.999,537.598,519.531,-127.441,504.395
1742469250.003,-67.871,-175.781,-12.695,-196.289
1742469250.005,-298.828,-103.516,110.84,-130.371
1742469250.009,548.34,408.691,88.867,335.938
1742469250.013,-508.301,-389.648,-51.758,-566.406
1742469250.017,340.82,429.199,32.715,292.969
1742469250.021,-373.047,-494.141,-75.195,-455.078
1742469250.025,487.305,502.441,205.078,494.629
1742469250.029,-180.664,-293.945,201.66,-308.105
1742469250.032,-1000.0,-957.52,-199.219,-875.977
1742469250.036,576.172,622.559,-168.945,619.629
1742469250.04,-566.895,-578.125,-169.922,-541.992
1742469250.044,241.699,272.461,83.496,322.754
1742469250.048,394.043,246.582,181.152,103.027
1742469250.005,-298.828,-103.516,110.84,-130.371
1742469250.009,548.34,408.691,88.867,335.938
1742469250.013,-508.301,-389.648,-51.758,-566.406
1742469250.017,340.82,429.199,32.715,292.969
1742469250.021,-373.047,-494.141,-75.195,-455.078
1742469250.025,487.305,502.441,205.078,494.629
1742469250.029,-180.664,-293.945,201.66,-308.105
1742469250.032,-1000.0,-957.52,-199.219,-875.977
1742469250.036,576.172,622.559,-168.945,619.629
1742469250.04,-566.895,-578.125,-169.922,-541.992
1742469250.044,241.699,272.461,83.496,322.754
1742469250.048,394.043,246.582,181.152,103.027
1742469250.048,-878.906,-840.332,-248.047,-860.352
1742469250.052,429.688,485.352,-312.988,490.234
1742469250.056,-495.605,-437.988,-312.012,-479.004
1742469250.06,313.965,300.293,-40.039,276.855
1742469250.064,78.613,-56.152,35.645,-123.047
1742469250.068,-222.168,82.52,64.941,-159.18
1742469250.072,528.809,417.48,110.84,347.656
1742469250.075,-712.402,-771.484,-61.523,-756.836
1742469250.079,472.168,520.508,-56.152,496.582
1742469250.083,-574.707,-608.887,-267.578,-563.965
1742469250.087,-430.664,-186.523,-356.934,-233.398
1742469250.091,603.516,442.383,-193.848,364.746
1742469250.048,-878.906,-840.332,-248.047,-860.352
1742469250.052,429.688,485.352,-312.988,490.234
1742469250.056,-495.605,-437.988,-312.012,-479.004
1742469250.06,313.965,300.293,-40.039,276.855
1742469250.064,78.613,-56.152,35.645,-123.047
1742469250.068,-222.168,82.52,64.941,-159.18
1742469250.072,528.809,417.48,110.84,347.656
1742469250.075,-712.402,-771.484,-61.523,-756.836
1742469250.079,472.168,520.508,-56.152,496.582
1742469250.083,-574.707,-608.887,-267.578,-563.965
1742469250.087,-430.664,-186.523,-356.934,-233.398
1742469250.091,603.516,442.383,-193.848,364.746
1742469250.108,-583.984,-600.098,-99.121,-625.0
1742469250.112,320.312,407.227,88.867,372.559
1742469250.116,-422.363,-389.16,24.414,-455.078
1742469250.12,169.922,240.234,-55.664,128.906
1742469250.124,-184.57,-128.418,-206.055,-262.695
1742469250.128,132.324,364.258,-64.453,125.488
1742469250.132,471.68,298.34,10.742,135.254
1742469250.135,-672.363,-586.914,-187.5,-657.715
1742469250.139,441.895,433.594,-154.297,378.418
1742469250.143,-500.488,-629.395,-431.152,-559.082
1742469250.147,566.406,622.559,-351.562,578.613
1742469250.151,581.055,444.824,-59.082,159.668
1742469250.108,-583.984,-600.098,-99.121,-625.0
1742469250.112,320.312,407.227,88.867,372.559
1742469250.116,-422.363,-389.16,24.414,-455.078
1742469250.12,169.922,240.234,-55.664,128.906
1742469250.124,-184.57,-128.418,-206.055,-262.695
1742469250.128,132.324,364.258,-64.453,125.488
1742469250.132,471.68,298.34,10.742,135.254
1742469250.135,-672.363,-586.914,-187.5,-657.715
1742469250.139,441.895,433.594,-154.297,378.418
1742469250.143,-500.488,-629.395,-431.152,-559.082
1742469250.147,566.406,622.559,-351.562,578.613
1742469250.151,581.055,444.824,-59.082,159.668
1742469250.108,-583.984,-600.098,-99.121,-625.0
1742469250.112,320.312,407.227,88.867,372.559
1742469250.116,-422.363,-389.16,24.414,-455.078
1742469250.12,169.922,240.234,-55.664,128.906
1742469250.124,-184.57,-128.418,-206.055,-262.695
1742469250.128,132.324,364.258,-64.453,125.488
1742469250.132,471.68,298.34,10.742,135.254
1742469250.135,-672.363,-586.914,-187.5,-657.715
1742469250.139,441.895,433.594,-154.297,378.418
1742469250.143,-500.488,-629.395,-431.152,-559.082
1742469250.147,566.406,622.559,-351.562,578.613
1742469250.151,581.055,444.824,-59.082,159.668
1742469250.154,-778.32,-766.113,-153.809,-733.398
1742469250.158,379.395,409.18,-137.207,493.164
1742469250.162,-379.883,-326.172,-219.238,-406.25
1742469250.166,353.516,324.219,-32.227,325.684
1742469250.17,-66.895,-153.809,-20.02,-118.164
1742469250.174,153.32,304.688,135.742,197.754
1742469250.178,459.961,281.738,207.52,205.078
1742469250.181,-859.375,-875.977,-187.5,-850.586
1742469250.185,509.766,484.375,-240.234,537.598
1742469250.189,-256.348,-263.672,-201.172,-282.715
1742469250.193,250.0,288.086,37.598,250.488
1742469250.197,-248.047,-381.836,-104.492,-270.508
1742469250.154,-778.32,-766.113,-153.809,-733.398
1742469250.158,379.395,409.18,-137.207,493.164
1742469250.162,-379.883,-326.172,-219.238,-406.25
1742469250.166,353.516,324.219,-32.227,325.684
1742469250.17,-66.895,-153.809,-20.02,-118.164
1742469250.174,153.32,304.688,135.742,197.754
1742469250.178,459.961,281.738,207.52,205.078
1742469250.181,-859.375,-875.977,-187.5,-850.586
1742469250.185,509.766,484.375,-240.234,537.598
1742469250.189,-256.348,-263.672,-201.172,-282.715
1742469250.193,250.0,288.086,37.598,250.488
1742469250.197,-248.047,-381.836,-104.492,-270.508
1742469250.154,-778.32,-766.113,-153.809,-733.398
1742469250.158,379.395,409.18,-137.207,493.164
1742469250.162,-379.883,-326.172,-219.238,-406.25
1742469250.166,353.516,324.219,-32.227,325.684
1742469250.17,-66.895,-153.809,-20.02,-118.164
1742469250.174,153.32,304.688,135.742,197.754
1742469250.178,459.961,281.738,207.52,205.078
1742469250.181,-859.375,-875.977,-187.5,-850.586
1742469250.185,509.766,484.375,-240.234,537.598
1742469250.189,-256.348,-263.672,-201.172,-282.715
1742469250.193,250.0,288.086,37.598,250.488
1742469250.197,-248.047,-381.836,-104.492,-270.508
1742469250.198,-543.457,-312.5,-304.688,-243.164
1742469250.202,620.605,543.945,-314.941,526.367
1742469250.206,-434.57,-446.289,-301.27,-441.895
1742469250.21,313.965,406.25,-18.066,424.316
1742469250.214,-354.492,-348.145,-115.234,-349.121
1742469250.218,356.445,409.668,-7.812,342.285
1742469250.222,-301.27,-374.023,-137.695,-378.418
1742469250.225,-795.898,-667.969,-328.125,-525.391
1742469250.229,670.898,634.766,-168.457,645.996
1742469250.233,-452.148,-539.062,-227.051,-548.34
1742469250.237,518.555,490.234,-71.289,484.375
1742469250.241,-260.742,-258.301,-163.574,-352.051
1742469250.198,-543.457,-312.5,-304.688,-243.164
1742469250.202,620.605,543.945,-314.941,526.367
1742469250.206,-434.57,-446.289,-301.27,-441.895
1742469250.21,313.965,406.25,-18.066,424.316
1742469250.214,-354.492,-348.145,-115.234,-349.121
1742469250.218,356.445,409.668,-7.812,342.285
1742469250.222,-301.27,-374.023,-137.695,-378.418
1742469250.225,-795.898,-667.969,-328.125,-525.391
1742469250.229,670.898,634.766,-168.457,645.996
1742469250.233,-452.148,-539.062,-227.051,-548.34
1742469250.237,518.555,490.234,-71.289,484.375
1742469250.241,-260.742,-258.301,-163.574,-352.051
1742469250.244,-544.922,-303.223,-228.516,-356.445
1742469250.248,527.344,236.816,-100.098,378.418
1742469250.252,-544.922,-579.59,-244.141,-538.086
1742469250.256,342.285,482.91,-109.863,398.926
1742469250.26,-451.172,-444.824,-227.539,-480.957
1742469250.264,308.105,416.992,-116.699,316.406
1742469250.268,-29.785,-185.059,-70.801,-208.984
1742469250.271,-1000.0,-905.273,-298.828,-982.91
1742469250.275,595.215,691.406,-353.516,574.219
1742469250.279,-671.875,-706.543,-633.789,-734.375
1742469250.283,-394.531,-145.508,-687.5,-272.949
1742469250.287,780.762,758.789,-411.621,539.062
1742469250.244,-544.922,-303.223,-228.516,-356.445
1742469250.248,527.344,236.816,-100.098,378.418
1742469250.252,-544.922,-579.59,-244.141,-538.086
1742469250.256,342.285,482.91,-109.863,398.926
1742469250.26,-451.172,-444.824,-227.539,-480.957
1742469250.264,308.105,416.992,-116.699,316.406
1742469250.268,-29.785,-185.059,-70.801,-208.984
1742469250.271,-1000.0,-905.273,-298.828,-982.91
1742469250.275,595.215,691.406,-353.516,574.219
1742469250.279,-671.875,-706.543,-633.789,-734.375
1742469250.283,-394.531,-145.508,-687.5,-272.949
1742469250.287,780.762,758.789,-411.621,539.062
1742469250.288,-452.148,-481.445,-458.008,-626.465
1742469250.292,270.02,307.617,-532.227,275.879
1742469250.296,-241.699,-161.621,-647.461,-261.23
1742469250.3,164.062,229.492,-499.023,109.863
1742469250.304,-256.836,-236.328,-460.449,-300.781
1742469250.308,191.406,288.574,-161.621,154.297
1742469250.312,-188.965,-331.543,-117.188,-329.102
1742469250.315,-970.215,-684.082,-443.848,-869.629
1742469250.319,462.891,634.277,-530.762,409.18
1742469250.323,-397.461,-458.008,-572.266,-489.746
1742469250.327,491.699,545.898,-288.574,447.754
1742469250.331,-227.539,-255.371,-274.902,-388.672
1742469250.288,-452.148,-481.445,-458.008,-626.465
1742469250.292,270.02,307.617,-532.227,275.879
1742469250.296,-241.699,-161.621,-647.461,-261.23
1742469250.3,164.062,229.492,-499.023,109.863
1742469250.304,-256.836,-236.328,-460.449,-300.781
1742469250.308,191.406,288.574,-161.621,154.297
1742469250.312,-188.965,-331.543,-117.188,-329.102
1742469250.315,-970.215,-684.082,-443.848,-869.629
1742469250.319,462.891,634.277,-530.762,409.18
1742469250.323,-397.461,-458.008,-572.266,-489.746
1742469250.327,491.699,545.898,-288.574,447.754
1742469250.331,-227.539,-255.371,-274.902,-388.672
1742469250.334,-960.449,-720.215,-515.625,-866.699
1742469250.338,507.324,642.578,-365.234,501.953
1742469250.342,-400.391,-400.879,-136.23,-455.566
1742469250.346,420.41,376.953,234.863,333.984
1742469250.35,-268.555,-225.586,303.711,-346.68
1742469250.354,-257.812,54.688,318.848,-263.184
1742469250.358,-26.367,-15.625,200.684,-173.34
1742469250.361,-544.922,-29.297,18.555,-371.582
1742469250.365,423.34,418.945,-70.312,302.734
1742469250.369,-485.352,-600.098,-66.406,-502.441
1742469250.373,316.406,416.992,92.773,370.605
1742469250.377,-485.84,-460.449,83.008,-515.137
1742469250.334,-960.449,-720.215,-515.625,-866.699
1742469250.338,507.324,642.578,-365.234,501.953
1742469250.342,-400.391,-400.879,-136.23,-455.566
1742469250.346,420.41,376.953,234.863,333.984
1742469250.35,-268.555,-225.586,303.711,-346.68
1742469250.354,-257.812,54.688,318.848,-263.184
1742469250.358,-26.367,-15.625,200.684,-173.34
1742469250.361,-544.922,-29.297,18.555,-371.582
1742469250.365,423.34,418.945,-70.312,302.734
1742469250.369,-485.352,-600.098,-66.406,-502.441
1742469250.373,316.406,416.992,92.773,370.605
1742469250.377,-485.84,-460.449,83.008,-515.137
1742469250.379,362.305,426.27,259.277,384.766
1742469250.383,508.301,194.336,322.266,288.086
1742469250.387,-601.562,-477.051,197.754,-385.254
1742469250.391,535.645,567.871,93.75,595.215
1742469250.395,-408.203,-506.348,-94.238,-477.539
1742469250.399,517.09,510.254,125.488,526.855
1742469250.403,-205.566,-329.59,-3.906,-217.285
1742469250.406,-486.816,-308.594,-96.191,-185.547
1742469250.41,833.984,791.992,68.848,811.035
1742469250.414,-634.766,-714.355,-409.668,-681.641
1742469250.418,577.637,622.559,-376.465,612.793
1742469250.422,632.324,402.832,-91.309,366.699
1742469250.379,362.305,426.27,259.277,384.766
1742469250.383,508.301,194.336,322.266,288.086
1742469250.387,-601.562,-477.051,197.754,-385.254
1742469250.391,535.645,567.871,93.75,595.215
1742469250.395,-408.203,-506.348,-94.238,-477.539
1742469250.399,517.09,510.254,125.488,526.855
1742469250.403,-205.566,-329.59,-3.906,-217.285
1742469250.406,-486.816,-308.594,-96.191,-185.547
1742469250.41,833.984,791.992,68.848,811.035
1742469250.414,-634.766,-714.355,-409.668,-681.641
1742469250.418,577.637,622.559,-376.465,612.793
1742469250.422,632.324,402.832,-91.309,366.699
1742469250.423,-760.742,-765.625,-285.645,-649.902
1742469250.427,423.828,477.539,-235.352,546.875
1742469250.431,-487.793,-424.805,-365.723,-476.074
1742469250.435,340.82,365.234,-337.891,390.137
1742469250.439,387.207,160.156,-239.746,269.043
1742469250.443,-110.84,136.719,-19.043,27.832
1742469250.447,690.918,533.691,106.934,631.348
1742469250.45,-617.676,-759.277,-378.418,-618.652
1742469250.454,578.125,549.805,-403.32,585.449
1742469250.458,-179.688,-351.562,-321.289,-203.125
1742469250.462,-269.531,-109.863,-218.75,-58.594
1742469250.466,611.328,292.969,-104.98,462.402
1742469250.423,-760.742,-765.625,-285.645,-649.902
1742469250.427,423.828,477.539,-235.352,546.875
1742469250.431,-487.793,-424.805,-365.723,-476.074
1742469250.435,340.82,365.234,-337.891,390.137
1742469250.439,387.207,160.156,-239.746,269.043
1742469250.443,-110.84,136.719,-19.043,27.832
1742469250.447,690.918,533.691,106.934,631.348
1742469250.45,-617.676,-759.277,-378.418,-618.652
1742469250.454,578.125,549.805,-403.32,585.449
1742469250.458,-179.688,-351.562,-321.289,-203.125
1742469250.462,-269.531,-109.863,-218.75,-58.594
1742469250.466,611.328,292.969,-104.98,462.402
1742469250.484,-605.469,-712.891,-305.664,-580.566
1742469250.488,282.227,374.512,-347.168,417.969
1742469250.492,-297.852,-310.547,-271.484,-277.344
1742469250.496,458.008,363.77,148.438,399.414
1742469250.5,-104.004,-175.293,215.332,-130.371
1742469250.504,4.395,284.18,212.402,78.613
1742469250.508,203.125,139.648,164.062,-30.273
1742469250.511,-866.211,-870.117,-35.645,-752.93
1742469250.515,484.375,491.699,70.312,599.121
1742469250.519,-552.734,-522.949,-63.477,-524.902
1742469250.523,311.523,379.395,56.641,357.422
1742469250.527,343.262,118.652,36.133,165.527
1742469250.484,-605.469,-712.891,-305.664,-580.566
1742469250.488,282.227,374.512,-347.168,417.969
1742469250.492,-297.852,-310.547,-271.484,-277.344
1742469250.496,458.008,363.77,148.438,399.414
1742469250.5,-104.004,-175.293,215.332,-130.371
1742469250.504,4.395,284.18,212.402,78.613
1742469250.508,203.125,139.648,164.062,-30.273
1742469250.511,-866.211,-870.117,-35.645,-752.93
1742469250.515,484.375,491.699,70.312,599.121
1742469250.519,-552.734,-522.949,-63.477,-524.902
1742469250.523,311.523,379.395,56.641,357.422
1742469250.527,343.262,118.652,36.133,165.527
1742469250.53,-673.34,-591.797,-100.586,-485.84
1742469250.534,521.973,429.688,94.238,529.297
1742469250.538,-364.746,-500.977,-216.797,-451.172
1742469250.542,345.215,325.684,-187.5,352.051
1742469250.546,-46.875,-39.062,-107.422,-56.641
1742469250.55,314.941,360.84,-1.953,317.383
1742469250.554,-211.426,-390.137,-90.82,-244.141
1742469250.557,-554.199,-380.859,-166.504,-258.789
1742469250.561,667.48,536.133,-133.789,609.863
1742469250.565,-584.961,-632.324,-321.777,-587.402
1742469250.569,552.734,539.551,-161.133,598.633
1742469250.573,-95.215,-321.289,-36.621,-87.402
1742469250.53,-673.34,-591.797,-100.586,-485.84
1742469250.534,521.973,429.688,94.238,529.297
1742469250.538,-364.746,-500.977,-216.797,-451.172
1742469250.542,345.215,325.684,-187.5,352.051
1742469250.546,-46.875,-39.062,-107.422,-56.641
1742469250.55,314.941,360.84,-1.953,317.383
1742469250.554,-211.426,-390.137,-90.82,-244.141
1742469250.557,-554.199,-380.859,-166.504,-258.789
1742469250.561,667.48,536.133,-133.789,609.863
1742469250.565,-584.961,-632.324,-321.777,-587.402
1742469250.569,552.734,539.551,-161.133,598.633
1742469250.573,-95.215,-321.289,-36.621,-87.402
1742469250.574,-62.012,62.988,77.637,163.086
1742469250.578,789.551,577.637,95.703,686.523
1742469250.582,-635.254,-709.961,-195.801,-633.789
1742469250.586,498.535,463.379,95.215,508.789
1742469250.59,-360.352,-431.152,141.113,-369.141
1742469250.594,59.082,260.254,127.93,127.441
1742469250.598,512.695,302.246,131.348,258.301
1742469250.601,-876.953,-904.297,-296.875,-820.801
1742469250.605,576.66,574.707,-187.988,627.93
1742469250.609,-453.125,-566.895,-39.551,-472.656
1742469250.613,-115.723,-56.641,186.035,79.59
1742469250.617,650.879,449.219,337.891,452.637
1742469250.574,-62.012,62.988,77.637,163.086
1742469250.578,789.551,577.637,95.703,686.523
1742469250.582,-635.254,-709.961,-195.801,-633.789
1742469250.586,498.535,463.379,95.215,508.789
1742469250.59,-360.352,-431.152,141.113,-369.141
1742469250.594,59.082,260.254,127.93,127.441
1742469250.598,512.695,302.246,131.348,258.301
1742469250.601,-876.953,-904.297,-296.875,-820.801
1742469250.605,576.66,574.707,-187.988,627.93
1742469250.609,-453.125,-566.895,-39.551,-472.656
1742469250.613,-115.723,-56.641,186.035,79.59
1742469250.617,650.879,449.219,337.891,452.637
1742469250.62,-734.863,-768.066,-13.672,-814.453
1742469250.624,430.176,418.945,-42.969,415.039
1742469250.628,-301.758,-316.895,-82.52,-295.41
1742469250.632,218.262,250.0,25.879,204.59
1742469250.636,-73.242,-145.508,-42.969,-147.949
1742469250.64,-28.809,189.941,49.316,53.223
1742469250.644,565.43,436.523,233.887,256.348
1742469250.647,-617.188,-623.535,178.223,-535.645
1742469250.651,332.031,291.992,64.941,423.828
1742469250.655,-262.695,-370.117,-90.332,-343.262
1742469250.659,320.801,323.242,-118.164,330.566
1742469250.663,-402.832,-365.723,-242.676,-375.0
1742469250.62,-734.863,-768.066,-13.672,-814.453
1742469250.624,430.176,418.945,-42.969,415.039
1742469250.628,-301.758,-316.895,-82.52,-295.41
1742469250.632,218.262,250.0,25.879,204.59
1742469250.636,-73.242,-145.508,-42.969,-147.949
1742469250.64,-28.809,189.941,49.316,53.223
1742469250.644,565.43,436.523,233.887,256.348
1742469250.647,-617.188,-623.535,178.223,-535.645
1742469250.651,332.031,291.992,64.941,423.828
1742469250.655,-262.695,-370.117,-90.332,-343.262
1742469250.659,320.801,323.242,-118.164,330.566
1742469250.663,-402.832,-365.723,-242.676,-375.0
1742469250.664,271.973,317.383,-31.738,331.055
1742469250.668,472.168,139.16,60.547,251.953
1742469250.672,-644.531,-583.496,-49.805,-508.789
1742469250.676,521.973,500.977,10.254,516.113
1742469250.68,-421.387,-539.062,-112.305,-506.348
1742469250.684,530.273,519.531,259.277,530.762
1742469250.688,-94.238,-287.109,306.641,-211.426
1742469250.691,-882.812,-812.5,-112.793,-550.781
1742469250.695,634.277,665.039,-95.703,743.652
1742469250.699,-514.16,-563.965,-320.801,-575.684
1742469250.703,480.469,487.793,-133.789,531.738
1742469250.707,791.504,692.871,187.012,533.691
1742469250.708,-804.688,-809.082,-270.996,-848.145
1742469250.712,493.164,459.961,-492.676,491.211
1742469250.716,-377.441,-418.457,-533.691,-399.902
1742469250.72,9.766,49.316,-413.086,122.559
1742469250.724,657.227,426.27,-310.547,463.867
1742469250.728,-534.18,-163.574,-344.238,-430.664
1742469250.732,418.457,501.953,-408.203,362.305
1742469250.735,-522.949,-651.855,-631.836,-611.816
1742469250.739,404.297,460.938,-512.695,374.023
1742469250.743,-131.348,-270.02,-597.656,-293.945
1742469250.747,-539.551,-384.277,-576.172,-350.098
1742469250.751,550.293,383.301,-333.008,376.465
1742469250.708,-804.688,-809.082,-270.996,-848.145
1742469250.712,493.164,459.961,-492.676,491.211
1742469250.716,-377.441,-418.457,-533.691,-399.902
1742469250.72,9.766,49.316,-413.086,122.559
1742469250.724,657.227,426.27,-310.547,463.867
1742469250.728,-534.18,-163.574,-344.238,-430.664
1742469250.732,418.457,501.953,-408.203,362.305
1742469250.735,-522.949,-651.855,-631.836,-611.816
1742469250.739,404.297,460.938,-512.695,374.023
1742469250.743,-131.348,-270.02,-597.656,-293.945
1742469250.747,-539.551,-384.277,-576.172,-350.098
1742469250.751,550.293,383.301,-333.008,376.465
1742469250.753,-640.625,-709.473,-498.047,-715.332
1742469250.757,490.234,464.844,-282.227,514.16
1742469250.761,-335.449,-402.832,-179.688,-332.031
1742469250.765,46.387,109.375,-124.023,100.586
1742469250.769,424.805,321.777,-72.266,181.152
1742469250.773,-283.203,98.145,26.855,-227.051
1742469250.777,209.961,-32.227,30.273,83.496
1742469250.78,-632.324,-733.398,-232.422,-581.543
1742469250.784,369.629,498.047,-422.363,441.406
1742469250.788,-367.676,-385.742,-760.254,-397.949
1742469250.792,450.195,516.113,-550.293,459.473
1742469250.796,242.188,66.895,-451.172,6.836
1742469250.753,-640.625,-709.473,-498.047,-715.332
1742469250.757,490.234,464.844,-282.227,514.16
1742469250.761,-335.449,-402.832,-179.688,-332.031
1742469250.765,46.387,109.375,-124.023,100.586
1742469250.769,424.805,321.777,-72.266,181.152
1742469250.773,-283.203,98.145,26.855,-227.051
1742469250.777,209.961,-32.227,30.273,83.496
1742469250.78,-632.324,-733.398,-232.422,-581.543
1742469250.784,369.629,498.047,-422.363,441.406
1742469250.788,-367.676,-385.742,-760.254,-397.949
1742469250.792,450.195,516.113,-550.293,459.473
1742469250.796,242.188,66.895,-451.172,6.836
1742469251.287,-482.91,-456.543,-230.469,-410.156
1742469251.291,-139.648,-60.547,-436.035,4.395
1742469251.295,218.262,-111.328,-419.434,134.766
1742469251.299,-244.141,-191.406,-179.688,-104.492
1742469251.303,484.863,409.18,-20.02,377.93
1742469251.307,-155.762,-55.664,-4.395,-112.305
1742469251.311,446.777,529.785,70.312,404.785
1742469251.314,-482.91,-556.152,-230.957,-577.637
1742469251.318,393.066,391.113,-132.324,384.277
1742469251.322,-338.867,-443.848,-107.422,-441.895
1742469251.326,-712.891,-516.602,-251.953,-505.859
1742469251.33,645.508,673.828,-203.125,489.746
1742469251.332,-330.078,-337.402,-153.32,-348.633
1742469251.336,113.281,140.625,-71.777,179.199
1742469251.34,238.281,91.797,-59.57,94.727
1742469251.344,-220.703,137.695,11.23,-111.816
1742469251.348,565.43,484.863,74.707,382.324
1742469251.351,-628.906,-759.277,-235.352,-689.453
1742469251.355,453.125,493.652,-299.316,512.207
1742469251.359,-549.316,-591.309,-432.617,-567.383
1742469251.363,-575.684,-353.516,-386.23,-349.609
1742469251.367,769.531,700.684,-28.809,687.012
1742469251.332,-330.078,-337.402,-153.32,-348.633
1742469251.336,113.281,140.625,-71.777,179.199
1742469251.34,238.281,91.797,-59.57,94.727
1742469251.344,-220.703,137.695,11.23,-111.816
1742469251.348,565.43,484.863,74.707,382.324
1742469251.351,-628.906,-759.277,-235.352,-689.453
1742469251.355,453.125,493.652,-299.316,512.207
1742469251.359,-549.316,-591.309,-432.617,-567.383
1742469251.363,-575.684,-353.516,-386.23,-349.609
1742469251.367,769.531,700.684,-28.809,687.012
1742469251.37,-521.973,-636.23,-135.254,-575.195
1742469251.374,536.133,525.391,-59.082,515.625
1742469251.378,-286.621,-342.773,-138.672,-383.789
1742469251.382,-548.34,-325.684,-267.09,-323.242
1742469251.386,594.727,440.918,-28.809,479.98
1742469251.39,-344.727,-262.695,243.164,-306.152
1742469251.394,437.988,465.82,296.875,422.363
1742469251.397,-470.215,-570.312,-29.785,-533.203
1742469251.401,460.449,469.238,57.617,489.746
1742469251.405,281.738,-61.035,237.305,108.887
1742469251.409,-565.918,-498.047,308.594,-326.66
1742469251.413,661.621,653.809,377.93,697.754
1742469251.37,-521.973,-636.23,-135.254,-575.195
1742469251.374,536.133,525.391,-59.082,515.625
1742469251.378,-286.621,-342.773,-138.672,-383.789
1742469251.382,-548.34,-325.684,-267.09,-323.242
1742469251.386,594.727,440.918,-28.809,479.98
1742469251.39,-344.727,-262.695,243.164,-306.152
1742469251.394,437.988,465.82,296.875,422.363
1742469251.397,-470.215,-570.312,-29.785,-533.203
1742469251.401,460.449,469.238,57.617,489.746
