timestamps,TP9,AF7,AF8,TP10
1742469185.824,843.75,838.867,99.609,562.988
1742469185.828,-711.426,-700.195,-35.156,-733.887
1742469185.831,404.785,241.211,-141.602,604.492
1742469185.835,333.496,442.383,-219.238,-85.938
1742469185.839,-774.902,-826.66,-321.289,-405.762
1742469185.843,780.273,771.973,-154.297,756.348
1742469185.847,-595.703,-466.309,-216.309,-724.609
1742469185.848,-345.215,-562.988,-250.488,148.438
1742469185.852,862.793,806.641,-137.207,596.68
1742469185.856,-516.602,-489.258,-329.102,-635.742
1742469185.86,513.184,510.254,-182.617,530.273
1742469185.864,-338.867,-214.844,-241.211,-400.879
1742469185.868,-277.344,-210.938,-229.98,30.762
1742469185.872,603.516,654.297,-268.066,230.469
1742469185.875,-742.188,-724.121,-395.02,-791.504
1742469185.879,531.25,539.062,-107.91,521.973
1742469185.883,-346.68,-395.996,-260.742,-527.832
1742469185.887,-28.809,-310.059,-197.266,133.301
1742469185.891,967.773,911.133,115.234,503.418
1742469185.848,-345.215,-562.988,-250.488,148.438
1742469185.852,862.793,806.641,-137.207,596.68
1742469185.856,-516.602,-489.258,-329.102,-635.742
1742469185.86,513.184,510.254,-182.617,530.273
1742469185.864,-338.867,-214.844,-241.211,-400.879
1742469185.868,-277.344,-210.938,-229.98,30.762
1742469185.872,603.516,654.297,-268.066,230.469
1742469185.875,-742.188,-724.121,-395.02,-791.504
1742469185.879,531.25,539.062,-107.91,521.973
1742469185.883,-346.68,-395.996,-260.742,-527.832
1742469185.887,-28.809,-310.059,-197.266,133.301
1742469185.891,967.773,911.133,115.234,503.418
1742469185.892,-538.574,-549.805,33.691,-763.184
1742469185.896,530.273,434.57,156.25,477.539
1742469185.9,-293.457,-339.844,-31.738,-420.898
1742469185.904,-102.051,-299.805,25.391,35.156
1742469185.908,760.742,720.215,98.633,201.66
1742469185.912,-535.645,-540.039,77.148,-615.234
1742469185.916,632.324,602.539,489.746,648.926
1742469185.919,-499.023,-493.164,219.238,-636.719
1742469185.923,-348.633,-619.629,34.668,-14.648
1742469185.927,857.422,749.512,68.848,584.961
1742469185.931,-437.5,-409.668,-96.68,-577.148
1742469185.935,368.164,374.023,184.57,402.344
1742469185.892,-538.574,-549.805,33.691,-763.184
1742469185.896,530.273,434.57,156.25,477.539
1742469185.9,-293.457,-339.844,-31.738,-420.898
1742469185.904,-102.051,-299.805,25.391,35.156
1742469185.908,760.742,720.215,98.633,201.66
1742469185.912,-535.645,-540.039,77.148,-615.234
1742469185.916,632.324,602.539,489.746,648.926
1742469185.919,-499.023,-493.164,219.238,-636.719
1742469185.923,-348.633,-619.629,34.668,-14.648
1742469185.927,857.422,749.512,68.848,584.961
1742469185.931,-437.5,-409.668,-96.68,-577.148
1742469185.935,368.164,374.023,184.57,402.344
1742469185.937,-553.223,-517.578,-140.137,-459.961
1742469185.941,-15.625,-96.191,-182.617,357.422
1742469185.945,731.934,827.637,101.074,485.352
1742469185.949,-725.586,-670.41,104.004,-618.652
1742469185.953,465.332,533.691,315.918,582.031
1742469185.957,-594.727,-385.254,258.301,-577.148
1742469185.961,-465.332,-341.309,333.496,-69.824
1742469185.964,436.523,588.867,297.363,221.191
1742469185.968,-795.41,-779.297,40.039,-515.137
1742469185.972,579.102,609.863,250.0,812.012
1742469185.976,-367.676,-278.809,192.383,-367.676
1742469185.98,-572.754,-666.504,229.492,129.883
1742469185.982,999.512,959.961,372.559,996.582
1742469185.986,-794.922,-772.949,64.941,-775.879
1742469185.99,-460.449,-400.391,151.855,146.973
1742469185.994,428.223,606.445,177.246,196.289
1742469185.998,-748.535,-696.289,-56.641,-567.383
1742469186.002,443.848,496.582,281.738,741.699
1742469186.006,-421.387,-271.484,196.777,-565.918
1742469186.009,-1000.0,-1000.0,-65.43,-1000.0
1742469186.013,788.574,774.902,287.109,750.0
1742469186.017,-21.484,165.039,155.273,-206.543
1742469186.021,-763.184,-729.004,-30.762,-233.398
1742469186.025,872.559,943.848,395.02,956.055
1742469185.982,999.512,959.961,372.559,996.582
1742469185.986,-794.922,-772.949,64.941,-775.879
1742469185.99,-460.449,-400.391,151.855,146.973
1742469185.994,428.223,606.445,177.246,196.289
1742469185.998,-748.535,-696.289,-56.641,-567.383
1742469186.002,443.848,496.582,281.738,741.699
1742469186.006,-421.387,-271.484,196.777,-565.918
1742469186.009,-1000.0,-1000.0,-65.43,-1000.0
1742469186.013,788.574,774.902,287.109,750.0
1742469186.017,-21.484,165.039,155.273,-206.543
1742469186.021,-763.184,-729.004,-30.762,-233.398
1742469186.025,872.559,943.848,395.02,956.055
1742469186.043,-643.066,-500.977,210.938,-542.969
1742469186.047,-269.043,-497.559,-121.094,376.953
1742469186.051,589.355,645.508,-182.617,395.02
1742469186.055,-739.746,-650.879,-100.586,-589.355
1742469186.059,416.504,468.262,178.711,593.262
1742469186.063,-339.844,-130.371,218.75,-479.004
1742469186.067,-1000.0,-1000.0,91.797,-295.41
1742469186.07,-1000.0,-1000.0,-60.547,-1.465
1742469186.074,-522.461,-378.906,-70.312,15.137
1742469186.078,632.812,733.398,135.254,299.316
1742469186.082,-519.043,-567.871,208.008,-678.711
1742469186.086,330.566,326.66,226.074,384.766
1742469186.043,-643.066,-500.977,210.938,-542.969
1742469186.047,-269.043,-497.559,-121.094,376.953
1742469186.051,589.355,645.508,-182.617,395.02
1742469186.055,-739.746,-650.879,-100.586,-589.355
1742469186.059,416.504,468.262,178.711,593.262
1742469186.063,-339.844,-130.371,218.75,-479.004
1742469186.067,-1000.0,-1000.0,91.797,-295.41
1742469186.07,-1000.0,-1000.0,-60.547,-1.465
1742469186.074,-522.461,-378.906,-70.312,15.137
1742469186.078,632.812,733.398,135.254,299.316
1742469186.082,-519.043,-567.871,208.008,-678.711
1742469186.086,330.566,326.66,226.074,384.766
1742469186.087,-294.434,-192.871,-140.137,-429.199
1742469186.091,-780.273,-819.336,-217.773,-317.871
1742469186.095,999.512,999.512,34.668,956.543
1742469186.099,326.66,460.938,46.387,-249.512
1742469186.103,-832.52,-892.578,-2.441,-266.602
1742469186.107,905.273,796.387,317.383,999.512
1742469186.111,258.789,487.793,364.746,-31.25
1742469186.114,-886.23,-872.07,2.93,-344.727
1742469186.118,665.039,605.469,8.789,843.75
1742469186.122,-548.34,-489.258,-24.902,-541.992
1742469186.126,-128.906,-163.086,194.824,236.328
1742469186.13,656.738,706.055,250.0,350.586
1742469186.087,-294.434,-192.871,-140.137,-429.199
1742469186.091,-780.273,-819.336,-217.773,-317.871
1742469186.095,999.512,999.512,34.668,956.543
1742469186.099,326.66,460.938,46.387,-249.512
1742469186.103,-832.52,-892.578,-2.441,-266.602
1742469186.107,905.273,796.387,317.383,999.512
1742469186.111,258.789,487.793,364.746,-31.25
1742469186.114,-886.23,-872.07,2.93,-344.727
1742469186.118,665.039,605.469,8.789,843.75
1742469186.122,-548.34,-489.258,-24.902,-541.992
1742469186.126,-128.906,-163.086,194.824,236.328
1742469186.13,656.738,706.055,250.0,350.586
1742469186.133,-708.008,-671.875,18.555,-601.562
1742469186.137,419.922,431.152,145.02,558.594
1742469186.141,-494.141,-494.629,4.883,-468.262
1742469186.145,220.703,145.02,127.441,355.957
1742469186.149,419.434,528.809,157.715,69.336
1742469186.153,-722.656,-663.086,186.523,-432.617
1742469186.157,689.941,704.59,341.797,628.906
1742469186.16,-686.523,-666.016,-62.988,-779.785
1742469186.164,-271.484,-519.043,-85.938,161.621
1742469186.168,759.277,750.488,-32.715,390.137
1742469186.172,-569.824,-481.445,-40.527,-574.707
1742469186.176,413.086,411.133,446.777,506.836
1742469186.133,-708.008,-671.875,18.555,-601.562
1742469186.137,419.922,431.152,145.02,558.594
1742469186.141,-494.141,-494.629,4.883,-468.262
1742469186.145,220.703,145.02,127.441,355.957
1742469186.149,419.434,528.809,157.715,69.336
1742469186.153,-722.656,-663.086,186.523,-432.617
1742469186.157,689.941,704.59,341.797,628.906
1742469186.16,-686.523,-666.016,-62.988,-779.785
1742469186.164,-271.484,-519.043,-85.938,161.621
1742469186.168,759.277,750.488,-32.715,390.137
1742469186.172,-569.824,-481.445,-40.527,-574.707
1742469186.176,413.086,411.133,446.777,506.836
1742469186.177,-539.062,-498.535,269.043,-500.488
1742469186.181,-15.137,-133.301,71.777,283.203
1742469186.185,524.902,581.055,88.379,187.012
1742469186.189,-652.832,-651.367,148.926,-395.996
1742469186.193,562.988,569.824,157.715,675.781
1742469186.197,-585.938,-479.98,-235.84,-580.078
1742469186.201,69.336,127.441,-371.582,294.922
1742469186.204,37.598,278.32,-688.965,-165.039
1742469186.208,-866.699,-859.863,-961.426,-491.699
1742469186.212,497.07,412.109,-856.445,688.965
1742469186.216,-373.535,-361.328,-882.324,-425.293
1742469186.22,314.453,309.082,-693.359,345.215
1742469186.177,-539.062,-498.535,269.043,-500.488
1742469186.181,-15.137,-133.301,71.777,283.203
1742469186.185,524.902,581.055,88.379,187.012
1742469186.189,-652.832,-651.367,148.926,-395.996
1742469186.193,562.988,569.824,157.715,675.781
1742469186.197,-585.938,-479.98,-235.84,-580.078
1742469186.201,69.336,127.441,-371.582,294.922
1742469186.204,37.598,278.32,-688.965,-165.039
1742469186.208,-866.699,-859.863,-961.426,-491.699
1742469186.212,497.07,412.109,-856.445,688.965
1742469186.216,-373.535,-361.328,-882.324,-425.293
1742469186.22,314.453,309.082,-693.359,345.215
1742469186.223,-111.328,-73.73,-866.699,-229.492
1742469186.227,-1000.0,-1000.0,-759.766,-1000.0
1742469186.231,-66.895,-131.348,-279.297,-244.141
1742469186.235,577.148,646.973,-231.934,-150.391
1742469186.239,-925.293,-812.5,-370.117,-1000.0
1742469186.243,422.852,490.723,-49.316,264.16
1742469186.247,145.996,332.031,-19.043,-392.09
1742469186.25,-994.141,-974.121,-333.496,-706.055
1742469186.254,596.191,563.477,-264.16,713.867
1742469186.258,-538.574,-474.121,-319.824,-692.383
1742469186.262,-1000.0,-1000.0,-390.137,-728.027
1742469186.266,774.902,791.504,-45.41,734.863
1742469186.223,-111.328,-73.73,-866.699,-229.492
1742469186.227,-1000.0,-1000.0,-759.766,-1000.0
1742469186.231,-66.895,-131.348,-279.297,-244.141
1742469186.235,577.148,646.973,-231.934,-150.391
1742469186.239,-925.293,-812.5,-370.117,-1000.0
1742469186.243,422.852,490.723,-49.316,264.16
1742469186.247,145.996,332.031,-19.043,-392.09
1742469186.25,-994.141,-974.121,-333.496,-706.055
1742469186.254,596.191,563.477,-264.16,713.867
1742469186.258,-538.574,-474.121,-319.824,-692.383
1742469186.262,-1000.0,-1000.0,-390.137,-728.027
1742469186.266,774.902,791.504,-45.41,734.863
1742469186.267,-312.988,-172.363,-10.742,-620.117
1742469186.271,-1000.0,-1000.0,12.695,-761.719
1742469186.275,653.809,631.836,257.324,583.008
1742469186.279,-616.699,-610.352,-63.477,-810.059
1742469186.283,-982.422,-965.82,-16.113,-754.395
1742469186.287,655.273,667.969,352.539,512.207
1742469186.291,-528.32,-515.625,125.977,-725.098
1742469186.294,-1000.0,-1000.0,-99.609,-1000.0
1742469186.298,509.766,499.512,5.859,188.965
1742469186.302,-190.918,-19.043,-186.035,-586.914
1742469186.306,-931.152,-874.512,-31.738,-836.914
1742469186.31,620.117,609.863,584.473,355.469
1742469186.267,-312.988,-172.363,-10.742,-620.117
1742469186.271,-1000.0,-1000.0,12.695,-761.719
1742469186.275,653.809,631.836,257.324,583.008
1742469186.279,-616.699,-610.352,-63.477,-810.059
1742469186.283,-982.422,-965.82,-16.113,-754.395
1742469186.287,655.273,667.969,352.539,512.207
1742469186.291,-528.32,-515.625,125.977,-725.098
1742469186.294,-1000.0,-1000.0,-99.609,-1000.0
1742469186.298,509.766,499.512,5.859,188.965
1742469186.302,-190.918,-19.043,-186.035,-586.914
1742469186.306,-931.152,-874.512,-31.738,-836.914
1742469186.31,620.117,609.863,584.473,355.469
1742469186.313,-446.289,-430.176,422.363,-671.875
1742469186.317,-1000.0,-1000.0,42.48,-1000.0
1742469186.321,-845.215,-798.34,-208.984,-890.137
1742469186.325,462.891,548.34,-50.293,-294.434
1742469186.329,999.512,999.512,56.152,-722.168
1742469186.333,999.512,999.512,122.559,-707.031
1742469186.337,155.762,326.66,89.355,-695.312
1742469186.34,-1000.0,-1000.0,-248.535,-1000.0
1742469186.344,496.094,336.914,-129.395,409.668
1742469186.348,498.535,638.672,55.664,-229.004
1742469186.352,-993.652,-970.215,-40.527,-1000.0
1742469186.356,559.57,529.297,-30.762,475.098
1742469186.313,-446.289,-430.176,422.363,-671.875
1742469186.317,-1000.0,-1000.0,42.48,-1000.0
1742469186.321,-845.215,-798.34,-208.984,-890.137
1742469186.325,462.891,548.34,-50.293,-294.434
1742469186.329,999.512,999.512,56.152,-722.168
1742469186.333,999.512,999.512,122.559,-707.031
1742469186.337,155.762,326.66,89.355,-695.312
1742469186.34,-1000.0,-1000.0,-248.535,-1000.0
1742469186.344,496.094,336.914,-129.395,409.668
1742469186.348,498.535,638.672,55.664,-229.004
1742469186.352,-993.652,-970.215,-40.527,-1000.0
1742469186.356,559.57,529.297,-30.762,475.098
1742469186.358,-338.867,-207.031,-229.492,-504.395
1742469186.362,-682.129,-783.203,-254.883,-307.129
1742469186.366,872.559,877.93,-58.105,268.555
1742469186.37,-800.781,-725.586,-173.828,-1000.0
1742469186.374,-184.082,-408.203,-251.465,111.328
1742469186.378,875.0,912.598,-89.355,220.215
1742469186.382,-658.691,-666.016,-104.492,-798.34
1742469186.385,453.613,256.836,-177.246,477.051
1742469186.389,-294.434,-225.098,-358.887,-456.543
1742469186.393,-797.852,-890.137,-403.32,-329.102
1742469186.397,810.059,784.18,-202.637,372.559
1742469186.401,-701.66,-689.453,-177.246,-910.156
1742469186.358,-338.867,-207.031,-229.492,-504.395
1742469186.362,-682.129,-783.203,-254.883,-307.129
1742469186.366,872.559,877.93,-58.105,268.555
1742469186.37,-800.781,-725.586,-173.828,-1000.0
1742469186.374,-184.082,-408.203,-251.465,111.328
1742469186.378,875.0,912.598,-89.355,220.215
1742469186.382,-658.691,-666.016,-104.492,-798.34
1742469186.385,453.613,256.836,-177.246,477.051
1742469186.389,-294.434,-225.098,-358.887,-456.543
1742469186.393,-797.852,-890.137,-403.32,-329.102
1742469186.397,810.059,784.18,-202.637,372.559
1742469186.401,-701.66,-689.453,-177.246,-910.156
1742469186.402,122.07,-102.539,-212.402,251.953
1742469186.406,392.09,481.445,-267.09,-167.48
1742469186.41,-746.582,-743.652,-261.719,-523.926
1742469186.414,564.941,501.953,-95.215,523.438
1742469186.418,-452.148,-413.574,23.926,-583.984
1742469186.422,416.992,346.68,420.898,452.148
1742469186.426,343.262,392.578,502.441,-48.828
1742469186.429,-915.039,-913.086,303.711,-429.688
1742469186.433,521.484,518.555,151.855,623.047
1742469186.437,-606.445,-622.559,-118.652,-724.121
1742469186.441,4.883,-197.266,39.062,282.227
1742469186.445,944.336,919.922,316.895,397.949
1742469186.402,122.07,-102.539,-212.402,251.953
1742469186.406,392.09,481.445,-267.09,-167.48
1742469186.41,-746.582,-743.652,-261.719,-523.926
1742469186.414,564.941,501.953,-95.215,523.438
1742469186.418,-452.148,-413.574,23.926,-583.984
1742469186.422,416.992,346.68,420.898,452.148
1742469186.426,343.262,392.578,502.441,-48.828
1742469186.429,-915.039,-913.086,303.711,-429.688
1742469186.433,521.484,518.555,151.855,623.047
1742469186.437,-606.445,-622.559,-118.652,-724.121
1742469186.441,4.883,-197.266,39.062,282.227
1742469186.445,944.336,919.922,316.895,397.949
1742469186.447,-497.07,-505.859,317.383,-642.578
1742469186.451,400.879,345.215,268.066,493.652
1742469186.455,-399.414,-399.414,-27.832,-393.066
1742469186.459,222.168,159.668,124.023,381.348
1742469186.463,920.898,930.176,86.426,378.418
1742469186.467,-474.609,-474.121,-120.117,-487.305
1742469186.471,328.125,294.922,-5.371,392.09
1742469186.474,-372.07,-361.816,-253.906,-451.172
1742469186.478,557.617,512.207,-185.059,508.301
1742469186.482,347.656,24.902,-329.102,-174.805
1742469186.486,-391.602,-571.777,-439.941,-327.148
1742469186.49,754.883,721.68,-243.652,451.66
1742469186.447,-497.07,-505.859,317.383,-642.578
1742469186.451,400.879,345.215,268.066,493.652
1742469186.455,-399.414,-399.414,-27.832,-393.066
1742469186.459,222.168,159.668,124.023,381.348
1742469186.463,920.898,930.176,86.426,378.418
1742469186.467,-474.609,-474.121,-120.117,-487.305
1742469186.471,328.125,294.922,-5.371,392.09
1742469186.474,-372.07,-361.816,-253.906,-451.172
1742469186.478,557.617,512.207,-185.059,508.301
1742469186.482,347.656,24.902,-329.102,-174.805
1742469186.486,-391.602,-571.777,-439.941,-327.148
1742469186.49,754.883,721.68,-243.652,451.66
1742469186.507,-447.266,-448.73,-606.445,-589.355
1742469186.511,539.062,496.582,-524.414,580.078
1742469186.515,206.543,-228.516,-388.184,-167.969
1742469186.519,133.301,-184.57,-208.008,187.988
1742469186.523,931.152,905.762,-41.016,571.777
1742469186.527,-520.508,-546.875,-28.32,-600.098
1742469186.531,641.602,569.824,183.594,628.906
1742469186.534,-96.191,-275.391,-9.766,-372.559
1742469186.538,-367.676,-646.484,-152.832,-141.113
1742469186.542,766.602,659.18,-147.949,388.672
1742469186.546,-302.734,-381.348,-56.641,-442.871
1742469186.55,451.66,330.078,134.277,439.941
1742469186.507,-447.266,-448.73,-606.445,-589.355
1742469186.511,539.062,496.582,-524.414,580.078
1742469186.515,206.543,-228.516,-388.184,-167.969
1742469186.519,133.301,-184.57,-208.008,187.988
1742469186.523,931.152,905.762,-41.016,571.777
1742469186.527,-520.508,-546.875,-28.32,-600.098
1742469186.531,641.602,569.824,183.594,628.906
1742469186.534,-96.191,-275.391,-9.766,-372.559
1742469186.538,-367.676,-646.484,-152.832,-141.113
1742469186.542,766.602,659.18,-147.949,388.672
1742469186.546,-302.734,-381.348,-56.641,-442.871
1742469186.55,451.66,330.078,134.277,439.941
1742469186.507,-447.266,-448.73,-606.445,-589.355
1742469186.511,539.062,496.582,-524.414,580.078
1742469186.515,206.543,-228.516,-388.184,-167.969
1742469186.519,133.301,-184.57,-208.008,187.988
1742469186.523,931.152,905.762,-41.016,571.777
1742469186.527,-520.508,-546.875,-28.32,-600.098
1742469186.531,641.602,569.824,183.594,628.906
1742469186.534,-96.191,-275.391,-9.766,-372.559
1742469186.538,-367.676,-646.484,-152.832,-141.113
1742469186.542,766.602,659.18,-147.949,388.672
1742469186.546,-302.734,-381.348,-56.641,-442.871
1742469186.55,451.66,330.078,134.277,439.941
1742469186.552,-324.219,-412.598,-120.117,-435.547
1742469186.556,496.094,396.484,37.598,472.656
1742469186.56,660.645,619.629,28.32,40.039
1742469186.564,-761.719,-864.258,-249.023,-662.598
1742469186.568,575.195,493.652,-121.094,679.199
1742469186.572,999.512,999.512,103.027,457.031
1742469186.576,648.438,564.453,112.305,-105.469
1742469186.579,-613.77,-774.902,-207.52,-614.746
1742469186.583,589.355,525.391,-122.07,470.703
1742469186.587,42.48,22.949,-133.789,-408.691
1742469186.591,-353.027,-539.062,-68.848,-146.484
1742469186.595,944.336,868.652,252.441,582.031
1742469186.552,-324.219,-412.598,-120.117,-435.547
1742469186.556,496.094,396.484,37.598,472.656
1742469186.56,660.645,619.629,28.32,40.039
1742469186.564,-761.719,-864.258,-249.023,-662.598
1742469186.568,575.195,493.652,-121.094,679.199
1742469186.572,999.512,999.512,103.027,457.031
1742469186.576,648.438,564.453,112.305,-105.469
1742469186.579,-613.77,-774.902,-207.52,-614.746
1742469186.583,589.355,525.391,-122.07,470.703
1742469186.587,42.48,22.949,-133.789,-408.691
1742469186.591,-353.027,-539.062,-68.848,-146.484
1742469186.595,944.336,868.652,252.441,582.031
1742469186.597,-525.391,-484.863,-2.93,-791.992
1742469186.601,-1000.0,-1000.0,-312.5,-812.012
1742469186.605,59.57,-83.984,-257.812,51.758
1742469186.609,793.457,737.793,-125.977,-30.762
1742469186.613,-396.484,-396.484,-215.82,-597.656
1742469186.617,521.484,521.484,-110.352,542.969
1742469186.621,-361.328,-408.203,-313.477,-489.258
1742469186.624,-117.676,-378.906,-368.652,111.328
1742469186.628,985.352,915.527,-225.098,454.102
1742469186.632,-612.305,-616.699,-294.434,-755.371
1742469186.636,637.695,580.566,-86.914,661.133
1742469186.64,349.609,416.016,-126.953,-139.16
1742469186.597,-525.391,-484.863,-2.93,-791.992
1742469186.601,-1000.0,-1000.0,-312.5,-812.012
1742469186.605,59.57,-83.984,-257.812,51.758
1742469186.609,793.457,737.793,-125.977,-30.762
1742469186.613,-396.484,-396.484,-215.82,-597.656
1742469186.617,521.484,521.484,-110.352,542.969
1742469186.621,-361.328,-408.203,-313.477,-489.258
1742469186.624,-117.676,-378.906,-368.652,111.328
1742469186.628,985.352,915.527,-225.098,454.102
1742469186.632,-612.305,-616.699,-294.434,-755.371
1742469186.636,637.695,580.566,-86.914,661.133
1742469186.64,349.609,416.016,-126.953,-139.16
1742469186.642,-579.102,-653.809,-203.613,-243.652
1742469186.646,715.82,631.836,-38.574,726.562
1742469186.65,-438.965,-479.98,-127.441,-529.785
1742469186.654,476.074,426.27,141.602,456.055
1742469186.658,144.531,215.82,-0.977,-120.117
1742469186.662,-274.902,-271.973,-39.062,5.371
1742469186.666,869.141,873.047,127.441,482.422
1742469186.669,-638.672,-702.637,-226.074,-803.711
1742469186.673,390.137,278.32,-96.191,410.156
1742469186.677,-146.973,-73.242,-41.016,-434.082
1742469186.681,-686.035,-648.438,48.828,-487.305
1742469186.685,627.93,620.605,186.523,261.23
1742469186.642,-579.102,-653.809,-203.613,-243.652
1742469186.646,715.82,631.836,-38.574,726.562
1742469186.65,-438.965,-479.98,-127.441,-529.785
1742469186.654,476.074,426.27,141.602,456.055
1742469186.658,144.531,215.82,-0.977,-120.117
1742469186.662,-274.902,-271.973,-39.062,5.371
1742469186.666,869.141,873.047,127.441,482.422
1742469186.669,-638.672,-702.637,-226.074,-803.711
1742469186.673,390.137,278.32,-96.191,410.156
1742469186.677,-146.973,-73.242,-41.016,-434.082
1742469186.681,-686.035,-648.438,48.828,-487.305
1742469186.685,627.93,620.605,186.523,261.23
1742469186.687,-539.551,-588.379,-152.344,-704.102
1742469186.691,473.633,406.25,-90.82,433.594
1742469186.695,-369.141,-399.414,-145.996,-473.633
1742469186.699,-512.695,-657.715,-166.504,-178.711
1742469186.703,833.008,790.527,-96.191,282.227
1742469186.707,-584.473,-536.133,-90.82,-700.195
1742469186.711,599.609,593.262,93.262,600.098
1742469186.714,411.133,460.449,-43.945,-284.18
1742469186.718,-936.523,-914.551,-449.219,-653.32
1742469186.722,649.902,589.844,-339.844,762.207
1742469186.726,-254.883,-403.32,-167.969,-323.242
1742469186.73,221.191,105.469,139.16,327.637
1742469186.687,-539.551,-588.379,-152.344,-704.102
1742469186.691,473.633,406.25,-90.82,433.594
1742469186.695,-369.141,-399.414,-145.996,-473.633
1742469186.699,-512.695,-657.715,-166.504,-178.711
1742469186.703,833.008,790.527,-96.191,282.227
1742469186.707,-584.473,-536.133,-90.82,-700.195
1742469186.711,599.609,593.262,93.262,600.098
1742469186.714,411.133,460.449,-43.945,-284.18
1742469186.718,-936.523,-914.551,-449.219,-653.32
1742469186.722,649.902,589.844,-339.844,762.207
1742469186.726,-254.883,-403.32,-167.969,-323.242
1742469186.73,221.191,105.469,139.16,327.637
1742469186.732,663.574,707.031,120.605,97.168
1742469186.736,-852.539,-825.195,-147.949,-657.227
1742469186.74,457.52,432.617,-71.289,583.008
1742469186.744,999.512,999.512,56.152,214.844
1742469186.748,591.797,544.922,-37.109,-284.668
1742469186.752,-366.699,-395.996,-31.738,-212.891
1742469186.756,297.852,320.312,-155.273,250.0
1742469186.759,-303.711,-305.664,-370.605,-375.977
1742469186.763,465.82,451.66,85.938,488.281
1742469186.767,-278.809,-333.008,-33.691,-385.254
1742469186.771,-311.523,-415.039,-8.789,70.312
1742469186.775,881.836,846.191,302.734,630.371
1742469186.732,663.574,707.031,120.605,97.168
1742469186.736,-852.539,-825.195,-147.949,-657.227
1742469186.74,457.52,432.617,-71.289,583.008
1742469186.744,999.512,999.512,56.152,214.844
1742469186.748,591.797,544.922,-37.109,-284.668
1742469186.752,-366.699,-395.996,-31.738,-212.891
1742469186.756,297.852,320.312,-155.273,250.0
1742469186.759,-303.711,-305.664,-370.605,-375.977
1742469186.763,465.82,451.66,85.938,488.281
1742469186.767,-278.809,-333.008,-33.691,-385.254
1742469186.771,-311.523,-415.039,-8.789,70.312
1742469186.775,881.836,846.191,302.734,630.371
1742469186.777,-497.559,-521.973,23.926,-562.5
1742469186.781,506.836,459.473,120.117,560.059
1742469186.785,-242.676,-295.898,-35.645,-293.457
1742469186.789,-6.836,-153.32,39.062,258.301
1742469186.793,971.68,949.219,232.91,527.832
1742469186.797,-609.863,-581.055,62.012,-638.672
1742469186.801,613.281,594.727,218.75,728.027
1742469186.804,-42.48,-24.414,177.734,-279.785
1742469186.808,-885.254,-940.43,13.672,-398.926
1742469186.812,557.617,507.324,-20.02,570.312
1742469186.816,-432.129,-453.613,-166.992,-512.695
1742469186.82,555.664,530.273,166.504,502.441
1742469186.777,-497.559,-521.973,23.926,-562.5
1742469186.781,506.836,459.473,120.117,560.059
1742469186.785,-242.676,-295.898,-35.645,-293.457
1742469186.789,-6.836,-153.32,39.062,258.301
1742469186.793,971.68,949.219,232.91,527.832
1742469186.797,-609.863,-581.055,62.012,-638.672
1742469186.801,613.281,594.727,218.75,728.027
1742469186.804,-42.48,-24.414,177.734,-279.785
1742469186.808,-885.254,-940.43,13.672,-398.926
1742469186.812,557.617,507.324,-20.02,570.312
1742469186.816,-432.129,-453.613,-166.992,-512.695
1742469186.82,555.664,530.273,166.504,502.441
1742469186.838,1.465,138.672,218.262,-268.555
1742469186.842,-641.602,-732.422,174.805,-210.938
1742469186.846,542.969,537.598,226.074,181.641
1742469186.85,-577.637,-493.652,122.559,-731.934
1742469186.854,506.836,529.297,295.41,499.512
1742469186.858,-367.188,-198.242,265.625,-528.32
1742469186.862,-776.367,-851.074,262.207,-255.859
1742469186.865,522.461,506.348,240.723,172.852
1742469186.869,-516.602,-460.938,59.082,-675.781
1742469186.873,398.926,333.984,204.59,459.473
1742469186.877,-242.676,-285.156,210.938,-292.48
1742469186.881,173.828,163.086,384.277,178.711
1742469186.838,1.465,138.672,218.262,-268.555
1742469186.842,-641.602,-732.422,174.805,-210.938
1742469186.846,542.969,537.598,226.074,181.641
1742469186.85,-577.637,-493.652,122.559,-731.934
1742469186.854,506.836,529.297,295.41,499.512
1742469186.858,-367.188,-198.242,265.625,-528.32
1742469186.862,-776.367,-851.074,262.207,-255.859
1742469186.865,522.461,506.348,240.723,172.852
1742469186.869,-516.602,-460.938,59.082,-675.781
1742469186.873,398.926,333.984,204.59,459.473
1742469186.877,-242.676,-285.156,210.938,-292.48
1742469186.881,173.828,163.086,384.277,178.711
1742469186.882,-101.074,-39.062,173.34,-220.703
1742469186.886,-190.43,-178.711,115.234,14.16
1742469186.89,429.199,475.586,74.219,87.402
1742469186.894,-588.379,-649.414,-54.688,-245.117
1742469186.898,750.488,708.984,263.672,804.199
1742469186.902,-578.613,-486.328,270.02,-654.297
1742469186.906,-606.445,-733.398,162.598,-1.953
1742469186.909,451.172,420.41,-188.477,193.848
1742469186.913,-562.012,-560.547,-297.852,-403.809
1742469186.917,417.969,360.84,-85.449,634.277
1742469186.921,-396.484,-431.641,-360.84,-432.129
1742469186.925,395.996,320.312,-190.918,527.344
1742469186.882,-101.074,-39.062,173.34,-220.703
1742469186.886,-190.43,-178.711,115.234,14.16
1742469186.89,429.199,475.586,74.219,87.402
1742469186.894,-588.379,-649.414,-54.688,-245.117
1742469186.898,750.488,708.984,263.672,804.199
1742469186.902,-578.613,-486.328,270.02,-654.297
1742469186.906,-606.445,-733.398,162.598,-1.953
1742469186.909,451.172,420.41,-188.477,193.848
1742469186.913,-562.012,-560.547,-297.852,-403.809
1742469186.917,417.969,360.84,-85.449,634.277
1742469186.921,-396.484,-431.641,-360.84,-432.129
1742469186.925,395.996,320.312,-190.918,527.344
1742469186.943,834.961,841.797,-11.23,478.516
1742469186.947,-699.707,-712.891,-135.742,-493.164
1742469186.951,493.652,509.766,52.734,604.492
1742469186.955,-550.293,-493.164,7.812,-630.859
1742469186.959,-741.211,-863.281,19.531,-202.148
1742469186.963,739.746,689.941,177.734,505.371
1742469186.967,-539.062,-583.008,41.016,-688.965
1742469186.97,488.77,380.859,238.281,479.004
1742469186.974,64.941,223.633,139.648,-275.391
1742469186.978,-886.719,-955.566,-152.832,-345.215
1742469186.982,865.234,847.656,-59.082,860.84
1742469186.986,-517.578,-360.84,-108.398,-658.203
1742469186.943,834.961,841.797,-11.23,478.516
1742469186.947,-699.707,-712.891,-135.742,-493.164
1742469186.951,493.652,509.766,52.734,604.492
1742469186.955,-550.293,-493.164,7.812,-630.859
1742469186.959,-741.211,-863.281,19.531,-202.148
1742469186.963,739.746,689.941,177.734,505.371
1742469186.967,-539.062,-583.008,41.016,-688.965
1742469186.97,488.77,380.859,238.281,479.004
1742469186.974,64.941,223.633,139.648,-275.391
1742469186.978,-886.719,-955.566,-152.832,-345.215
1742469186.982,865.234,847.656,-59.082,860.84
1742469186.986,-517.578,-360.84,-108.398,-658.203
1742469186.972,-377.93,-626.953,-183.105,149.414
1742469186.976,865.723,815.918,-185.059,462.891
1742469186.98,-677.734,-634.277,-321.777,-782.715
1742469186.984,412.109,368.164,-143.066,453.613
1742469186.988,-102.539,81.543,-142.09,-355.469
1742469186.992,-428.711,-316.895,-11.23,-420.898
1742469186.996,596.68,755.859,79.102,-48.828
1742469186.999,-992.676,-882.812,-260.254,-1000.0
1742469187.003,-1000.0,-1000.0,-429.199,-759.277
1742469187.007,763.672,751.953,-163.086,484.863
1742469187.011,-296.875,-212.402,-70.312,-561.035
1742469187.015,-656.738,-768.066,27.344,-420.41
1742469186.972,-377.93,-626.953,-183.105,149.414
1742469186.976,865.723,815.918,-185.059,462.891
1742469186.98,-677.734,-634.277,-321.777,-782.715
1742469186.984,412.109,368.164,-143.066,453.613
1742469186.988,-102.539,81.543,-142.09,-355.469
1742469186.992,-428.711,-316.895,-11.23,-420.898
1742469186.996,596.68,755.859,79.102,-48.828
1742469186.999,-992.676,-882.812,-260.254,-1000.0
1742469187.003,-1000.0,-1000.0,-429.199,-759.277
1742469187.007,763.672,751.953,-163.086,484.863
1742469187.011,-296.875,-212.402,-70.312,-561.035
1742469187.015,-656.738,-768.066,27.344,-420.41
1742469187.018,561.523,566.406,37.109,17.09
1742469187.022,-701.66,-690.43,-173.828,-834.473
1742469187.026,583.496,488.77,91.797,530.273
1742469187.03,138.184,355.469,192.871,-435.059
1742469187.034,-971.68,-938.965,53.711,-681.641
1742469187.038,633.789,611.816,229.004,548.828
1742469187.042,-644.043,-579.59,120.605,-751.953
1742469187.045,-650.391,-822.266,-104.004,9.277
1742469187.049,935.059,856.445,91.309,708.008
1742469187.053,-770.02,-744.141,-129.883,-891.602
1742469187.057,-209.961,-325.195,-87.891,188.477
1742469187.061,759.766,746.094,198.242,340.332
1742469187.018,561.523,566.406,37.109,17.09
1742469187.022,-701.66,-690.43,-173.828,-834.473
1742469187.026,583.496,488.77,91.797,530.273
1742469187.03,138.184,355.469,192.871,-435.059
1742469187.034,-971.68,-938.965,53.711,-681.641
1742469187.038,633.789,611.816,229.004,548.828
1742469187.042,-644.043,-579.59,120.605,-751.953
1742469187.045,-650.391,-822.266,-104.004,9.277
1742469187.049,935.059,856.445,91.309,708.008
1742469187.053,-770.02,-744.141,-129.883,-891.602
1742469187.057,-209.961,-325.195,-87.891,188.477
1742469187.061,759.766,746.094,198.242,340.332
1742469187.062,-650.391,-641.602,-83.984,-684.57
1742469187.066,518.066,479.004,37.598,570.801
1742469187.07,-374.512,-397.949,-45.41,-418.457
1742469187.074,-147.461,-255.859,0.488,60.059
1742469187.078,604.492,650.391,-23.926,188.477
1742469187.082,-396.484,-355.469,-60.547,-141.113
1742469187.086,682.129,660.645,172.363,661.621
1742469187.089,-659.668,-661.621,-269.043,-743.164
1742469187.093,-39.062,-239.258,-318.359,264.16
1742469187.097,716.797,742.676,-278.32,228.516
1742469187.101,-593.75,-562.988,-375.977,-416.992
1742469187.105,604.98,569.824,77.148,720.703
1742469187.062,-650.391,-641.602,-83.984,-684.57
1742469187.066,518.066,479.004,37.598,570.801
1742469187.07,-374.512,-397.949,-45.41,-418.457
1742469187.074,-147.461,-255.859,0.488,60.059
1742469187.078,604.492,650.391,-23.926,188.477
1742469187.082,-396.484,-355.469,-60.547,-141.113
1742469187.086,682.129,660.645,172.363,661.621
1742469187.089,-659.668,-661.621,-269.043,-743.164
1742469187.093,-39.062,-239.258,-318.359,264.16
1742469187.097,716.797,742.676,-278.32,228.516
1742469187.101,-593.75,-562.988,-375.977,-416.992
1742469187.105,604.98,569.824,77.148,720.703
1742469187.107,-460.938,-451.172,33.203,-499.023
1742469187.111,80.078,-138.184,70.801,273.438
1742469187.115,572.266,621.582,14.648,147.461
1742469187.119,-668.945,-683.594,37.598,-369.629
1742469187.123,788.574,768.066,367.676,800.293
1742469187.127,-504.395,-338.867,234.375,-618.652
1742469187.131,-656.738,-711.914,98.633,-43.945
1742469187.134,589.355,597.656,-50.781,304.688
1742469187.138,-486.328,-447.754,-105.957,-463.867
1742469187.142,318.359,306.641,139.16,465.332
1742469187.146,-354.004,-350.586,109.863,-405.273
1742469187.15,245.605,260.742,172.363,258.789
1742469187.107,-460.938,-451.172,33.203,-499.023
1742469187.111,80.078,-138.184,70.801,273.438
1742469187.115,572.266,621.582,14.648,147.461
1742469187.119,-668.945,-683.594,37.598,-369.629
1742469187.123,788.574,768.066,367.676,800.293
1742469187.127,-504.395,-338.867,234.375,-618.652
1742469187.131,-656.738,-711.914,98.633,-43.945
1742469187.134,589.355,597.656,-50.781,304.688
1742469187.138,-486.328,-447.754,-105.957,-463.867
1742469187.142,318.359,306.641,139.16,465.332
1742469187.146,-354.004,-350.586,109.863,-405.273
1742469187.15,245.605,260.742,172.363,258.789
1742469187.154,-257.812,-175.293,-96.68,-322.754
1742469187.158,-430.664,-421.387,-78.613,-177.734
1742469187.162,533.203,588.379,0.488,33.203
1742469187.166,-619.629,-641.113,-192.383,-475.098
1742469187.17,447.266,483.887,-144.043,546.875
1742469187.174,-519.531,-360.84,-138.672,-594.238
1742469187.178,-97.656,-35.156,-110.84,7.812
1742469187.181,-45.898,30.273,-453.613,-247.07
1742469187.185,-249.023,-426.27,-430.664,60.059
1742469187.189,704.59,718.262,-263.672,264.648
1742469187.193,-604.492,-518.066,-476.562,-732.422
1742469187.197,548.828,560.547,-288.086,575.195
1742469187.154,-257.812,-175.293,-96.68,-322.754
1742469187.158,-430.664,-421.387,-78.613,-177.734
1742469187.162,533.203,588.379,0.488,33.203
1742469187.166,-619.629,-641.113,-192.383,-475.098
1742469187.17,447.266,483.887,-144.043,546.875
1742469187.174,-519.531,-360.84,-138.672,-594.238
1742469187.178,-97.656,-35.156,-110.84,7.812
1742469187.181,-45.898,30.273,-453.613,-247.07
1742469187.185,-249.023,-426.27,-430.664,60.059
1742469187.189,704.59,718.262,-263.672,264.648
1742469187.193,-604.492,-518.066,-476.562,-732.422
1742469187.197,548.828,560.547,-288.086,575.195
1742469187.197,-285.645,-133.301,-403.32,-432.129
1742469187.201,-270.508,-381.348,-357.422,68.359
1742469187.205,769.043,790.039,-190.43,344.238
1742469187.209,-618.652,-561.523,-381.836,-687.5
1742469187.213,476.074,535.156,-217.773,492.188
1742469187.217,-477.539,-280.762,-254.395,-604.98
1742469187.221,-822.266,-909.18,-267.578,-310.059
1742469187.224,679.688,651.367,-190.43,317.871
1742469187.228,-559.57,-554.688,-379.395,-744.141
1742469187.232,356.934,306.152,-257.812,348.145
1742469187.236,83.008,237.305,-70.801,-270.508
1742469187.24,86.914,114.746,175.781,88.867
1742469187.197,-285.645,-133.301,-403.32,-432.129
1742469187.201,-270.508,-381.348,-357.422,68.359
1742469187.205,769.043,790.039,-190.43,344.238
1742469187.209,-618.652,-561.523,-381.836,-687.5
1742469187.213,476.074,535.156,-217.773,492.188
1742469187.217,-477.539,-280.762,-254.395,-604.98
1742469187.221,-822.266,-909.18,-267.578,-310.059
1742469187.224,679.688,651.367,-190.43,317.871
1742469187.228,-559.57,-554.688,-379.395,-744.141
1742469187.232,356.934,306.152,-257.812,348.145
1742469187.236,83.008,237.305,-70.801,-270.508
1742469187.24,86.914,114.746,175.781,88.867
1742469187.257,327.637,326.66,-36.621,-66.895
1742469187.261,-902.344,-915.527,-463.379,-521.484
1742469187.265,623.535,662.598,-444.824,742.676
1742469187.269,-341.309,-243.164,-403.809,-537.598
1742469187.273,-25.391,-194.336,-159.18,242.676
1742469187.277,971.191,938.477,-30.273,534.18
1742469187.281,-572.754,-579.102,-333.496,-676.758
1742469187.284,437.012,386.719,-322.266,495.117
1742469187.288,-358.398,-364.746,-502.93,-415.039
1742469187.292,-214.844,-409.18,-477.539,137.695
1742469187.296,921.387,857.91,-303.223,561.035
1742469187.3,-568.359,-559.57,-477.051,-562.5
1742469187.257,327.637,326.66,-36.621,-66.895
1742469187.261,-902.344,-915.527,-463.379,-521.484
1742469187.265,623.535,662.598,-444.824,742.676
1742469187.269,-341.309,-243.164,-403.809,-537.598
1742469187.273,-25.391,-194.336,-159.18,242.676
1742469187.277,971.191,938.477,-30.273,534.18
1742469187.281,-572.754,-579.102,-333.496,-676.758
1742469187.284,437.012,386.719,-322.266,495.117
1742469187.288,-358.398,-364.746,-502.93,-415.039
1742469187.292,-214.844,-409.18,-477.539,137.695
1742469187.296,921.387,857.91,-303.223,561.035
1742469187.3,-568.359,-559.57,-477.051,-562.5
1742469187.302,585.938,589.355,-310.547,660.645
1742469187.306,-113.77,-50.293,-315.43,-296.875
1742469187.31,-388.184,-542.48,-182.129,41.504
1742469187.314,848.145,794.434,85.938,565.43
1742469187.318,-502.93,-493.164,-11.719,-626.465
1742469187.322,543.945,562.988,275.391,553.711
1742469187.326,-153.32,87.891,211.914,-366.211
1742469187.329,-682.129,-739.258,-23.438,-187.5
1742469187.333,999.512,956.055,252.93,891.602
1742469187.337,-530.273,-484.863,78.125,-723.145
1742469187.341,-532.715,-547.852,-45.41,35.156
1742469187.345,683.594,689.941,159.668,405.762
1742469187.302,585.938,589.355,-310.547,660.645
1742469187.306,-113.77,-50.293,-315.43,-296.875
1742469187.31,-388.184,-542.48,-182.129,41.504
1742469187.314,848.145,794.434,85.938,565.43
1742469187.318,-502.93,-493.164,-11.719,-626.465
1742469187.322,543.945,562.988,275.391,553.711
1742469187.326,-153.32,87.891,211.914,-366.211
1742469187.329,-682.129,-739.258,-23.438,-187.5
1742469187.333,999.512,956.055,252.93,891.602
1742469187.337,-530.273,-484.863,78.125,-723.145
1742469187.341,-532.715,-547.852,-45.41,35.156
1742469187.345,683.594,689.941,159.668,405.762
1742469187.348,-513.672,-503.418,-12.695,-512.695
1742469187.352,426.27,419.434,152.832,535.645
1742469187.356,-377.93,-439.453,150.879,-377.441
1742469187.36,165.039,43.457,172.852,284.18
1742469187.364,510.254,592.285,212.402,113.77
1742469187.368,-415.527,-383.301,293.945,-89.844
1742469187.372,667.48,656.738,263.184,363.281
1742469187.375,-478.027,-526.855,-17.09,-654.297
1742469187.379,452.148,375.0,56.641,540.039
1742469187.383,-152.344,-31.738,-70.312,-334.473
1742469187.387,-597.168,-700.684,-75.195,-76.172
1742469187.391,809.57,754.395,212.402,781.738
1742469187.348,-513.672,-503.418,-12.695,-512.695
1742469187.352,426.27,419.434,152.832,535.645
1742469187.356,-377.93,-439.453,150.879,-377.441
1742469187.36,165.039,43.457,172.852,284.18
1742469187.364,510.254,592.285,212.402,113.77
1742469187.368,-415.527,-383.301,293.945,-89.844
1742469187.372,667.48,656.738,263.184,363.281
1742469187.375,-478.027,-526.855,-17.09,-654.297
1742469187.379,452.148,375.0,56.641,540.039
1742469187.383,-152.344,-31.738,-70.312,-334.473
1742469187.387,-597.168,-700.684,-75.195,-76.172
1742469187.391,809.57,754.395,212.402,781.738
1742469187.392,-542.969,-564.453,-64.941,-570.312
1742469187.396,317.383,211.914,-179.199,433.105
1742469187.4,-189.453,-194.824,-476.074,-185.059
1742469187.404,-199.219,-329.59,-485.84,207.52
1742469187.408,999.512,999.512,-158.203,978.516
1742469187.412,-678.711,-621.094,-218.262,-667.48
1742469187.416,-185.547,-367.188,-216.797,349.121
1742469187.419,685.059,656.25,-290.039,427.734
1742469187.423,-554.199,-525.391,-404.785,-341.309
1742469187.427,380.371,299.805,-172.363,624.023
1742469187.431,-215.332,-267.578,-119.629,-256.836
1742469187.435,404.297,406.738,90.82,385.742
1742469187.392,-542.969,-564.453,-64.941,-570.312
1742469187.396,317.383,211.914,-179.199,433.105
1742469187.4,-189.453,-194.824,-476.074,-185.059
1742469187.404,-199.219,-329.59,-485.84,207.52
1742469187.408,999.512,999.512,-158.203,978.516
1742469187.412,-678.711,-621.094,-218.262,-667.48
1742469187.416,-185.547,-367.188,-216.797,349.121
1742469187.419,685.059,656.25,-290.039,427.734
1742469187.423,-554.199,-525.391,-404.785,-341.309
1742469187.427,380.371,299.805,-172.363,624.023
1742469187.431,-215.332,-267.578,-119.629,-256.836
1742469187.435,404.297,406.738,90.82,385.742
1742469187.438,-283.203,-279.785,-205.566,-232.91
1742469187.442,-273.438,-369.629,-258.789,152.832
1742469187.446,858.398,826.172,-53.223,492.676
1742469187.45,-495.605,-525.879,-166.504,-570.801
1742469187.454,437.012,461.914,-15.137,489.258
1742469187.458,-461.426,-367.676,-191.406,-477.051
1742469187.462,-20.996,-74.219,-239.258,228.027
1742469187.465,577.637,548.34,-322.754,210.449
1742469187.469,-545.41,-628.906,-397.949,-277.832
1742469187.473,582.52,525.391,-109.863,710.449
1742469187.477,-520.996,-539.062,-276.367,-536.621
1742469187.481,366.211,292.48,-159.668,518.066
1742469187.438,-283.203,-279.785,-205.566,-232.91
1742469187.442,-273.438,-369.629,-258.789,152.832
1742469187.446,858.398,826.172,-53.223,492.676
1742469187.45,-495.605,-525.879,-166.504,-570.801
1742469187.454,437.012,461.914,-15.137,489.258
1742469187.458,-461.426,-367.676,-191.406,-477.051
1742469187.462,-20.996,-74.219,-239.258,228.027
1742469187.465,577.637,548.34,-322.754,210.449
1742469187.469,-545.41,-628.906,-397.949,-277.832
1742469187.473,582.52,525.391,-109.863,710.449
1742469187.477,-520.996,-539.062,-276.367,-536.621
1742469187.481,366.211,292.48,-159.668,518.066
1742469187.482,861.816,854.492,-2.93,393.066
1742469187.486,-686.523,-697.266,-56.152,-537.109
1742469187.49,531.738,542.48,24.414,674.805
1742469187.494,-353.027,-301.27,-177.734,-425.293
1742469187.498,0.977,20.996,-46.387,268.555
1742469187.502,955.078,999.512,84.961,582.52
1742469187.506,-634.277,-669.922,-242.188,-698.73
1742469187.509,528.32,445.312,-211.426,586.914
1742469187.513,-203.613,-116.211,-378.906,-289.062
1742469187.517,-647.461,-802.734,-410.156,-121.094
1742469187.521,999.512,999.512,-28.32,983.398
1742469187.525,-281.25,-57.617,-25.391,-648.438
1742469187.482,861.816,854.492,-2.93,393.066
1742469187.486,-686.523,-697.266,-56.152,-537.109
1742469187.49,531.738,542.48,24.414,674.805
1742469187.494,-353.027,-301.27,-177.734,-425.293
1742469187.498,0.977,20.996,-46.387,268.555
1742469187.502,955.078,999.512,84.961,582.52
1742469187.506,-634.277,-669.922,-242.188,-698.73
1742469187.509,528.32,445.312,-211.426,586.914
1742469187.513,-203.613,-116.211,-378.906,-289.062
1742469187.517,-647.461,-802.734,-410.156,-121.094
1742469187.521,999.512,999.512,-28.32,983.398
1742469187.525,-281.25,-57.617,-25.391,-648.438
1742469187.527,-880.859,-903.809,-140.137,-368.164
1742469187.531,554.199,502.93,-43.945,452.148
1742469187.535,-490.234,-505.371,-191.406,-624.512
1742469187.539,512.695,452.148,36.133,478.516
1742469187.543,277.832,426.27,113.281,-155.762
1742469187.547,-558.594,-484.863,150.879,-336.426
1742469187.551,621.094,701.66,270.508,166.016
1742469187.554,-963.379,-886.23,-158.691,-1000.0
1742469187.558,-362.305,-575.684,-124.023,-83.496
1742469187.562,673.34,652.344,66.895,23.438
1742469187.566,-759.277,-737.305,-109.863,-899.414
1742469187.57,457.52,443.359,47.363,373.535
1742469187.527,-880.859,-903.809,-140.137,-368.164
1742469187.531,554.199,502.93,-43.945,452.148
1742469187.535,-490.234,-505.371,-191.406,-624.512
1742469187.539,512.695,452.148,36.133,478.516
1742469187.543,277.832,426.27,113.281,-155.762
1742469187.547,-558.594,-484.863,150.879,-336.426
1742469187.551,621.094,701.66,270.508,166.016
1742469187.554,-963.379,-886.23,-158.691,-1000.0
1742469187.558,-362.305,-575.684,-124.023,-83.496
1742469187.562,673.34,652.344,66.895,23.438
1742469187.566,-759.277,-737.305,-109.863,-899.414
1742469187.57,457.52,443.359,47.363,373.535
1742469187.574,-116.211,50.293,-3.906,-437.012
1742469187.578,-446.289,-583.008,72.754,-119.629
1742469187.582,984.375,904.785,384.766,550.781
1742469187.586,999.512,999.512,461.914,306.152
1742469187.59,611.328,556.641,381.348,320.801
1742469187.594,-488.281,-516.602,339.844,-228.027
1742469187.598,355.957,391.113,298.828,519.043
1742469187.601,-384.766,-451.172,103.516,-329.59
1742469187.605,477.051,377.441,347.656,495.605
1742469187.609,576.66,740.234,296.387,63.477
1742469187.613,-794.434,-692.871,35.156,-651.855
1742469187.617,383.789,394.043,10.254,371.094
1742469187.574,-116.211,50.293,-3.906,-437.012
1742469187.578,-446.289,-583.008,72.754,-119.629
1742469187.582,984.375,904.785,384.766,550.781
1742469187.586,999.512,999.512,461.914,306.152
1742469187.59,611.328,556.641,381.348,320.801
1742469187.594,-488.281,-516.602,339.844,-228.027
1742469187.598,355.957,391.113,298.828,519.043
1742469187.601,-384.766,-451.172,103.516,-329.59
1742469187.605,477.051,377.441,347.656,495.605
1742469187.609,576.66,740.234,296.387,63.477
1742469187.613,-794.434,-692.871,35.156,-651.855
1742469187.617,383.789,394.043,10.254,371.094
1742469187.633,-463.867,-487.305,-297.852,-556.641
1742469187.637,245.117,166.504,-345.215,315.918
1742469187.641,-276.367,-251.465,-550.781,-403.809
1742469187.645,-707.52,-761.23,-407.715,-398.438
1742469187.649,698.73,659.668,-90.332,308.594
1742469187.653,-294.434,-293.457,22.461,-433.105
1742469187.657,416.504,427.734,227.051,520.02
1742469187.66,-555.176,-546.875,-186.035,-559.082
1742469187.664,-333.008,-558.594,-250.488,98.145
1742469187.668,815.918,764.648,-140.137,445.801
1742469187.672,-556.641,-534.18,-108.398,-538.086
1742469187.676,596.191,558.105,555.176,660.645
1742469187.633,-463.867,-487.305,-297.852,-556.641
1742469187.637,245.117,166.504,-345.215,315.918
1742469187.641,-276.367,-251.465,-550.781,-403.809
1742469187.645,-707.52,-761.23,-407.715,-398.438
1742469187.649,698.73,659.668,-90.332,308.594
1742469187.653,-294.434,-293.457,22.461,-433.105
1742469187.657,416.504,427.734,227.051,520.02
1742469187.66,-555.176,-546.875,-186.035,-559.082
1742469187.664,-333.008,-558.594,-250.488,98.145
1742469187.668,815.918,764.648,-140.137,445.801
1742469187.672,-556.641,-534.18,-108.398,-538.086
1742469187.676,596.191,558.105,555.176,660.645
1742469187.677,-305.176,-236.816,557.617,-433.105
1742469187.681,-615.234,-771.484,330.566,-57.129
1742469187.685,572.754,583.496,414.551,135.254
1742469187.689,-717.285,-645.508,454.59,-722.168
1742469187.693,629.883,616.699,700.684,687.012
1742469187.697,47.852,403.32,733.398,-367.188
1742469187.701,-641.602,-595.703,737.305,-159.668
1742469187.704,595.215,497.559,585.938,505.371
1742469187.708,-459.473,-416.016,313.965,-544.922
1742469187.712,404.785,378.906,389.16,459.961
1742469187.716,-406.738,-432.129,305.664,-384.277
1742469187.72,-151.367,-85.449,428.223,-19.043
1742469187.677,-305.176,-236.816,557.617,-433.105
1742469187.681,-615.234,-771.484,330.566,-57.129
1742469187.685,572.754,583.496,414.551,135.254
1742469187.689,-717.285,-645.508,454.59,-722.168
1742469187.693,629.883,616.699,700.684,687.012
1742469187.697,47.852,403.32,733.398,-367.188
1742469187.701,-641.602,-595.703,737.305,-159.668
1742469187.704,595.215,497.559,585.938,505.371
1742469187.708,-459.473,-416.016,313.965,-544.922
1742469187.712,404.785,378.906,389.16,459.961
1742469187.716,-406.738,-432.129,305.664,-384.277
1742469187.72,-151.367,-85.449,428.223,-19.043
1742469187.739,66.406,216.309,327.637,-291.504
1742469187.743,-916.016,-880.859,140.137,-703.125
1742469187.747,464.844,483.887,120.117,402.832
1742469187.751,-554.688,-585.938,-87.402,-649.414
1742469187.755,319.336,227.539,134.277,357.422
1742469187.759,490.234,732.422,255.371,-160.645
1742469187.763,-885.254,-770.996,51.758,-837.891
1742469187.766,536.621,515.137,206.543,562.988
1742469187.77,-256.836,-259.277,91.309,-390.625
1742469187.774,44.922,-50.781,160.156,240.234
1742469187.778,999.512,999.512,347.656,913.086
1742469187.782,766.113,791.504,337.402,288.574
1742469187.739,66.406,216.309,327.637,-291.504
1742469187.743,-916.016,-880.859,140.137,-703.125
1742469187.747,464.844,483.887,120.117,402.832
1742469187.751,-554.688,-585.938,-87.402,-649.414
1742469187.755,319.336,227.539,134.277,357.422
1742469187.759,490.234,732.422,255.371,-160.645
1742469187.763,-885.254,-770.996,51.758,-837.891
1742469187.766,536.621,515.137,206.543,562.988
1742469187.77,-256.836,-259.277,91.309,-390.625
1742469187.774,44.922,-50.781,160.156,240.234
1742469187.778,999.512,999.512,347.656,913.086
1742469187.782,766.113,791.504,337.402,288.574
1742469187.768,-671.875,-712.402,287.598,-516.602
1742469187.772,422.363,355.957,299.316,559.57
1742469187.776,444.336,602.051,137.695,149.902
1742469187.78,-984.863,-954.59,2.93,-481.445
1742469187.784,848.633,787.109,356.445,999.512
1742469187.788,489.746,625.488,463.379,-40.527
1742469187.792,-808.594,-781.738,361.328,-396.973
1742469187.795,495.605,474.121,326.66,573.242
1742469187.799,-608.398,-614.746,153.32,-639.16
1742469187.803,-12.207,-161.133,208.984,189.941
1742469187.807,477.539,648.438,239.258,-13.184
1742469187.811,-785.156,-723.145,210.449,-385.254
1742469187.768,-671.875,-712.402,287.598,-516.602
1742469187.772,422.363,355.957,299.316,559.57
1742469187.776,444.336,602.051,137.695,149.902
1742469187.78,-984.863,-954.59,2.93,-481.445
1742469187.784,848.633,787.109,356.445,999.512
1742469187.788,489.746,625.488,463.379,-40.527
1742469187.792,-808.594,-781.738,361.328,-396.973
1742469187.795,495.605,474.121,326.66,573.242
1742469187.799,-608.398,-614.746,153.32,-639.16
1742469187.803,-12.207,-161.133,208.984,189.941
1742469187.807,477.539,648.438,239.258,-13.184
1742469187.811,-785.156,-723.145,210.449,-385.254
1742469187.813,578.125,499.023,102.539,781.25
1742469187.817,-385.742,-370.605,-20.02,-467.773
1742469187.821,202.148,114.258,190.918,464.355
1742469187.825,999.512,999.512,125.488,777.832
1742469187.829,-617.188,-630.859,-168.945,-607.91
1742469187.833,541.992,558.105,-13.672,567.383
1742469187.837,-244.141,-80.566,-205.566,-346.68
1742469187.84,-895.996,-998.535,-414.062,-220.215
1742469187.844,768.555,672.852,-239.258,837.402
1742469187.848,-611.328,-595.703,-337.402,-690.43
1742469187.852,118.652,-71.777,-184.082,428.223
1742469187.856,999.512,969.238,-12.207,661.133
1742469187.813,578.125,499.023,102.539,781.25
1742469187.817,-385.742,-370.605,-20.02,-467.773
1742469187.821,202.148,114.258,190.918,464.355
1742469187.825,999.512,999.512,125.488,777.832
1742469187.829,-617.188,-630.859,-168.945,-607.91
1742469187.833,541.992,558.105,-13.672,567.383
1742469187.837,-244.141,-80.566,-205.566,-346.68
1742469187.84,-895.996,-998.535,-414.062,-220.215
1742469187.844,768.555,672.852,-239.258,837.402
1742469187.848,-611.328,-595.703,-337.402,-690.43
1742469187.852,118.652,-71.777,-184.082,428.223
1742469187.856,999.512,969.238,-12.207,661.133
1742469187.857,-676.758,-672.852,-126.465,-520.508
1742469187.861,650.391,613.281,80.566,828.613
1742469187.865,656.25,724.121,25.391,254.395
1742469187.869,-793.945,-801.27,-92.773,-354.004
1742469187.873,513.184,457.52,34.18,757.324
1742469187.877,999.512,999.512,207.52,655.273
1742469187.881,522.461,509.277,113.281,31.738
1742469187.884,-714.844,-776.367,-72.266,-313.477
1742469187.888,698.242,700.195,110.352,800.781
1742469187.892,83.496,385.742,-13.184,-159.18
1742469187.896,-667.969,-586.914,-109.375,-128.906
1742469187.9,654.785,570.801,-17.578,715.332
1742469187.857,-676.758,-672.852,-126.465,-520.508
1742469187.861,650.391,613.281,80.566,828.613
1742469187.865,656.25,724.121,25.391,254.395
1742469187.869,-793.945,-801.27,-92.773,-354.004
1742469187.873,513.184,457.52,34.18,757.324
1742469187.877,999.512,999.512,207.52,655.273
1742469187.881,522.461,509.277,113.281,31.738
1742469187.884,-714.844,-776.367,-72.266,-313.477
1742469187.888,698.242,700.195,110.352,800.781
1742469187.892,83.496,385.742,-13.184,-159.18
1742469187.896,-667.969,-586.914,-109.375,-128.906
1742469187.9,654.785,570.801,-17.578,715.332
1742469187.902,-382.812,-372.559,-197.754,-374.512
1742469187.906,452.148,427.246,-63.477,539.551
1742469187.91,-315.43,-391.602,-158.691,-287.109
1742469187.914,-113.281,-225.586,-69.824,249.023
1742469187.918,929.199,904.785,52.246,661.621
1742469187.922,-520.508,-509.277,120.117,-494.141
1742469187.926,472.168,483.887,368.652,556.641
1742469187.929,-482.422,-440.918,93.262,-532.715
1742469187.933,-784.18,-816.406,-3.906,35.156
1742469187.937,612.793,651.367,139.16,777.344
1742469187.941,-462.891,-438.477,94.727,-482.422
1742469187.945,427.246,492.188,302.734,583.984
1742469187.902,-382.812,-372.559,-197.754,-374.512
1742469187.906,452.148,427.246,-63.477,539.551
1742469187.91,-315.43,-391.602,-158.691,-287.109
1742469187.914,-113.281,-225.586,-69.824,249.023
1742469187.918,929.199,904.785,52.246,661.621
1742469187.922,-520.508,-509.277,120.117,-494.141
1742469187.926,472.168,483.887,368.652,556.641
1742469187.929,-482.422,-440.918,93.262,-532.715
1742469187.933,-784.18,-816.406,-3.906,35.156
1742469187.937,612.793,651.367,139.16,777.344
1742469187.941,-462.891,-438.477,94.727,-482.422
1742469187.945,427.246,492.188,302.734,583.984
1742469187.948,-377.93,-218.262,218.75,-407.227
1742469187.952,-1000.0,-1000.0,8.301,-353.516
1742469187.956,630.859,725.586,66.895,913.574
1742469187.96,-649.902,-547.852,68.848,-598.145
1742469187.964,-377.441,-351.074,239.258,279.785
1742469187.968,999.512,999.512,698.73,999.512
1742469187.972,-751.465,-752.93,547.852,-821.289
1742469187.975,-924.805,-917.48,242.188,72.266
1742469187.979,667.969,678.223,375.977,850.098
1742469187.983,-718.262,-708.496,213.867,-761.23
1742469187.987,-282.715,-232.422,342.285,384.766
1742469187.991,536.133,693.848,453.125,393.066
1742469187.948,-377.93,-218.262,218.75,-407.227
1742469187.952,-1000.0,-1000.0,8.301,-353.516
1742469187.956,630.859,725.586,66.895,913.574
1742469187.96,-649.902,-547.852,68.848,-598.145
1742469187.964,-377.441,-351.074,239.258,279.785
1742469187.968,999.512,999.512,698.73,999.512
1742469187.972,-751.465,-752.93,547.852,-821.289
1742469187.975,-924.805,-917.48,242.188,72.266
1742469187.979,667.969,678.223,375.977,850.098
1742469187.983,-718.262,-708.496,213.867,-761.23
1742469187.987,-282.715,-232.422,342.285,384.766
1742469187.991,536.133,693.848,453.125,393.066
1742469188.008,-963.867,-888.672,-37.598,-779.785
1742469188.012,628.906,590.82,-7.812,861.816
1742469188.016,687.5,833.496,162.109,370.117
1742469188.02,-793.457,-718.75,-61.523,-621.582
1742469188.024,534.18,575.684,101.562,641.113
1742469188.028,-480.469,-202.148,265.625,-429.688
1742469188.032,-216.309,55.664,308.594,82.031
1742469188.035,279.297,405.273,-39.062,244.141
1742469188.039,-751.953,-787.109,-182.129,-277.344
1742469188.043,520.508,509.277,93.262,781.738
1742469188.047,-532.715,-505.371,-179.199,-488.281
1742469188.051,268.555,229.004,78.613,498.047
1742469188.008,-963.867,-888.672,-37.598,-779.785
1742469188.012,628.906,590.82,-7.812,861.816
1742469188.016,687.5,833.496,162.109,370.117
1742469188.02,-793.457,-718.75,-61.523,-621.582
1742469188.024,534.18,575.684,101.562,641.113
1742469188.028,-480.469,-202.148,265.625,-429.688
1742469188.032,-216.309,55.664,308.594,82.031
1742469188.035,279.297,405.273,-39.062,244.141
1742469188.039,-751.953,-787.109,-182.129,-277.344
1742469188.043,520.508,509.277,93.262,781.738
1742469188.047,-532.715,-505.371,-179.199,-488.281
1742469188.051,268.555,229.004,78.613,498.047
1742469188.053,995.117,999.512,340.82,763.184
1742469188.057,-677.734,-691.895,137.207,-650.391
1742469188.061,614.258,582.031,287.109,687.012
1742469188.065,-21.484,194.336,196.777,-78.125
1742469188.069,-751.465,-641.113,138.672,-228.516
1742469188.073,672.852,687.5,375.488,671.387
1742469188.077,-488.281,-484.863,41.016,-558.105
1742469188.08,332.52,378.418,-82.52,411.133
1742469188.084,-286.133,-217.773,-281.25,-257.324
1742469188.088,-217.285,-371.582,-205.078,182.129
1742469188.092,851.074,925.781,20.996,486.328
1742469188.096,-735.84,-668.457,-31.25,-746.094
1742469188.053,995.117,999.512,340.82,763.184
1742469188.057,-677.734,-691.895,137.207,-650.391
1742469188.061,614.258,582.031,287.109,687.012
1742469188.065,-21.484,194.336,196.777,-78.125
1742469188.069,-751.465,-641.113,138.672,-228.516
1742469188.073,672.852,687.5,375.488,671.387
1742469188.077,-488.281,-484.863,41.016,-558.105
1742469188.08,332.52,378.418,-82.52,411.133
1742469188.084,-286.133,-217.773,-281.25,-257.324
1742469188.088,-217.285,-371.582,-205.078,182.129
1742469188.092,851.074,925.781,20.996,486.328
1742469188.096,-735.84,-668.457,-31.25,-746.094
1742469188.097,417.969,329.59,-1.465,568.848
1742469188.101,-288.086,-152.832,-146.973,-424.316
1742469188.105,-648.438,-707.52,-89.355,-162.598
1742469188.109,704.59,687.988,42.969,595.215
1742469188.113,-493.652,-442.383,-60.059,-659.668
1742469188.117,308.105,377.93,141.113,402.832
1742469188.121,-344.238,-195.312,-57.617,-486.328
1742469188.124,-1000.0,-1000.0,-329.59,-993.652
1742469188.128,588.867,462.891,-226.562,678.711
1742469188.132,185.059,320.312,-206.055,-313.477
1742469188.136,-839.355,-805.176,-92.285,-636.719
1742469188.14,488.77,450.684,99.609,502.441
1742469188.097,417.969,329.59,-1.465,568.848
1742469188.101,-288.086,-152.832,-146.973,-424.316
1742469188.105,-648.438,-707.52,-89.355,-162.598
1742469188.109,704.59,687.988,42.969,595.215
1742469188.113,-493.652,-442.383,-60.059,-659.668
1742469188.117,308.105,377.93,141.113,402.832
1742469188.121,-344.238,-195.312,-57.617,-486.328
1742469188.124,-1000.0,-1000.0,-329.59,-993.652
1742469188.128,588.867,462.891,-226.562,678.711
1742469188.132,185.059,320.312,-206.055,-313.477
1742469188.136,-839.355,-805.176,-92.285,-636.719
1742469188.14,488.77,450.684,99.609,502.441
1742469188.143,-448.73,-460.938,-149.902,-548.34
1742469188.147,467.285,400.879,-74.219,597.168
1742469188.151,940.43,997.559,83.984,578.125
1742469188.155,-745.117,-743.652,-27.832,-726.074
1742469188.159,677.734,637.695,230.957,694.824
1742469188.163,249.023,493.164,312.012,-120.117
1742469188.167,-728.027,-667.969,148.438,-369.629
1742469188.17,558.105,511.23,-39.551,574.219
1742469188.174,-389.16,-398.926,-290.039,-497.559
1742469188.178,492.188,439.941,-59.082,511.23
1742469188.182,-293.457,-262.695,-154.785,-360.352
1742469188.186,-681.641,-747.07,-191.406,-177.734
1742469188.143,-448.73,-460.938,-149.902,-548.34
1742469188.147,467.285,400.879,-74.219,597.168
1742469188.151,940.43,997.559,83.984,578.125
1742469188.155,-745.117,-743.652,-27.832,-726.074
1742469188.159,677.734,637.695,230.957,694.824
1742469188.163,249.023,493.164,312.012,-120.117
1742469188.167,-728.027,-667.969,148.438,-369.629
1742469188.17,558.105,511.23,-39.551,574.219
1742469188.174,-389.16,-398.926,-290.039,-497.559
1742469188.178,492.188,439.941,-59.082,511.23
1742469188.182,-293.457,-262.695,-154.785,-360.352
1742469188.186,-681.641,-747.07,-191.406,-177.734
1742469188.187,838.379,847.656,-89.355,688.477
1742469188.191,-661.133,-708.496,-301.27,-721.68
1742469188.195,305.664,110.352,-286.133,504.395
1742469188.199,239.746,410.645,-408.203,-92.773
1742469188.203,-951.66,-900.391,-458.984,-646.973
1742469188.207,593.75,562.5,-90.332,668.945
1742469188.211,-661.133,-610.352,-155.273,-719.727
1742469188.214,-456.055,-684.57,-209.473,-41.992
1742469188.218,729.98,667.969,-93.262,365.723
1742469188.222,-618.652,-558.105,-17.578,-673.34
1742469188.226,547.363,548.828,245.605,601.562
1742469188.23,-212.402,-122.559,74.219,-325.684
1742469188.187,838.379,847.656,-89.355,688.477
1742469188.191,-661.133,-708.496,-301.27,-721.68
1742469188.195,305.664,110.352,-286.133,504.395
1742469188.199,239.746,410.645,-408.203,-92.773
1742469188.203,-951.66,-900.391,-458.984,-646.973
1742469188.207,593.75,562.5,-90.332,668.945
1742469188.211,-661.133,-610.352,-155.273,-719.727
1742469188.214,-456.055,-684.57,-209.473,-41.992
1742469188.218,729.98,667.969,-93.262,365.723
1742469188.222,-618.652,-558.105,-17.578,-673.34
1742469188.226,547.363,548.828,245.605,601.562
1742469188.23,-212.402,-122.559,74.219,-325.684
1742469188.232,-247.07,-265.625,66.406,41.504
1742469188.236,353.516,446.777,-43.457,47.852
1742469188.24,-852.051,-822.266,-286.133,-675.293
1742469188.244,619.629,612.793,-136.719,707.031
1742469188.248,-354.004,-276.367,-171.387,-482.422
1742469188.252,-117.676,-135.742,93.75,79.59
1742469188.256,655.762,781.738,93.262,177.246
1742469188.259,-1000.0,-1000.0,-554.199,-1000.0
1742469188.263,421.387,339.355,-513.672,519.043
1742469188.267,296.387,409.668,-511.23,-174.805
1742469188.271,-689.941,-639.16,-497.07,-528.32
1742469188.275,638.184,649.902,-328.613,500.488
1742469188.279,-579.59,-599.609,-690.918,-691.406
1742469188.283,371.582,260.254,-518.555,433.594
1742469188.287,290.039,253.906,-301.758,-117.676
1742469188.291,-738.281,-823.73,-291.992,-462.891
1742469188.295,609.375,588.379,-290.039,507.324
1742469188.299,-539.062,-583.496,-444.824,-650.391
1742469188.303,407.715,263.184,-322.754,460.449
1742469188.306,190.43,280.273,-330.566,-215.332
1742469188.31,-805.176,-852.051,-268.555,-564.453
1742469188.314,552.246,480.957,-117.676,384.766
1742469188.318,-440.43,-455.078,-241.699,-625.488
1742469188.322,534.18,498.535,103.027,522.949
1742469188.279,-579.59,-599.609,-690.918,-691.406
1742469188.283,371.582,260.254,-518.555,433.594
1742469188.287,290.039,253.906,-301.758,-117.676
1742469188.291,-738.281,-823.73,-291.992,-462.891
1742469188.295,609.375,588.379,-290.039,507.324
1742469188.299,-539.062,-583.496,-444.824,-650.391
1742469188.303,407.715,263.184,-322.754,460.449
1742469188.306,190.43,280.273,-330.566,-215.332
1742469188.31,-805.176,-852.051,-268.555,-564.453
1742469188.314,552.246,480.957,-117.676,384.766
1742469188.318,-440.43,-455.078,-241.699,-625.488
1742469188.322,534.18,498.535,103.027,522.949
1742469188.322,102.539,269.531,130.859,-312.012
1742469188.326,-934.57,-914.551,-137.695,-669.922
1742469188.33,542.48,505.859,-266.602,504.883
1742469188.334,-546.875,-545.898,-582.52,-659.18
1742469188.338,342.773,255.859,-376.465,443.848
1742469188.342,824.219,964.355,-190.918,166.504
1742469188.346,-834.961,-742.676,-375.488,-915.039
1742469188.349,388.672,334.961,-505.859,462.891
1742469188.353,-365.723,-332.52,-785.156,-473.145
1742469188.357,-584.961,-776.367,-745.605,-174.805
1742469188.361,999.512,999.512,-376.953,719.238
1742469188.365,338.867,429.688,-320.312,-635.742
1742469188.322,102.539,269.531,130.859,-312.012
1742469188.326,-934.57,-914.551,-137.695,-669.922
1742469188.33,542.48,505.859,-266.602,504.883
1742469188.334,-546.875,-545.898,-582.52,-659.18
1742469188.338,342.773,255.859,-376.465,443.848
1742469188.342,824.219,964.355,-190.918,166.504
1742469188.346,-834.961,-742.676,-375.488,-915.039
1742469188.349,388.672,334.961,-505.859,462.891
1742469188.353,-365.723,-332.52,-785.156,-473.145
1742469188.357,-584.961,-776.367,-745.605,-174.805
1742469188.361,999.512,999.512,-376.953,719.238
1742469188.365,338.867,429.688,-320.312,-635.742
1742469188.383,-750.0,-750.488,-540.527,-444.336
1742469188.387,442.871,442.871,-515.137,547.852
1742469188.391,-545.41,-563.965,-654.297,-583.496
1742469188.395,302.734,229.004,-511.719,359.863
1742469188.399,553.223,601.562,-241.211,9.277
1742469188.403,-529.297,-522.949,-2.441,-339.355
1742469188.407,465.332,485.352,0.0,278.809
1742469188.41,-404.785,-359.375,-108.398,-500.488
1742469188.414,394.043,396.484,242.676,477.051
1742469188.418,-496.582,-505.859,176.758,-528.32
1742469188.422,-207.52,-434.57,208.984,161.621
1742469188.426,759.766,769.531,270.996,423.828
1742469188.383,-750.0,-750.488,-540.527,-444.336
1742469188.387,442.871,442.871,-515.137,547.852
1742469188.391,-545.41,-563.965,-654.297,-583.496
1742469188.395,302.734,229.004,-511.719,359.863
1742469188.399,553.223,601.562,-241.211,9.277
1742469188.403,-529.297,-522.949,-2.441,-339.355
1742469188.407,465.332,485.352,0.0,278.809
1742469188.41,-404.785,-359.375,-108.398,-500.488
1742469188.414,394.043,396.484,242.676,477.051
1742469188.418,-496.582,-505.859,176.758,-528.32
1742469188.422,-207.52,-434.57,208.984,161.621
1742469188.426,759.766,769.531,270.996,423.828
1742469188.427,-789.551,-714.355,-47.363,-801.758
1742469188.431,655.273,615.723,166.504,686.523
1742469188.435,144.531,301.27,228.027,-225.098
1742469188.439,-785.645,-784.18,108.398,-375.977
1742469188.443,533.203,481.445,149.902,548.828
1742469188.447,-347.656,-344.238,238.77,-462.402
1742469188.451,408.203,406.738,445.801,447.266
1742469188.454,-438.965,-429.688,140.625,-448.242
1742469188.458,-281.25,-443.359,252.93,61.523
1742469188.462,881.836,853.027,535.645,475.098
1742469188.466,-555.664,-504.883,266.602,-710.938
1742469188.47,545.41,527.832,499.512,593.262
1742469188.427,-789.551,-714.355,-47.363,-801.758
1742469188.431,655.273,615.723,166.504,686.523
1742469188.435,144.531,301.27,228.027,-225.098
1742469188.439,-785.645,-784.18,108.398,-375.977
1742469188.443,533.203,481.445,149.902,548.828
1742469188.447,-347.656,-344.238,238.77,-462.402
1742469188.451,408.203,406.738,445.801,447.266
1742469188.454,-438.965,-429.688,140.625,-448.242
1742469188.458,-281.25,-443.359,252.93,61.523
1742469188.462,881.836,853.027,535.645,475.098
1742469188.466,-555.664,-504.883,266.602,-710.938
1742469188.47,545.41,527.832,499.512,593.262
1742469188.472,-323.242,-302.246,335.449,-417.48
1742469188.476,-714.844,-776.855,77.637,-184.082
1742469188.48,669.434,704.59,116.211,472.168
1742469188.484,-636.719,-553.711,-60.547,-713.867
1742469188.488,605.469,576.172,216.309,665.527
1742469188.492,502.441,667.969,426.27,-47.363
1742469188.496,-675.293,-623.535,367.676,-488.281
1742469188.499,176.27,169.434,266.602,15.625
1742469188.503,-575.195,-547.363,172.852,-586.426
1742469188.507,499.512,531.25,372.07,563.965
1742469188.511,-379.395,-274.902,410.156,-513.672
1742469188.515,-345.703,-518.555,642.578,-58.105
1742469188.472,-323.242,-302.246,335.449,-417.48
1742469188.476,-714.844,-776.855,77.637,-184.082
1742469188.48,669.434,704.59,116.211,472.168
1742469188.484,-636.719,-553.711,-60.547,-713.867
1742469188.488,605.469,576.172,216.309,665.527
1742469188.492,502.441,667.969,426.27,-47.363
1742469188.496,-675.293,-623.535,367.676,-488.281
1742469188.499,176.27,169.434,266.602,15.625
1742469188.503,-575.195,-547.363,172.852,-586.426
1742469188.507,499.512,531.25,372.07,563.965
1742469188.511,-379.395,-274.902,410.156,-513.672
1742469188.515,-345.703,-518.555,642.578,-58.105
1742469188.517,762.207,846.191,736.328,273.926
1742469188.521,-871.582,-820.312,384.277,-932.617
1742469188.525,509.277,305.664,469.238,645.508
1742469188.529,534.18,673.34,711.426,-53.223
1742469188.533,-853.516,-809.082,741.699,-686.523
1742469188.537,510.742,487.305,882.324,559.57
1742469188.541,-628.906,-625.977,640.625,-659.668
1742469188.544,-204.59,-465.82,529.297,160.156
1742469188.548,683.594,670.41,472.168,211.914
1742469188.552,-729.004,-665.527,325.684,-677.734
1742469188.556,521.973,541.504,687.012,654.785
1742469188.56,-457.031,-314.941,560.547,-608.887
1742469188.517,762.207,846.191,736.328,273.926
1742469188.521,-871.582,-820.312,384.277,-932.617
1742469188.525,509.277,305.664,469.238,645.508
1742469188.529,534.18,673.34,711.426,-53.223
1742469188.533,-853.516,-809.082,741.699,-686.523
1742469188.537,510.742,487.305,882.324,559.57
1742469188.541,-628.906,-625.977,640.625,-659.668
1742469188.544,-204.59,-465.82,529.297,160.156
1742469188.548,683.594,670.41,472.168,211.914
1742469188.552,-729.004,-665.527,325.684,-677.734
1742469188.556,521.973,541.504,687.012,654.785
1742469188.56,-457.031,-314.941,560.547,-608.887
1742469188.563,-798.828,-866.699,319.336,-298.34
1742469188.567,631.836,574.707,436.035,588.867
1742469188.571,-337.891,-326.66,236.328,-471.191
1742469188.575,295.898,314.941,327.637,337.891
1742469188.579,-504.395,-448.73,-6.836,-469.238
1742469188.583,191.895,200.684,-18.555,337.891
1742469188.587,924.316,959.473,171.875,411.133
1742469188.59,-636.719,-641.602,-55.664,-687.012
1742469188.594,529.785,529.785,-22.949,633.789
1742469188.598,-435.059,-366.699,-210.449,-525.879
1742469188.602,-582.52,-687.012,-187.988,-150.391
1742469188.606,884.766,857.91,131.348,801.758
1742469188.563,-798.828,-866.699,319.336,-298.34
1742469188.567,631.836,574.707,436.035,588.867
1742469188.571,-337.891,-326.66,236.328,-471.191
1742469188.575,295.898,314.941,327.637,337.891
1742469188.579,-504.395,-448.73,-6.836,-469.238
1742469188.583,191.895,200.684,-18.555,337.891
1742469188.587,924.316,959.473,171.875,411.133
1742469188.59,-636.719,-641.602,-55.664,-687.012
1742469188.594,529.785,529.785,-22.949,633.789
1742469188.598,-435.059,-366.699,-210.449,-525.879
1742469188.602,-582.52,-687.012,-187.988,-150.391
1742469188.606,884.766,857.91,131.348,801.758
1742469188.607,-664.062,-670.41,19.043,-702.148
1742469188.611,361.328,293.457,171.387,443.359
1742469188.615,183.105,279.297,85.938,-88.867
1742469188.619,-747.07,-774.414,71.289,-362.305
1742469188.623,670.41,638.184,328.613,652.832
1742469188.627,-574.219,-608.887,145.508,-638.672
1742469188.631,301.758,181.641,305.176,432.129
1742469188.634,105.469,212.402,99.121,-202.637
1742469188.638,-915.039,-908.203,-256.836,-615.723
1742469188.642,454.102,418.457,-101.562,574.707
1742469188.646,-411.133,-420.898,-65.43,-481.445
1742469188.65,408.203,391.602,168.945,412.109
1742469188.683,-270.02,-207.52,-72.754,-402.832
1742469188.687,-972.656,-994.629,-279.785,-561.523
1742469188.691,627.93,609.863,-195.801,514.16
1742469188.695,-625.977,-630.371,-338.867,-731.934
1742469188.699,257.324,207.031,-264.648,390.137
1742469188.703,689.453,847.656,-127.441,41.992
1742469188.707,-926.27,-818.359,-205.078,-921.875
1742469188.71,705.566,667.48,26.367,758.301
1742469188.714,6.836,40.527,90.332,-323.242
1742469188.718,-808.594,-886.23,-16.602,-408.203
1742469188.722,713.867,673.828,42.48,582.031
1742469188.726,-656.738,-648.926,-101.074,-788.086
1742469188.683,-270.02,-207.52,-72.754,-402.832
1742469188.687,-972.656,-994.629,-279.785,-561.523
1742469188.691,627.93,609.863,-195.801,514.16
1742469188.695,-625.977,-630.371,-338.867,-731.934
1742469188.699,257.324,207.031,-264.648,390.137
1742469188.703,689.453,847.656,-127.441,41.992
1742469188.707,-926.27,-818.359,-205.078,-921.875
1742469188.71,705.566,667.48,26.367,758.301
1742469188.714,6.836,40.527,90.332,-323.242
1742469188.718,-808.594,-886.23,-16.602,-408.203
1742469188.722,713.867,673.828,42.48,582.031
1742469188.726,-656.738,-648.926,-101.074,-788.086
1742469188.714,219.727,78.125,-94.238,437.012
1742469188.718,810.547,844.727,-70.801,332.031
1742469188.722,-688.965,-642.09,-118.164,-663.086
1742469188.726,424.805,448.73,177.734,501.465
1742469188.73,-391.113,-302.734,76.172,-423.828
1742469188.734,240.723,267.578,178.223,346.191
1742469188.738,501.465,704.102,201.66,50.781
1742469188.741,-972.656,-932.129,-238.281,-924.805
1742469188.745,664.062,600.586,-52.246,641.113
1742469188.749,-199.707,-36.621,28.809,-401.367
1742469188.753,-270.508,-231.934,111.328,-8.301
1742469188.757,655.273,783.691,0.0,301.27
1742469188.714,219.727,78.125,-94.238,437.012
1742469188.718,810.547,844.727,-70.801,332.031
1742469188.722,-688.965,-642.09,-118.164,-663.086
1742469188.726,424.805,448.73,177.734,501.465
1742469188.73,-391.113,-302.734,76.172,-423.828
1742469188.734,240.723,267.578,178.223,346.191
1742469188.738,501.465,704.102,201.66,50.781
1742469188.741,-972.656,-932.129,-238.281,-924.805
1742469188.745,664.062,600.586,-52.246,641.113
1742469188.749,-199.707,-36.621,28.809,-401.367
1742469188.753,-270.508,-231.934,111.328,-8.301
1742469188.757,655.273,783.691,0.0,301.27
1742469188.714,219.727,78.125,-94.238,437.012
1742469188.718,810.547,844.727,-70.801,332.031
1742469188.722,-688.965,-642.09,-118.164,-663.086
1742469188.726,424.805,448.73,177.734,501.465
1742469188.73,-391.113,-302.734,76.172,-423.828
1742469188.734,240.723,267.578,178.223,346.191
1742469188.738,501.465,704.102,201.66,50.781
1742469188.741,-972.656,-932.129,-238.281,-924.805
1742469188.745,664.062,600.586,-52.246,641.113
1742469188.749,-199.707,-36.621,28.809,-401.367
1742469188.753,-270.508,-231.934,111.328,-8.301
1742469188.757,655.273,783.691,0.0,301.27
1742469188.742,-787.109,-748.535,-437.012,-841.309
1742469188.746,545.898,493.164,-287.598,608.398
1742469188.75,-210.938,-12.695,-324.707,-445.312
1742469188.754,-954.102,-933.594,-463.867,-634.277
1742469188.758,527.832,499.512,-363.77,531.25
1742469188.762,-457.52,-450.684,-284.18,-567.383
1742469188.766,303.711,320.312,-21.484,363.281
1742469188.769,-319.824,-276.855,-440.43,-450.195
1742469188.773,-1000.0,-1000.0,-629.883,-781.25
1742469188.777,627.93,649.902,-266.602,643.555
1742469188.781,-682.617,-637.695,-297.852,-731.445
1742469188.785,-536.621,-497.07,-123.535,-364.746
1742469188.742,-787.109,-748.535,-437.012,-841.309
1742469188.746,545.898,493.164,-287.598,608.398
1742469188.75,-210.938,-12.695,-324.707,-445.312
1742469188.754,-954.102,-933.594,-463.867,-634.277
1742469188.758,527.832,499.512,-363.77,531.25
1742469188.762,-457.52,-450.684,-284.18,-567.383
1742469188.766,303.711,320.312,-21.484,363.281
1742469188.769,-319.824,-276.855,-440.43,-450.195
1742469188.773,-1000.0,-1000.0,-629.883,-781.25
1742469188.777,627.93,649.902,-266.602,643.555
1742469188.781,-682.617,-637.695,-297.852,-731.445
1742469188.785,-536.621,-497.07,-123.535,-364.746
1742469188.802,674.316,867.676,110.84,118.652
1742469188.806,-1000.0,-909.668,-119.629,-1000.0
1742469188.81,-833.008,-813.477,-286.621,-652.344
1742469188.814,528.809,581.543,-178.223,267.578
1742469188.818,-509.277,-486.816,-321.777,-651.855
1742469188.822,329.102,457.52,-120.605,287.598
1742469188.826,-184.57,-40.527,-103.027,-420.898
1742469188.829,-1000.0,-1000.0,-305.176,-827.637
1742469188.833,620.605,645.508,-199.707,645.02
1742469188.837,-660.645,-557.617,-380.859,-643.555
1742469188.841,-259.766,-154.297,-397.949,13.184
1742469188.845,554.688,659.668,-392.578,128.906
1742469188.802,674.316,867.676,110.84,118.652
1742469188.806,-1000.0,-909.668,-119.629,-1000.0
1742469188.81,-833.008,-813.477,-286.621,-652.344
1742469188.814,528.809,581.543,-178.223,267.578
1742469188.818,-509.277,-486.816,-321.777,-651.855
1742469188.822,329.102,457.52,-120.605,287.598
1742469188.826,-184.57,-40.527,-103.027,-420.898
1742469188.829,-1000.0,-1000.0,-305.176,-827.637
1742469188.833,620.605,645.508,-199.707,645.02
1742469188.837,-660.645,-557.617,-380.859,-643.555
1742469188.841,-259.766,-154.297,-397.949,13.184
1742469188.845,554.688,659.668,-392.578,128.906
1742469188.863,-717.773,-680.664,-497.07,-738.77
1742469188.867,400.879,388.672,-269.043,487.305
1742469188.871,-461.914,-456.543,-457.52,-458.008
1742469188.875,241.211,281.738,-329.102,282.227
1742469188.879,147.949,238.77,-196.289,-165.039
1742469188.883,-810.059,-802.734,-87.402,-501.953
1742469188.887,607.91,612.305,206.055,664.062
1742469188.89,-537.598,-582.52,-31.738,-541.992
1742469188.894,329.59,246.582,19.531,401.367
1742469188.898,-43.457,92.773,-90.82,-197.754
1742469188.902,-701.66,-756.348,-81.055,-241.211
1742469188.906,919.434,878.418,250.977,889.16
1742469188.863,-717.773,-680.664,-497.07,-738.77
1742469188.867,400.879,388.672,-269.043,487.305
1742469188.871,-461.914,-456.543,-457.52,-458.008
1742469188.875,241.211,281.738,-329.102,282.227
1742469188.879,147.949,238.77,-196.289,-165.039
1742469188.883,-810.059,-802.734,-87.402,-501.953
1742469188.887,607.91,612.305,206.055,664.062
1742469188.89,-537.598,-582.52,-31.738,-541.992
1742469188.894,329.59,246.582,19.531,401.367
1742469188.898,-43.457,92.773,-90.82,-197.754
1742469188.902,-701.66,-756.348,-81.055,-241.211
1742469188.906,919.434,878.418,250.977,889.16
1742469188.892,-657.227,-631.836,103.516,-672.852
1742469188.896,-142.09,-290.527,67.383,175.781
1742469188.9,369.141,482.91,-29.297,51.27
1742469188.904,-864.258,-871.582,-51.27,-542.969
1742469188.908,832.52,750.977,324.219,895.996
1742469188.912,31.25,275.879,294.922,-427.734
1742469188.916,-964.844,-919.922,100.586,-641.113
1742469188.919,648.438,612.305,319.336,676.758
1742469188.923,-652.832,-626.465,20.996,-649.902
1742469188.927,-631.348,-771.484,-223.633,6.348
1742469188.931,916.016,889.16,-43.945,459.961
1742469188.935,-789.062,-759.277,-36.621,-957.52
1742469188.892,-657.227,-631.836,103.516,-672.852
1742469188.896,-142.09,-290.527,67.383,175.781
1742469188.9,369.141,482.91,-29.297,51.27
1742469188.904,-864.258,-871.582,-51.27,-542.969
1742469188.908,832.52,750.977,324.219,895.996
1742469188.912,31.25,275.879,294.922,-427.734
1742469188.916,-964.844,-919.922,100.586,-641.113
1742469188.919,648.438,612.305,319.336,676.758
1742469188.923,-652.832,-626.465,20.996,-649.902
1742469188.927,-631.348,-771.484,-223.633,6.348
1742469188.931,916.016,889.16,-43.945,459.961
1742469188.935,-789.062,-759.277,-36.621,-957.52
1742469188.938,-58.594,-291.016,-168.945,314.941
1742469188.942,597.656,635.742,-318.359,116.699
1742469188.946,-596.68,-569.336,-322.754,-446.777
1742469188.95,456.543,384.766,-152.832,549.805
1742469188.954,-467.773,-419.922,-210.449,-516.602
1742469188.958,172.363,166.504,-87.891,251.465
1742469188.962,-356.445,-340.82,-395.996,-408.203
1742469188.965,-744.141,-815.918,-367.188,-286.621
1742469188.969,842.285,802.734,169.922,664.551
1742469188.973,-718.262,-692.871,-157.715,-977.051
1742469188.977,-1000.0,-1000.0,-406.25,-942.871
1742469188.981,717.285,767.09,-217.773,509.277
1742469188.938,-58.594,-291.016,-168.945,314.941
1742469188.942,597.656,635.742,-318.359,116.699
1742469188.946,-596.68,-569.336,-322.754,-446.777
1742469188.95,456.543,384.766,-152.832,549.805
1742469188.954,-467.773,-419.922,-210.449,-516.602
1742469188.958,172.363,166.504,-87.891,251.465
1742469188.962,-356.445,-340.82,-395.996,-408.203
1742469188.965,-744.141,-815.918,-367.188,-286.621
1742469188.969,842.285,802.734,169.922,664.551
1742469188.973,-718.262,-692.871,-157.715,-977.051
1742469188.977,-1000.0,-1000.0,-406.25,-942.871
1742469188.981,717.285,767.09,-217.773,509.277
1742469188.982,-479.004,-378.906,-384.766,-583.496
1742469188.986,-856.934,-923.828,-407.715,-534.18
1742469188.99,637.695,666.016,-319.336,161.621
1742469188.994,-610.84,-532.227,-416.504,-848.145
1742469188.998,-1000.0,-1000.0,-450.684,-812.5
1742469189.002,187.5,278.809,-197.266,101.074
1742469189.006,999.512,999.512,-3.906,133.301
1742469189.009,-867.676,-832.031,-270.996,-1000.0
1742469189.013,-541.504,-657.227,-392.578,-85.449
1742469189.017,439.453,428.711,-442.383,-40.039
1742469189.021,-626.953,-555.664,-373.047,-687.012
1742469189.025,428.223,442.871,14.16,400.879
1742469188.982,-479.004,-378.906,-384.766,-583.496
1742469188.986,-856.934,-923.828,-407.715,-534.18
1742469188.99,637.695,666.016,-319.336,161.621
1742469188.994,-610.84,-532.227,-416.504,-848.145
1742469188.998,-1000.0,-1000.0,-450.684,-812.5
1742469189.002,187.5,278.809,-197.266,101.074
1742469189.006,999.512,999.512,-3.906,133.301
1742469189.009,-867.676,-832.031,-270.996,-1000.0
1742469189.013,-541.504,-657.227,-392.578,-85.449
1742469189.017,439.453,428.711,-442.383,-40.039
1742469189.021,-626.953,-555.664,-373.047,-687.012
1742469189.025,428.223,442.871,14.16,400.879
1742469189.028,-575.195,-553.223,-54.199,-627.93
1742469189.032,-401.367,-668.457,-73.73,-100.586
1742469189.036,636.719,619.141,12.695,54.199
1742469189.04,-847.168,-773.926,-278.32,-865.234
1742469189.044,533.203,433.594,-146.484,600.586
1742469189.048,757.812,914.062,144.043,-120.605
1742469189.052,-901.855,-808.594,-162.109,-984.863
1742469189.055,-1000.0,-1000.0,-478.516,-300.293
1742469189.059,50.781,60.547,-263.672,343.262
1742469189.063,724.609,767.578,-158.203,17.578
1742469189.067,-662.598,-645.996,-336.426,-625.0
1742469189.071,639.648,630.859,-210.938,771.484
1742469189.028,-575.195,-553.223,-54.199,-627.93
1742469189.032,-401.367,-668.457,-73.73,-100.586
1742469189.036,636.719,619.141,12.695,54.199
1742469189.04,-847.168,-773.926,-278.32,-865.234
1742469189.044,533.203,433.594,-146.484,600.586
1742469189.048,757.812,914.062,144.043,-120.605
1742469189.052,-901.855,-808.594,-162.109,-984.863
1742469189.055,-1000.0,-1000.0,-478.516,-300.293
1742469189.059,50.781,60.547,-263.672,343.262
1742469189.063,724.609,767.578,-158.203,17.578
1742469189.067,-662.598,-645.996,-336.426,-625.0
1742469189.071,639.648,630.859,-210.938,771.484
1742469189.074,168.457,216.309,-304.688,42.969
1742469189.078,-358.398,-541.504,-214.355,124.023
1742469189.082,999.512,999.512,-50.293,999.512
1742469189.086,-362.793,-422.852,-204.102,-197.754
1742469189.09,55.176,-161.133,-20.996,424.316
1742469189.094,999.512,999.512,124.023,999.512
1742469189.098,-713.867,-659.668,39.551,-511.719
1742469189.101,-113.281,-384.277,-51.758,363.77
1742469189.105,999.512,999.512,-44.922,999.512
1742469189.109,-554.688,-559.082,-66.895,-466.797
1742469189.113,-227.539,-339.355,67.871,250.488
1742469189.117,954.102,949.219,167.48,971.68
1742469189.074,168.457,216.309,-304.688,42.969
1742469189.078,-358.398,-541.504,-214.355,124.023
1742469189.082,999.512,999.512,-50.293,999.512
1742469189.086,-362.793,-422.852,-204.102,-197.754
1742469189.09,55.176,-161.133,-20.996,424.316
1742469189.094,999.512,999.512,124.023,999.512
1742469189.098,-713.867,-659.668,39.551,-511.719
1742469189.101,-113.281,-384.277,-51.758,363.77
1742469189.105,999.512,999.512,-44.922,999.512
1742469189.109,-554.688,-559.082,-66.895,-466.797
1742469189.113,-227.539,-339.355,67.871,250.488
1742469189.117,954.102,949.219,167.48,971.68
1742469189.074,168.457,216.309,-304.688,42.969
1742469189.078,-358.398,-541.504,-214.355,124.023
1742469189.082,999.512,999.512,-50.293,999.512
1742469189.086,-362.793,-422.852,-204.102,-197.754
1742469189.09,55.176,-161.133,-20.996,424.316
1742469189.094,999.512,999.512,124.023,999.512
1742469189.098,-713.867,-659.668,39.551,-511.719
1742469189.101,-113.281,-384.277,-51.758,363.77
1742469189.105,999.512,999.512,-44.922,999.512
1742469189.109,-554.688,-559.082,-66.895,-466.797
1742469189.113,-227.539,-339.355,67.871,250.488
1742469189.117,954.102,949.219,167.48,971.68
1742469189.118,-673.34,-694.336,-97.168,-518.555
1742469189.122,329.102,221.191,-68.848,445.801
1742469189.126,-107.422,-60.547,-147.461,-115.723
1742469189.13,-338.867,-265.137,-45.898,-13.184
1742469189.134,507.812,566.406,-60.059,282.227
1742469189.138,-395.02,-372.07,-91.309,-125.488
1742469189.142,419.434,398.438,-62.5,447.266
1742469189.145,-350.098,-376.953,-293.457,-406.25
1742469189.149,425.293,461.426,-150.879,481.934
1742469189.153,-352.539,-312.012,-149.902,-361.816
1742469189.157,2.441,-157.715,-26.367,248.047
1742469189.161,664.062,703.125,-93.75,300.293
1742469189.118,-673.34,-694.336,-97.168,-518.555
1742469189.122,329.102,221.191,-68.848,445.801
1742469189.126,-107.422,-60.547,-147.461,-115.723
1742469189.13,-338.867,-265.137,-45.898,-13.184
1742469189.134,507.812,566.406,-60.059,282.227
1742469189.138,-395.02,-372.07,-91.309,-125.488
1742469189.142,419.434,398.438,-62.5,447.266
1742469189.145,-350.098,-376.953,-293.457,-406.25
1742469189.149,425.293,461.426,-150.879,481.934
1742469189.153,-352.539,-312.012,-149.902,-361.816
1742469189.157,2.441,-157.715,-26.367,248.047
1742469189.161,664.062,703.125,-93.75,300.293
1742469189.178,-549.805,-534.668,-174.316,-322.266
1742469189.182,471.191,410.645,-145.996,601.562
1742469189.186,-425.293,-451.172,-318.848,-473.633
1742469189.19,531.25,473.145,-78.613,545.41
1742469189.194,308.594,471.68,-70.312,68.848
1742469189.198,-600.098,-611.816,80.078,-130.859
1742469189.202,798.34,762.695,319.824,692.383
1742469189.205,-664.551,-671.387,16.602,-789.062
1742469189.209,50.293,-192.383,1.953,432.617
1742469189.213,942.871,883.301,84.473,707.52
1742469189.217,-474.609,-463.379,-29.785,-470.703
1742469189.221,345.703,369.629,229.004,442.383
1742469189.178,-549.805,-534.668,-174.316,-322.266
1742469189.182,471.191,410.645,-145.996,601.562
1742469189.186,-425.293,-451.172,-318.848,-473.633
1742469189.19,531.25,473.145,-78.613,545.41
1742469189.194,308.594,471.68,-70.312,68.848
1742469189.198,-600.098,-611.816,80.078,-130.859
1742469189.202,798.34,762.695,319.824,692.383
1742469189.205,-664.551,-671.387,16.602,-789.062
1742469189.209,50.293,-192.383,1.953,432.617
1742469189.213,942.871,883.301,84.473,707.52
1742469189.217,-474.609,-463.379,-29.785,-470.703
1742469189.221,345.703,369.629,229.004,442.383
1742469189.223,-521.484,-527.344,-17.09,-407.715
1742469189.227,252.93,134.277,-38.086,388.184
1742469189.231,413.574,496.094,94.727,55.176
1742469189.235,-697.266,-702.148,75.195,-310.059
1742469189.239,559.082,506.836,56.152,663.086
1742469189.243,-461.426,-456.543,-25.879,-518.066
1742469189.247,404.785,353.516,234.863,448.242
1742469189.25,-102.051,-118.164,145.02,-247.07
1742469189.254,-381.348,-429.199,203.125,-39.551
1742469189.258,763.672,750.0,306.641,554.688
1742469189.262,-574.707,-586.914,26.367,-609.375
1742469189.266,541.016,570.801,190.918,580.078
1742469189.223,-521.484,-527.344,-17.09,-407.715
1742469189.227,252.93,134.277,-38.086,388.184
1742469189.231,413.574,496.094,94.727,55.176
1742469189.235,-697.266,-702.148,75.195,-310.059
1742469189.239,559.082,506.836,56.152,663.086
1742469189.243,-461.426,-456.543,-25.879,-518.066
1742469189.247,404.785,353.516,234.863,448.242
1742469189.25,-102.051,-118.164,145.02,-247.07
1742469189.254,-381.348,-429.199,203.125,-39.551
1742469189.258,763.672,750.0,306.641,554.688
1742469189.262,-574.707,-586.914,26.367,-609.375
1742469189.266,541.016,570.801,190.918,580.078
1742469189.268,-319.824,-222.168,130.859,-414.551
1742469189.272,-546.875,-680.664,177.734,-157.715
1742469189.276,765.625,787.109,143.066,351.562
1742469189.28,-810.547,-698.242,-29.297,-894.531
1742469189.284,403.809,349.609,42.969,510.254
1742469189.288,523.926,710.938,178.711,-155.762
1742469189.292,-750.0,-640.625,240.723,-634.766
1742469189.295,328.613,305.664,-53.223,325.195
1742469189.299,-319.824,-306.641,-352.539,-473.145
1742469189.303,305.664,222.656,-53.223,337.891
1742469189.307,-223.633,-231.445,72.754,-285.645
1742469189.311,217.285,288.574,322.266,222.656
1742469189.312,-154.785,-86.914,14.648,-350.586
1742469189.316,-1000.0,-1000.0,-360.84,-797.852
1742469189.32,623.535,667.969,-312.012,668.457
1742469189.324,-495.117,-446.777,-465.332,-559.082
1742469189.328,150.879,1.465,-296.387,348.633
1742469189.332,982.422,999.512,-171.875,610.84
1742469189.336,-629.883,-631.836,-333.984,-704.59
1742469189.339,613.281,541.504,-293.457,644.043
1742469189.343,-100.098,-56.152,-392.578,-208.984
1742469189.347,-466.309,-627.441,-304.688,-27.344
1742469189.351,999.512,955.078,-32.715,937.988
1742469189.355,-717.285,-687.012,-150.879,-755.371
1742469189.358,-161.133,-309.082,-100.586,249.023
1742469189.362,999.512,999.512,68.848,944.336
1742469189.366,-744.629,-749.512,-135.742,-718.262
1742469189.37,331.543,214.355,5.859,529.785
1742469189.374,882.324,908.203,67.871,612.793
1742469189.378,-749.023,-700.195,-143.555,-600.098
1742469189.382,645.02,640.625,24.902,744.629
1742469189.385,-127.441,-163.086,-94.727,-193.848
1742469189.389,-547.852,-671.387,-180.176,11.719
1742469189.393,806.152,753.906,-69.824,891.113
1742469189.397,-509.766,-493.164,-287.598,-494.141
1742469189.401,428.223,467.285,-229.004,443.359
1742469189.358,-161.133,-309.082,-100.586,249.023
1742469189.362,999.512,999.512,68.848,944.336
1742469189.366,-744.629,-749.512,-135.742,-718.262
1742469189.37,331.543,214.355,5.859,529.785
1742469189.374,882.324,908.203,67.871,612.793
1742469189.378,-749.023,-700.195,-143.555,-600.098
1742469189.382,645.02,640.625,24.902,744.629
1742469189.385,-127.441,-163.086,-94.727,-193.848
1742469189.389,-547.852,-671.387,-180.176,11.719
1742469189.393,806.152,753.906,-69.824,891.113
1742469189.397,-509.766,-493.164,-287.598,-494.141
1742469189.401,428.223,467.285,-229.004,443.359
1742469189.358,-161.133,-309.082,-100.586,249.023
1742469189.362,999.512,999.512,68.848,944.336
1742469189.366,-744.629,-749.512,-135.742,-718.262
1742469189.37,331.543,214.355,5.859,529.785
1742469189.374,882.324,908.203,67.871,612.793
1742469189.378,-749.023,-700.195,-143.555,-600.098
1742469189.382,645.02,640.625,24.902,744.629
1742469189.385,-127.441,-163.086,-94.727,-193.848
1742469189.389,-547.852,-671.387,-180.176,11.719
1742469189.393,806.152,753.906,-69.824,891.113
1742469189.397,-509.766,-493.164,-287.598,-494.141
1742469189.401,428.223,467.285,-229.004,443.359
1742469189.403,-230.957,-180.664,-448.73,-210.938
1742469189.407,-234.375,-433.105,-384.766,148.926
1742469189.411,869.141,835.449,-271.973,505.371
1742469189.415,-552.246,-513.672,-374.023,-633.789
1742469189.419,514.648,545.898,-96.191,589.355
1742469189.423,-379.883,-206.055,-136.23,-488.77
1742469189.427,-794.922,-918.457,-184.082,-218.75
1742469189.43,777.832,679.688,-62.5,829.59
1742469189.434,-610.84,-607.422,-217.285,-657.715
1742469189.438,314.941,226.562,65.43,502.441
1742469189.442,987.793,999.512,348.633,492.676
1742469189.446,-625.977,-653.32,291.992,-755.859
1742469189.403,-230.957,-180.664,-448.73,-210.938
1742469189.407,-234.375,-433.105,-384.766,148.926
1742469189.411,869.141,835.449,-271.973,505.371
1742469189.415,-552.246,-513.672,-374.023,-633.789
1742469189.419,514.648,545.898,-96.191,589.355
1742469189.423,-379.883,-206.055,-136.23,-488.77
1742469189.427,-794.922,-918.457,-184.082,-218.75
1742469189.43,777.832,679.688,-62.5,829.59
1742469189.434,-610.84,-607.422,-217.285,-657.715
1742469189.438,314.941,226.562,65.43,502.441
1742469189.442,987.793,999.512,348.633,492.676
1742469189.446,-625.977,-653.32,291.992,-755.859
1742469189.448,575.684,552.246,328.125,650.391
1742469189.452,-249.512,-119.141,22.949,-416.504
1742469189.456,-889.16,-900.879,-104.004,-578.613
1742469189.46,686.523,692.871,160.156,669.434
1742469189.464,-524.414,-485.84,62.012,-584.473
1742469189.468,408.203,404.297,284.668,473.145
1742469189.472,316.895,543.457,308.594,-6.836
1742469189.475,-1000.0,-1000.0,-52.734,-790.527
1742469189.479,740.723,688.965,-75.684,846.68
1742469189.483,-254.883,-144.043,-256.348,-454.102
1742469189.487,-695.801,-667.48,-253.906,-363.77
1742469189.491,668.457,698.242,-126.465,511.23
1742469189.448,575.684,552.246,328.125,650.391
1742469189.452,-249.512,-119.141,22.949,-416.504
1742469189.456,-889.16,-900.879,-104.004,-578.613
1742469189.46,686.523,692.871,160.156,669.434
1742469189.464,-524.414,-485.84,62.012,-584.473
1742469189.468,408.203,404.297,284.668,473.145
1742469189.472,316.895,543.457,308.594,-6.836
1742469189.475,-1000.0,-1000.0,-52.734,-790.527
1742469189.479,740.723,688.965,-75.684,846.68
1742469189.483,-254.883,-144.043,-256.348,-454.102
1742469189.487,-695.801,-667.48,-253.906,-363.77
1742469189.491,668.457,698.242,-126.465,511.23
1742469189.507,-505.859,-502.441,-554.688,-612.793
1742469189.511,526.367,459.473,-441.406,537.598
1742469189.515,-260.254,-310.059,-284.668,-331.055
1742469189.519,-401.367,-551.758,-123.535,-62.5
1742469189.523,681.641,676.758,-88.379,397.949
1742469189.527,-588.379,-517.09,-150.391,-606.934
1742469189.531,426.27,424.316,109.375,527.344
1742469189.534,-571.777,-569.336,-154.297,-562.988
1742469189.538,-249.023,-375.977,-102.539,117.676
1742469189.542,673.34,656.738,-32.227,372.07
1742469189.546,-694.824,-675.293,-322.754,-669.434
1742469189.55,469.727,490.723,53.711,544.922
1742469189.507,-505.859,-502.441,-554.688,-612.793
1742469189.511,526.367,459.473,-441.406,537.598
1742469189.515,-260.254,-310.059,-284.668,-331.055
1742469189.519,-401.367,-551.758,-123.535,-62.5
1742469189.523,681.641,676.758,-88.379,397.949
1742469189.527,-588.379,-517.09,-150.391,-606.934
1742469189.531,426.27,424.316,109.375,527.344
1742469189.534,-571.777,-569.336,-154.297,-562.988
1742469189.538,-249.023,-375.977,-102.539,117.676
1742469189.542,673.34,656.738,-32.227,372.07
1742469189.546,-694.824,-675.293,-322.754,-669.434
1742469189.55,469.727,490.723,53.711,544.922
1742469189.583,-496.094,-475.586,35.156,-514.648
1742469189.587,-141.113,-314.453,-12.207,102.539
1742469189.591,503.906,591.309,-91.797,82.031
1742469189.595,-866.699,-832.52,-207.52,-671.875
1742469189.599,660.156,668.457,65.918,791.504
1742469189.603,-298.828,-1.465,27.344,-570.312
1742469189.607,-903.809,-879.883,-20.996,-608.398
1742469189.61,689.453,664.062,191.895,577.148
1742469189.614,-614.746,-615.234,36.621,-681.152
1742469189.618,317.383,205.078,140.137,417.48
1742469189.622,755.859,926.758,283.691,127.441
1742469189.626,-731.934,-569.824,356.934,-682.129
1742469189.583,-496.094,-475.586,35.156,-514.648
1742469189.587,-141.113,-314.453,-12.207,102.539
1742469189.591,503.906,591.309,-91.797,82.031
1742469189.595,-866.699,-832.52,-207.52,-671.875
1742469189.599,660.156,668.457,65.918,791.504
1742469189.603,-298.828,-1.465,27.344,-570.312
1742469189.607,-903.809,-879.883,-20.996,-608.398
1742469189.61,689.453,664.062,191.895,577.148
1742469189.614,-614.746,-615.234,36.621,-681.152
1742469189.618,317.383,205.078,140.137,417.48
1742469189.622,755.859,926.758,283.691,127.441
1742469189.626,-731.934,-569.824,356.934,-682.129
1742469189.597,449.707,425.781,209.473,496.094
1742469189.601,-602.051,-604.492,-302.246,-655.762
1742469189.605,-126.465,-303.711,-183.105,222.656
1742469189.609,804.688,814.941,65.43,341.797
1742469189.613,-662.598,-575.195,75.195,-750.977
1742469189.617,499.023,469.727,359.863,610.84
1742469189.621,-436.035,-412.109,109.863,-563.477
1742469189.624,-919.922,-995.605,-126.953,-482.422
1742469189.628,772.949,741.699,39.551,752.93
1742469189.632,-708.984,-673.828,-83.496,-765.137
1742469189.636,-171.875,-378.418,35.645,180.664
1742469189.64,745.117,751.465,102.051,393.066
1742469189.597,449.707,425.781,209.473,496.094
1742469189.601,-602.051,-604.492,-302.246,-655.762
1742469189.605,-126.465,-303.711,-183.105,222.656
1742469189.609,804.688,814.941,65.43,341.797
1742469189.613,-662.598,-575.195,75.195,-750.977
1742469189.617,499.023,469.727,359.863,610.84
1742469189.621,-436.035,-412.109,109.863,-563.477
1742469189.624,-919.922,-995.605,-126.953,-482.422
1742469189.628,772.949,741.699,39.551,752.93
1742469189.632,-708.984,-673.828,-83.496,-765.137
1742469189.636,-171.875,-378.418,35.645,180.664
1742469189.64,745.117,751.465,102.051,393.066
1742469189.659,-752.441,-671.875,-255.859,-824.219
1742469189.663,608.398,585.449,-110.352,662.109
1742469189.667,-210.938,-132.324,-294.922,-362.793
1742469189.671,-883.301,-920.41,-478.516,-479.98
1742469189.675,703.613,682.617,-188.965,636.719
1742469189.679,-626.465,-592.773,-141.602,-707.031
1742469189.683,240.234,197.266,-55.664,352.539
1742469189.686,191.895,225.586,-255.371,-161.621
1742469189.69,-913.574,-902.344,-396.973,-733.398
1742469189.694,410.156,395.02,-228.027,460.449
1742469189.698,-394.531,-391.602,-259.277,-490.234
1742469189.702,417.48,425.781,131.348,378.418
1742469189.659,-752.441,-671.875,-255.859,-824.219
1742469189.663,608.398,585.449,-110.352,662.109
1742469189.667,-210.938,-132.324,-294.922,-362.793
1742469189.671,-883.301,-920.41,-478.516,-479.98
1742469189.675,703.613,682.617,-188.965,636.719
1742469189.679,-626.465,-592.773,-141.602,-707.031
1742469189.683,240.234,197.266,-55.664,352.539
1742469189.686,191.895,225.586,-255.371,-161.621
1742469189.69,-913.574,-902.344,-396.973,-733.398
1742469189.694,410.156,395.02,-228.027,460.449
1742469189.698,-394.531,-391.602,-259.277,-490.234
1742469189.702,417.48,425.781,131.348,378.418
1742469190.153,-908.203,-896.973,-81.543,-412.598
1742469190.157,609.863,547.363,75.684,786.621
1742469190.161,-511.23,-538.574,-20.02,-554.688
1742469190.165,111.816,42.969,-36.133,375.0
1742469190.169,831.055,848.633,-96.191,526.855
1742469190.173,-656.738,-609.863,-260.742,-561.035
1742469190.177,522.461,557.617,-158.691,650.391
1742469190.18,-440.43,-447.266,-459.473,-455.078
1742469190.184,-66.406,-252.441,-267.09,239.258
1742469190.188,950.195,932.129,-75.195,624.512
1742469190.192,-699.219,-644.531,-275.879,-753.418
1742469190.196,654.297,632.324,106.934,694.336
1742469190.198,456.055,517.578,162.109,-18.066
1742469190.202,-669.922,-724.121,36.621,-325.684
1742469190.206,698.242,639.16,136.23,730.957
1742469190.21,-640.625,-633.301,-44.922,-731.934
1742469190.214,-41.992,-159.668,-23.438,220.703
1742469190.218,940.43,936.523,-15.625,336.426
1742469190.222,-572.754,-544.922,-41.016,-719.727
1742469190.225,538.086,537.598,81.543,617.676
1742469190.229,-327.637,-286.133,-111.816,-460.449
1742469190.233,-645.508,-813.965,-99.121,-197.266
1742469190.237,999.512,999.512,60.547,856.934
1742469190.241,-590.332,-471.191,78.613,-760.742
1742469190.198,456.055,517.578,162.109,-18.066
1742469190.202,-669.922,-724.121,36.621,-325.684
1742469190.206,698.242,639.16,136.23,730.957
1742469190.21,-640.625,-633.301,-44.922,-731.934
1742469190.214,-41.992,-159.668,-23.438,220.703
1742469190.218,940.43,936.523,-15.625,336.426
1742469190.222,-572.754,-544.922,-41.016,-719.727
1742469190.225,538.086,537.598,81.543,617.676
1742469190.229,-327.637,-286.133,-111.816,-460.449
1742469190.233,-645.508,-813.965,-99.121,-197.266
1742469190.237,999.512,999.512,60.547,856.934
1742469190.241,-590.332,-471.191,78.613,-760.742
1742469190.242,-144.043,-370.605,182.129,211.426
1742469190.246,872.07,822.754,271.484,489.746
1742469190.25,-605.957,-567.871,203.613,-659.668
1742469190.254,548.34,541.504,311.035,593.75
1742469190.258,-117.676,-13.672,216.797,-254.883
1742469190.262,-16.113,-32.715,240.723,181.641
1742469190.266,261.23,184.082,-21.484,45.898
1742469190.269,-891.602,-956.055,-240.234,-538.086
1742469190.273,893.555,811.035,84.473,990.723
1742469190.277,-8.301,-88.379,205.566,-250.488
1742469190.281,-546.875,-688.965,333.008,-67.383
1742469190.285,881.348,841.309,462.891,828.613
1742469190.242,-144.043,-370.605,182.129,211.426
1742469190.246,872.07,822.754,271.484,489.746
1742469190.25,-605.957,-567.871,203.613,-659.668
1742469190.254,548.34,541.504,311.035,593.75
1742469190.258,-117.676,-13.672,216.797,-254.883
1742469190.262,-16.113,-32.715,240.723,181.641
1742469190.266,261.23,184.082,-21.484,45.898
1742469190.269,-891.602,-956.055,-240.234,-538.086
1742469190.273,893.555,811.035,84.473,990.723
1742469190.277,-8.301,-88.379,205.566,-250.488
1742469190.281,-546.875,-688.965,333.008,-67.383
1742469190.285,881.348,841.309,462.891,828.613
1742469190.242,-144.043,-370.605,182.129,211.426
1742469190.246,872.07,822.754,271.484,489.746
1742469190.25,-605.957,-567.871,203.613,-659.668
1742469190.254,548.34,541.504,311.035,593.75
1742469190.258,-117.676,-13.672,216.797,-254.883
1742469190.262,-16.113,-32.715,240.723,181.641
1742469190.266,261.23,184.082,-21.484,45.898
1742469190.269,-891.602,-956.055,-240.234,-538.086
1742469190.273,893.555,811.035,84.473,990.723
1742469190.277,-8.301,-88.379,205.566,-250.488
1742469190.281,-546.875,-688.965,333.008,-67.383
1742469190.285,881.348,841.309,462.891,828.613
1742469190.302,-706.055,-699.707,172.852,-747.559
1742469190.306,133.789,43.457,236.328,374.512
1742469190.31,841.797,898.438,426.27,314.941
1742469190.314,-833.984,-781.738,289.551,-853.027
1742469190.318,675.293,660.156,272.461,775.391
1742469190.322,315.43,514.16,189.941,-125.0
1742469190.326,-875.977,-824.707,81.055,-629.395
1742469190.329,490.234,462.891,99.609,623.535
1742469190.333,-529.785,-551.758,-89.355,-556.152
1742469190.337,370.117,269.531,268.066,459.961
1742469190.341,600.098,731.934,270.02,192.871
1742469190.345,-872.07,-808.105,-93.75,-732.91
1742469190.302,-706.055,-699.707,172.852,-747.559
1742469190.306,133.789,43.457,236.328,374.512
1742469190.31,841.797,898.438,426.27,314.941
1742469190.314,-833.984,-781.738,289.551,-853.027
1742469190.318,675.293,660.156,272.461,775.391
1742469190.322,315.43,514.16,189.941,-125.0
1742469190.326,-875.977,-824.707,81.055,-629.395
1742469190.329,490.234,462.891,99.609,623.535
1742469190.333,-529.785,-551.758,-89.355,-556.152
1742469190.337,370.117,269.531,268.066,459.961
1742469190.341,600.098,731.934,270.02,192.871
1742469190.345,-872.07,-808.105,-93.75,-732.91
1742469190.348,556.641,552.246,-126.953,664.062
1742469190.352,-543.457,-501.465,-423.34,-584.473
1742469190.356,-402.832,-563.477,-378.906,7.324
1742469190.36,753.906,771.973,-391.602,495.605
1742469190.364,-673.828,-605.469,-762.207,-776.367
1742469190.368,586.914,588.379,-314.453,608.398
1742469190.372,-38.574,215.82,-460.449,-346.68
1742469190.375,-1000.0,-1000.0,-926.27,-689.453
1742469190.379,761.23,707.031,-641.113,791.992
1742469190.383,-443.848,-420.898,-323.242,-605.469
1742469190.387,-170.898,-435.059,-53.223,109.863
1742469190.391,847.656,802.246,-115.234,537.109
1742469190.348,556.641,552.246,-126.953,664.062
1742469190.352,-543.457,-501.465,-423.34,-584.473
1742469190.356,-402.832,-563.477,-378.906,7.324
1742469190.36,753.906,771.973,-391.602,495.605
1742469190.364,-673.828,-605.469,-762.207,-776.367
1742469190.368,586.914,588.379,-314.453,608.398
1742469190.372,-38.574,215.82,-460.449,-346.68
1742469190.375,-1000.0,-1000.0,-926.27,-689.453
1742469190.379,761.23,707.031,-641.113,791.992
1742469190.383,-443.848,-420.898,-323.242,-605.469
1742469190.387,-170.898,-435.059,-53.223,109.863
1742469190.391,847.656,802.246,-115.234,537.109
1742469190.393,-586.426,-539.551,-433.105,-704.59
1742469190.397,474.121,413.574,-333.008,492.188
1742469190.401,-339.844,-373.535,-427.246,-395.996
1742469190.405,1.953,-125.0,-76.172,229.98
1742469190.409,974.121,951.66,351.562,700.684
1742469190.413,-562.988,-582.031,341.797,-667.969
1742469190.417,548.34,496.582,538.086,551.758
1742469190.42,-339.355,-330.078,240.723,-429.688
1742469190.424,-642.578,-737.305,68.848,-188.477
1742469190.428,756.836,728.027,26.855,629.883
1742469190.432,-492.676,-475.098,-228.027,-612.793
1742469190.436,525.879,542.48,-9.277,519.043
1742469190.393,-586.426,-539.551,-433.105,-704.59
1742469190.397,474.121,413.574,-333.008,492.188
1742469190.401,-339.844,-373.535,-427.246,-395.996
1742469190.405,1.953,-125.0,-76.172,229.98
1742469190.409,974.121,951.66,351.562,700.684
1742469190.413,-562.988,-582.031,341.797,-667.969
1742469190.417,548.34,496.582,538.086,551.758
1742469190.42,-339.355,-330.078,240.723,-429.688
1742469190.424,-642.578,-737.305,68.848,-188.477
1742469190.428,756.836,728.027,26.855,629.883
1742469190.432,-492.676,-475.098,-228.027,-612.793
1742469190.436,525.879,542.48,-9.277,519.043
1742469190.439,-213.379,-71.289,-119.629,-455.566
1742469190.443,-901.855,-958.984,-271.973,-495.605
1742469190.447,954.102,874.023,126.953,934.57
1742469190.451,-400.391,-429.199,252.441,-567.871
1742469190.455,-72.754,-258.301,531.738,213.379
1742469190.459,999.512,999.512,809.082,612.793
1742469190.463,-715.332,-741.699,521.484,-826.66
1742469190.466,477.539,350.586,459.473,607.91
1742469190.47,492.676,608.887,423.828,6.836
1742469190.474,-795.898,-797.363,376.465,-575.195
1742469190.478,568.359,554.199,411.133,677.734
1742469190.482,-558.105,-489.746,236.328,-585.938
1742469190.439,-213.379,-71.289,-119.629,-455.566
1742469190.443,-901.855,-958.984,-271.973,-495.605
1742469190.447,954.102,874.023,126.953,934.57
1742469190.451,-400.391,-429.199,252.441,-567.871
1742469190.455,-72.754,-258.301,531.738,213.379
1742469190.459,999.512,999.512,809.082,612.793
1742469190.463,-715.332,-741.699,521.484,-826.66
1742469190.466,477.539,350.586,459.473,607.91
1742469190.47,492.676,608.887,423.828,6.836
1742469190.474,-795.898,-797.363,376.465,-575.195
1742469190.478,568.359,554.199,411.133,677.734
1742469190.482,-558.105,-489.746,236.328,-585.938
1742469190.484,141.113,68.848,337.891,340.82
1742469190.488,434.082,474.609,174.805,114.258
1742469190.492,-724.121,-649.414,9.277,-604.004
1742469190.496,472.168,494.629,101.074,396.484
1742469190.5,-461.426,-457.52,-179.199,-588.379
1742469190.504,389.648,380.371,-73.73,434.57
1742469190.508,-126.953,-87.402,-137.695,-340.82
1742469190.511,-1000.0,-1000.0,-201.172,-681.641
1742469190.515,709.473,654.785,167.969,706.543
1742469190.519,-680.176,-636.23,145.508,-802.246
1742469190.523,-474.609,-496.582,282.227,-235.352
1742469190.527,713.379,750.977,548.828,312.988
1742469190.484,141.113,68.848,337.891,340.82
1742469190.488,434.082,474.609,174.805,114.258
1742469190.492,-724.121,-649.414,9.277,-604.004
1742469190.496,472.168,494.629,101.074,396.484
1742469190.5,-461.426,-457.52,-179.199,-588.379
1742469190.504,389.648,380.371,-73.73,434.57
1742469190.508,-126.953,-87.402,-137.695,-340.82
1742469190.511,-1000.0,-1000.0,-201.172,-681.641
1742469190.515,709.473,654.785,167.969,706.543
1742469190.519,-680.176,-636.23,145.508,-802.246
1742469190.523,-474.609,-496.582,282.227,-235.352
1742469190.527,713.379,750.977,548.828,312.988
1742469190.528,-750.0,-751.953,307.129,-885.254
1742469190.532,375.0,329.102,276.367,410.156
1742469190.536,-296.875,-246.094,-48.34,-474.121
1742469190.54,-881.348,-908.691,-100.098,-529.785
1742469190.544,843.262,829.102,171.875,647.949
1742469190.548,-730.957,-698.73,-99.121,-835.938
1742469190.552,-630.371,-687.012,-271.484,-38.574
1742469190.555,484.375,459.961,-342.285,213.379
1742469190.559,-604.004,-604.98,-380.859,-574.707
1742469190.563,449.707,438.477,-135.742,533.203
1742469190.567,-427.246,-441.895,-232.91,-499.512
1742469190.571,126.953,45.898,-186.523,285.156
1742469190.528,-750.0,-751.953,307.129,-885.254
1742469190.532,375.0,329.102,276.367,410.156
1742469190.536,-296.875,-246.094,-48.34,-474.121
1742469190.54,-881.348,-908.691,-100.098,-529.785
1742469190.544,843.262,829.102,171.875,647.949
1742469190.548,-730.957,-698.73,-99.121,-835.938
1742469190.552,-630.371,-687.012,-271.484,-38.574
1742469190.555,484.375,459.961,-342.285,213.379
1742469190.559,-604.004,-604.98,-380.859,-574.707
1742469190.563,449.707,438.477,-135.742,533.203
1742469190.567,-427.246,-441.895,-232.91,-499.512
1742469190.571,126.953,45.898,-186.523,285.156
1742469190.572,622.559,720.215,-230.469,131.836
1742469190.576,-944.824,-892.578,-457.52,-789.551
1742469190.58,737.305,708.496,-375.0,853.516
1742469190.584,89.844,183.105,-436.523,-234.375
1742469190.588,-676.758,-731.445,-285.156,-290.039
1742469190.592,705.078,649.902,-11.23,663.574
1742469190.596,-523.926,-529.297,-148.926,-595.703
1742469190.599,317.383,295.898,-81.543,358.398
1742469190.603,-228.516,-187.5,-338.867,-344.238
1742469190.607,-479.98,-690.43,-261.23,-128.906
1742469190.611,942.871,903.809,-2.441,536.621
1742469190.615,-790.527,-737.793,-160.156,-952.148
1742469190.572,622.559,720.215,-230.469,131.836
1742469190.576,-944.824,-892.578,-457.52,-789.551
1742469190.58,737.305,708.496,-375.0,853.516
1742469190.584,89.844,183.105,-436.523,-234.375
1742469190.588,-676.758,-731.445,-285.156,-290.039
1742469190.592,705.078,649.902,-11.23,663.574
1742469190.596,-523.926,-529.297,-148.926,-595.703
1742469190.599,317.383,295.898,-81.543,358.398
1742469190.603,-228.516,-187.5,-338.867,-344.238
1742469190.607,-479.98,-690.43,-261.23,-128.906
1742469190.611,942.871,903.809,-2.441,536.621
1742469190.615,-790.527,-737.793,-160.156,-952.148
1742469190.617,83.008,-124.512,-192.871,388.672
1742469190.621,885.742,883.789,-159.668,387.695
1742469190.625,-642.09,-625.977,-137.207,-772.949
1742469190.629,503.418,470.703,39.551,503.418
1742469190.633,-283.203,-195.312,-214.355,-383.789
1742469190.637,73.73,97.168,50.293,208.496
1742469190.641,424.805,416.016,24.902,111.328
1742469190.644,-899.414,-911.621,-341.309,-770.02
1742469190.648,559.57,561.523,37.598,635.742
1742469190.652,-581.543,-545.41,-29.785,-625.0
1742469190.656,-708.008,-828.125,-21.973,-173.34
1742469190.66,731.934,669.434,139.648,645.02
1742469190.617,83.008,-124.512,-192.871,388.672
1742469190.621,885.742,883.789,-159.668,387.695
1742469190.625,-642.09,-625.977,-137.207,-772.949
1742469190.629,503.418,470.703,39.551,503.418
1742469190.633,-283.203,-195.312,-214.355,-383.789
1742469190.637,73.73,97.168,50.293,208.496
1742469190.641,424.805,416.016,24.902,111.328
1742469190.644,-899.414,-911.621,-341.309,-770.02
1742469190.648,559.57,561.523,37.598,635.742
1742469190.652,-581.543,-545.41,-29.785,-625.0
1742469190.656,-708.008,-828.125,-21.973,-173.34
1742469190.66,731.934,669.434,139.648,645.02
1742469190.667,-473.633,-495.117,259.766,-600.586
1742469190.671,308.105,218.262,413.574,323.242
1742469190.675,-406.738,-399.414,-52.246,-427.246
1742469190.679,-100.098,-152.832,40.527,133.789
1742469190.683,824.219,862.305,369.141,388.184
1742469190.687,-560.059,-520.508,404.785,-737.305
1742469190.691,365.723,373.535,360.84,413.574
1742469190.694,-549.316,-543.945,-182.129,-520.508
1742469190.698,215.332,81.543,34.668,333.008
1742469190.702,670.898,684.57,164.551,246.094
1742469190.706,-647.461,-562.5,-25.391,-601.074
1742469190.71,522.949,567.383,187.988,467.285
1742469190.667,-473.633,-495.117,259.766,-600.586
1742469190.671,308.105,218.262,413.574,323.242
1742469190.675,-406.738,-399.414,-52.246,-427.246
1742469190.679,-100.098,-152.832,40.527,133.789
1742469190.683,824.219,862.305,369.141,388.184
1742469190.687,-560.059,-520.508,404.785,-737.305
1742469190.691,365.723,373.535,360.84,413.574
1742469190.694,-549.316,-543.945,-182.129,-520.508
1742469190.698,215.332,81.543,34.668,333.008
1742469190.702,670.898,684.57,164.551,246.094
1742469190.706,-647.461,-562.5,-25.391,-601.074
1742469190.71,522.949,567.383,187.988,467.285
1742469191.187,-982.91,-1000.0,-36.621,-476.562
1742469191.191,688.477,607.422,119.141,723.633
1742469191.195,-641.113,-596.191,111.816,-747.559
1742469191.199,-477.539,-584.473,22.949,-92.285
1742469191.203,999.512,999.512,211.426,809.57
1742469191.207,-497.07,-38.086,305.664,-611.816
1742469191.211,-726.074,-714.844,301.758,-193.848
1742469191.214,718.75,671.387,367.676,710.449
1742469191.218,-576.66,-579.102,100.586,-625.0
1742469191.222,229.98,138.184,288.086,447.266
1742469191.226,999.512,999.512,664.551,687.5
1742469191.23,-889.648,-884.766,359.863,-1000.0
1742469190.723,-551.27,-610.352,-15.137,-558.105
1742469190.727,284.18,128.906,-141.113,406.25
1742469190.731,350.586,353.027,-182.129,-48.34
1742469190.735,-528.809,-583.984,42.48,-219.238
1742469190.739,663.574,611.328,212.891,583.984
1742469190.743,-451.66,-434.082,45.41,-590.82
1742469190.747,336.426,327.637,144.531,383.301
1742469190.75,-419.922,-412.109,-220.215,-462.891
1742469190.754,-674.316,-759.277,-504.395,-187.012
1742469190.758,954.102,910.645,-384.277,811.523
1742469190.762,-684.57,-668.457,-546.875,-917.969
1742469190.766,-1000.0,-1000.0,-555.664,-903.32
1742469190.723,-551.27,-610.352,-15.137,-558.105
1742469190.727,284.18,128.906,-141.113,406.25
1742469190.731,350.586,353.027,-182.129,-48.34
1742469190.735,-528.809,-583.984,42.48,-219.238
1742469190.739,663.574,611.328,212.891,583.984
1742469190.743,-451.66,-434.082,45.41,-590.82
1742469190.747,336.426,327.637,144.531,383.301
1742469190.75,-419.922,-412.109,-220.215,-462.891
1742469190.754,-674.316,-759.277,-504.395,-187.012
1742469190.758,954.102,910.645,-384.277,811.523
1742469190.762,-684.57,-668.457,-546.875,-917.969
1742469190.766,-1000.0,-1000.0,-555.664,-903.32
1742469190.77,644.043,695.801,-494.141,517.578
1742469190.774,-643.555,-600.098,-680.176,-733.398
1742469190.778,-809.082,-794.434,-622.559,-708.496
1742469190.782,670.41,702.637,-399.414,209.961
1742469190.786,-535.156,-520.508,-599.121,-663.574
1742469190.79,566.895,562.988,-232.422,678.711
1742469190.794,663.574,662.109,-32.227,103.516
1742469190.797,-828.613,-854.98,-264.16,-620.117
1742469190.801,639.648,608.398,-91.797,783.203
1742469190.805,-367.676,-390.625,-69.336,-479.004
1742469190.809,-245.605,-386.23,175.781,150.391
1742469190.813,937.012,913.086,423.34,781.738
1742469190.77,644.043,695.801,-494.141,517.578
1742469190.774,-643.555,-600.098,-680.176,-733.398
1742469190.778,-809.082,-794.434,-622.559,-708.496
1742469190.782,670.41,702.637,-399.414,209.961
1742469190.786,-535.156,-520.508,-599.121,-663.574
1742469190.79,566.895,562.988,-232.422,678.711
1742469190.794,663.574,662.109,-32.227,103.516
1742469190.797,-828.613,-854.98,-264.16,-620.117
1742469190.801,639.648,608.398,-91.797,783.203
1742469190.805,-367.676,-390.625,-69.336,-479.004
1742469190.809,-245.605,-386.23,175.781,150.391
1742469190.813,937.012,913.086,423.34,781.738
1742469190.812,-626.953,-645.996,-127.93,-683.105
1742469190.816,445.801,367.676,-231.934,528.809
1742469190.82,-224.609,-158.203,-400.391,-294.922
1742469190.824,-719.727,-791.992,-266.602,-325.195
1742469190.828,921.387,940.43,130.371,819.336
1742469190.832,-580.078,-459.961,44.434,-629.883
1742469190.836,215.82,151.367,55.176,391.113
1742469190.839,335.938,363.281,-175.293,44.434
1742469190.843,-794.922,-852.051,-309.082,-441.406
1742469190.847,612.793,529.297,-72.754,747.07
1742469190.851,-574.707,-564.453,-347.656,-571.777
1742469190.855,231.934,186.035,-370.117,404.297
1742469190.812,-626.953,-645.996,-127.93,-683.105
1742469190.816,445.801,367.676,-231.934,528.809
1742469190.82,-224.609,-158.203,-400.391,-294.922
1742469190.824,-719.727,-791.992,-266.602,-325.195
1742469190.828,921.387,940.43,130.371,819.336
1742469190.832,-580.078,-459.961,44.434,-629.883
1742469190.836,215.82,151.367,55.176,391.113
1742469190.839,335.938,363.281,-175.293,44.434
1742469190.843,-794.922,-852.051,-309.082,-441.406
1742469190.847,612.793,529.297,-72.754,747.07
1742469190.851,-574.707,-564.453,-347.656,-571.777
1742469190.855,231.934,186.035,-370.117,404.297
1742469190.858,775.879,857.422,-298.828,304.199
1742469190.862,-799.805,-798.34,-287.598,-606.445
1742469190.866,793.945,712.402,-13.184,938.477
1742469190.87,277.832,316.895,40.527,-138.184
1742469190.874,-943.359,-976.562,-99.609,-546.875
1742469190.878,578.125,638.672,-65.918,715.332
1742469190.882,-582.52,-479.004,-234.375,-633.789
1742469190.885,-139.648,-284.668,-237.793,215.82
1742469190.889,808.594,733.887,-82.031,470.215
1742469190.893,-816.406,-814.941,-275.391,-827.148
1742469190.897,648.926,636.23,-78.125,741.699
1742469190.901,666.992,723.633,44.434,51.27
1742469190.918,-840.82,-824.707,-241.211,-758.789
1742469190.922,583.008,611.328,-21.484,649.902
1742469190.926,-479.492,-395.02,11.23,-593.75
1742469190.93,-539.551,-654.785,-58.594,-128.906
1742469190.934,641.602,623.047,-42.969,338.379
1742469190.938,-451.172,-378.906,17.09,-503.418
1742469190.942,384.277,400.879,95.215,447.754
1742469190.945,-512.207,-542.48,-137.207,-507.324
1742469190.949,299.316,217.773,8.789,378.906
1742469190.953,403.32,476.074,61.523,29.785
1742469190.957,-441.406,-377.441,145.996,-171.875
1742469190.961,678.223,684.082,156.738,612.305
1742469190.918,-840.82,-824.707,-241.211,-758.789
1742469190.922,583.008,611.328,-21.484,649.902
1742469190.926,-479.492,-395.02,11.23,-593.75
1742469190.93,-539.551,-654.785,-58.594,-128.906
1742469190.934,641.602,623.047,-42.969,338.379
1742469190.938,-451.172,-378.906,17.09,-503.418
1742469190.942,384.277,400.879,95.215,447.754
1742469190.945,-512.207,-542.48,-137.207,-507.324
1742469190.949,299.316,217.773,8.789,378.906
1742469190.953,403.32,476.074,61.523,29.785
1742469190.957,-441.406,-377.441,145.996,-171.875
1742469190.961,678.223,684.082,156.738,612.305
1742469190.95,-418.457,-451.172,-101.562,-532.715
1742469190.954,399.902,330.078,0.977,444.824
1742469190.958,-315.43,-365.234,-51.27,-326.66
1742469190.962,17.09,-105.469,172.852,249.512
1742469190.966,823.73,840.332,207.031,460.938
1742469190.97,-571.289,-493.164,-2.441,-545.41
1742469190.974,362.793,381.348,-132.812,401.855
1742469190.977,-488.281,-520.996,-462.402,-544.434
1742469190.981,356.934,278.809,-235.84,489.258
1742469190.985,726.562,750.977,-119.629,285.156
1742469190.989,-667.969,-638.672,-170.898,-535.156
1742469190.993,319.336,319.336,-48.34,484.375
1742469190.95,-418.457,-451.172,-101.562,-532.715
1742469190.954,399.902,330.078,0.977,444.824
1742469190.958,-315.43,-365.234,-51.27,-326.66
1742469190.962,17.09,-105.469,172.852,249.512
1742469190.966,823.73,840.332,207.031,460.938
1742469190.97,-571.289,-493.164,-2.441,-545.41
1742469190.974,362.793,381.348,-132.812,401.855
1742469190.977,-488.281,-520.996,-462.402,-544.434
1742469190.981,356.934,278.809,-235.84,489.258
1742469190.985,726.562,750.977,-119.629,285.156
1742469190.989,-667.969,-638.672,-170.898,-535.156
1742469190.993,319.336,319.336,-48.34,484.375
1742469190.994,-270.996,-274.414,-90.332,-359.375
1742469190.998,326.172,283.691,129.883,313.965
1742469191.002,-357.422,-438.477,-23.438,-306.152
1742469191.006,229.98,166.504,29.785,404.785
1742469191.01,777.344,801.758,-36.133,493.164
1742469191.014,-768.066,-708.008,-346.68,-589.844
1742469191.018,664.062,670.41,-141.113,782.227
1742469191.021,-333.496,-366.211,-238.281,-416.992
1742469191.025,-578.613,-715.82,-285.156,-43.457
1742469191.029,841.797,791.016,-194.336,755.371
1742469191.033,-559.082,-555.664,-346.68,-658.203
1742469191.037,577.637,520.508,-83.984,629.395
1742469190.994,-270.996,-274.414,-90.332,-359.375
1742469190.998,326.172,283.691,129.883,313.965
1742469191.002,-357.422,-438.477,-23.438,-306.152
1742469191.006,229.98,166.504,29.785,404.785
1742469191.01,777.344,801.758,-36.133,493.164
1742469191.014,-768.066,-708.008,-346.68,-589.844
1742469191.018,664.062,670.41,-141.113,782.227
1742469191.021,-333.496,-366.211,-238.281,-416.992
1742469191.025,-578.613,-715.82,-285.156,-43.457
1742469191.029,841.797,791.016,-194.336,755.371
1742469191.033,-559.082,-555.664,-346.68,-658.203
1742469191.037,577.637,520.508,-83.984,629.395
1742469191.052,498.047,551.758,2.441,54.199
1742469191.056,-927.246,-971.68,-55.176,-654.297
1742469191.06,707.52,729.98,78.613,787.598
1742469191.064,-348.633,-88.379,41.504,-581.055
1742469191.068,-817.383,-895.02,-78.125,-296.387
1742469191.072,892.578,844.238,95.215,937.012
1742469191.076,-702.637,-616.699,-114.258,-757.812
1742469191.079,-429.199,-625.977,-312.5,29.297
1742469191.083,926.27,889.16,-259.277,702.637
1742469191.087,-697.266,-717.773,-329.59,-803.223
1742469191.091,405.762,246.582,173.828,543.457
1742469191.095,706.543,739.746,368.164,208.008
1742469191.052,498.047,551.758,2.441,54.199
1742469191.056,-927.246,-971.68,-55.176,-654.297
1742469191.06,707.52,729.98,78.613,787.598
1742469191.064,-348.633,-88.379,41.504,-581.055
1742469191.068,-817.383,-895.02,-78.125,-296.387
1742469191.072,892.578,844.238,95.215,937.012
1742469191.076,-702.637,-616.699,-114.258,-757.812
1742469191.079,-429.199,-625.977,-312.5,29.297
1742469191.083,926.27,889.16,-259.277,702.637
1742469191.087,-697.266,-717.773,-329.59,-803.223
1742469191.091,405.762,246.582,173.828,543.457
1742469191.095,706.543,739.746,368.164,208.008
1742469191.097,-895.02,-913.086,-72.266,-911.621
1742469191.101,579.102,500.0,78.125,609.375
1742469191.105,-339.355,-357.91,78.613,-463.867
1742469191.109,-475.098,-583.496,258.789,-187.988
1742469191.113,835.449,831.543,601.074,454.59
1742469191.117,-656.738,-608.887,490.234,-841.797
1742469191.121,372.559,433.105,374.023,387.207
1742469191.124,-187.5,56.152,225.586,-457.52
1742469191.128,-998.047,-1000.0,214.844,-694.824
1742469191.132,686.523,601.074,345.215,706.543
1742469191.136,-699.219,-668.457,63.477,-706.055
1742469191.14,-286.133,-316.895,11.719,69.824
1742469191.097,-895.02,-913.086,-72.266,-911.621
1742469191.101,579.102,500.0,78.125,609.375
1742469191.105,-339.355,-357.91,78.613,-463.867
1742469191.109,-475.098,-583.496,258.789,-187.988
1742469191.113,835.449,831.543,601.074,454.59
1742469191.117,-656.738,-608.887,490.234,-841.797
1742469191.121,372.559,433.105,374.023,387.207
1742469191.124,-187.5,56.152,225.586,-457.52
1742469191.128,-998.047,-1000.0,214.844,-694.824
1742469191.132,686.523,601.074,345.215,706.543
1742469191.136,-699.219,-668.457,63.477,-706.055
1742469191.14,-286.133,-316.895,11.719,69.824
1742469191.143,698.73,757.812,25.391,325.684
1742469191.147,-610.84,-581.543,50.293,-595.215
1742469191.151,446.777,459.473,211.914,555.176
1742469191.155,-482.91,-442.871,19.531,-530.762
1742469191.159,8.301,-132.812,168.457,272.461
1742469191.163,980.957,986.328,341.309,550.293
1742469191.167,-669.922,-611.816,211.426,-772.949
1742469191.17,634.277,612.305,282.715,705.078
1742469191.174,348.145,389.16,291.992,-49.805
1742469191.178,-979.492,-1000.0,121.094,-562.988
1742469191.182,732.91,746.582,173.34,860.84
1742469191.186,-309.57,-63.965,166.016,-585.449
1742469191.143,698.73,757.812,25.391,325.684
1742469191.147,-610.84,-581.543,50.293,-595.215
1742469191.151,446.777,459.473,211.914,555.176
1742469191.155,-482.91,-442.871,19.531,-530.762
1742469191.159,8.301,-132.812,168.457,272.461
1742469191.163,980.957,986.328,341.309,550.293
1742469191.167,-669.922,-611.816,211.426,-772.949
1742469191.17,634.277,612.305,282.715,705.078
1742469191.174,348.145,389.16,291.992,-49.805
1742469191.178,-979.492,-1000.0,121.094,-562.988
1742469191.182,732.91,746.582,173.34,860.84
1742469191.186,-309.57,-63.965,166.016,-585.449
1742469191.233,-293.457,-477.051,176.758,148.926
1742469191.237,669.434,655.762,71.777,333.984
1742469191.241,-625.977,-560.059,-99.609,-636.23
1742469191.245,471.191,476.074,173.34,545.898
1742469191.249,-339.844,-257.324,-9.277,-420.898
1742469191.253,159.18,180.664,71.289,269.531
1742469191.257,598.633,743.164,69.336,147.461
1742469191.26,-938.965,-871.582,-184.082,-903.32
1742469191.264,690.918,668.457,188.477,729.492
1742469191.268,-171.387,-119.141,150.879,-473.145
