timestamps,TP9,AF7,AF8,TP10
1742471904.357,-1000.0,-145.996,-133.301,-1000.0
1742471904.361,-1000.0,56.152,-67.871,-1000.0
1742471904.365,-1000.0,-31.738,-75.195,-1000.0
1742471904.369,-1000.0,-235.84,-127.93,-1000.0
1742471904.373,-1000.0,-28.32,-166.504,-1000.0
1742471904.377,-1000.0,78.613,-185.547,-1000.0
1742471904.38,-1000.0,-227.539,-168.945,-1000.0
1742471904.384,-1000.0,-259.766,-146.484,-1000.0
1742471904.388,-1000.0,-149.414,-148.438,-1000.0
1742471904.392,-1000.0,-57.617,-120.605,-1000.0
1742471904.396,-999.512,-178.711,-160.156,-1000.0
1742471904.357,-1000.0,-145.996,-133.301,-1000.0
1742471904.361,-1000.0,56.152,-67.871,-1000.0
1742471904.365,-1000.0,-31.738,-75.195,-1000.0
1742471904.369,-1000.0,-235.84,-127.93,-1000.0
1742471904.373,-1000.0,-28.32,-166.504,-1000.0
1742471904.377,-1000.0,78.613,-185.547,-1000.0
1742471904.38,-1000.0,-227.539,-168.945,-1000.0
1742471904.384,-1000.0,-259.766,-146.484,-1000.0
1742471904.388,-1000.0,-149.414,-148.438,-1000.0
1742471904.392,-1000.0,-57.617,-120.605,-1000.0
1742471904.396,-999.512,-178.711,-160.156,-1000.0
1742471904.413,-939.453,-261.23,-183.594,-958.984
1742471904.417,-1000.0,-141.602,-86.914,-1000.0
1742471904.421,-199.707,205.078,-70.312,-897.949
1742471904.425,999.512,401.367,-111.328,401.367
1742471904.429,947.266,74.707,-169.922,999.512
1742471904.433,940.918,61.035,-152.344,907.227
1742471904.437,909.668,156.738,-32.715,913.086
1742471904.44,999.512,64.453,-19.043,999.512
1742471904.444,187.012,-581.543,-138.184,137.695
1742471904.448,-1000.0,-609.375,-120.605,-1000.0
1742471904.452,-983.887,23.438,-42.48,-977.539
1742471904.456,-973.145,16.602,8.301,-976.562
1742471904.413,-939.453,-261.23,-183.594,-958.984
1742471904.417,-1000.0,-141.602,-86.914,-1000.0
1742471904.421,-199.707,205.078,-70.312,-897.949
1742471904.425,999.512,401.367,-111.328,401.367
1742471904.429,947.266,74.707,-169.922,999.512
1742471904.433,940.918,61.035,-152.344,907.227
1742471904.437,909.668,156.738,-32.715,913.086
1742471904.44,999.512,64.453,-19.043,999.512
1742471904.444,187.012,-581.543,-138.184,137.695
1742471904.448,-1000.0,-609.375,-120.605,-1000.0
1742471904.452,-983.887,23.438,-42.48,-977.539
1742471904.456,-973.145,16.602,8.301,-976.562
1742471904.46,-1000.0,145.508,41.992,-1000.0
1742471904.464,-1000.0,94.238,-4.395,-1000.0
1742471904.468,-1000.0,-81.055,-38.086,-1000.0
1742471904.472,-1000.0,24.414,-19.531,-1000.0
1742471904.476,-1000.0,39.062,6.348,-1000.0
1742471904.48,-1000.0,218.75,72.754,-1000.0
1742471904.484,-1000.0,226.074,54.688,-1000.0
1742471904.487,-1000.0,-104.492,-30.273,-1000.0
1742471904.491,-1000.0,-123.047,-44.434,-1000.0
1742471904.495,-1000.0,-23.438,-49.805,-1000.0
1742471904.499,-1000.0,30.762,-26.367,-1000.0
1742471904.503,-1000.0,48.34,7.812,-1000.0
1742471904.46,-1000.0,145.508,41.992,-1000.0
1742471904.464,-1000.0,94.238,-4.395,-1000.0
1742471904.468,-1000.0,-81.055,-38.086,-1000.0
1742471904.472,-1000.0,24.414,-19.531,-1000.0
1742471904.476,-1000.0,39.062,6.348,-1000.0
1742471904.48,-1000.0,218.75,72.754,-1000.0
1742471904.484,-1000.0,226.074,54.688,-1000.0
1742471904.487,-1000.0,-104.492,-30.273,-1000.0
1742471904.491,-1000.0,-123.047,-44.434,-1000.0
1742471904.495,-1000.0,-23.438,-49.805,-1000.0
1742471904.499,-1000.0,30.762,-26.367,-1000.0
1742471904.503,-1000.0,48.34,7.812,-1000.0
1742471904.503,-955.078,35.645,0.488,-984.863
1742471904.507,-1000.0,46.387,-39.551,-962.402
1742471904.511,-921.387,130.371,-12.207,-1000.0
1742471904.515,430.176,536.133,42.969,23.438
1742471904.519,999.512,304.199,11.23,999.512
1742471904.523,901.367,83.984,-18.555,919.922
1742471904.527,974.121,208.496,-30.273,957.031
1742471904.53,966.309,-7.812,-29.297,968.75
1742471904.534,966.309,-192.871,-34.18,967.285
1742471904.538,966.309,-168.457,-59.57,966.797
1742471904.542,966.309,-101.562,-89.355,966.797
1742471904.546,966.309,-36.621,-43.457,966.797
1742471904.549,966.309,-37.109,-24.902,967.285
1742471904.553,966.309,-126.953,-48.828,966.797
1742471904.557,966.309,-125.977,-63.477,966.797
1742471904.561,966.309,-166.504,-104.492,967.285
1742471904.565,966.309,-228.027,-129.395,966.797
1742471904.569,980.469,-40.039,-48.828,976.074
1742471904.573,898.926,57.129,-8.301,928.711
1742471904.576,999.512,-126.953,-139.648,979.004
1742471904.58,623.047,-478.027,-255.371,950.684
1742471904.584,-803.223,-827.637,-284.18,-363.281
1742471904.588,-1000.0,-427.246,-219.238,-1000.0
1742471904.592,-941.406,-73.73,-124.512,-936.523
1742471904.549,966.309,-37.109,-24.902,967.285
1742471904.553,966.309,-126.953,-48.828,966.797
1742471904.557,966.309,-125.977,-63.477,966.797
1742471904.561,966.309,-166.504,-104.492,967.285
1742471904.565,966.309,-228.027,-129.395,966.797
1742471904.569,980.469,-40.039,-48.828,976.074
1742471904.573,898.926,57.129,-8.301,928.711
1742471904.576,999.512,-126.953,-139.648,979.004
1742471904.58,623.047,-478.027,-255.371,950.684
1742471904.584,-803.223,-827.637,-284.18,-363.281
1742471904.588,-1000.0,-427.246,-219.238,-1000.0
1742471904.592,-941.406,-73.73,-124.512,-936.523
1742471904.593,-1000.0,-106.934,-149.902,-1000.0
1742471904.597,-1000.0,-87.891,-186.035,-998.535
1742471904.601,-937.5,-41.992,-183.105,-941.406
1742471904.605,-1000.0,-128.906,-203.613,-1000.0
1742471904.609,-220.703,219.238,-163.574,-181.152
1742471904.613,999.512,590.332,-112.793,999.512
1742471904.617,949.707,198.73,-176.27,945.312
1742471904.62,938.965,45.898,-193.359,942.383
1742471904.624,973.145,-143.066,-172.852,972.656
1742471904.628,966.309,-280.273,-139.16,966.797
1742471904.632,966.309,-57.129,-102.539,966.797
1742471904.636,966.309,-34.18,-140.625,966.797
1742471904.638,966.309,-197.754,-193.359,966.797
1742471904.642,966.309,-196.777,-204.59,966.797
1742471904.646,966.309,-78.125,-140.137,966.797
1742471904.65,966.309,-65.918,-95.703,966.797
1742471904.654,966.309,-128.418,-84.961,967.285
1742471904.658,966.309,91.797,-62.012,966.797
1742471904.662,966.309,32.227,-159.18,966.797
1742471904.665,966.309,-336.914,-192.871,966.797
1742471904.669,966.309,-196.289,-109.863,966.797
1742471904.673,966.309,-99.121,-74.219,967.285
1742471904.677,966.309,20.996,-38.086,966.797
1742471904.681,966.309,-20.996,-61.523,966.797
1742471904.638,966.309,-197.754,-193.359,966.797
1742471904.642,966.309,-196.777,-204.59,966.797
1742471904.646,966.309,-78.125,-140.137,966.797
1742471904.65,966.309,-65.918,-95.703,966.797
1742471904.654,966.309,-128.418,-84.961,967.285
1742471904.658,966.309,91.797,-62.012,966.797
1742471904.662,966.309,32.227,-159.18,966.797
1742471904.665,966.309,-336.914,-192.871,966.797
1742471904.669,966.309,-196.289,-109.863,966.797
1742471904.673,966.309,-99.121,-74.219,967.285
1742471904.677,966.309,20.996,-38.086,966.797
1742471904.681,966.309,-20.996,-61.523,966.797
1742471904.684,967.285,-307.129,-101.074,966.797
1742471904.688,961.914,-210.449,-85.938,979.492
1742471904.692,910.645,-92.285,-91.797,904.297
1742471904.696,999.512,-138.184,-152.832,999.512
1742471904.7,111.816,-526.367,-207.031,653.32
1742471904.704,-1000.0,-555.664,-140.137,-748.535
1742471904.708,-974.609,37.109,-27.344,-1000.0
1742471904.711,-981.445,-109.863,-72.754,-941.895
1742471904.715,-939.941,-335.938,-119.141,-951.66
1742471904.719,-1000.0,-267.578,-93.262,-1000.0
1742471904.723,-267.09,314.941,-66.406,-205.078
1742471904.727,999.512,570.801,-48.34,999.512
1742471904.684,967.285,-307.129,-101.074,966.797
1742471904.688,961.914,-210.449,-85.938,979.492
1742471904.692,910.645,-92.285,-91.797,904.297
1742471904.696,999.512,-138.184,-152.832,999.512
1742471904.7,111.816,-526.367,-207.031,653.32
1742471904.704,-1000.0,-555.664,-140.137,-748.535
1742471904.708,-974.609,37.109,-27.344,-1000.0
1742471904.711,-981.445,-109.863,-72.754,-941.895
1742471904.715,-939.941,-335.938,-119.141,-951.66
1742471904.719,-1000.0,-267.578,-93.262,-1000.0
1742471904.723,-267.09,314.941,-66.406,-205.078
1742471904.727,999.512,570.801,-48.34,999.512
1742471904.743,957.52,-5.371,-74.707,948.242
1742471904.747,935.059,-138.184,-114.258,940.918
1742471904.751,974.609,-133.301,-129.395,973.145
1742471904.755,966.309,-189.453,-105.469,966.797
1742471904.759,966.309,-221.191,-101.074,966.797
1742471904.763,966.309,76.66,-56.641,966.797
1742471904.767,966.309,145.996,-34.668,966.797
1742471904.77,966.309,-252.93,-124.023,966.797
1742471904.774,965.82,-317.871,-163.086,966.797
1742471904.778,966.309,-116.211,-102.051,966.797
1742471904.782,966.309,109.863,6.836,966.797
1742471904.786,966.309,24.414,41.992,966.797
1742471904.743,957.52,-5.371,-74.707,948.242
1742471904.747,935.059,-138.184,-114.258,940.918
1742471904.751,974.609,-133.301,-129.395,973.145
1742471904.755,966.309,-189.453,-105.469,966.797
1742471904.759,966.309,-221.191,-101.074,966.797
1742471904.763,966.309,76.66,-56.641,966.797
1742471904.767,966.309,145.996,-34.668,966.797
1742471904.77,966.309,-252.93,-124.023,966.797
1742471904.774,965.82,-317.871,-163.086,966.797
1742471904.778,966.309,-116.211,-102.051,966.797
1742471904.782,966.309,109.863,6.836,966.797
1742471904.786,966.309,24.414,41.992,966.797
1742471904.788,966.309,-288.086,-63.965,966.797
1742471904.792,966.309,-308.594,-120.605,966.797
1742471904.796,966.309,-146.973,-61.523,966.797
1742471904.8,966.309,-58.594,-21.973,966.797
1742471904.804,966.309,-172.852,-67.383,966.797
1742471904.808,966.309,-164.062,-81.055,966.797
1742471904.812,966.309,-72.266,-55.664,966.797
1742471904.815,972.168,-160.645,-44.434,967.285
1742471904.819,939.941,-416.016,-104.492,966.797
1742471904.823,952.148,-331.543,-111.328,905.273
1742471904.827,999.512,-69.824,-104.004,999.512
1742471904.831,-205.078,-498.047,-121.582,171.387
1742471904.833,-1000.0,-494.629,-46.875,-1000.0
1742471904.837,-944.824,-99.609,-54.199,-981.934
1742471904.841,-998.047,-46.875,-78.125,-974.609
1742471904.845,-1000.0,-74.219,-67.871,-1000.0
1742471904.849,-931.152,-117.188,-42.969,-935.059
1742471904.853,-1000.0,-62.012,21.973,-1000.0
1742471904.857,-334.961,375.977,41.504,-266.602
1742471904.86,996.094,491.211,-14.648,999.512
1742471904.864,968.75,-212.891,-98.633,958.008
1742471904.868,929.688,-171.387,-68.848,936.035
1742471904.872,976.074,29.297,-32.227,975.098
1742471904.876,971.191,2.93,6.836,973.633
1742471904.833,-1000.0,-494.629,-46.875,-1000.0
1742471904.837,-944.824,-99.609,-54.199,-981.934
1742471904.841,-998.047,-46.875,-78.125,-974.609
1742471904.845,-1000.0,-74.219,-67.871,-1000.0
1742471904.849,-931.152,-117.188,-42.969,-935.059
1742471904.853,-1000.0,-62.012,21.973,-1000.0
1742471904.857,-334.961,375.977,41.504,-266.602
1742471904.86,996.094,491.211,-14.648,999.512
1742471904.864,968.75,-212.891,-98.633,958.008
1742471904.868,929.688,-171.387,-68.848,936.035
1742471904.872,976.074,29.297,-32.227,975.098
1742471904.876,971.191,2.93,6.836,973.633
1742471904.878,944.336,12.695,-12.207,937.5
1742471904.882,939.453,-65.43,-65.918,959.473
1742471904.886,999.512,-54.688,-51.758,994.629
1742471904.89,-149.414,-481.445,-62.012,-245.605
1742471904.894,-1000.0,-431.152,-22.949,-1000.0
1742471904.898,-943.359,111.328,8.789,-943.359
1742471904.902,-996.582,26.367,-34.18,-999.512
1742471904.905,-1000.0,-65.43,-46.875,-1000.0
1742471904.909,-1000.0,-197.266,-68.848,-1000.0
1742471904.913,-1000.0,-143.066,-29.785,-1000.0
1742471904.917,-1000.0,38.086,11.23,-1000.0
1742471904.921,-1000.0,-96.191,-69.824,-1000.0
1742471904.878,944.336,12.695,-12.207,937.5
1742471904.882,939.453,-65.43,-65.918,959.473
1742471904.886,999.512,-54.688,-51.758,994.629
1742471904.89,-149.414,-481.445,-62.012,-245.605
1742471904.894,-1000.0,-431.152,-22.949,-1000.0
1742471904.898,-943.359,111.328,8.789,-943.359
1742471904.902,-996.582,26.367,-34.18,-999.512
1742471904.905,-1000.0,-65.43,-46.875,-1000.0
1742471904.909,-1000.0,-197.266,-68.848,-1000.0
1742471904.913,-1000.0,-143.066,-29.785,-1000.0
1742471904.917,-1000.0,38.086,11.23,-1000.0
1742471904.921,-1000.0,-96.191,-69.824,-1000.0
1742471904.923,-1000.0,-264.648,-145.996,-1000.0
1742471904.927,-1000.0,-90.332,-106.934,-1000.0
1742471904.931,-1000.0,60.547,-64.941,-1000.0
1742471904.935,-1000.0,-88.379,-113.281,-1000.0
1742471904.939,-1000.0,-229.98,-137.695,-1000.0
1742471904.943,-1000.0,-32.715,-102.051,-1000.0
1742471904.947,-1000.0,21.484,-100.586,-1000.0
1742471904.95,-1000.0,-216.309,-111.328,-1000.0
1742471904.954,-1000.0,-193.359,-78.613,-1000.0
1742471904.958,-1000.0,-162.109,-116.699,-1000.0
1742471904.962,-997.07,3.418,-150.391,-1000.0
1742471904.966,-943.359,71.289,-105.469,-937.5
1742471904.923,-1000.0,-264.648,-145.996,-1000.0
1742471904.927,-1000.0,-90.332,-106.934,-1000.0
1742471904.931,-1000.0,60.547,-64.941,-1000.0
1742471904.935,-1000.0,-88.379,-113.281,-1000.0
1742471904.939,-1000.0,-229.98,-137.695,-1000.0
1742471904.943,-1000.0,-32.715,-102.051,-1000.0
1742471904.947,-1000.0,21.484,-100.586,-1000.0
1742471904.95,-1000.0,-216.309,-111.328,-1000.0
1742471904.954,-1000.0,-193.359,-78.613,-1000.0
1742471904.958,-1000.0,-162.109,-116.699,-1000.0
1742471904.962,-997.07,3.418,-150.391,-1000.0
1742471904.966,-943.359,71.289,-105.469,-937.5
1742471904.968,-1000.0,-252.441,-101.074,-1000.0
1742471904.972,-157.227,307.129,-31.25,-220.703
1742471904.976,999.512,591.309,-13.672,999.512
1742471904.98,941.406,-26.855,-100.586,950.684
1742471904.984,943.848,-114.258,-93.262,939.941
1742471904.988,979.98,123.047,-28.809,977.539
1742471904.992,895.02,144.531,-38.574,900.879
1742471904.995,999.512,13.184,-91.309,999.512
1742471904.999,342.285,-489.258,-150.391,249.512
1742471905.003,-1000.0,-786.133,-181.152,-1000.0
1742471905.007,-1000.0,-183.594,-94.727,-994.629
1742471905.011,-960.449,57.129,-5.859,-968.262
1742471905.016,-1000.0,-172.852,-79.59,-1000.0
1742471905.02,-1000.0,-85.449,-117.676,-1000.0
1742471905.024,-1000.0,-60.547,-115.723,-1000.0
1742471905.028,-1000.0,-143.555,-92.773,-1000.0
1742471905.032,-1000.0,-53.711,-25.391,-1000.0
1742471905.036,-1000.0,111.328,-12.695,-1000.0
1742471905.04,-1000.0,223.145,-66.406,-1000.0
1742471905.043,-1000.0,-148.438,-154.297,-1000.0
1742471905.047,-1000.0,-197.754,-118.164,-1000.0
1742471905.051,-1000.0,-25.391,0.977,-1000.0
1742471905.055,-1000.0,-41.504,8.301,-1000.0
1742471905.059,-1000.0,-70.312,-31.25,-1000.0
1742471905.058,-938.477,-120.605,-37.598,-933.105
1742471905.062,-1000.0,-165.039,-33.691,-1000.0
1742471905.066,-212.891,347.168,29.297,-300.781
1742471905.07,999.512,595.215,7.324,999.512
1742471905.074,948.73,101.562,-34.18,963.867
1742471905.078,939.453,17.578,-27.344,933.105
1742471905.082,972.656,-12.695,-28.809,976.074
1742471905.085,966.309,-212.891,-45.898,967.285
1742471905.089,976.562,-353.027,-91.309,973.145
1742471905.093,893.555,-180.664,-77.637,898.438
1742471905.097,999.512,48.34,-41.504,999.512
1742471905.101,392.09,-375.977,-71.289,302.734
1742471905.058,-938.477,-120.605,-37.598,-933.105
1742471905.062,-1000.0,-165.039,-33.691,-1000.0
1742471905.066,-212.891,347.168,29.297,-300.781
1742471905.07,999.512,595.215,7.324,999.512
1742471905.074,948.73,101.562,-34.18,963.867
1742471905.078,939.453,17.578,-27.344,933.105
1742471905.082,972.656,-12.695,-28.809,976.074
1742471905.085,966.309,-212.891,-45.898,967.285
1742471905.089,976.562,-353.027,-91.309,973.145
1742471905.093,893.555,-180.664,-77.637,898.438
1742471905.097,999.512,48.34,-41.504,999.512
1742471905.101,392.09,-375.977,-71.289,302.734
1742471905.103,-989.746,-747.559,-59.082,-1000.0
1742471905.107,-1000.0,-140.625,23.438,-1000.0
1742471905.111,-956.543,97.168,0.0,-963.867
1742471905.115,-1000.0,-85.938,-64.941,-1000.0
1742471905.119,-1000.0,-117.188,-37.598,-1000.0
1742471905.123,-1000.0,90.332,15.625,-1000.0
1742471905.127,-1000.0,122.07,-13.672,-1000.0
1742471905.13,-1000.0,-140.137,-56.641,-1000.0
1742471905.134,-999.023,-219.727,-50.293,-997.07
1742471905.138,-940.43,-61.035,-20.02,-943.848
1742471905.142,-1000.0,-40.527,17.578,-1000.0
1742471905.146,-185.059,422.363,68.359,-157.715
1742471905.103,-989.746,-747.559,-59.082,-1000.0
1742471905.107,-1000.0,-140.625,23.438,-1000.0
1742471905.111,-956.543,97.168,0.0,-963.867
1742471905.115,-1000.0,-85.938,-64.941,-1000.0
1742471905.119,-1000.0,-117.188,-37.598,-1000.0
1742471905.123,-1000.0,90.332,15.625,-1000.0
1742471905.127,-1000.0,122.07,-13.672,-1000.0
1742471905.13,-1000.0,-140.137,-56.641,-1000.0
1742471905.134,-999.023,-219.727,-50.293,-997.07
1742471905.138,-940.43,-61.035,-20.02,-943.848
1742471905.142,-1000.0,-40.527,17.578,-1000.0
1742471905.146,-185.059,422.363,68.359,-157.715
1742471905.163,999.512,479.98,21.973,999.512
1742471905.167,944.824,41.504,-9.277,942.383
1742471905.171,941.895,89.355,1.465,944.336
1742471905.175,972.168,56.152,7.324,972.656
1742471905.179,966.309,-3.418,50.293,966.797
1742471905.183,966.309,117.188,39.062,966.797
1742471905.187,966.309,142.578,-52.734,966.797
1742471905.19,966.309,-90.82,-89.355,966.797
1742471905.194,966.309,-275.879,-63.965,966.797
1742471905.198,966.309,-138.672,19.043,966.797
1742471905.202,966.309,-3.418,35.156,966.797
1742471905.206,966.309,-11.719,40.039,966.797
1742471905.163,999.512,479.98,21.973,999.512
1742471905.167,944.824,41.504,-9.277,942.383
1742471905.171,941.895,89.355,1.465,944.336
1742471905.175,972.168,56.152,7.324,972.656
1742471905.179,966.309,-3.418,50.293,966.797
1742471905.183,966.309,117.188,39.062,966.797
1742471905.187,966.309,142.578,-52.734,966.797
1742471905.19,966.309,-90.82,-89.355,966.797
1742471905.194,966.309,-275.879,-63.965,966.797
1742471905.198,966.309,-138.672,19.043,966.797
1742471905.202,966.309,-3.418,35.156,966.797
1742471905.206,966.309,-11.719,40.039,966.797
1742471905.208,966.309,13.184,100.098,967.285
1742471905.212,966.309,-57.129,59.082,966.797
1742471905.216,966.309,-105.469,-30.273,966.797
1742471905.22,966.309,-102.051,-83.984,966.797
1742471905.224,966.309,-116.699,-72.754,966.797
1742471905.228,966.309,98.145,-5.371,966.797
1742471905.232,966.309,-21.484,-76.172,966.797
1742471905.235,966.309,-252.93,-86.426,966.797
1742471905.239,966.309,-195.801,-44.922,967.285
1742471905.243,966.309,-98.145,-35.645,966.797
1742471905.247,966.309,-39.551,-28.809,966.797
1742471905.251,966.797,8.301,-40.527,979.004
1742471905.208,966.309,13.184,100.098,967.285
1742471905.212,966.309,-57.129,59.082,966.797
1742471905.216,966.309,-105.469,-30.273,966.797
1742471905.22,966.309,-102.051,-83.984,966.797
1742471905.224,966.309,-116.699,-72.754,966.797
1742471905.228,966.309,98.145,-5.371,966.797
1742471905.232,966.309,-21.484,-76.172,966.797
1742471905.235,966.309,-252.93,-86.426,966.797
1742471905.239,966.309,-195.801,-44.922,967.285
1742471905.243,966.309,-98.145,-35.645,966.797
1742471905.247,966.309,-39.551,-28.809,966.797
1742471905.251,966.797,8.301,-40.527,979.004
1742471905.253,904.297,-88.379,-41.992,894.531
1742471905.257,999.512,-116.699,-83.984,999.512
1742471905.261,181.152,-457.52,-142.09,468.75
1742471905.265,-1000.0,-681.152,-112.305,-938.477
1742471905.269,-983.398,-214.355,-42.969,-1000.0
1742471905.273,-973.633,67.383,31.25,-950.684
1742471905.277,-1000.0,57.617,32.227,-1000.0
1742471905.28,-1000.0,-163.574,-56.641,-1000.0
1742471905.284,-937.988,-206.055,-99.609,-933.594
1742471905.288,-1000.0,-155.762,-41.016,-1000.0
1742471905.292,-769.043,81.055,91.309,-642.578
1742471905.296,660.645,494.629,91.309,774.414
1742471905.253,904.297,-88.379,-41.992,894.531
1742471905.257,999.512,-116.699,-83.984,999.512
1742471905.261,181.152,-457.52,-142.09,468.75
1742471905.265,-1000.0,-681.152,-112.305,-938.477
1742471905.269,-983.398,-214.355,-42.969,-1000.0
1742471905.273,-973.633,67.383,31.25,-950.684
1742471905.277,-1000.0,57.617,32.227,-1000.0
1742471905.28,-1000.0,-163.574,-56.641,-1000.0
1742471905.284,-937.988,-206.055,-99.609,-933.594
1742471905.288,-1000.0,-155.762,-41.016,-1000.0
1742471905.292,-769.043,81.055,91.309,-642.578
1742471905.296,660.645,494.629,91.309,774.414
1742471905.299,999.512,54.688,18.066,999.512
1742471905.303,901.367,-12.207,83.008,909.668
1742471905.307,980.469,30.762,66.895,980.469
1742471905.311,966.309,-169.922,39.062,966.797
1742471905.315,966.309,-26.855,72.266,966.797
1742471905.319,966.309,190.43,45.898,966.797
1742471905.323,966.309,210.449,-4.395,966.797
1742471905.326,966.309,-13.184,-7.324,967.285
1742471905.33,966.309,65.43,95.215,966.797
1742471905.334,966.309,235.84,130.371,966.797
1742471905.338,966.309,208.008,26.855,966.797
1742471905.342,966.309,180.176,25.391,966.797
1742471905.299,999.512,54.688,18.066,999.512
1742471905.303,901.367,-12.207,83.008,909.668
1742471905.307,980.469,30.762,66.895,980.469
1742471905.311,966.309,-169.922,39.062,966.797
1742471905.315,966.309,-26.855,72.266,966.797
1742471905.319,966.309,190.43,45.898,966.797
1742471905.323,966.309,210.449,-4.395,966.797
1742471905.326,966.309,-13.184,-7.324,967.285
1742471905.33,966.309,65.43,95.215,966.797
1742471905.334,966.309,235.84,130.371,966.797
1742471905.338,966.309,208.008,26.855,966.797
1742471905.342,966.309,180.176,25.391,966.797
1742471905.343,966.309,231.934,89.355,966.797
1742471905.347,966.309,372.559,110.84,966.797
1742471905.351,966.309,381.836,50.293,967.285
1742471905.355,966.309,357.422,-0.977,966.797
1742471905.359,966.309,333.496,-18.555,966.797
1742471905.363,980.957,330.078,-42.48,980.957
1742471905.367,892.09,472.656,-10.254,896.973
1742471905.37,999.512,456.543,3.906,999.512
1742471905.374,514.16,9.277,-28.809,584.961
1742471905.378,-921.387,-233.398,-52.246,-844.727
1742471905.382,-1000.0,319.824,-79.59,-1000.0
1742471905.386,-946.777,422.363,-112.793,-943.359
1742471905.388,-1000.0,375.488,-63.477,-1000.0
1742471905.392,-1000.0,513.184,-20.996,-1000.0
1742471905.396,-1000.0,534.18,-31.738,-1000.0
1742471905.4,-1000.0,512.207,-15.137,-1000.0
1742471905.404,-1000.0,477.051,-45.898,-1000.0
1742471905.408,-1000.0,529.785,-84.961,-1000.0
1742471905.412,-1000.0,629.395,-44.434,-1000.0
1742471905.415,-1000.0,441.406,-48.34,-1000.0
1742471905.419,-1000.0,49.316,-74.219,-1000.0
1742471905.423,-1000.0,160.645,-30.273,-1000.0
1742471905.427,-1000.0,367.676,-3.906,-1000.0
1742471905.431,-1000.0,249.023,4.883,-1000.0
1742471905.388,-1000.0,375.488,-63.477,-1000.0
1742471905.392,-1000.0,513.184,-20.996,-1000.0
1742471905.396,-1000.0,534.18,-31.738,-1000.0
1742471905.4,-1000.0,512.207,-15.137,-1000.0
1742471905.404,-1000.0,477.051,-45.898,-1000.0
1742471905.408,-1000.0,529.785,-84.961,-1000.0
1742471905.412,-1000.0,629.395,-44.434,-1000.0
1742471905.415,-1000.0,441.406,-48.34,-1000.0
1742471905.419,-1000.0,49.316,-74.219,-1000.0
1742471905.423,-1000.0,160.645,-30.273,-1000.0
1742471905.427,-1000.0,367.676,-3.906,-1000.0
1742471905.431,-1000.0,249.023,4.883,-1000.0
1742471905.433,-1000.0,167.969,-9.277,-1000.0
1742471905.437,-1000.0,171.387,-39.551,-1000.0
1742471905.441,-999.023,223.145,-38.086,-1000.0
1742471905.445,-940.43,131.348,-49.316,-931.641
1742471905.449,-1000.0,81.543,-39.551,-1000.0
1742471905.453,-190.43,579.102,7.812,-333.008
1742471905.457,999.512,797.363,-19.043,994.629
1742471905.46,945.801,21.484,-157.715,970.215
1742471905.464,941.895,-337.402,-168.945,929.199
1742471905.468,909.668,-72.266,-48.34,916.992
1742471905.472,999.512,127.441,-29.785,999.512
1742471905.476,187.012,-466.309,-129.395,158.203
1742471905.478,-1000.0,-657.715,-140.625,-1000.0
1742471905.482,-983.887,-58.105,-59.57,-980.469
1742471905.486,-973.145,38.086,-69.824,-975.098
1742471905.49,-1000.0,-76.172,-192.383,-1000.0
1742471905.494,-1000.0,-189.453,-263.184,-1000.0
1742471905.498,-1000.0,59.57,-231.934,-1000.0
1742471905.502,-1000.0,59.57,-249.512,-1000.0
1742471905.505,-1000.0,-165.527,-220.703,-1000.0
1742471905.509,-1000.0,-109.375,-141.602,-1000.0
1742471905.513,-1000.0,-44.434,-133.789,-1000.0
1742471905.517,-1000.0,-19.043,-152.344,-1000.0
1742471905.521,-1000.0,21.973,-143.555,-1000.0
1742471905.478,-1000.0,-657.715,-140.625,-1000.0
1742471905.482,-983.887,-58.105,-59.57,-980.469
1742471905.486,-973.145,38.086,-69.824,-975.098
1742471905.49,-1000.0,-76.172,-192.383,-1000.0
1742471905.494,-1000.0,-189.453,-263.184,-1000.0
1742471905.498,-1000.0,59.57,-231.934,-1000.0
1742471905.502,-1000.0,59.57,-249.512,-1000.0
1742471905.505,-1000.0,-165.527,-220.703,-1000.0
1742471905.509,-1000.0,-109.375,-141.602,-1000.0
1742471905.513,-1000.0,-44.434,-133.789,-1000.0
1742471905.517,-1000.0,-19.043,-152.344,-1000.0
1742471905.521,-1000.0,21.973,-143.555,-1000.0
1742471905.524,-1000.0,-4.395,-128.906,-1000.0
1742471905.528,-1000.0,-153.32,-185.547,-1000.0
1742471905.532,-1000.0,-173.34,-218.75,-1000.0
1742471905.536,-926.758,-82.031,-176.27,-927.246
1742471905.54,-1000.0,-251.465,-139.16,-1000.0
1742471905.544,-465.332,210.449,-59.57,-479.004
1742471905.548,936.035,611.816,-121.094,923.828
1742471905.551,993.164,-125.977,-255.371,997.559
1742471905.555,918.945,-353.516,-218.262,918.457
1742471905.559,979.492,-239.258,-147.949,980.469
1742471905.563,966.309,-225.098,-141.602,966.797
1742471905.567,981.445,-165.527,-150.391,980.469
1742471905.524,-1000.0,-4.395,-128.906,-1000.0
1742471905.528,-1000.0,-153.32,-185.547,-1000.0
1742471905.532,-1000.0,-173.34,-218.75,-1000.0
1742471905.536,-926.758,-82.031,-176.27,-927.246
1742471905.54,-1000.0,-251.465,-139.16,-1000.0
1742471905.544,-465.332,210.449,-59.57,-479.004
1742471905.548,936.035,611.816,-121.094,923.828
1742471905.551,993.164,-125.977,-255.371,997.559
1742471905.555,918.945,-353.516,-218.262,918.457
1742471905.559,979.492,-239.258,-147.949,980.469
1742471905.563,966.309,-225.098,-141.602,966.797
1742471905.567,981.445,-165.527,-150.391,980.469
1742471905.583,896.484,-318.848,-152.344,901.855
1742471905.587,999.512,-136.23,-92.285,999.512
1742471905.591,629.883,-211.426,-96.191,643.555
1742471905.595,-814.941,-797.363,-157.227,-772.461
1742471905.599,-1000.0,-413.086,-96.191,-1000.0
1742471905.603,-939.941,-7.812,-83.984,-941.406
1742471905.607,-1000.0,-172.852,-196.289,-1000.0
1742471905.61,-1000.0,-392.578,-227.539,-1000.0
1742471905.614,-1000.0,-284.668,-132.812,-1000.0
1742471905.618,-1000.0,-249.512,-114.258,-1000.0
1742471905.622,-1000.0,-162.598,-103.027,-1000.0
1742471905.626,-1000.0,-99.609,-90.82,-1000.0
1742471905.583,896.484,-318.848,-152.344,901.855
1742471905.587,999.512,-136.23,-92.285,999.512
1742471905.591,629.883,-211.426,-96.191,643.555
1742471905.595,-814.941,-797.363,-157.227,-772.461
1742471905.599,-1000.0,-413.086,-96.191,-1000.0
1742471905.603,-939.941,-7.812,-83.984,-941.406
1742471905.607,-1000.0,-172.852,-196.289,-1000.0
1742471905.61,-1000.0,-392.578,-227.539,-1000.0
1742471905.614,-1000.0,-284.668,-132.812,-1000.0
1742471905.618,-1000.0,-249.512,-114.258,-1000.0
1742471905.622,-1000.0,-162.598,-103.027,-1000.0
1742471905.626,-1000.0,-99.609,-90.82,-1000.0
1742471905.628,-1000.0,-365.723,-152.344,-1000.0
1742471905.632,-1000.0,-240.723,-82.031,-1000.0
1742471905.636,-1000.0,-104.004,-50.293,-1000.0
1742471905.64,-1000.0,-248.047,-129.395,-1000.0
1742471905.644,-1000.0,-217.773,-124.512,-1000.0
1742471905.648,-1000.0,-231.934,-138.184,-1000.0
1742471905.652,-1000.0,-247.07,-164.551,-1000.0
1742471905.655,-1000.0,-274.414,-139.648,-1000.0
1742471905.659,-1000.0,-356.934,-126.953,-1000.0
1742471905.663,-1000.0,-260.254,-126.465,-1000.0
1742471905.667,-1000.0,-237.305,-149.902,-1000.0
1742471905.671,-1000.0,-260.742,-162.109,-1000.0
1742471905.675,-1000.0,-286.621,-146.484,-1000.0
1742471905.679,-1000.0,-200.684,-131.836,-1000.0
1742471905.683,-1000.0,-120.605,-132.812,-1000.0
1742471905.687,-1000.0,-211.914,-190.43,-1000.0
1742471905.691,-1000.0,-201.172,-182.617,-1000.0
1742471905.695,-1000.0,18.066,-40.039,-1000.0
1742471905.699,-1000.0,-7.812,-17.09,-1000.0
1742471905.702,-1000.0,-254.883,-112.305,-1000.0
1742471905.706,-1000.0,-460.938,-215.82,-1000.0
1742471905.71,-1000.0,-306.152,-172.852,-1000.0
1742471905.714,-1000.0,-75.195,-38.086,-1000.0
1742471905.718,-1000.0,-92.773,17.09,-1000.0
1742471905.675,-1000.0,-286.621,-146.484,-1000.0
1742471905.679,-1000.0,-200.684,-131.836,-1000.0
1742471905.683,-1000.0,-120.605,-132.812,-1000.0
1742471905.687,-1000.0,-211.914,-190.43,-1000.0
1742471905.691,-1000.0,-201.172,-182.617,-1000.0
1742471905.695,-1000.0,18.066,-40.039,-1000.0
1742471905.699,-1000.0,-7.812,-17.09,-1000.0
1742471905.702,-1000.0,-254.883,-112.305,-1000.0
1742471905.706,-1000.0,-460.938,-215.82,-1000.0
1742471905.71,-1000.0,-306.152,-172.852,-1000.0
1742471905.714,-1000.0,-75.195,-38.086,-1000.0
1742471905.718,-1000.0,-92.773,17.09,-1000.0
1742471905.718,-1000.0,-130.371,28.32,-1000.0
1742471905.722,-1000.0,-35.645,47.852,-1000.0
1742471905.726,-997.07,72.266,26.855,-1000.0
1742471905.73,-943.848,-8.301,-8.789,-931.152
1742471905.734,-1000.0,-153.32,-34.668,-1000.0
1742471905.738,-156.738,341.309,9.766,-353.027
1742471905.742,999.512,540.527,50.781,985.352
1742471905.745,945.801,-44.922,-5.371,983.887
1742471905.749,923.828,-291.016,17.09,884.277
1742471905.753,941.895,-92.773,87.891,999.512
1742471905.757,999.512,-42.48,41.504,860.84
1742471905.761,-126.465,-602.539,-63.965,-473.145
1742471905.718,-1000.0,-130.371,28.32,-1000.0
1742471905.722,-1000.0,-35.645,47.852,-1000.0
1742471905.726,-997.07,72.266,26.855,-1000.0
1742471905.73,-943.848,-8.301,-8.789,-931.152
1742471905.734,-1000.0,-153.32,-34.668,-1000.0
1742471905.738,-156.738,341.309,9.766,-353.027
1742471905.742,999.512,540.527,50.781,985.352
1742471905.745,945.801,-44.922,-5.371,983.887
1742471905.749,923.828,-291.016,17.09,884.277
1742471905.753,941.895,-92.773,87.891,999.512
1742471905.757,999.512,-42.48,41.504,860.84
1742471905.761,-126.465,-602.539,-63.965,-473.145
1742471905.763,-1000.0,-507.812,-63.477,-1000.0
1742471905.767,-945.801,-71.777,33.203,-938.965
1742471905.771,-995.117,-32.715,68.848,-1000.0
1742471905.775,-1000.0,6.836,40.039,-1000.0
1742471905.779,-1000.0,-135.254,-9.277,-1000.0
1742471905.783,-1000.0,66.406,16.602,-1000.0
1742471905.787,-1000.0,73.242,-10.254,-1000.0
1742471905.79,-1000.0,-272.461,-78.613,-1000.0
1742471905.794,-1000.0,-222.656,-68.848,-1000.0
1742471905.798,-931.152,-80.566,-54.688,-963.379
1742471905.802,-1000.0,-124.023,-89.355,-1000.0
1742471905.806,-341.797,179.688,-11.719,-973.633
1742471905.763,-1000.0,-507.812,-63.477,-1000.0
1742471905.767,-945.801,-71.777,33.203,-938.965
1742471905.771,-995.117,-32.715,68.848,-1000.0
1742471905.775,-1000.0,6.836,40.039,-1000.0
1742471905.779,-1000.0,-135.254,-9.277,-1000.0
1742471905.783,-1000.0,66.406,16.602,-1000.0
1742471905.787,-1000.0,73.242,-10.254,-1000.0
1742471905.79,-1000.0,-272.461,-78.613,-1000.0
1742471905.794,-1000.0,-222.656,-68.848,-1000.0
1742471905.798,-931.152,-80.566,-54.688,-963.379
1742471905.802,-1000.0,-124.023,-89.355,-1000.0
1742471905.806,-341.797,179.688,-11.719,-973.633
1742471905.838,992.188,574.219,121.582,321.289
1742471905.842,976.074,73.73,63.965,999.512
1742471905.846,860.84,-301.27,-81.543,849.121
1742471905.85,999.512,-229.004,-152.832,999.512
1742471905.854,284.668,-577.637,-138.184,138.184
1742471905.858,-1000.0,-502.93,-13.672,-1000.0
1742471905.862,-1000.0,-8.301,8.789,-978.516
1742471905.865,-965.332,-188.965,-43.457,-976.562
1742471905.869,-1000.0,-384.277,-60.059,-1000.0
1742471905.873,-935.059,-273.438,-74.707,-926.758
1742471905.877,-1000.0,-90.82,-23.926,-1000.0
1742471905.881,-265.625,182.129,-7.812,-514.648
1742471905.838,992.188,574.219,121.582,321.289
1742471905.842,976.074,73.73,63.965,999.512
1742471905.846,860.84,-301.27,-81.543,849.121
1742471905.85,999.512,-229.004,-152.832,999.512
1742471905.854,284.668,-577.637,-138.184,138.184
1742471905.858,-1000.0,-502.93,-13.672,-1000.0
1742471905.862,-1000.0,-8.301,8.789,-978.516
1742471905.865,-965.332,-188.965,-43.457,-976.562
1742471905.869,-1000.0,-384.277,-60.059,-1000.0
1742471905.873,-935.059,-273.438,-74.707,-926.758
1742471905.877,-1000.0,-90.82,-23.926,-1000.0
1742471905.881,-265.625,182.129,-7.812,-514.648
1742471905.854,999.512,386.23,-16.602,902.344
1742471905.858,957.52,-9.277,-31.738,999.512
1742471905.862,935.547,4.883,19.043,916.016
1742471905.866,974.121,-27.832,47.363,981.445
1742471905.87,966.309,-186.523,-21.484,967.285
1742471905.874,966.309,34.18,-50.781,966.797
1742471905.878,966.309,47.363,-68.848,966.797
1742471905.881,966.309,-218.262,-58.594,966.797
1742471905.885,966.309,-163.086,11.719,966.797
1742471905.889,966.309,-82.031,27.832,966.797
1742471905.893,966.309,-51.758,0.0,967.285
1742471905.897,966.309,-11.23,-1.465,966.797
1742471905.854,999.512,386.23,-16.602,902.344
1742471905.858,957.52,-9.277,-31.738,999.512
1742471905.862,935.547,4.883,19.043,916.016
1742471905.866,974.121,-27.832,47.363,981.445
1742471905.87,966.309,-186.523,-21.484,967.285
1742471905.874,966.309,34.18,-50.781,966.797
1742471905.878,966.309,47.363,-68.848,966.797
1742471905.881,966.309,-218.262,-58.594,966.797
1742471905.885,966.309,-163.086,11.719,966.797
1742471905.889,966.309,-82.031,27.832,966.797
1742471905.893,966.309,-51.758,0.0,967.285
1742471905.897,966.309,-11.23,-1.465,966.797
1742471905.854,999.512,386.23,-16.602,902.344
1742471905.858,957.52,-9.277,-31.738,999.512
1742471905.862,935.547,4.883,19.043,916.016
1742471905.866,974.121,-27.832,47.363,981.445
1742471905.87,966.309,-186.523,-21.484,967.285
1742471905.874,966.309,34.18,-50.781,966.797
1742471905.878,966.309,47.363,-68.848,966.797
1742471905.881,966.309,-218.262,-58.594,966.797
1742471905.885,966.309,-163.086,11.719,966.797
1742471905.889,966.309,-82.031,27.832,966.797
1742471905.893,966.309,-51.758,0.0,967.285
1742471905.897,966.309,-11.23,-1.465,966.797
1742471905.913,966.309,-98.145,-10.254,967.285
1742471905.917,966.309,-48.34,16.113,966.797
1742471905.921,966.309,9.277,20.996,966.797
1742471905.925,966.309,-83.496,9.277,967.285
1742471905.929,966.309,-95.703,-33.203,966.797
1742471905.933,966.309,57.129,-38.574,966.797
1742471905.937,966.309,157.715,16.113,966.797
1742471905.94,966.309,-2.93,40.039,966.797
1742471905.944,966.309,-154.297,36.133,966.797
1742471905.948,966.309,-208.496,-45.41,966.797
1742471905.952,966.309,-192.871,-128.906,966.797
1742471905.956,966.309,-75.195,-84.473,966.797
1742471905.913,966.309,-98.145,-10.254,967.285
1742471905.917,966.309,-48.34,16.113,966.797
1742471905.921,966.309,9.277,20.996,966.797
1742471905.925,966.309,-83.496,9.277,967.285
1742471905.929,966.309,-95.703,-33.203,966.797
1742471905.933,966.309,57.129,-38.574,966.797
1742471905.937,966.309,157.715,16.113,966.797
1742471905.94,966.309,-2.93,40.039,966.797
1742471905.944,966.309,-154.297,36.133,966.797
1742471905.948,966.309,-208.496,-45.41,966.797
1742471905.952,966.309,-192.871,-128.906,966.797
1742471905.956,966.309,-75.195,-84.473,966.797
1742471905.96,966.309,-103.516,-14.16,967.285
1742471905.964,966.309,-105.957,-0.488,967.285
1742471905.968,966.309,-43.945,-46.875,967.285
1742471905.972,966.309,-122.07,-91.797,967.285
1742471905.976,966.309,-117.676,-55.664,967.285
1742471905.98,966.309,85.938,38.086,966.797
1742471905.984,966.309,3.418,-25.879,966.797
1742471905.987,966.309,-276.367,-158.203,966.797
1742471905.991,966.309,-383.789,-171.387,966.797
1742471905.995,966.309,-221.191,-113.281,966.797
1742471905.999,966.309,7.812,-32.227,966.797
1742471906.003,966.309,0.488,-69.336,966.797
1742471905.96,966.309,-103.516,-14.16,967.285
1742471905.964,966.309,-105.957,-0.488,967.285
1742471905.968,966.309,-43.945,-46.875,967.285
1742471905.972,966.309,-122.07,-91.797,967.285
1742471905.976,966.309,-117.676,-55.664,967.285
1742471905.98,966.309,85.938,38.086,966.797
1742471905.984,966.309,3.418,-25.879,966.797
1742471905.987,966.309,-276.367,-158.203,966.797
1742471905.991,966.309,-383.789,-171.387,966.797
1742471905.995,966.309,-221.191,-113.281,966.797
1742471905.999,966.309,7.812,-32.227,966.797
1742471906.003,966.309,0.488,-69.336,966.797
1742471906.003,966.309,-218.262,-133.301,966.797
1742471906.007,966.309,-147.461,-78.613,967.285
1742471906.011,966.309,-6.348,-41.992,966.797
1742471906.015,966.309,-114.746,-43.457,966.797
1742471906.019,966.309,-43.457,-24.414,966.797
1742471906.023,966.309,84.473,-30.762,966.797
1742471906.027,966.309,-3.418,-93.262,966.797
1742471906.03,966.309,-145.996,-112.793,966.797
1742471906.034,966.309,-321.777,-63.965,967.285
1742471906.038,971.68,-28.809,11.23,976.562
1742471906.042,898.438,39.062,-16.113,895.02
1742471906.046,999.512,-27.832,-37.109,999.512
1742471906.003,966.309,-218.262,-133.301,966.797
1742471906.007,966.309,-147.461,-78.613,967.285
1742471906.011,966.309,-6.348,-41.992,966.797
1742471906.015,966.309,-114.746,-43.457,966.797
1742471906.019,966.309,-43.457,-24.414,966.797
1742471906.023,966.309,84.473,-30.762,966.797
1742471906.027,966.309,-3.418,-93.262,966.797
1742471906.03,966.309,-145.996,-112.793,966.797
1742471906.034,966.309,-321.777,-63.965,967.285
1742471906.038,971.68,-28.809,11.23,976.562
1742471906.042,898.438,39.062,-16.113,895.02
1742471906.046,999.512,-27.832,-37.109,999.512
1742471906.049,277.344,-394.531,-105.469,381.836
1742471906.053,-1000.0,-661.621,-96.68,-992.188
1742471906.057,-999.023,-53.223,6.836,-1000.0
1742471906.061,-965.82,35.645,12.695,-957.52
1742471906.065,-1000.0,1.953,2.441,-1000.0
1742471906.069,-1000.0,174.805,5.371,-1000.0
1742471906.073,-1000.0,160.156,8.789,-1000.0
1742471906.076,-1000.0,-2.441,4.883,-1000.0
1742471906.08,-1000.0,-98.145,-6.348,-1000.0
1742471906.084,-1000.0,-27.344,-1.465,-1000.0
1742471906.088,-938.965,9.766,-46.387,-938.965
1742471906.092,-1000.0,-13.184,-41.016,-1000.0
1742471906.558,-1000.0,-180.664,-189.941,-1000.0
1742471906.562,-1000.0,6.348,-100.586,-1000.0
1742471906.566,-1000.0,13.184,-66.895,-1000.0
1742471906.57,-943.359,-83.984,-119.629,-1000.0
1742471906.574,-1000.0,-165.039,-176.758,-1000.0
1742471906.578,-792.969,142.09,-70.801,-1000.0
1742471906.582,602.539,490.234,23.926,-1000.0
1742471906.585,999.512,165.039,0.0,-1000.0
1742471906.589,903.809,-184.57,-37.109,-1000.0
1742471906.593,978.027,-44.922,-108.887,-1000.0
1742471906.597,966.309,94.727,-166.992,-1000.0
1742471906.601,966.309,7.812,-122.559,-1000.0
1742471906.093,-201.66,554.199,49.316,-205.566
1742471906.097,999.512,558.105,9.766,999.512
1742471906.101,947.266,126.953,0.0,948.242
1742471906.105,940.43,132.324,34.18,940.918
1742471906.109,984.375,-0.977,-17.09,986.816
1742471906.113,919.922,113.77,1.953,909.18
1742471906.117,997.559,270.996,13.184,999.512
1742471906.12,896.973,-55.664,-88.867,754.883
1742471906.124,-469.727,-721.191,-159.18,-645.508
1742471906.128,-1000.0,-384.766,-44.922,-1000.0
1742471906.132,-933.105,124.512,40.527,-937.5
1742471906.136,-1000.0,40.527,11.23,-1000.0
1742471906.154,-1000.0,118.652,20.996,-1000.0
1742471906.158,-1000.0,175.293,42.48,-1000.0
1742471906.162,-1000.0,247.07,62.988,-1000.0
1742471906.166,-1000.0,250.488,90.332,-1000.0
1742471906.17,-1000.0,36.621,12.695,-1000.0
1742471906.174,-1000.0,205.078,-13.672,-1000.0
1742471906.178,-1000.0,224.609,26.855,-1000.0
1742471906.181,-1000.0,58.594,31.738,-1000.0
1742471906.185,-1000.0,156.738,81.543,-1000.0
1742471906.189,-1000.0,127.441,64.453,-1000.0
1742471906.193,-1000.0,103.516,42.48,-1000.0
1742471906.197,-1000.0,125.977,49.316,-1000.0
1742471906.183,-1000.0,37.109,27.832,-1000.0
1742471906.187,-1000.0,54.199,128.906,-1000.0
1742471906.191,-1000.0,50.781,191.895,-1000.0
1742471906.195,-1000.0,-165.039,122.559,-1000.0
1742471906.199,-1000.0,-148.926,92.773,-1000.0
1742471906.203,-1000.0,49.805,126.953,-1000.0
1742471906.207,-1000.0,75.684,219.727,-1000.0
1742471906.21,-1000.0,32.715,350.586,-1000.0
1742471906.214,-1000.0,-130.859,423.34,-1000.0
1742471906.218,-1000.0,-85.449,507.812,-1000.0
1742471906.222,-1000.0,99.609,604.98,-1000.0
1742471906.226,-1000.0,154.297,711.426,-1000.0
1742471906.183,-1000.0,37.109,27.832,-1000.0
1742471906.187,-1000.0,54.199,128.906,-1000.0
1742471906.191,-1000.0,50.781,191.895,-1000.0
1742471906.195,-1000.0,-165.039,122.559,-1000.0
1742471906.199,-1000.0,-148.926,92.773,-1000.0
1742471906.203,-1000.0,49.805,126.953,-1000.0
1742471906.207,-1000.0,75.684,219.727,-1000.0
1742471906.21,-1000.0,32.715,350.586,-1000.0
1742471906.214,-1000.0,-130.859,423.34,-1000.0
1742471906.218,-1000.0,-85.449,507.812,-1000.0
1742471906.222,-1000.0,99.609,604.98,-1000.0
1742471906.226,-1000.0,154.297,711.426,-1000.0
1742471906.244,-1000.0,108.398,797.363,-1000.0
1742471906.248,-1000.0,-0.977,687.988,-1000.0
1742471906.252,-1000.0,15.625,600.586,-1000.0
1742471906.256,-971.191,-71.289,650.879,-1000.0
1742471906.26,-994.141,-82.52,728.027,-932.617
1742471906.264,-1000.0,57.617,733.887,-1000.0
1742471906.268,214.355,535.645,716.797,-319.336
1742471906.271,999.512,420.898,639.16,999.512
1742471906.275,910.156,-276.367,479.004,967.285
1742471906.279,964.844,-211.914,453.125,931.641
1742471906.283,967.285,-79.59,486.328,976.074
1742471906.287,966.309,-219.238,466.309,966.797
1742471906.244,-1000.0,108.398,797.363,-1000.0
1742471906.248,-1000.0,-0.977,687.988,-1000.0
1742471906.252,-1000.0,15.625,600.586,-1000.0
1742471906.256,-971.191,-71.289,650.879,-1000.0
1742471906.26,-994.141,-82.52,728.027,-932.617
1742471906.264,-1000.0,57.617,733.887,-1000.0
1742471906.268,214.355,535.645,716.797,-319.336
1742471906.271,999.512,420.898,639.16,999.512
1742471906.275,910.156,-276.367,479.004,967.285
1742471906.279,964.844,-211.914,453.125,931.641
1742471906.283,967.285,-79.59,486.328,976.074
1742471906.287,966.309,-219.238,466.309,966.797
1742471906.288,966.309,-216.797,422.852,966.797
1742471906.292,966.309,-28.809,425.781,966.797
1742471906.296,966.309,-48.828,438.965,966.797
1742471906.3,966.309,-160.645,370.605,966.797
1742471906.304,966.309,-150.879,263.184,967.285
1742471906.308,965.82,-109.375,130.859,966.797
1742471906.312,966.309,-74.219,74.707,966.797
1742471906.315,966.309,-222.168,9.277,967.285
1742471906.319,966.309,-402.344,-0.488,966.797
1742471906.323,966.309,-137.695,51.758,966.797
1742471906.327,966.309,-84.473,-10.742,966.797
1742471906.331,966.309,-203.613,0.488,966.797
1742471906.288,966.309,-216.797,422.852,966.797
1742471906.292,966.309,-28.809,425.781,966.797
1742471906.296,966.309,-48.828,438.965,966.797
1742471906.3,966.309,-160.645,370.605,966.797
1742471906.304,966.309,-150.879,263.184,967.285
1742471906.308,965.82,-109.375,130.859,966.797
1742471906.312,966.309,-74.219,74.707,966.797
1742471906.315,966.309,-222.168,9.277,967.285
1742471906.319,966.309,-402.344,-0.488,966.797
1742471906.323,966.309,-137.695,51.758,966.797
1742471906.327,966.309,-84.473,-10.742,966.797
1742471906.331,966.309,-203.613,0.488,966.797
1742471906.333,966.309,-209.473,-31.738,966.797
1742471906.337,966.309,-219.727,-44.434,966.797
1742471906.341,966.309,-102.051,-43.945,967.285
1742471906.345,966.309,-221.68,-156.738,967.285
1742471906.349,966.309,-449.707,-322.754,966.797
1742471906.353,966.309,-412.598,-374.023,966.797
1742471906.357,965.82,-413.086,-315.43,966.797
1742471906.36,966.309,-614.746,-415.039,966.797
1742471906.364,966.309,-677.734,-525.879,967.285
1742471906.368,966.309,-528.809,-557.129,966.797
1742471906.372,966.309,-387.207,-561.523,966.797
1742471906.376,966.309,-194.824,-417.48,966.797
1742471906.333,966.309,-209.473,-31.738,966.797
1742471906.337,966.309,-219.727,-44.434,966.797
1742471906.341,966.309,-102.051,-43.945,967.285
1742471906.345,966.309,-221.68,-156.738,967.285
1742471906.349,966.309,-449.707,-322.754,966.797
1742471906.353,966.309,-412.598,-374.023,966.797
1742471906.357,965.82,-413.086,-315.43,966.797
1742471906.36,966.309,-614.746,-415.039,966.797
1742471906.364,966.309,-677.734,-525.879,967.285
1742471906.368,966.309,-528.809,-557.129,966.797
1742471906.372,966.309,-387.207,-561.523,966.797
1742471906.376,966.309,-194.824,-417.48,966.797
1742471906.378,966.309,-122.07,-434.57,966.797
1742471906.382,966.309,-396.973,-638.672,966.797
1742471906.386,966.309,-367.188,-556.152,966.797
1742471906.39,966.309,-207.031,-432.129,967.285
1742471906.394,966.309,-333.496,-453.125,966.797
1742471906.398,966.309,-4.883,-382.812,966.797
1742471906.402,966.309,104.492,-431.152,967.285
1742471906.405,966.309,-367.676,-545.41,966.797
1742471906.409,965.82,-525.879,-540.039,966.797
1742471906.413,965.82,-180.176,-376.953,967.285
1742471906.417,966.309,91.797,-224.121,966.797
1742471906.421,966.309,-83.496,-279.785,966.797
1742471906.378,966.309,-122.07,-434.57,966.797
1742471906.382,966.309,-396.973,-638.672,966.797
1742471906.386,966.309,-367.188,-556.152,966.797
1742471906.39,966.309,-207.031,-432.129,967.285
1742471906.394,966.309,-333.496,-453.125,966.797
1742471906.398,966.309,-4.883,-382.812,966.797
1742471906.402,966.309,104.492,-431.152,967.285
1742471906.405,966.309,-367.676,-545.41,966.797
1742471906.409,965.82,-525.879,-540.039,966.797
1742471906.413,965.82,-180.176,-376.953,967.285
1742471906.417,966.309,91.797,-224.121,966.797
1742471906.421,966.309,-83.496,-279.785,966.797
1742471906.423,966.309,-75.195,-326.172,966.797
1742471906.427,966.309,-221.191,-450.195,966.797
1742471906.431,966.309,-60.547,-370.117,966.797
1742471906.435,966.309,124.023,-207.52,967.285
1742471906.439,966.309,-260.742,-335.449,966.797
1742471906.443,966.309,-78.613,-348.633,966.797
1742471906.447,966.309,93.75,-315.43,966.797
1742471906.45,966.309,-135.254,-341.797,966.797
1742471906.454,966.309,-121.094,-284.668,966.797
1742471906.458,966.309,111.328,-176.758,966.797
1742471906.462,966.309,162.598,-183.594,967.285
1742471906.466,966.309,-25.879,-310.547,966.797
1742471906.423,966.309,-75.195,-326.172,966.797
1742471906.427,966.309,-221.191,-450.195,966.797
1742471906.431,966.309,-60.547,-370.117,966.797
1742471906.435,966.309,124.023,-207.52,967.285
1742471906.439,966.309,-260.742,-335.449,966.797
1742471906.443,966.309,-78.613,-348.633,966.797
1742471906.447,966.309,93.75,-315.43,966.797
1742471906.45,966.309,-135.254,-341.797,966.797
1742471906.454,966.309,-121.094,-284.668,966.797
1742471906.458,966.309,111.328,-176.758,966.797
1742471906.462,966.309,162.598,-183.594,967.285
1742471906.466,966.309,-25.879,-310.547,966.797
1742471906.468,966.309,-208.008,-399.902,966.797
1742471906.472,966.309,-24.902,-340.82,967.285
1742471906.476,966.309,110.352,-285.645,966.797
1742471906.48,966.309,-3.418,-328.613,966.797
1742471906.484,966.309,-16.113,-377.93,967.285
1742471906.488,966.309,310.059,-255.371,966.797
1742471906.492,966.309,394.043,-192.871,966.797
1742471906.495,966.309,46.875,-300.781,967.285
1742471906.499,966.309,-222.168,-307.617,966.797
1742471906.503,966.309,-197.266,-243.652,966.797
1742471906.507,966.309,-1.465,-173.34,967.285
1742471906.511,966.309,-3.418,-134.766,966.797
1742471906.513,966.309,-157.227,-141.602,966.797
1742471906.517,972.168,-196.777,-155.762,976.562
1742471906.521,941.406,-142.09,-156.25,923.828
1742471906.525,945.312,-115.723,-140.625,998.047
1742471906.529,999.512,-115.723,-131.836,862.793
1742471906.533,-186.035,-447.266,-228.027,-453.613
1742471906.537,-1000.0,-530.273,-348.145,-1000.0
1742471906.54,-941.406,-309.57,-294.434,-940.918
1742471906.544,-998.535,-310.059,-170.41,-1000.0
1742471906.548,-1000.0,-347.656,-68.359,-1000.0
1742471906.552,-1000.0,-190.918,-64.453,-1000.0
1742471906.556,-1000.0,-247.07,-190.918,-1000.0
1742471906.513,966.309,-157.227,-141.602,966.797
1742471906.517,972.168,-196.777,-155.762,976.562
1742471906.521,941.406,-142.09,-156.25,923.828
1742471906.525,945.312,-115.723,-140.625,998.047
1742471906.529,999.512,-115.723,-131.836,862.793
1742471906.533,-186.035,-447.266,-228.027,-453.613
1742471906.537,-1000.0,-530.273,-348.145,-1000.0
1742471906.54,-941.406,-309.57,-294.434,-940.918
1742471906.544,-998.535,-310.059,-170.41,-1000.0
1742471906.548,-1000.0,-347.656,-68.359,-1000.0
1742471906.552,-1000.0,-190.918,-64.453,-1000.0
1742471906.556,-1000.0,-247.07,-190.918,-1000.0
1742471906.619,979.492,10.254,-79.102,-1000.0
1742471906.623,912.109,-10.742,-81.055,-1000.0
1742471906.627,999.512,98.633,-49.805,-1000.0
1742471906.631,804.688,48.34,-40.527,-1000.0
1742471906.635,-587.891,-271.484,-120.605,-1000.0
1742471906.639,-1000.0,-20.508,-128.906,-1000.0
1742471906.643,-935.547,113.77,-60.547,-1000.0
1742471906.646,-1000.0,-108.398,-86.914,-1000.0
1742471906.65,-1000.0,-78.613,-132.812,-1000.0
1742471906.654,-1000.0,-8.301,-142.09,-1000.0
1742471906.658,-1000.0,124.512,-100.098,-1000.0
1742471906.662,-1000.0,147.461,-34.668,-1000.0
1742471906.619,979.492,10.254,-79.102,-1000.0
1742471906.623,912.109,-10.742,-81.055,-1000.0
1742471906.627,999.512,98.633,-49.805,-1000.0
1742471906.631,804.688,48.34,-40.527,-1000.0
1742471906.635,-587.891,-271.484,-120.605,-1000.0
1742471906.639,-1000.0,-20.508,-128.906,-1000.0
1742471906.643,-935.547,113.77,-60.547,-1000.0
1742471906.646,-1000.0,-108.398,-86.914,-1000.0
1742471906.65,-1000.0,-78.613,-132.812,-1000.0
1742471906.654,-1000.0,-8.301,-142.09,-1000.0
1742471906.658,-1000.0,124.512,-100.098,-1000.0
1742471906.662,-1000.0,147.461,-34.668,-1000.0
1742471906.649,-1000.0,59.082,-79.102,-1000.0
1742471906.653,-1000.0,-20.02,-72.266,-1000.0
1742471906.657,-1000.0,44.434,-13.184,-1000.0
1742471906.661,-1000.0,32.227,-77.148,-1000.0
1742471906.665,-1000.0,-25.879,-54.199,-1000.0
1742471906.669,-1000.0,185.547,32.715,-1000.0
1742471906.673,-1000.0,251.953,17.09,-1000.0
1742471906.676,-1000.0,124.512,-6.348,-1000.0
1742471906.68,-1000.0,-76.172,25.391,-1000.0
1742471906.684,-1000.0,-58.105,103.516,-1000.0
1742471906.688,-1000.0,130.859,148.926,-1000.0
1742471906.692,-1000.0,-44.922,76.66,-1000.0
1742471906.649,-1000.0,59.082,-79.102,-1000.0
1742471906.653,-1000.0,-20.02,-72.266,-1000.0
1742471906.657,-1000.0,44.434,-13.184,-1000.0
1742471906.661,-1000.0,32.227,-77.148,-1000.0
1742471906.665,-1000.0,-25.879,-54.199,-1000.0
1742471906.669,-1000.0,185.547,32.715,-1000.0
1742471906.673,-1000.0,251.953,17.09,-1000.0
1742471906.676,-1000.0,124.512,-6.348,-1000.0
1742471906.68,-1000.0,-76.172,25.391,-1000.0
1742471906.684,-1000.0,-58.105,103.516,-1000.0
1742471906.688,-1000.0,130.859,148.926,-1000.0
1742471906.692,-1000.0,-44.922,76.66,-1000.0
1742471906.708,-1000.0,-179.199,23.926,-1000.0
1742471906.712,-1000.0,-147.949,43.457,-1000.0
1742471906.716,-1000.0,-8.789,116.699,-1000.0
1742471906.72,-1000.0,-17.09,78.613,-1000.0
1742471906.724,-1000.0,-278.809,-20.996,-1000.0
1742471906.728,-1000.0,-81.543,68.359,-1000.0
1742471906.732,-1000.0,-38.574,125.977,-1000.0
1742471906.735,-1000.0,-284.18,110.84,-1000.0
1742471906.739,-1000.0,-251.953,71.777,-1000.0
1742471906.743,-1000.0,-38.574,160.645,-1000.0
1742471906.747,-1000.0,-64.941,134.766,-1000.0
1742471906.751,-1000.0,-272.461,-33.203,-1000.0
1742471906.708,-1000.0,-179.199,23.926,-1000.0
1742471906.712,-1000.0,-147.949,43.457,-1000.0
1742471906.716,-1000.0,-8.789,116.699,-1000.0
1742471906.72,-1000.0,-17.09,78.613,-1000.0
1742471906.724,-1000.0,-278.809,-20.996,-1000.0
1742471906.728,-1000.0,-81.543,68.359,-1000.0
1742471906.732,-1000.0,-38.574,125.977,-1000.0
1742471906.735,-1000.0,-284.18,110.84,-1000.0
1742471906.739,-1000.0,-251.953,71.777,-1000.0
1742471906.743,-1000.0,-38.574,160.645,-1000.0
1742471906.747,-1000.0,-64.941,134.766,-1000.0
1742471906.751,-1000.0,-272.461,-33.203,-1000.0
1742471906.753,-1000.0,-207.031,-44.434,-1000.0
1742471906.757,-1000.0,-106.445,15.625,-1000.0
1742471906.761,-1000.0,-29.785,15.137,-1000.0
1742471906.765,-1000.0,-95.703,-70.801,-1000.0
1742471906.769,-1000.0,-160.645,-19.531,-1000.0
1742471906.773,-1000.0,75.684,106.934,-1000.0
1742471906.777,-1000.0,37.598,3.418,-1000.0
1742471906.78,-1000.0,-91.797,-125.0,-1000.0
1742471906.784,-1000.0,-138.672,-94.238,-1000.0
1742471906.788,-1000.0,-178.223,-2.93,-1000.0
1742471906.792,-1000.0,-88.867,17.578,-1000.0
1742471906.796,-1000.0,-95.703,-9.277,-1000.0
1742471906.753,-1000.0,-207.031,-44.434,-1000.0
1742471906.757,-1000.0,-106.445,15.625,-1000.0
1742471906.761,-1000.0,-29.785,15.137,-1000.0
1742471906.765,-1000.0,-95.703,-70.801,-1000.0
1742471906.769,-1000.0,-160.645,-19.531,-1000.0
1742471906.773,-1000.0,75.684,106.934,-1000.0
1742471906.777,-1000.0,37.598,3.418,-1000.0
1742471906.78,-1000.0,-91.797,-125.0,-1000.0
1742471906.784,-1000.0,-138.672,-94.238,-1000.0
1742471906.788,-1000.0,-178.223,-2.93,-1000.0
1742471906.792,-1000.0,-88.867,17.578,-1000.0
1742471906.796,-1000.0,-95.703,-9.277,-1000.0
1742471906.798,-1000.0,-196.777,-70.801,-1000.0
1742471906.802,-1000.0,-103.027,-80.566,-1000.0
1742471906.806,-1000.0,21.973,-63.965,-1000.0
1742471906.81,-1000.0,30.762,-11.23,-1000.0
1742471906.814,-968.262,42.48,71.289,-954.59
1742471906.818,-996.094,116.699,83.496,-1000.0
1742471906.822,-1000.0,152.832,93.262,-887.695
1742471906.825,251.953,536.621,119.629,453.125
1742471906.829,999.512,397.461,66.895,999.512
1742471906.833,901.855,-26.855,45.898,904.785
1742471906.837,969.238,57.129,25.879,974.121
1742471906.841,966.309,102.051,-31.738,966.797
1742471906.798,-1000.0,-196.777,-70.801,-1000.0
1742471906.802,-1000.0,-103.027,-80.566,-1000.0
1742471906.806,-1000.0,21.973,-63.965,-1000.0
1742471906.81,-1000.0,30.762,-11.23,-1000.0
1742471906.814,-968.262,42.48,71.289,-954.59
1742471906.818,-996.094,116.699,83.496,-1000.0
1742471906.822,-1000.0,152.832,93.262,-887.695
1742471906.825,251.953,536.621,119.629,453.125
1742471906.829,999.512,397.461,66.895,999.512
1742471906.833,901.855,-26.855,45.898,904.785
1742471906.837,969.238,57.129,25.879,974.121
1742471906.841,966.309,102.051,-31.738,966.797
1742471906.843,966.309,-39.062,-60.059,966.797
1742471906.847,966.309,-125.0,-62.988,966.797
1742471906.851,966.309,85.449,30.762,966.797
1742471906.855,966.309,42.48,49.805,966.797
1742471906.859,966.309,-70.801,1.953,966.797
1742471906.863,966.309,32.715,67.871,967.285
1742471906.867,966.309,97.656,132.324,967.285
1742471906.87,966.309,-50.293,128.418,966.797
1742471906.874,966.309,-291.016,94.238,966.797
1742471906.878,966.309,-351.562,78.613,966.797
1742471906.882,966.309,-71.289,110.352,966.797
1742471906.886,966.309,-70.801,85.449,966.797
1742471906.89,966.309,-354.492,37.109,966.797
1742471906.894,966.309,-176.758,114.746,966.797
1742471906.898,966.309,-26.367,171.387,966.797
1742471906.902,966.309,-255.371,26.367,966.797
1742471906.906,966.309,-395.02,-81.543,966.797
1742471906.91,966.309,-80.078,20.996,966.797
1742471906.914,966.309,-33.203,26.855,966.797
1742471906.917,966.309,-352.539,-122.07,966.797
1742471906.921,966.309,-414.062,-223.145,967.285
1742471906.925,966.309,-185.547,-116.699,966.797
1742471906.929,966.309,3.906,18.555,966.797
1742471906.933,975.098,-202.637,-76.172,966.797
1742471906.89,966.309,-354.492,37.109,966.797
1742471906.894,966.309,-176.758,114.746,966.797
1742471906.898,966.309,-26.367,171.387,966.797
1742471906.902,966.309,-255.371,26.367,966.797
1742471906.906,966.309,-395.02,-81.543,966.797
1742471906.91,966.309,-80.078,20.996,966.797
1742471906.914,966.309,-33.203,26.855,966.797
1742471906.917,966.309,-352.539,-122.07,966.797
1742471906.921,966.309,-414.062,-223.145,967.285
1742471906.925,966.309,-185.547,-116.699,966.797
1742471906.929,966.309,3.906,18.555,966.797
1742471906.933,975.098,-202.637,-76.172,966.797
1742471906.934,929.199,-92.285,-142.578,966.797
1742471906.938,977.051,-20.508,-180.176,966.797
1742471906.942,943.359,-220.703,-240.723,966.797
1742471906.946,-352.539,-363.281,-231.934,967.285
1742471906.95,-1000.0,-190.918,-175.293,966.797
1742471906.954,-938.965,104.004,-129.395,966.797
1742471906.958,-1000.0,40.039,-196.289,967.285
1742471906.961,-1000.0,-120.117,-209.473,967.285
1742471906.965,-1000.0,-340.332,-267.09,966.797
1742471906.969,-1000.0,-172.852,-275.391,966.797
1742471906.973,-1000.0,-5.859,-212.891,966.797
1742471906.977,-1000.0,13.184,-208.496,966.797
1742471906.934,929.199,-92.285,-142.578,966.797
1742471906.938,977.051,-20.508,-180.176,966.797
1742471906.942,943.359,-220.703,-240.723,966.797
1742471906.946,-352.539,-363.281,-231.934,967.285
1742471906.95,-1000.0,-190.918,-175.293,966.797
1742471906.954,-938.965,104.004,-129.395,966.797
1742471906.958,-1000.0,40.039,-196.289,967.285
1742471906.961,-1000.0,-120.117,-209.473,967.285
1742471906.965,-1000.0,-340.332,-267.09,966.797
1742471906.969,-1000.0,-172.852,-275.391,966.797
1742471906.973,-1000.0,-5.859,-212.891,966.797
1742471906.977,-1000.0,13.184,-208.496,966.797
1742471906.978,-1000.0,-115.234,-280.273,966.797
1742471906.982,-1000.0,-22.949,-215.332,967.285
1742471906.986,-1000.0,174.805,-107.422,966.797
1742471906.99,-1000.0,85.449,-216.797,966.797
1742471906.994,-1000.0,-41.016,-341.309,967.285
1742471906.998,-1000.0,104.98,-320.801,966.797
1742471907.002,-1000.0,-92.773,-414.062,966.797
1742471907.005,-1000.0,-290.527,-421.387,966.797
1742471907.009,-1000.0,11.719,-219.238,966.797
1742471907.013,-1000.0,138.672,-97.168,966.797
1742471907.017,-1000.0,32.227,-103.516,966.797
1742471907.021,-1000.0,-52.734,-170.41,967.285
1742471906.978,-1000.0,-115.234,-280.273,966.797
1742471906.982,-1000.0,-22.949,-215.332,967.285
1742471906.986,-1000.0,174.805,-107.422,966.797
1742471906.99,-1000.0,85.449,-216.797,966.797
1742471906.994,-1000.0,-41.016,-341.309,967.285
1742471906.998,-1000.0,104.98,-320.801,966.797
1742471907.002,-1000.0,-92.773,-414.062,966.797
1742471907.005,-1000.0,-290.527,-421.387,966.797
1742471907.009,-1000.0,11.719,-219.238,966.797
1742471907.013,-1000.0,138.672,-97.168,966.797
1742471907.017,-1000.0,32.227,-103.516,966.797
1742471907.021,-1000.0,-52.734,-170.41,967.285
1742471907.038,-1000.0,57.129,-237.305,967.285
1742471907.042,-1000.0,110.84,-281.738,967.285
1742471907.046,-992.676,34.18,-320.312,966.797
1742471907.05,-950.195,38.086,-216.309,966.797
1742471907.054,-1000.0,-65.43,-83.496,966.797
1742471907.058,-87.891,478.027,11.23,966.797
1742471907.062,999.512,619.629,-86.914,966.797
1742471907.065,932.129,125.977,-186.523,967.285
1742471907.069,948.73,10.742,-145.996,967.285
1742471907.073,969.727,-125.488,-201.66,966.797
1742471907.077,965.82,71.777,-173.34,966.797
1742471907.081,966.309,149.414,-141.113,966.797
1742471907.038,-1000.0,57.129,-237.305,967.285
1742471907.042,-1000.0,110.84,-281.738,967.285
1742471907.046,-992.676,34.18,-320.312,966.797
1742471907.05,-950.195,38.086,-216.309,966.797
1742471907.054,-1000.0,-65.43,-83.496,966.797
1742471907.058,-87.891,478.027,11.23,966.797
1742471907.062,999.512,619.629,-86.914,966.797
1742471907.065,932.129,125.977,-186.523,967.285
1742471907.069,948.73,10.742,-145.996,967.285
1742471907.073,969.727,-125.488,-201.66,966.797
1742471907.077,965.82,71.777,-173.34,966.797
1742471907.081,966.309,149.414,-141.113,966.797
1742471907.083,966.309,13.184,-229.98,967.285
1742471907.087,966.309,91.309,-197.754,966.797
1742471907.091,966.309,209.473,-115.234,966.797
1742471907.095,966.309,227.051,-61.035,966.797
1742471907.099,966.309,177.246,-28.32,966.797
1742471907.103,969.727,286.621,-55.664,966.797
1742471907.107,949.219,281.738,-69.824,966.797
1742471907.11,934.082,-112.305,-125.488,966.797
1742471907.114,999.512,-173.34,-191.406,966.797
1742471907.118,-78.613,-289.062,-189.453,975.098
1742471907.122,-1000.0,-217.773,-90.332,896.973
1742471907.126,-955.078,73.73,-7.324,999.512
1742471907.083,966.309,13.184,-229.98,967.285
1742471907.087,966.309,91.309,-197.754,966.797
1742471907.091,966.309,209.473,-115.234,966.797
1742471907.095,966.309,227.051,-61.035,966.797
1742471907.099,966.309,177.246,-28.32,966.797
1742471907.103,969.727,286.621,-55.664,966.797
1742471907.107,949.219,281.738,-69.824,966.797
1742471907.11,934.082,-112.305,-125.488,966.797
1742471907.114,999.512,-173.34,-191.406,966.797
1742471907.118,-78.613,-289.062,-189.453,975.098
1742471907.122,-1000.0,-217.773,-90.332,896.973
1742471907.126,-955.078,73.73,-7.324,999.512
1742471907.128,-990.723,-392.09,-27.344,342.773
1742471907.132,-1000.0,-603.027,-56.152,-1000.0
1742471907.136,-1000.0,-207.52,-54.199,-1000.0
1742471907.14,-1000.0,-227.539,-70.312,-960.449
1742471907.144,-1000.0,-330.078,-68.848,-1000.0
1742471907.148,-1000.0,-66.406,14.16,-1000.0
1742471907.152,-1000.0,90.332,45.41,-1000.0
1742471907.155,-1000.0,-97.656,5.371,-1000.0
1742471907.159,-1000.0,-186.035,-5.859,-1000.0
1742471907.163,-1000.0,-254.395,-26.855,-1000.0
1742471907.167,-1000.0,-39.551,6.348,-1000.0
1742471907.171,-1000.0,84.473,-25.391,-1000.0
1742471907.128,-990.723,-392.09,-27.344,342.773
1742471907.132,-1000.0,-603.027,-56.152,-1000.0
1742471907.136,-1000.0,-207.52,-54.199,-1000.0
1742471907.14,-1000.0,-227.539,-70.312,-960.449
1742471907.144,-1000.0,-330.078,-68.848,-1000.0
1742471907.148,-1000.0,-66.406,14.16,-1000.0
1742471907.152,-1000.0,90.332,45.41,-1000.0
1742471907.155,-1000.0,-97.656,5.371,-1000.0
1742471907.159,-1000.0,-186.035,-5.859,-1000.0
1742471907.163,-1000.0,-254.395,-26.855,-1000.0
1742471907.167,-1000.0,-39.551,6.348,-1000.0
1742471907.171,-1000.0,84.473,-25.391,-1000.0
1742471907.175,-1000.0,-87.891,-49.805,-1000.0
1742471907.179,-1000.0,-43.457,18.555,-1000.0
1742471907.183,-1000.0,34.18,33.691,-1000.0
1742471907.187,-998.047,40.039,-9.766,-1000.0
1742471907.191,-941.895,-57.129,-4.395,-1000.0
1742471907.195,-1000.0,89.844,66.895,-1000.0
1742471907.199,-175.293,412.109,71.777,-1000.0
1742471907.202,999.512,86.426,-26.855,-1000.0
1742471907.206,943.848,-113.281,-3.906,-1000.0
1742471907.21,942.383,19.043,58.105,-1000.0
1742471907.214,972.168,68.359,102.051,-1000.0
1742471907.218,966.309,14.648,89.355,-1000.0
1742471907.219,966.309,-153.809,53.223,-1000.0
1742471907.223,966.309,-74.707,17.578,-1000.0
1742471907.227,966.309,7.324,-21.484,-1000.0
1742471907.231,967.285,-47.852,1.953,-1000.0
1742471907.235,962.402,23.438,38.086,-1000.0
1742471907.239,910.156,149.902,81.055,-1000.0
1742471907.243,999.512,132.812,12.207,-1000.0
1742471907.246,114.746,-326.66,-106.934,-1000.0
1742471907.25,-1000.0,-574.707,-93.75,-1000.0
1742471907.254,-974.609,-103.027,-6.836,-1000.0
1742471907.258,-978.516,-3.906,-79.102,-1000.0
1742471907.262,-1000.0,-69.336,-125.488,-1000.0
1742471907.219,966.309,-153.809,53.223,-1000.0
1742471907.223,966.309,-74.707,17.578,-1000.0
1742471907.227,966.309,7.324,-21.484,-1000.0
1742471907.231,967.285,-47.852,1.953,-1000.0
1742471907.235,962.402,23.438,38.086,-1000.0
1742471907.239,910.156,149.902,81.055,-1000.0
1742471907.243,999.512,132.812,12.207,-1000.0
1742471907.246,114.746,-326.66,-106.934,-1000.0
1742471907.25,-1000.0,-574.707,-93.75,-1000.0
1742471907.254,-974.609,-103.027,-6.836,-1000.0
1742471907.258,-978.516,-3.906,-79.102,-1000.0
1742471907.262,-1000.0,-69.336,-125.488,-1000.0
1742471907.263,-1000.0,11.23,-53.223,-1000.0
1742471907.267,-1000.0,77.637,-18.555,-1000.0
1742471907.271,-1000.0,47.852,-62.988,-1000.0
1742471907.275,-1000.0,70.312,-84.473,-1000.0
1742471907.279,-1000.0,-62.012,-74.707,-1000.0
1742471907.283,-1000.0,-65.43,-48.828,-1000.0
1742471907.287,-1000.0,79.59,-8.301,-1000.0
1742471907.29,-1000.0,-73.73,-73.242,-1000.0
1742471907.294,-1000.0,-157.227,-132.324,-1000.0
1742471907.298,-1000.0,-125.488,-79.59,-1000.0
1742471907.302,-1000.0,35.645,-15.625,-1000.0
1742471907.306,-1000.0,-54.688,-34.668,-1000.0
1742471907.308,-1000.0,-158.691,-1.953,-1000.0
1742471907.312,-1000.0,-61.523,-53.711,-1000.0
1742471907.316,-1000.0,-43.945,-136.23,-1000.0
1742471907.32,-1000.0,-34.668,-78.613,-1000.0
1742471907.324,-1000.0,-129.395,-86.426,-1000.0
1742471907.328,-1000.0,16.113,-62.012,-1000.0
1742471907.332,-1000.0,147.949,-7.812,-1000.0
1742471907.335,-1000.0,72.266,44.434,-1000.0
1742471907.339,-1000.0,-197.754,30.273,-1000.0
1742471907.343,-1000.0,-301.27,-22.461,-1000.0
1742471907.347,-1000.0,-37.109,-17.578,-1000.0
1742471907.351,-1000.0,30.273,20.508,-1000.0
1742471907.308,-1000.0,-158.691,-1.953,-1000.0
1742471907.312,-1000.0,-61.523,-53.711,-1000.0
1742471907.316,-1000.0,-43.945,-136.23,-1000.0
1742471907.32,-1000.0,-34.668,-78.613,-1000.0
1742471907.324,-1000.0,-129.395,-86.426,-1000.0
1742471907.328,-1000.0,16.113,-62.012,-1000.0
1742471907.332,-1000.0,147.949,-7.812,-1000.0
1742471907.335,-1000.0,72.266,44.434,-1000.0
1742471907.339,-1000.0,-197.754,30.273,-1000.0
1742471907.343,-1000.0,-301.27,-22.461,-1000.0
1742471907.347,-1000.0,-37.109,-17.578,-1000.0
1742471907.351,-1000.0,30.273,20.508,-1000.0
1742471907.353,-1000.0,-52.734,-8.789,-1000.0
1742471907.357,-1000.0,-28.32,37.109,-1000.0
1742471907.361,-1000.0,50.781,115.723,-1000.0
1742471907.365,-1000.0,7.324,43.945,-1000.0
1742471907.369,-1000.0,-134.766,-29.785,-1000.0
1742471907.373,-1000.0,36.133,-41.016,-1000.0
1742471907.377,-1000.0,8.789,-53.711,-1000.0
1742471907.38,-1000.0,-246.582,-42.48,-1000.0
1742471907.384,-1000.0,-92.773,25.391,-1000.0
1742471907.388,-1000.0,121.582,127.93,-1000.0
1742471907.392,-1000.0,87.402,48.34,-1000.0
1742471907.396,-1000.0,-70.801,-72.754,-1000.0
1742471907.353,-1000.0,-52.734,-8.789,-1000.0
1742471907.357,-1000.0,-28.32,37.109,-1000.0
1742471907.361,-1000.0,50.781,115.723,-1000.0
1742471907.365,-1000.0,7.324,43.945,-1000.0
1742471907.369,-1000.0,-134.766,-29.785,-1000.0
1742471907.373,-1000.0,36.133,-41.016,-1000.0
1742471907.377,-1000.0,8.789,-53.711,-1000.0
1742471907.38,-1000.0,-246.582,-42.48,-1000.0
1742471907.384,-1000.0,-92.773,25.391,-1000.0
1742471907.388,-1000.0,121.582,127.93,-1000.0
1742471907.392,-1000.0,87.402,48.34,-1000.0
1742471907.396,-1000.0,-70.801,-72.754,-1000.0
1742471907.413,-1000.0,-34.18,-7.812,-1000.0
1742471907.417,-1000.0,42.969,88.867,-1000.0
1742471907.421,-1000.0,165.527,174.316,-1000.0
1742471907.425,-1000.0,124.512,162.598,-1000.0
1742471907.429,-1000.0,-63.965,119.141,-1000.0
1742471907.433,-1000.0,156.738,143.555,-1000.0
1742471907.437,-1000.0,209.961,157.227,-1000.0
1742471907.44,-1000.0,89.355,217.773,-1000.0
1742471907.444,-1000.0,6.836,223.145,-1000.0
1742471907.448,-1000.0,-27.344,197.266,-1000.0
1742471907.452,-1000.0,91.309,219.238,-1000.0
1742471907.456,-1000.0,136.23,272.461,-1000.0
1742471907.413,-1000.0,-34.18,-7.812,-1000.0
1742471907.417,-1000.0,42.969,88.867,-1000.0
1742471907.421,-1000.0,165.527,174.316,-1000.0
1742471907.425,-1000.0,124.512,162.598,-1000.0
1742471907.429,-1000.0,-63.965,119.141,-1000.0
1742471907.433,-1000.0,156.738,143.555,-1000.0
1742471907.437,-1000.0,209.961,157.227,-1000.0
1742471907.44,-1000.0,89.355,217.773,-1000.0
1742471907.444,-1000.0,6.836,223.145,-1000.0
1742471907.448,-1000.0,-27.344,197.266,-1000.0
1742471907.452,-1000.0,91.309,219.238,-1000.0
1742471907.456,-1000.0,136.23,272.461,-1000.0
1742471907.458,-1000.0,-109.863,237.793,-1000.0
1742471907.462,-1000.0,-13.184,203.613,-1000.0
1742471907.466,-1000.0,90.332,182.617,-1000.0
1742471907.47,-935.059,20.508,170.898,-928.223
1742471907.474,-1000.0,-4.883,255.859,-1000.0
1742471907.478,-263.184,406.25,200.684,-417.48
1742471907.482,999.512,594.727,113.77,958.008
1742471907.485,956.543,-35.156,126.465,984.863
1742471907.489,935.547,-41.992,135.742,923.828
1742471907.493,974.121,65.43,104.492,979.004
1742471907.497,966.309,141.113,150.391,967.773
1742471907.501,966.797,155.762,131.348,963.867
1742471907.458,-1000.0,-109.863,237.793,-1000.0
1742471907.462,-1000.0,-13.184,203.613,-1000.0
1742471907.466,-1000.0,90.332,182.617,-1000.0
1742471907.47,-935.059,20.508,170.898,-928.223
1742471907.474,-1000.0,-4.883,255.859,-1000.0
1742471907.478,-263.184,406.25,200.684,-417.48
1742471907.482,999.512,594.727,113.77,958.008
1742471907.485,956.543,-35.156,126.465,984.863
1742471907.489,935.547,-41.992,135.742,923.828
1742471907.493,974.121,65.43,104.492,979.004
1742471907.497,966.309,141.113,150.391,967.773
1742471907.501,966.797,155.762,131.348,963.867
1742471907.503,903.809,-90.332,14.16,909.668
1742471907.507,999.512,186.035,70.801,999.512
1742471907.511,187.012,-173.34,89.355,128.418
1742471907.515,-1000.0,-533.691,33.203,-1000.0
1742471907.519,-983.887,9.766,43.945,-976.562
1742471907.523,-973.145,192.871,69.336,-977.539
1742471907.527,-1000.0,194.336,111.328,-1000.0
1742471907.53,-1000.0,143.066,130.859,-1000.0
1742471907.534,-1000.0,-106.934,45.41,-1000.0
1742471907.538,-1000.0,-168.945,-24.902,-1000.0
1742471907.542,-1000.0,110.352,28.32,-1000.0
1742471907.546,-1000.0,76.66,12.207,-1000.0
1742471907.503,903.809,-90.332,14.16,909.668
1742471907.507,999.512,186.035,70.801,999.512
1742471907.511,187.012,-173.34,89.355,128.418
1742471907.515,-1000.0,-533.691,33.203,-1000.0
1742471907.519,-983.887,9.766,43.945,-976.562
1742471907.523,-973.145,192.871,69.336,-977.539
1742471907.527,-1000.0,194.336,111.328,-1000.0
1742471907.53,-1000.0,143.066,130.859,-1000.0
1742471907.534,-1000.0,-106.934,45.41,-1000.0
1742471907.538,-1000.0,-168.945,-24.902,-1000.0
1742471907.542,-1000.0,110.352,28.32,-1000.0
1742471907.546,-1000.0,76.66,12.207,-1000.0
1742471907.548,-1000.0,-84.961,-28.809,-1000.0
1742471907.552,-1000.0,-28.32,9.766,-1000.0
1742471907.556,-1000.0,77.637,20.996,-1000.0
1742471907.56,-1000.0,106.934,-10.254,-1000.0
1742471907.564,-1000.0,63.477,22.949,-1000.0
1742471907.568,-1000.0,83.008,133.301,-1000.0
1742471907.572,-1000.0,82.52,105.469,-1000.0
1742471907.575,-1000.0,-197.754,14.648,-1000.0
1742471907.579,-1000.0,-280.762,-19.043,-1000.0
1742471907.583,-1000.0,-71.777,-57.617,-1000.0
1742471907.587,-1000.0,70.801,-42.969,-1000.0
1742471907.591,-1000.0,14.648,-9.277,-1000.0
1742471907.593,-1000.0,1.465,-17.09,-1000.0
1742471907.597,-1000.0,-45.41,-17.09,-1000.0
1742471907.601,-1000.0,-29.297,13.184,-1000.0
1742471907.605,-1000.0,69.824,34.668,-1000.0
1742471907.609,-1000.0,115.234,20.508,-1000.0
1742471907.613,-1000.0,89.355,-26.367,-1000.0
1742471907.617,-1000.0,-78.613,-117.188,-1000.0
1742471907.62,-1000.0,-190.918,-177.246,-1000.0
1742471907.624,-1000.0,-314.453,-158.203,-1000.0
1742471907.628,-1000.0,-308.594,-104.98,-1000.0
1742471907.632,-1000.0,-68.359,-29.297,-1000.0
1742471907.636,-1000.0,-2.93,3.418,-1000.0
1742471907.593,-1000.0,1.465,-17.09,-1000.0
1742471907.597,-1000.0,-45.41,-17.09,-1000.0
1742471907.601,-1000.0,-29.297,13.184,-1000.0
1742471907.605,-1000.0,69.824,34.668,-1000.0
1742471907.609,-1000.0,115.234,20.508,-1000.0
1742471907.613,-1000.0,89.355,-26.367,-1000.0
1742471907.617,-1000.0,-78.613,-117.188,-1000.0
1742471907.62,-1000.0,-190.918,-177.246,-1000.0
1742471907.624,-1000.0,-314.453,-158.203,-1000.0
1742471907.628,-1000.0,-308.594,-104.98,-1000.0
1742471907.632,-1000.0,-68.359,-29.297,-1000.0
1742471907.636,-1000.0,-2.93,3.418,-1000.0
1742471907.638,-1000.0,-59.57,2.93,-1000.0
1742471907.642,-999.512,-80.566,49.805,-1000.0
1742471907.646,-939.941,-54.199,26.855,-930.176
1742471907.65,-1000.0,-155.762,-35.156,-1000.0
1742471907.654,-192.383,132.812,19.043,-379.395
1742471907.658,999.512,544.434,38.086,973.633
1742471907.662,946.289,111.328,17.578,978.516
1742471907.665,940.918,-312.5,-16.602,926.758
1742471907.669,978.027,-123.047,-32.227,987.793
1742471907.673,942.383,-62.988,-23.438,924.805
1742471907.677,944.824,-167.48,-8.301,992.188
1742471907.681,999.512,-118.652,-68.359,892.578
1742471907.638,-1000.0,-59.57,2.93,-1000.0
1742471907.642,-999.512,-80.566,49.805,-1000.0
1742471907.646,-939.941,-54.199,26.855,-930.176
1742471907.65,-1000.0,-155.762,-35.156,-1000.0
1742471907.654,-192.383,132.812,19.043,-379.395
1742471907.658,999.512,544.434,38.086,973.633
1742471907.662,946.289,111.328,17.578,978.516
1742471907.665,940.918,-312.5,-16.602,926.758
1742471907.669,978.027,-123.047,-32.227,987.793
1742471907.673,942.383,-62.988,-23.438,924.805
1742471907.677,944.824,-167.48,-8.301,992.188
1742471907.681,999.512,-118.652,-68.359,892.578
1742471907.683,-181.152,-481.934,-90.82,-426.758
1742471907.687,-1000.0,-331.543,-6.836,-1000.0
1742471907.691,-941.406,-99.609,-33.203,-938.965
1742471907.695,-998.535,-260.254,-89.844,-1000.0
1742471907.699,-1000.0,-183.105,-41.992,-1000.0
1742471907.703,-1000.0,35.645,-4.883,-1000.0
1742471907.707,-1000.0,76.172,-86.914,-1000.0
1742471907.71,-1000.0,-88.379,-164.551,-1000.0
1742471907.714,-1000.0,-302.734,-156.25,-1000.0
1742471907.718,-1000.0,-264.648,-124.512,-1000.0
1742471907.722,-1000.0,-71.289,-72.754,-1000.0
1742471907.726,-1000.0,88.867,-40.527,-1000.0
1742471907.683,-181.152,-481.934,-90.82,-426.758
1742471907.687,-1000.0,-331.543,-6.836,-1000.0
1742471907.691,-941.406,-99.609,-33.203,-938.965
1742471907.695,-998.535,-260.254,-89.844,-1000.0
1742471907.699,-1000.0,-183.105,-41.992,-1000.0
1742471907.703,-1000.0,35.645,-4.883,-1000.0
1742471907.707,-1000.0,76.172,-86.914,-1000.0
1742471907.71,-1000.0,-88.379,-164.551,-1000.0
1742471907.714,-1000.0,-302.734,-156.25,-1000.0
1742471907.718,-1000.0,-264.648,-124.512,-1000.0
1742471907.722,-1000.0,-71.289,-72.754,-1000.0
1742471907.726,-1000.0,88.867,-40.527,-1000.0
1742471907.729,-1000.0,-94.727,-31.25,-1000.0
1742471907.733,-1000.0,-195.801,-76.66,-1000.0
1742471907.737,-1000.0,-113.77,-140.625,-1000.0
1742471907.741,-1000.0,-156.738,-99.609,-1000.0
1742471907.745,-938.477,-147.461,-49.805,-928.711
1742471907.749,-1000.0,5.371,-0.977,-1000.0
1742471907.753,-211.914,383.301,31.25,-527.344
1742471907.756,999.512,269.043,-25.391,882.324
1742471907.76,948.73,-238.77,-65.43,999.512
1742471907.764,939.453,-245.605,-31.738,916.016
1742471907.768,972.656,-168.457,-51.27,980.957
1742471907.772,971.191,-240.723,-55.664,970.215
1742471907.729,-1000.0,-94.727,-31.25,-1000.0
1742471907.733,-1000.0,-195.801,-76.66,-1000.0
1742471907.737,-1000.0,-113.77,-140.625,-1000.0
1742471907.741,-1000.0,-156.738,-99.609,-1000.0
1742471907.745,-938.477,-147.461,-49.805,-928.711
1742471907.749,-1000.0,5.371,-0.977,-1000.0
1742471907.753,-211.914,383.301,31.25,-527.344
1742471907.756,999.512,269.043,-25.391,882.324
1742471907.76,948.73,-238.77,-65.43,999.512
1742471907.764,939.453,-245.605,-31.738,916.016
1742471907.768,972.656,-168.457,-51.27,980.957
1742471907.772,971.191,-240.723,-55.664,970.215
1742471907.775,898.438,-422.852,-66.406,901.367
1742471907.779,999.512,-195.801,-85.938,999.512
1742471907.783,270.508,-432.617,-108.887,237.793
1742471907.787,-1000.0,-811.523,-113.281,-1000.0
1742471907.791,-997.559,-375.488,-57.129,-992.676
1742471907.795,-966.309,-106.445,-78.613,-968.75
1742471907.799,-1000.0,29.297,-31.25,-1000.0
1742471907.802,-1000.0,-150.391,12.207,-1000.0
1742471907.806,-1000.0,-277.344,-20.996,-1000.0
1742471907.81,-992.676,-274.902,-48.828,-987.305
1742471907.814,-949.707,-249.512,-66.406,-961.426
1742471907.818,-1000.0,-175.781,-7.324,-1000.0
1742471907.775,898.438,-422.852,-66.406,901.367
1742471907.779,999.512,-195.801,-85.938,999.512
1742471907.783,270.508,-432.617,-108.887,237.793
1742471907.787,-1000.0,-811.523,-113.281,-1000.0
1742471907.791,-997.559,-375.488,-57.129,-992.676
1742471907.795,-966.309,-106.445,-78.613,-968.75
1742471907.799,-1000.0,29.297,-31.25,-1000.0
1742471907.802,-1000.0,-150.391,12.207,-1000.0
1742471907.806,-1000.0,-277.344,-20.996,-1000.0
1742471907.81,-992.676,-274.902,-48.828,-987.305
1742471907.814,-949.707,-249.512,-66.406,-961.426
1742471907.818,-1000.0,-175.781,-7.324,-1000.0
1742471907.835,-83.496,309.57,49.805,-14.648
1742471907.839,999.512,391.602,15.625,999.512
1742471907.843,931.152,-12.695,-16.602,928.223
1742471907.847,949.219,-108.398,-46.387,953.125
1742471907.851,969.727,-97.168,-104.004,970.215
1742471907.855,966.309,-13.184,-107.91,966.797
1742471907.859,966.309,13.184,-12.695,967.285
1742471907.862,966.309,-104.492,21.484,967.285
1742471907.866,966.309,-193.359,-96.191,966.797
1742471907.87,966.309,-142.09,-132.812,966.797
1742471907.874,966.309,-47.363,-0.977,966.797
1742471907.878,966.309,-12.207,47.852,966.797
1742471907.878,966.309,-47.363,27.344,966.797
1742471907.882,966.309,-72.266,0.0,966.797
1742471907.886,966.309,-34.668,-15.625,966.797
1742471907.89,966.309,-45.41,-30.273,966.797
1742471907.894,966.309,-20.02,-49.805,966.797
1742471907.898,966.309,136.719,8.789,966.797
1742471907.902,966.309,22.949,-3.418,966.797
1742471907.905,966.309,-83.496,-55.664,966.797
1742471907.909,966.309,-248.535,-51.758,966.797
1742471907.913,966.309,-242.676,-10.742,966.797
1742471907.917,966.309,-23.438,22.461,966.797
1742471907.921,966.309,-38.086,20.996,966.797
1742471907.878,966.309,-47.363,27.344,966.797
1742471907.882,966.309,-72.266,0.0,966.797
1742471907.886,966.309,-34.668,-15.625,966.797
1742471907.89,966.309,-45.41,-30.273,966.797
1742471907.894,966.309,-20.02,-49.805,966.797
1742471907.898,966.309,136.719,8.789,966.797
1742471907.902,966.309,22.949,-3.418,966.797
1742471907.905,966.309,-83.496,-55.664,966.797
1742471907.909,966.309,-248.535,-51.758,966.797
1742471907.913,966.309,-242.676,-10.742,966.797
1742471907.917,966.309,-23.438,22.461,966.797
1742471907.921,966.309,-38.086,20.996,966.797
1742471907.923,966.309,-88.379,40.527,966.797
1742471907.927,966.309,5.859,86.426,966.797
1742471907.931,966.309,63.965,23.926,966.797
1742471907.935,966.309,-49.805,-16.113,966.797
1742471907.939,978.027,-1.465,85.449,979.492
1742471907.943,894.531,62.988,41.016,915.039
1742471907.947,999.512,-4.395,-90.82,999.512
1742471907.95,442.871,-347.656,-66.895,836.914
1742471907.954,-954.102,-611.328,-24.902,-544.434
1742471907.958,-1000.0,-227.051,-45.898,-1000.0
1742471907.962,-952.637,-130.371,-42.48,-936.035
1742471907.966,-1000.0,-111.328,-18.555,-1000.0
1742471907.923,966.309,-88.379,40.527,966.797
1742471907.927,966.309,5.859,86.426,966.797
1742471907.931,966.309,63.965,23.926,966.797
1742471907.935,966.309,-49.805,-16.113,966.797
1742471907.939,978.027,-1.465,85.449,979.492
1742471907.943,894.531,62.988,41.016,915.039
1742471907.947,999.512,-4.395,-90.82,999.512
1742471907.95,442.871,-347.656,-66.895,836.914
1742471907.954,-954.102,-611.328,-24.902,-544.434
1742471907.958,-1000.0,-227.051,-45.898,-1000.0
1742471907.962,-952.637,-130.371,-42.48,-936.035
1742471907.966,-1000.0,-111.328,-18.555,-1000.0
1742471907.968,-1000.0,56.641,20.02,-1000.0
1742471907.972,-1000.0,140.625,72.266,-1000.0
1742471907.976,-1000.0,22.461,0.977,-1000.0
1742471907.98,-1000.0,-87.402,-86.914,-999.512
1742471907.984,-937.5,-105.957,-69.336,-939.453
1742471907.988,-1000.0,-10.254,3.418,-1000.0
1742471907.992,-220.703,609.863,81.543,-197.754
1742471907.995,999.512,616.211,66.406,999.512
1742471907.999,950.195,-184.57,-32.227,947.754
1742471908.003,938.965,-174.316,-73.242,941.406
1742471908.007,973.145,-60.059,-68.848,973.145
1742471908.011,970.215,39.062,-30.273,975.098
1742471907.968,-1000.0,56.641,20.02,-1000.0
1742471907.972,-1000.0,140.625,72.266,-1000.0
1742471907.976,-1000.0,22.461,0.977,-1000.0
1742471907.98,-1000.0,-87.402,-86.914,-999.512
1742471907.984,-937.5,-105.957,-69.336,-939.453
1742471907.988,-1000.0,-10.254,3.418,-1000.0
1742471907.992,-220.703,609.863,81.543,-197.754
1742471907.995,999.512,616.211,66.406,999.512
1742471907.999,950.195,-184.57,-32.227,947.754
1742471908.003,938.965,-174.316,-73.242,941.406
1742471908.007,973.145,-60.059,-68.848,973.145
1742471908.011,970.215,39.062,-30.273,975.098
1742471908.013,947.754,8.789,-29.297,931.152
1742471908.017,933.594,-145.508,-36.621,976.562
1742471908.021,999.512,83.008,61.035,945.312
1742471908.025,-102.051,-293.457,40.039,-339.844
1742471908.029,-1000.0,-376.465,27.344,-1000.0
1742471908.033,-948.242,185.059,50.781,-940.43
1742471908.037,-993.652,-10.742,-52.734,-1000.0
1742471908.04,-1000.0,-248.535,-53.711,-1000.0
1742471908.044,-1000.0,-140.137,2.93,-1000.0
1742471908.048,-1000.0,-62.5,27.832,-1000.0
1742471908.052,-1000.0,89.355,57.617,-1000.0
1742471908.056,-1000.0,98.633,50.293,-1000.0
1742471908.013,947.754,8.789,-29.297,931.152
1742471908.017,933.594,-145.508,-36.621,976.562
1742471908.021,999.512,83.008,61.035,945.312
1742471908.025,-102.051,-293.457,40.039,-339.844
1742471908.029,-1000.0,-376.465,27.344,-1000.0
1742471908.033,-948.242,185.059,50.781,-940.43
1742471908.037,-993.652,-10.742,-52.734,-1000.0
1742471908.04,-1000.0,-248.535,-53.711,-1000.0
1742471908.044,-1000.0,-140.137,2.93,-1000.0
1742471908.048,-1000.0,-62.5,27.832,-1000.0
1742471908.052,-1000.0,89.355,57.617,-1000.0
1742471908.056,-1000.0,98.633,50.293,-1000.0
1742471908.059,-1000.0,-112.793,-25.879,-1000.0
1742471908.063,-1000.0,18.066,3.418,-1000.0
1742471908.067,-1000.0,106.445,24.414,-1000.0
1742471908.071,-1000.0,-113.77,-45.41,-1000.0
1742471908.075,-1000.0,-120.605,-26.855,-1000.0
1742471908.079,-1000.0,156.25,59.57,-1000.0
1742471908.083,-1000.0,228.516,72.754,-1000.0
1742471908.086,-1000.0,-46.875,23.926,-1000.0
1742471908.09,-1000.0,-190.43,-4.395,-1000.0
1742471908.094,-1000.0,-123.535,-20.508,-1000.0
1742471908.098,-1000.0,-46.387,-28.32,-1000.0
1742471908.102,-938.965,-44.434,-38.086,-933.594
1742471908.059,-1000.0,-112.793,-25.879,-1000.0
1742471908.063,-1000.0,18.066,3.418,-1000.0
1742471908.067,-1000.0,106.445,24.414,-1000.0
1742471908.071,-1000.0,-113.77,-45.41,-1000.0
1742471908.075,-1000.0,-120.605,-26.855,-1000.0
1742471908.079,-1000.0,156.25,59.57,-1000.0
1742471908.083,-1000.0,228.516,72.754,-1000.0
1742471908.086,-1000.0,-46.875,23.926,-1000.0
1742471908.09,-1000.0,-190.43,-4.395,-1000.0
1742471908.094,-1000.0,-123.535,-20.508,-1000.0
1742471908.098,-1000.0,-46.387,-28.32,-1000.0
1742471908.102,-938.965,-44.434,-38.086,-933.594
1742471908.118,-1000.0,-136.719,-54.688,-1000.0
1742471908.122,-205.566,322.266,25.391,-634.766
1742471908.126,999.512,583.008,51.758,779.785
1742471908.13,947.754,40.527,34.668,999.512
1742471908.134,939.941,-48.828,45.898,910.156
1742471908.138,979.004,89.355,53.223,991.699
1742471908.142,939.453,2.93,78.613,917.48
1742471908.145,949.707,-180.664,16.113,999.512
1742471908.149,999.512,-229.492,-35.645,812.988
1742471908.153,-213.867,-429.688,5.859,-542.969
1742471908.157,-1000.0,-125.977,28.32,-1000.0
1742471908.161,-939.453,143.066,-23.438,-938.965
1742471908.118,-1000.0,-136.719,-54.688,-1000.0
1742471908.122,-205.566,322.266,25.391,-634.766
1742471908.126,999.512,583.008,51.758,779.785
1742471908.13,947.754,40.527,34.668,999.512
1742471908.134,939.941,-48.828,45.898,910.156
1742471908.138,979.004,89.355,53.223,991.699
1742471908.142,939.453,2.93,78.613,917.48
1742471908.145,949.707,-180.664,16.113,999.512
1742471908.149,999.512,-229.492,-35.645,812.988
1742471908.153,-213.867,-429.688,5.859,-542.969
1742471908.157,-1000.0,-125.977,28.32,-1000.0
1742471908.161,-939.453,143.066,-23.438,-938.965
1742471908.163,-1000.0,-68.359,-72.754,-1000.0
1742471908.167,-1000.0,-58.594,-57.129,-1000.0
1742471908.171,-1000.0,130.371,0.977,-1000.0
1742471908.175,-1000.0,99.609,11.719,-1000.0
1742471908.179,-1000.0,88.379,4.883,-1000.0
1742471908.183,-1000.0,123.047,-31.738,-1000.0
1742471908.187,-1000.0,53.223,-46.875,-1000.0
1742471908.19,-1000.0,36.621,-41.504,-1000.0
1742471908.194,-936.035,-52.734,-38.574,-933.105
1742471908.198,-1000.0,-224.609,-33.203,-1000.0
1742471908.202,-245.117,331.543,32.715,-295.898
1742471908.206,999.512,635.254,74.707,999.512
1742471908.163,-1000.0,-68.359,-72.754,-1000.0
1742471908.167,-1000.0,-58.594,-57.129,-1000.0
1742471908.171,-1000.0,130.371,0.977,-1000.0
1742471908.175,-1000.0,99.609,11.719,-1000.0
1742471908.179,-1000.0,88.379,4.883,-1000.0
1742471908.183,-1000.0,123.047,-31.738,-1000.0
1742471908.187,-1000.0,53.223,-46.875,-1000.0
1742471908.19,-1000.0,36.621,-41.504,-1000.0
1742471908.194,-936.035,-52.734,-38.574,-933.105
1742471908.198,-1000.0,-224.609,-33.203,-1000.0
1742471908.202,-245.117,331.543,32.715,-295.898
1742471908.206,999.512,635.254,74.707,999.512
1742471908.208,954.102,-26.855,-16.602,963.379
1742471908.212,937.012,-119.629,-71.289,933.594
1742471908.216,973.633,40.527,-34.668,975.586
1742471908.22,966.309,-10.742,23.438,967.285
1742471908.224,980.469,-89.844,-16.113,977.539
1742471908.228,891.602,57.129,-24.414,895.02
1742471908.232,999.512,127.93,58.105,999.512
1742471908.235,509.766,-415.527,-30.762,420.898
1742471908.239,-924.316,-840.332,-114.258,-966.797
1742471908.243,-1000.0,-166.504,-50.781,-1000.0
1742471908.247,-946.777,35.645,-37.109,-954.102
1742471908.251,-1000.0,-157.715,-61.035,-1000.0
1742471908.208,954.102,-26.855,-16.602,963.379
1742471908.212,937.012,-119.629,-71.289,933.594
1742471908.216,973.633,40.527,-34.668,975.586
1742471908.22,966.309,-10.742,23.438,967.285
1742471908.224,980.469,-89.844,-16.113,977.539
1742471908.228,891.602,57.129,-24.414,895.02
1742471908.232,999.512,127.93,58.105,999.512
1742471908.235,509.766,-415.527,-30.762,420.898
1742471908.239,-924.316,-840.332,-114.258,-966.797
1742471908.243,-1000.0,-166.504,-50.781,-1000.0
1742471908.247,-946.777,35.645,-37.109,-954.102
1742471908.251,-1000.0,-157.715,-61.035,-1000.0
1742471908.253,-1000.0,-115.234,11.719,-1000.0
1742471908.257,-1000.0,-43.457,90.332,-1000.0
1742471908.261,-1000.0,62.012,79.59,-1000.0
1742471908.265,-1000.0,-34.668,-14.16,-1000.0
1742471908.269,-1000.0,-159.18,-113.281,-1000.0
1742471908.273,-1000.0,41.016,-67.871,-1000.0
1742471908.277,-1000.0,147.461,-14.16,-1000.0
1742471908.28,-1000.0,-35.645,-77.148,-1000.0
1742471908.284,-1000.0,-250.488,-111.816,-1000.0
1742471908.288,-999.512,-169.434,-61.523,-1000.0
1742471908.292,-939.941,-3.906,-36.621,-937.012
1742471908.296,-1000.0,-11.719,-36.133,-1000.0
1742471908.298,-197.266,433.105,-10.254,-230.469
1742471908.302,999.512,501.953,5.859,999.512
1742471908.306,946.777,-29.297,-18.555,952.148
1742471908.31,940.918,-176.27,-60.547,938.965
1742471908.314,975.586,-145.02,-119.141,981.445
1742471908.318,950.195,63.965,-83.984,935.059
1742471908.322,929.199,188.965,5.371,967.285
1742471908.325,999.512,-49.316,-21.973,968.75
1742471908.329,-68.848,-464.844,-48.34,-284.18
1742471908.333,-1000.0,-172.852,6.836,-1000.0
1742471908.337,-951.66,178.711,-45.41,-943.359
1742471908.341,-991.699,48.34,-129.395,-1000.0
1742471908.298,-197.266,433.105,-10.254,-230.469
1742471908.302,999.512,501.953,5.859,999.512
1742471908.306,946.777,-29.297,-18.555,952.148
1742471908.31,940.918,-176.27,-60.547,938.965
1742471908.314,975.586,-145.02,-119.141,981.445
1742471908.318,950.195,63.965,-83.984,935.059
1742471908.322,929.199,188.965,5.371,967.285
1742471908.325,999.512,-49.316,-21.973,968.75
1742471908.329,-68.848,-464.844,-48.34,-284.18
1742471908.333,-1000.0,-172.852,6.836,-1000.0
1742471908.337,-951.66,178.711,-45.41,-943.359
1742471908.341,-991.699,48.34,-129.395,-1000.0
1742471908.344,-1000.0,52.246,-83.984,-1000.0
1742471908.348,-1000.0,151.367,-5.371,-1000.0
1742471908.352,-1000.0,535.156,68.359,-1000.0
1742471908.356,-1000.0,423.34,-44.922,-1000.0
1742471908.36,-1000.0,-71.777,-185.059,-1000.0
1742471908.364,-1000.0,165.039,-163.574,-1000.0
1742471908.368,-1000.0,419.434,-83.984,-1000.0
1742471908.371,-1000.0,229.004,-79.102,-1000.0
1742471908.375,-937.5,52.734,-199.707,-957.031
1742471908.379,-1000.0,-11.719,-226.074,-1000.0
1742471908.383,-747.07,333.008,-140.625,-938.965
1742471908.387,677.734,690.918,-180.664,403.809
1742471908.388,999.512,249.023,-199.707,999.512
1742471908.392,903.32,120.117,-152.832,902.344
1742471908.396,979.98,227.051,-272.461,974.121
1742471908.4,966.309,185.547,-215.82,966.797
1742471908.404,966.309,260.254,-112.305,966.797
1742471908.408,966.309,292.48,-110.84,966.797
1742471908.412,966.309,254.883,-81.055,967.285
1742471908.415,966.797,-104.492,-157.227,966.309
1742471908.419,903.32,-170.41,-184.082,905.762
1742471908.423,999.512,269.043,-65.43,999.512
1742471908.427,187.012,-195.801,4.395,170.898
1742471908.431,-1000.0,-575.195,-69.824,-1000.0
1742471908.388,999.512,249.023,-199.707,999.512
1742471908.392,903.32,120.117,-152.832,902.344
1742471908.396,979.98,227.051,-272.461,974.121
1742471908.4,966.309,185.547,-215.82,966.797
1742471908.404,966.309,260.254,-112.305,966.797
1742471908.408,966.309,292.48,-110.84,966.797
1742471908.412,966.309,254.883,-81.055,967.285
1742471908.415,966.797,-104.492,-157.227,966.309
1742471908.419,903.32,-170.41,-184.082,905.762
1742471908.423,999.512,269.043,-65.43,999.512
1742471908.427,187.012,-195.801,4.395,170.898
1742471908.431,-1000.0,-575.195,-69.824,-1000.0
1742471908.433,-983.887,-183.594,-151.367,-981.934
1742471908.437,-973.145,-124.023,-159.18,-974.121
1742471908.441,-1000.0,-63.477,-188.477,-1000.0
1742471908.445,-1000.0,62.5,-137.207,-1000.0
1742471908.449,-1000.0,84.961,27.344,-1000.0
1742471908.453,-1000.0,187.012,24.902,-1000.0
1742471908.457,-1000.0,128.906,-112.305,-1000.0
1742471908.46,-1000.0,-71.289,-198.242,-1000.0
1742471908.464,-1000.0,-125.977,-218.262,-1000.0
1742471908.468,-1000.0,0.977,-85.938,-1000.0
1742471908.472,-1000.0,94.727,-127.93,-1000.0
1742471908.476,-1000.0,-104.98,-228.516,-1000.0
1742471908.433,-983.887,-183.594,-151.367,-981.934
1742471908.437,-973.145,-124.023,-159.18,-974.121
1742471908.441,-1000.0,-63.477,-188.477,-1000.0
1742471908.445,-1000.0,62.5,-137.207,-1000.0
1742471908.449,-1000.0,84.961,27.344,-1000.0
1742471908.453,-1000.0,187.012,24.902,-1000.0
1742471908.457,-1000.0,128.906,-112.305,-1000.0
1742471908.46,-1000.0,-71.289,-198.242,-1000.0
1742471908.464,-1000.0,-125.977,-218.262,-1000.0
1742471908.468,-1000.0,0.977,-85.938,-1000.0
1742471908.472,-1000.0,94.727,-127.93,-1000.0
1742471908.476,-1000.0,-104.98,-228.516,-1000.0
1742471908.433,-983.887,-183.594,-151.367,-981.934
1742471908.437,-973.145,-124.023,-159.18,-974.121
1742471908.441,-1000.0,-63.477,-188.477,-1000.0
1742471908.445,-1000.0,62.5,-137.207,-1000.0
1742471908.449,-1000.0,84.961,27.344,-1000.0
1742471908.453,-1000.0,187.012,24.902,-1000.0
1742471908.457,-1000.0,128.906,-112.305,-1000.0
1742471908.46,-1000.0,-71.289,-198.242,-1000.0
1742471908.464,-1000.0,-125.977,-218.262,-1000.0
1742471908.468,-1000.0,0.977,-85.938,-1000.0
1742471908.472,-1000.0,94.727,-127.93,-1000.0
1742471908.476,-1000.0,-104.98,-228.516,-1000.0
1742471908.478,-1000.0,-138.184,-131.348,-1000.0
1742471908.482,-968.75,-105.469,-84.473,-995.117
1742471908.486,-997.07,-26.367,-45.898,-946.777
1742471908.49,-1000.0,-5.859,7.324,-1000.0
1742471908.494,242.188,463.379,114.258,-124.512
1742471908.498,999.512,493.164,-3.906,999.512
1742471908.502,905.762,-93.262,-205.566,937.988
1742471908.505,967.285,-188.965,-158.203,946.777
1742471908.509,979.492,-146.973,-49.805,984.863
1742471908.513,914.551,20.508,41.992,904.297
1742471908.517,999.512,108.398,-9.277,999.512
1742471908.521,849.121,-226.074,-62.988,666.992
1742471908.478,-1000.0,-138.184,-131.348,-1000.0
1742471908.482,-968.75,-105.469,-84.473,-995.117
1742471908.486,-997.07,-26.367,-45.898,-946.777
1742471908.49,-1000.0,-5.859,7.324,-1000.0
1742471908.494,242.188,463.379,114.258,-124.512
1742471908.498,999.512,493.164,-3.906,999.512
1742471908.502,905.762,-93.262,-205.566,937.988
1742471908.505,967.285,-188.965,-158.203,946.777
1742471908.509,979.492,-146.973,-49.805,984.863
1742471908.513,914.551,20.508,41.992,904.297
1742471908.517,999.512,108.398,-9.277,999.512
1742471908.521,849.121,-226.074,-62.988,666.992
1742471908.538,-540.039,-636.23,-41.992,-740.234
1742471908.542,-1000.0,-345.215,-19.531,-1000.0
1742471908.546,-933.594,-55.664,-2.93,-940.918
1742471908.55,-1000.0,-101.562,-19.531,-1000.0
1742471908.554,-1000.0,-155.762,-69.824,-1000.0
1742471908.558,-1000.0,7.812,-43.945,-1000.0
1742471908.562,-1000.0,38.086,-47.852,-1000.0
1742471908.565,-1000.0,-194.336,-125.0,-1000.0
1742471908.569,-1000.0,-217.285,-66.895,-1000.0
1742471908.573,-1000.0,-11.719,99.609,-1000.0
1742471908.577,-1000.0,-16.602,66.406,-1000.0
1742471908.581,-1000.0,-85.449,-29.785,-1000.0
1742471908.538,-540.039,-636.23,-41.992,-740.234
1742471908.542,-1000.0,-345.215,-19.531,-1000.0
1742471908.546,-933.594,-55.664,-2.93,-940.918
1742471908.55,-1000.0,-101.562,-19.531,-1000.0
1742471908.554,-1000.0,-155.762,-69.824,-1000.0
1742471908.558,-1000.0,7.812,-43.945,-1000.0
1742471908.562,-1000.0,38.086,-47.852,-1000.0
1742471908.565,-1000.0,-194.336,-125.0,-1000.0
1742471908.569,-1000.0,-217.285,-66.895,-1000.0
1742471908.573,-1000.0,-11.719,99.609,-1000.0
1742471908.577,-1000.0,-16.602,66.406,-1000.0
1742471908.581,-1000.0,-85.449,-29.785,-1000.0
1742471908.583,-1000.0,-104.004,-13.184,-1000.0
1742471908.587,-965.82,-182.129,52.734,-986.816
1742471908.591,-1000.0,-54.199,74.707,-959.473
1742471908.595,-1000.0,48.34,117.188,-1000.0
1742471908.599,282.715,446.777,164.062,-3.418
1742471908.603,999.512,429.688,54.688,999.512
1742471908.607,904.297,-85.938,-24.414,922.852
1742471908.61,969.238,-228.516,-38.574,955.566
1742471908.614,966.309,-179.688,-18.555,969.238
1742471908.618,966.309,-71.289,72.266,966.797
1742471908.622,966.309,66.895,210.938,966.797
1742471908.626,966.309,79.102,284.18,966.797
1742471908.583,-1000.0,-104.004,-13.184,-1000.0
1742471908.587,-965.82,-182.129,52.734,-986.816
1742471908.591,-1000.0,-54.199,74.707,-959.473
1742471908.595,-1000.0,48.34,117.188,-1000.0
1742471908.599,282.715,446.777,164.062,-3.418
1742471908.603,999.512,429.688,54.688,999.512
1742471908.607,904.297,-85.938,-24.414,922.852
1742471908.61,969.238,-228.516,-38.574,955.566
1742471908.614,966.309,-179.688,-18.555,969.238
1742471908.618,966.309,-71.289,72.266,966.797
1742471908.622,966.309,66.895,210.938,966.797
1742471908.626,966.309,79.102,284.18,966.797
1742471908.644,966.309,-168.457,146.973,966.797
1742471908.648,976.074,-258.789,72.754,975.586
1742471908.652,927.246,62.5,270.508,928.711
1742471908.656,978.516,81.543,317.383,984.375
1742471908.66,951.172,-346.191,116.211,911.621
1742471908.664,-371.094,-580.566,63.477,-382.812
1742471908.668,-1000.0,-329.59,127.441,-1000.0
1742471908.671,-935.059,-92.773,196.777,-940.918
1742471908.675,-1000.0,-215.82,217.285,-1000.0
1742471908.679,-1000.0,-264.16,93.262,-1000.0
1742471908.683,-1000.0,-206.055,-2.441,-1000.0
1742471908.687,-926.758,-131.836,44.434,-929.688
1742471908.644,966.309,-168.457,146.973,966.797
1742471908.648,976.074,-258.789,72.754,975.586
1742471908.652,927.246,62.5,270.508,928.711
1742471908.656,978.516,81.543,317.383,984.375
1742471908.66,951.172,-346.191,116.211,911.621
1742471908.664,-371.094,-580.566,63.477,-382.812
1742471908.668,-1000.0,-329.59,127.441,-1000.0
1742471908.671,-935.059,-92.773,196.777,-940.918
1742471908.675,-1000.0,-215.82,217.285,-1000.0
1742471908.679,-1000.0,-264.16,93.262,-1000.0
1742471908.683,-1000.0,-206.055,-2.441,-1000.0
1742471908.687,-926.758,-131.836,44.434,-929.688
1742471908.673,-1000.0,-141.113,163.574,-1000.0
1742471908.677,-464.355,294.434,219.727,-398.926
1742471908.681,936.523,646.973,154.297,963.867
1742471908.685,992.676,49.316,81.543,981.934
1742471908.689,919.434,-178.223,29.297,925.293
1742471908.693,979.492,-58.594,6.348,978.516
1742471908.697,966.309,88.379,29.297,966.797
1742471908.7,966.309,10.254,102.539,966.797
1742471908.704,966.309,-198.242,145.508,966.797
1742471908.708,966.309,-264.16,19.531,966.797
1742471908.712,966.309,-172.363,12.207,966.797
1742471908.716,966.309,16.602,66.406,966.797
1742471908.673,-1000.0,-141.113,163.574,-1000.0
1742471908.677,-464.355,294.434,219.727,-398.926
1742471908.681,936.523,646.973,154.297,963.867
1742471908.685,992.676,49.316,81.543,981.934
1742471908.689,919.434,-178.223,29.297,925.293
1742471908.693,979.492,-58.594,6.348,978.516
1742471908.697,966.309,88.379,29.297,966.797
1742471908.7,966.309,10.254,102.539,966.797
1742471908.704,966.309,-198.242,145.508,966.797
1742471908.708,966.309,-264.16,19.531,966.797
1742471908.712,966.309,-172.363,12.207,966.797
1742471908.716,966.309,16.602,66.406,966.797
1742471908.673,-1000.0,-141.113,163.574,-1000.0
1742471908.677,-464.355,294.434,219.727,-398.926
1742471908.681,936.523,646.973,154.297,963.867
1742471908.685,992.676,49.316,81.543,981.934
1742471908.689,919.434,-178.223,29.297,925.293
1742471908.693,979.492,-58.594,6.348,978.516
1742471908.697,966.309,88.379,29.297,966.797
1742471908.7,966.309,10.254,102.539,966.797
1742471908.704,966.309,-198.242,145.508,966.797
1742471908.708,966.309,-264.16,19.531,966.797
1742471908.712,966.309,-172.363,12.207,966.797
1742471908.716,966.309,16.602,66.406,966.797
1742471908.718,966.309,-77.637,5.859,966.797
1742471908.722,966.309,-138.672,-38.086,966.797
1742471908.726,966.309,-93.75,-87.402,966.797
1742471908.73,966.309,-73.242,-44.434,967.285
1742471908.734,968.262,-77.148,23.926,976.562
1742471908.738,902.344,4.883,4.883,895.02
1742471908.742,999.512,123.535,-24.414,999.512
1742471908.745,208.008,-347.168,-36.621,383.789
1742471908.749,-1000.0,-850.586,-110.84,-990.723
1742471908.753,-987.305,-355.957,-82.52,-1000.0
1742471908.757,-971.191,-22.949,-45.41,-957.031
1742471908.761,-1000.0,-129.883,-42.969,-1000.0
1742471908.765,-1000.0,-228.027,-76.66,-1000.0
1742471908.769,-925.781,-141.113,-119.141,-929.199
1742471908.773,-1000.0,-173.828,-138.672,-1000.0
1742471908.777,-570.801,40.039,-147.949,-421.875
1742471908.781,874.512,437.5,-109.375,950.195
1742471908.785,999.512,148.926,-47.852,986.816
1742471908.789,910.645,-65.918,-32.227,923.34
1742471908.792,981.934,-274.414,-51.758,979.004
1742471908.796,966.309,-398.438,-45.898,966.797
1742471908.8,966.309,-187.5,-31.25,966.797
1742471908.804,966.309,-201.172,-187.988,966.797
1742471908.808,966.309,-468.75,-320.312,967.285
1742471908.765,-1000.0,-228.027,-76.66,-1000.0
1742471908.769,-925.781,-141.113,-119.141,-929.199
1742471908.773,-1000.0,-173.828,-138.672,-1000.0
1742471908.777,-570.801,40.039,-147.949,-421.875
1742471908.781,874.512,437.5,-109.375,950.195
1742471908.785,999.512,148.926,-47.852,986.816
1742471908.789,910.645,-65.918,-32.227,923.34
1742471908.792,981.934,-274.414,-51.758,979.004
1742471908.796,966.309,-398.438,-45.898,966.797
1742471908.8,966.309,-187.5,-31.25,966.797
1742471908.804,966.309,-201.172,-187.988,966.797
1742471908.808,966.309,-468.75,-320.312,967.285
1742471908.808,966.309,-392.578,-207.031,966.797
1742471908.812,966.309,-233.887,-116.211,966.797
1742471908.816,966.309,-106.934,-47.363,966.797
1742471908.82,966.309,-180.664,-26.367,966.797
1742471908.824,978.516,-180.664,9.766,968.262
1742471908.828,914.551,57.129,71.777,961.426
1742471908.832,999.512,128.906,122.559,914.062
1742471908.835,827.637,-250.0,30.762,999.512
1742471908.839,-553.223,-863.77,-83.008,86.914
1742471908.843,-1000.0,-568.848,-25.391,-1000.0
1742471908.847,-935.547,118.652,154.785,-971.191
1742471908.851,-1000.0,-17.578,134.766,-980.469
1742471908.808,966.309,-392.578,-207.031,966.797
1742471908.812,966.309,-233.887,-116.211,966.797
1742471908.816,966.309,-106.934,-47.363,966.797
1742471908.82,966.309,-180.664,-26.367,966.797
1742471908.824,978.516,-180.664,9.766,968.262
1742471908.828,914.551,57.129,71.777,961.426
1742471908.832,999.512,128.906,122.559,914.062
1742471908.835,827.637,-250.0,30.762,999.512
1742471908.839,-553.223,-863.77,-83.008,86.914
1742471908.843,-1000.0,-568.848,-25.391,-1000.0
1742471908.847,-935.547,118.652,154.785,-971.191
1742471908.851,-1000.0,-17.578,134.766,-980.469
1742471908.854,-1000.0,-181.641,-12.207,-1000.0
1742471908.858,-1000.0,-140.625,-98.633,-1000.0
1742471908.862,-928.711,-81.055,-133.789,-933.594
1742471908.866,-1000.0,-211.914,-153.809,-1000.0
1742471908.87,-389.16,133.789,-72.754,-288.574
1742471908.874,973.633,809.57,100.098,999.512
1742471908.878,978.516,264.16,33.203,962.402
1742471908.881,925.293,-269.043,-81.055,934.57
1742471908.885,977.539,-113.281,-68.359,975.586
1742471908.889,966.309,56.641,-42.969,966.797
1742471908.893,966.309,201.66,24.414,966.797
1742471908.897,966.309,51.27,-56.641,966.797
1742471908.854,-1000.0,-181.641,-12.207,-1000.0
1742471908.858,-1000.0,-140.625,-98.633,-1000.0
1742471908.862,-928.711,-81.055,-133.789,-933.594
1742471908.866,-1000.0,-211.914,-153.809,-1000.0
1742471908.87,-389.16,133.789,-72.754,-288.574
1742471908.874,973.633,809.57,100.098,999.512
1742471908.878,978.516,264.16,33.203,962.402
1742471908.881,925.293,-269.043,-81.055,934.57
1742471908.885,977.539,-113.281,-68.359,975.586
1742471908.889,966.309,56.641,-42.969,966.797
1742471908.893,966.309,201.66,24.414,966.797
1742471908.897,966.309,51.27,-56.641,966.797
1742471908.928,966.309,-167.48,-222.168,966.797
1742471908.932,966.309,-163.086,-195.801,966.797
1742471908.936,966.309,57.617,-104.98,966.797
1742471908.94,966.309,125.0,-87.402,966.797
1742471908.944,966.309,0.977,-30.762,966.797
1742471908.948,966.309,172.363,-37.109,966.797
1742471908.952,966.309,117.188,-132.324,966.797
1742471908.955,966.309,-77.148,-119.629,966.797
1742471908.959,966.309,-215.82,-139.16,966.797
1742471908.963,979.004,-179.688,-165.527,968.75
1742471908.967,909.668,73.242,-112.305,958.496
1742471908.971,999.512,173.828,-24.414,918.457
1742471908.928,966.309,-167.48,-222.168,966.797
1742471908.932,966.309,-163.086,-195.801,966.797
1742471908.936,966.309,57.617,-104.98,966.797
1742471908.94,966.309,125.0,-87.402,966.797
1742471908.944,966.309,0.977,-30.762,966.797
1742471908.948,966.309,172.363,-37.109,966.797
1742471908.952,966.309,117.188,-132.324,966.797
1742471908.955,966.309,-77.148,-119.629,966.797
1742471908.959,966.309,-215.82,-139.16,966.797
1742471908.963,979.004,-179.688,-165.527,968.75
1742471908.967,909.668,73.242,-112.305,958.496
1742471908.971,999.512,173.828,-24.414,918.457
1742471908.959,756.348,-3.906,-59.082,999.512
1742471908.963,-635.254,-402.832,-70.312,46.387
1742471908.967,-1000.0,-336.426,-67.871,-1000.0
1742471908.971,-948.242,-76.66,-129.883,-979.004
1742471908.975,-971.68,-101.562,-116.211,-925.781
1742471908.979,-1000.0,68.848,-42.48,-1000.0
1742471908.983,-979.98,384.766,79.102,-776.367
1742471908.986,353.516,531.25,54.199,617.676
1742471908.99,999.512,110.352,-95.215,999.512
1742471908.994,900.391,-137.695,-152.344,905.273
1742471908.998,972.656,-16.113,-118.164,978.516
1742471909.002,966.309,84.473,-28.809,966.797
1742471908.959,756.348,-3.906,-59.082,999.512
1742471908.963,-635.254,-402.832,-70.312,46.387
1742471908.967,-1000.0,-336.426,-67.871,-1000.0
1742471908.971,-948.242,-76.66,-129.883,-979.004
1742471908.975,-971.68,-101.562,-116.211,-925.781
1742471908.979,-1000.0,68.848,-42.48,-1000.0
1742471908.983,-979.98,384.766,79.102,-776.367
1742471908.986,353.516,531.25,54.199,617.676
1742471908.99,999.512,110.352,-95.215,999.512
1742471908.994,900.391,-137.695,-152.344,905.273
1742471908.998,972.656,-16.113,-118.164,978.516
1742471909.002,966.309,84.473,-28.809,966.797
1742471908.959,756.348,-3.906,-59.082,999.512
1742471908.963,-635.254,-402.832,-70.312,46.387
1742471908.967,-1000.0,-336.426,-67.871,-1000.0
1742471908.971,-948.242,-76.66,-129.883,-979.004
1742471908.975,-971.68,-101.562,-116.211,-925.781
1742471908.979,-1000.0,68.848,-42.48,-1000.0
1742471908.983,-979.98,384.766,79.102,-776.367
1742471908.986,353.516,531.25,54.199,617.676
1742471908.99,999.512,110.352,-95.215,999.512
1742471908.994,900.391,-137.695,-152.344,905.273
1742471908.998,972.656,-16.113,-118.164,978.516
1742471909.002,966.309,84.473,-28.809,966.797
1742471909.003,966.309,-164.062,-76.66,966.797
1742471909.007,966.309,-82.52,-48.828,966.797
1742471909.011,966.309,101.074,-8.789,966.797
1742471909.015,966.309,-40.039,-60.547,966.797
1742471909.019,981.445,0.977,-53.711,979.98
1742471909.023,895.508,166.504,-8.301,897.949
1742471909.027,999.512,287.598,58.594,999.512
1742471909.03,612.793,-121.094,45.898,555.176
1742471909.034,-832.52,-518.066,84.473,-858.398
1742471909.038,-1000.0,-155.273,141.113,-1000.0
1742471909.042,-940.918,23.438,66.895,-945.801
1742471909.046,-1000.0,-15.625,20.02,-1000.0
1742471909.003,966.309,-164.062,-76.66,966.797
1742471909.007,966.309,-82.52,-48.828,966.797
1742471909.011,966.309,101.074,-8.789,966.797
1742471909.015,966.309,-40.039,-60.547,966.797
1742471909.019,981.445,0.977,-53.711,979.98
1742471909.023,895.508,166.504,-8.301,897.949
1742471909.027,999.512,287.598,58.594,999.512
1742471909.03,612.793,-121.094,45.898,555.176
1742471909.034,-832.52,-518.066,84.473,-858.398
1742471909.038,-1000.0,-155.273,141.113,-1000.0
1742471909.042,-940.918,23.438,66.895,-945.801
1742471909.046,-1000.0,-15.625,20.02,-1000.0
1742471909.05,-1000.0,-41.504,27.344,-1000.0
1742471909.054,-1000.0,-1.465,-28.809,-1000.0
1742471909.058,-1000.0,157.715,-4.395,-1000.0
1742471909.062,-1000.0,114.258,56.152,-1000.0
1742471909.066,-1000.0,-77.148,-3.418,-1000.0
1742471909.07,-1000.0,15.137,-51.27,-1000.0
1742471909.074,-937.5,62.012,-50.781,-936.523
1742471909.077,-1000.0,-153.32,11.23,-1000.0
1742471909.081,-220.703,189.941,36.133,-243.652
1742471909.085,999.512,492.188,4.883,999.512
1742471909.089,949.707,144.531,-5.371,954.59
1742471909.093,938.965,-4.883,-18.066,937.988
1742471909.05,-1000.0,-41.504,27.344,-1000.0
1742471909.054,-1000.0,-1.465,-28.809,-1000.0
1742471909.058,-1000.0,157.715,-4.395,-1000.0
1742471909.062,-1000.0,114.258,56.152,-1000.0
1742471909.066,-1000.0,-77.148,-3.418,-1000.0
1742471909.07,-1000.0,15.137,-51.27,-1000.0
1742471909.074,-937.5,62.012,-50.781,-936.523
1742471909.077,-1000.0,-153.32,11.23,-1000.0
1742471909.081,-220.703,189.941,36.133,-243.652
1742471909.085,999.512,492.188,4.883,999.512
1742471909.089,949.707,144.531,-5.371,954.59
1742471909.093,938.965,-4.883,-18.066,937.988
1742471909.093,973.145,-77.637,-31.738,974.609
1742471909.097,966.309,18.555,22.949,966.797
1742471909.101,966.309,55.664,26.855,966.797
1742471909.105,966.309,-84.473,-8.301,966.797
1742471909.109,966.309,-95.703,-3.906,966.797
1742471909.113,980.469,33.691,20.02,979.492
1742471909.117,891.602,19.043,52.734,894.531
1742471909.12,999.512,-79.59,34.18,999.512
1742471909.124,508.789,-544.922,-48.828,482.422
1742471909.128,-925.293,-743.652,-37.598,-929.199
1742471909.132,-1000.0,-161.133,38.574,-1000.0
1742471909.136,-946.777,-124.023,-20.996,-949.707
1742471909.093,973.145,-77.637,-31.738,974.609
1742471909.097,966.309,18.555,22.949,966.797
1742471909.101,966.309,55.664,26.855,966.797
1742471909.105,966.309,-84.473,-8.301,966.797
1742471909.109,966.309,-95.703,-3.906,966.797
1742471909.113,980.469,33.691,20.02,979.492
1742471909.117,891.602,19.043,52.734,894.531
1742471909.12,999.512,-79.59,34.18,999.512
1742471909.124,508.789,-544.922,-48.828,482.422
1742471909.128,-925.293,-743.652,-37.598,-929.199
1742471909.132,-1000.0,-161.133,38.574,-1000.0
1742471909.136,-946.777,-124.023,-20.996,-949.707
1742471909.139,-1000.0,-125.0,-62.5,-1000.0
1742471909.143,-1000.0,-67.383,-34.668,-1000.0
1742471909.147,-1000.0,-223.633,-53.711,-1000.0
1742471909.151,-1000.0,-189.941,-50.293,-1000.0
1742471909.155,-1000.0,-68.359,-8.789,-1000.0
1742471909.159,-1000.0,96.191,8.789,-1000.0
1742471909.163,-1000.0,70.312,35.156,-1000.0
1742471909.166,-1000.0,-122.559,31.25,-1000.0
1742471909.17,-1000.0,-166.992,15.137,-1000.0
1742471909.174,-1000.0,-80.078,-15.137,-1000.0
1742471909.178,-1000.0,-89.355,-104.004,-1000.0
1742471909.182,-984.375,-100.586,-100.098,-990.234
1742471909.139,-1000.0,-125.0,-62.5,-1000.0
1742471909.143,-1000.0,-67.383,-34.668,-1000.0
1742471909.147,-1000.0,-223.633,-53.711,-1000.0
1742471909.151,-1000.0,-189.941,-50.293,-1000.0
1742471909.155,-1000.0,-68.359,-8.789,-1000.0
1742471909.159,-1000.0,96.191,8.789,-1000.0
1742471909.163,-1000.0,70.312,35.156,-1000.0
1742471909.166,-1000.0,-122.559,31.25,-1000.0
1742471909.17,-1000.0,-166.992,15.137,-1000.0
1742471909.174,-1000.0,-80.078,-15.137,-1000.0
1742471909.178,-1000.0,-89.355,-104.004,-1000.0
1742471909.182,-984.375,-100.586,-100.098,-990.234
1742471909.183,-963.379,-24.414,-58.105,-954.59
1742471909.187,-1000.0,-109.375,-71.777,-1000.0
1742471909.191,34.668,334.473,-10.742,-52.246
1742471909.195,999.512,522.461,66.406,999.512
1742471909.199,917.48,-141.602,7.324,929.199
1742471909.203,957.52,-75.684,-17.578,951.66
1742471909.207,967.773,104.004,-38.574,970.215
1742471909.21,966.309,-117.676,-85.938,968.262
1742471909.214,966.797,-291.504,-121.094,961.426
1742471909.218,903.32,-203.125,-115.723,914.551
1742471909.222,999.512,12.695,-74.219,999.512
1742471909.226,187.012,-479.98,-52.246,97.656
1742471909.183,-963.379,-24.414,-58.105,-954.59
1742471909.187,-1000.0,-109.375,-71.777,-1000.0
1742471909.191,34.668,334.473,-10.742,-52.246
1742471909.195,999.512,522.461,66.406,999.512
1742471909.199,917.48,-141.602,7.324,929.199
1742471909.203,957.52,-75.684,-17.578,951.66
1742471909.207,967.773,104.004,-38.574,970.215
1742471909.21,966.309,-117.676,-85.938,968.262
1742471909.214,966.797,-291.504,-121.094,961.426
1742471909.218,903.32,-203.125,-115.723,914.551
1742471909.222,999.512,12.695,-74.219,999.512
1742471909.226,187.012,-479.98,-52.246,97.656
1742471909.228,-1000.0,-562.012,-11.719,-1000.0
1742471909.232,-983.887,-53.223,-9.766,-974.121
1742471909.236,-973.145,39.551,30.762,-979.004
1742471909.24,-1000.0,-47.852,3.418,-1000.0
1742471909.244,-1000.0,-235.84,-90.82,-1000.0
1742471909.248,-1000.0,33.203,-55.176,-1000.0
1742471909.252,-1000.0,185.059,-38.086,-1000.0
1742471909.255,-1000.0,-118.652,-64.453,-1000.0
1742471909.259,-1000.0,-225.586,-77.637,-997.07
1742471909.263,-937.988,-28.809,-2.93,-943.359
1742471909.267,-1000.0,-57.129,12.207,-1000.0
1742471909.271,-214.355,346.68,-50.781,-161.621
1742471909.228,-1000.0,-562.012,-11.719,-1000.0
1742471909.232,-983.887,-53.223,-9.766,-974.121
1742471909.236,-973.145,39.551,30.762,-979.004
1742471909.24,-1000.0,-47.852,3.418,-1000.0
1742471909.244,-1000.0,-235.84,-90.82,-1000.0
1742471909.248,-1000.0,33.203,-55.176,-1000.0
1742471909.252,-1000.0,185.059,-38.086,-1000.0
1742471909.255,-1000.0,-118.652,-64.453,-1000.0
1742471909.259,-1000.0,-225.586,-77.637,-997.07
1742471909.263,-937.988,-28.809,-2.93,-943.359
1742471909.267,-1000.0,-57.129,12.207,-1000.0
1742471909.271,-214.355,346.68,-50.781,-161.621
1742471909.288,999.512,411.621,-42.969,999.512
1742471909.292,948.73,-48.34,-29.297,942.871
1742471909.296,939.453,6.836,-32.227,943.848
1742471909.3,972.656,-46.387,-47.363,972.656
1742471909.304,966.309,-125.0,-34.668,966.797
1742471909.308,966.309,65.918,24.414,966.797
1742471909.312,966.309,127.441,-4.883,966.797
1742471909.315,966.309,-148.438,-86.426,966.797
1742471909.319,966.309,-180.176,-63.477,966.797
1742471909.323,966.309,-185.059,-40.039,966.797
1742471909.327,966.309,-149.414,-20.996,966.797
1742471909.331,966.309,-81.055,-28.32,966.797
1742471909.288,999.512,411.621,-42.969,999.512
1742471909.292,948.73,-48.34,-29.297,942.871
1742471909.296,939.453,6.836,-32.227,943.848
1742471909.3,972.656,-46.387,-47.363,972.656
1742471909.304,966.309,-125.0,-34.668,966.797
1742471909.308,966.309,65.918,24.414,966.797
1742471909.312,966.309,127.441,-4.883,966.797
1742471909.315,966.309,-148.438,-86.426,966.797
1742471909.319,966.309,-180.176,-63.477,966.797
1742471909.323,966.309,-185.059,-40.039,966.797
1742471909.327,966.309,-149.414,-20.996,966.797
1742471909.331,966.309,-81.055,-28.32,966.797
1742471909.335,966.309,-171.387,-70.312,966.797
1742471909.339,966.309,-76.172,-27.832,966.797
1742471909.343,970.703,67.383,50.293,970.215
1742471909.347,944.824,-48.34,21.484,950.684
1742471909.351,939.453,-99.121,-14.16,932.129
1742471909.355,999.512,109.375,-47.363,999.512
1742471909.359,-142.578,-382.324,-71.289,-66.406
1742471909.362,-1000.0,-640.625,-21.484,-1000.0
1742471909.366,-945.312,-131.836,1.953,-954.59
1742471909.37,-996.094,-63.477,-13.184,-990.234
1742471909.374,-1000.0,66.895,-8.789,-1000.0
1742471909.378,-1000.0,98.633,12.207,-1000.0
1742471909.378,-1000.0,-190.918,-5.371,-1000.0
1742471909.382,-1000.0,-68.848,-3.418,-1000.0
1742471909.386,-1000.0,54.199,0.488,-996.094
1742471909.39,-938.477,-113.281,-42.969,-945.312
1742471909.394,-1000.0,-116.699,-33.203,-1000.0
1742471909.398,-208.984,408.691,-15.137,-143.066
1742471909.402,999.512,481.934,-26.367,999.512
1742471909.405,948.242,12.695,21.484,940.43
1742471909.409,939.941,-292.48,-37.109,945.312
1742471909.413,972.656,-159.668,-21.484,972.168
1742471909.417,966.309,138.184,61.035,966.797
1742471909.421,966.309,-97.656,-20.996,966.797
1742471909.378,-1000.0,-190.918,-5.371,-1000.0
1742471909.382,-1000.0,-68.848,-3.418,-1000.0
1742471909.386,-1000.0,54.199,0.488,-996.094
1742471909.39,-938.477,-113.281,-42.969,-945.312
1742471909.394,-1000.0,-116.699,-33.203,-1000.0
1742471909.398,-208.984,408.691,-15.137,-143.066
1742471909.402,999.512,481.934,-26.367,999.512
1742471909.405,948.242,12.695,21.484,940.43
1742471909.409,939.941,-292.48,-37.109,945.312
1742471909.413,972.656,-159.668,-21.484,972.168
1742471909.417,966.309,138.184,61.035,966.797
1742471909.421,966.309,-97.656,-20.996,966.797
1742471909.423,965.82,-125.0,-31.25,967.285
1742471909.427,966.309,-8.301,12.207,967.285
1742471909.431,966.309,-189.453,0.977,966.797
1742471909.435,971.68,-240.234,20.996,972.168
1742471909.439,943.359,-144.043,62.012,943.848
1742471909.443,941.895,-11.23,41.992,945.801
1742471909.447,999.512,-46.387,42.969,999.512
1742471909.45,-162.598,-652.832,11.719,-164.062
1742471909.454,-1000.0,-724.609,-30.762,-1000.0
1742471909.458,-942.871,-170.41,2.93,-946.777
1742471909.462,-997.559,-113.281,15.137,-996.094
1742471909.466,-1000.0,-42.48,70.801,-1000.0
1742471909.423,965.82,-125.0,-31.25,967.285
1742471909.427,966.309,-8.301,12.207,967.285
1742471909.431,966.309,-189.453,0.977,966.797
1742471909.435,971.68,-240.234,20.996,972.168
1742471909.439,943.359,-144.043,62.012,943.848
1742471909.443,941.895,-11.23,41.992,945.801
1742471909.447,999.512,-46.387,42.969,999.512
1742471909.45,-162.598,-652.832,11.719,-164.062
1742471909.454,-1000.0,-724.609,-30.762,-1000.0
1742471909.458,-942.871,-170.41,2.93,-946.777
1742471909.462,-997.559,-113.281,15.137,-996.094
1742471909.466,-1000.0,-42.48,70.801,-1000.0
1742471909.469,-1000.0,-160.156,-13.184,-1000.0
1742471909.473,-1000.0,-210.938,-62.988,-1000.0
1742471909.477,-1000.0,-58.594,7.812,-1000.0
1742471909.481,-1000.0,-15.625,18.555,-1000.0
1742471909.485,-1000.0,-177.734,-6.348,-1000.0
1742471909.489,-1000.0,-82.52,-25.879,-1000.0
1742471909.493,-1000.0,38.574,-47.363,-1000.0
1742471909.496,-1000.0,-111.328,-4.395,-1000.0
1742471909.5,-1000.0,-255.859,17.578,-1000.0
1742471909.504,-1000.0,-262.207,-68.359,-1000.0
1742471909.508,-1000.0,-134.766,-140.137,-1000.0
1742471909.512,-929.688,-126.953,-131.836,-932.617
1742471909.469,-1000.0,-160.156,-13.184,-1000.0
1742471909.473,-1000.0,-210.938,-62.988,-1000.0
1742471909.477,-1000.0,-58.594,7.812,-1000.0
1742471909.481,-1000.0,-15.625,18.555,-1000.0
1742471909.485,-1000.0,-177.734,-6.348,-1000.0
1742471909.489,-1000.0,-82.52,-25.879,-1000.0
1742471909.493,-1000.0,38.574,-47.363,-1000.0
1742471909.496,-1000.0,-111.328,-4.395,-1000.0
1742471909.5,-1000.0,-255.859,17.578,-1000.0
1742471909.504,-1000.0,-262.207,-68.359,-1000.0
1742471909.508,-1000.0,-134.766,-140.137,-1000.0
1742471909.512,-929.688,-126.953,-131.836,-932.617
1742471909.981,-1000.0,-183.594,-52.246,-1000.0
1742471909.985,-1000.0,10.742,-31.738,-1000.0
1742471909.989,-1000.0,91.797,19.043,-1000.0
1742471909.993,-1000.0,-5.371,2.441,-990.234
1742471909.997,-937.5,25.879,3.906,-959.473
1742471910.001,-1000.0,102.539,18.066,-1000.0
1742471910.005,-220.703,534.668,-34.668,-63.477
1742471910.008,999.512,440.43,-79.102,999.512
1742471910.012,949.707,-45.898,-78.613,938.477
1742471910.016,938.965,-16.113,-66.406,948.242
1742471910.02,973.145,119.141,-55.176,971.68
1742471910.024,966.309,63.477,-45.41,966.797
1742471910.145,-1000.0,-73.73,-77.637,-1000.0
1742471910.149,-1000.0,-147.949,-100.586,-1000.0
1742471910.153,-932.129,-96.68,-57.129,-962.891
1742471910.157,-1000.0,-42.969,31.25,-1000.0
1742471910.161,-329.102,114.258,52.734,-977.051
1742471910.165,994.141,441.895,-24.414,326.172
1742471910.169,968.75,160.645,-62.5,999.512
1742471910.172,940.918,-245.117,-71.289,917.969
1742471910.176,933.594,-215.332,-43.457,911.133
1742471910.18,987.793,10.254,-4.883,999.512
1742471910.184,928.223,-293.457,-20.02,693.359
1742471910.188,-418.945,-713.867,-21.973,-703.613
1742471910.027,966.309,49.316,-84.961,966.797
1742471910.031,966.309,40.527,-98.633,966.797
1742471910.035,966.309,-35.156,-101.074,966.797
1742471910.039,966.309,28.32,-87.891,967.285
1742471910.043,966.797,165.527,-52.246,966.309
1742471910.047,903.32,165.527,20.02,905.762
1742471910.05,999.512,60.547,85.938,999.512
1742471910.054,187.012,-558.105,8.789,168.945
1742471910.058,-1000.0,-723.145,-122.559,-1000.0
1742471910.062,-983.887,-97.168,-90.332,-981.445
1742471910.066,-973.145,-26.367,-14.16,-974.609
1742471910.027,966.309,49.316,-84.961,966.797
1742471910.031,966.309,40.527,-98.633,966.797
1742471910.035,966.309,-35.156,-101.074,966.797
1742471910.039,966.309,28.32,-87.891,967.285
1742471910.043,966.797,165.527,-52.246,966.309
1742471910.047,903.32,165.527,20.02,905.762
1742471910.05,999.512,60.547,85.938,999.512
1742471910.054,187.012,-558.105,8.789,168.945
1742471910.058,-1000.0,-723.145,-122.559,-1000.0
1742471910.062,-983.887,-97.168,-90.332,-981.445
1742471910.066,-973.145,-26.367,-14.16,-974.609
1742471910.083,-1000.0,-71.289,-1.465,-1000.0
1742471910.087,-1000.0,-41.504,7.812,-1000.0
1742471910.091,-1000.0,12.207,18.555,-1000.0
1742471910.095,-1000.0,-18.066,-18.066,-1000.0
1742471910.099,-1000.0,-47.363,22.949,-1000.0
1742471910.103,-1000.0,157.227,100.586,-1000.0
1742471910.107,-1000.0,101.074,43.945,-1000.0
1742471910.11,-1000.0,-136.719,-4.883,-1000.0
1742471910.114,-1000.0,-267.578,8.789,-1000.0
1742471910.118,-1000.0,-133.301,24.902,-1000.0
1742471910.122,-1000.0,-9.277,29.785,-1000.0
1742471910.126,-1000.0,-68.359,-7.324,-1000.0
1742471910.083,-1000.0,-71.289,-1.465,-1000.0
1742471910.087,-1000.0,-41.504,7.812,-1000.0
1742471910.091,-1000.0,12.207,18.555,-1000.0
1742471910.095,-1000.0,-18.066,-18.066,-1000.0
1742471910.099,-1000.0,-47.363,22.949,-1000.0
1742471910.103,-1000.0,157.227,100.586,-1000.0
1742471910.107,-1000.0,101.074,43.945,-1000.0
1742471910.11,-1000.0,-136.719,-4.883,-1000.0
1742471910.114,-1000.0,-267.578,8.789,-1000.0
1742471910.118,-1000.0,-133.301,24.902,-1000.0
1742471910.122,-1000.0,-9.277,29.785,-1000.0
1742471910.126,-1000.0,-68.359,-7.324,-1000.0
1742471910.173,-1000.0,-398.926,4.395,-1000.0
1742471910.177,-933.594,-130.859,18.066,-940.43
1742471910.181,-1000.0,-97.656,46.387,-1000.0
1742471910.185,-1000.0,-40.039,40.527,-1000.0
1742471910.189,-1000.0,-205.078,-21.973,-1000.0
1742471910.193,-1000.0,-71.777,-17.09,-1000.0
1742471910.197,-1000.0,-27.832,-19.531,-1000.0
1742471910.2,-1000.0,-244.629,-79.59,-1000.0
1742471910.204,-1000.0,-254.883,-103.027,-1000.0
1742471910.208,-1000.0,-107.422,-67.383,-1000.0
1742471910.212,-1000.0,-19.043,-40.527,-1000.0
1742471910.216,-1000.0,40.527,-26.855,-1000.0
1742471910.173,-1000.0,-398.926,4.395,-1000.0
1742471910.177,-933.594,-130.859,18.066,-940.43
1742471910.181,-1000.0,-97.656,46.387,-1000.0
1742471910.185,-1000.0,-40.039,40.527,-1000.0
1742471910.189,-1000.0,-205.078,-21.973,-1000.0
1742471910.193,-1000.0,-71.777,-17.09,-1000.0
1742471910.197,-1000.0,-27.832,-19.531,-1000.0
1742471910.2,-1000.0,-244.629,-79.59,-1000.0
1742471910.204,-1000.0,-254.883,-103.027,-1000.0
1742471910.208,-1000.0,-107.422,-67.383,-1000.0
1742471910.212,-1000.0,-19.043,-40.527,-1000.0
1742471910.216,-1000.0,40.527,-26.855,-1000.0
1742471910.218,-1000.0,-86.426,19.043,-1000.0
1742471910.222,-1000.0,-103.027,28.32,-1000.0
1742471910.226,-1000.0,0.977,-37.109,-1000.0
1742471910.23,-937.988,-38.086,-79.59,-932.617
1742471910.234,-1000.0,-141.602,-49.805,-1000.0
1742471910.238,-217.773,425.781,-5.371,-306.641
1742471910.242,999.512,742.676,-61.523,999.512
1742471910.245,949.219,5.859,-175.781,964.844
1742471910.249,938.965,-199.707,-148.926,932.617
1742471910.253,975.098,-69.336,-77.637,979.004
1742471910.257,962.402,-20.996,-98.633,958.008
1742471910.261,918.457,-85.449,-125.977,929.199
1742471910.218,-1000.0,-86.426,19.043,-1000.0
1742471910.222,-1000.0,-103.027,28.32,-1000.0
1742471910.226,-1000.0,0.977,-37.109,-1000.0
1742471910.23,-937.988,-38.086,-79.59,-932.617
1742471910.234,-1000.0,-141.602,-49.805,-1000.0
1742471910.238,-217.773,425.781,-5.371,-306.641
1742471910.242,999.512,742.676,-61.523,999.512
1742471910.245,949.219,5.859,-175.781,964.844
1742471910.249,938.965,-199.707,-148.926,932.617
1742471910.253,975.098,-69.336,-77.637,979.004
1742471910.257,962.402,-20.996,-98.633,958.008
1742471910.261,918.457,-85.449,-125.977,929.199
1742471910.264,999.512,-270.996,-153.809,999.512
1742471910.268,149.414,-515.625,-142.578,66.406
1742471910.272,-1000.0,-505.371,-128.906,-1000.0
1742471910.276,-992.188,-217.773,-110.84,-983.398
1742471910.28,-971.191,-220.215,-93.75,-976.562
1742471910.284,-1000.0,43.457,-45.41,-1000.0
1742471910.288,-1000.0,95.703,-60.059,-1000.0
1742471910.291,-1000.0,-213.867,-126.465,-1000.0
1742471910.295,-1000.0,-289.551,-129.883,-1000.0
1742471910.299,-1000.0,-163.574,-111.328,-1000.0
1742471910.303,-1000.0,-27.344,-116.699,-1000.0
1742471910.307,-937.5,-90.332,-164.062,-937.012
1742471910.308,-1000.0,-229.004,-162.109,-1000.0
1742471910.312,-221.191,385.742,-59.57,-227.539
1742471910.316,999.512,660.156,-62.012,999.512
1742471910.32,949.707,-75.684,-166.504,951.66
1742471910.324,938.965,-62.5,-165.527,938.965
1742471910.328,973.145,77.637,-111.816,974.121
1742471910.332,966.309,-28.809,-107.422,966.797
