timestamps,TP9,AF7,AF8,TP10
1742471964.318,-960.938,239.258,542.48,-950.684
1742471964.322,-1000.0,110.352,458.984,-1000.0
1742471964.318,-960.938,239.258,542.48,-950.684
1742471964.322,-1000.0,110.352,458.984,-1000.0
1742471964.325,-904.297,140.625,350.586,-868.652
1742471964.329,542.969,545.898,353.027,590.82
1742471964.333,999.512,333.496,321.777,999.512
1742471964.337,891.602,-72.266,200.195,893.066
1742471964.341,981.445,-192.871,133.789,983.398
1742471964.345,966.309,-144.531,197.754,967.285
1742471964.349,966.309,-48.828,449.219,966.797
1742471964.352,966.309,-262.207,626.953,966.797
1742471964.356,966.309,-346.68,619.141,966.797
1742471964.36,966.309,-130.859,585.938,966.797
1742471964.364,965.82,-140.625,538.574,966.797
1742471964.368,966.309,-258.301,487.793,966.797
1742471964.37,966.309,-154.297,500.488,966.797
1742471964.374,966.309,-112.305,460.449,966.797
1742471964.378,966.309,-146.973,410.156,966.797
1742471964.382,966.309,-215.332,381.348,966.797
1742471964.386,979.98,-133.301,381.836,966.797
1742471964.39,917.48,-19.531,408.691,967.285
1742471964.394,998.047,-98.633,356.934,966.797
1742471964.397,919.922,-404.297,257.812,966.797
1742471964.401,-488.77,-587.402,195.312,966.797
1742471964.405,-1000.0,-349.609,159.668,966.797
1742471964.409,-926.758,-195.801,179.688,966.797
1742471964.413,-1000.0,-198.73,196.777,966.797
1742471964.414,-1000.0,-149.414,199.707,966.797
1742471964.418,-937.012,-140.137,155.762,966.797
1742471964.422,-1000.0,-192.871,116.211,966.797
1742471964.426,-826.172,-79.59,161.621,966.797
1742471964.43,644.531,159.668,193.359,971.68
1742471964.434,999.512,-20.996,116.699,952.637
1742471964.438,850.098,-153.32,11.719,934.57
1742471964.441,999.512,-229.004,-0.488,999.512
1742471964.445,72.754,-583.984,-8.301,7.812
1742471964.449,-1000.0,-489.258,-20.508,-1000.0
1742471964.453,-975.586,-119.141,-26.367,-973.145
1742471964.457,-979.98,-178.223,-136.719,-982.91
1742471964.414,-1000.0,-149.414,199.707,966.797
1742471964.418,-937.012,-140.137,155.762,966.797
1742471964.422,-1000.0,-192.871,116.211,966.797
1742471964.426,-826.172,-79.59,161.621,966.797
1742471964.43,644.531,159.668,193.359,971.68
1742471964.434,999.512,-20.996,116.699,952.637
1742471964.438,850.098,-153.32,11.719,934.57
1742471964.441,999.512,-229.004,-0.488,999.512
1742471964.445,72.754,-583.984,-8.301,7.812
1742471964.449,-1000.0,-489.258,-20.508,-1000.0
1742471964.453,-975.586,-119.141,-26.367,-973.145
1742471964.457,-979.98,-178.223,-136.719,-982.91
1742471964.461,-1000.0,-143.066,-89.844,-1000.0
1742471964.465,-1000.0,-42.969,41.992,-1000.0
1742471964.469,-1000.0,-107.422,18.066,-1000.0
1742471964.473,-1000.0,-142.578,-42.969,-1000.0
1742471964.477,-1000.0,68.359,12.695,-1000.0
1742471964.481,-954.59,368.164,107.91,-1000.0
1742471964.485,-1000.0,185.547,174.316,-937.012
1742471964.488,-973.633,42.48,220.215,-1000.0
1742471964.492,415.527,623.535,232.91,-712.402
1742471964.496,999.512,749.512,195.801,727.539
1742471964.5,900.391,254.395,229.98,999.512
1742471964.504,912.109,136.23,364.258,881.348
1742471964.461,-1000.0,-143.066,-89.844,-1000.0
1742471964.465,-1000.0,-42.969,41.992,-1000.0
1742471964.469,-1000.0,-107.422,18.066,-1000.0
1742471964.473,-1000.0,-142.578,-42.969,-1000.0
1742471964.477,-1000.0,68.359,12.695,-1000.0
1742471964.481,-954.59,368.164,107.91,-1000.0
1742471964.485,-1000.0,185.547,174.316,-937.012
1742471964.488,-973.633,42.48,220.215,-1000.0
1742471964.492,415.527,623.535,232.91,-712.402
1742471964.496,999.512,749.512,195.801,727.539
1742471964.5,900.391,254.395,229.98,999.512
1742471964.504,912.109,136.23,364.258,881.348
1742471964.505,999.512,276.855,367.676,999.512
1742471964.509,360.84,-83.984,280.273,-119.141
1742471964.513,-976.074,-244.141,324.219,-1000.0
1742471964.517,-1000.0,31.25,361.328,-956.055
1742471964.521,-958.496,97.168,303.711,-992.188
1742471964.525,-1000.0,47.852,301.758,-1000.0
1742471964.529,-1000.0,-503.906,336.426,-1000.0
1742471964.532,-1000.0,-490.723,357.422,-1000.0
1742471964.536,-1000.0,-49.316,237.305,-1000.0
1742471964.54,-1000.0,-71.289,149.414,-1000.0
1742471964.544,-1000.0,-186.035,40.527,-1000.0
1742471964.548,-1000.0,-259.766,-34.18,-1000.0
1742471964.505,999.512,276.855,367.676,999.512
1742471964.509,360.84,-83.984,280.273,-119.141
1742471964.513,-976.074,-244.141,324.219,-1000.0
1742471964.517,-1000.0,31.25,361.328,-956.055
1742471964.521,-958.496,97.168,303.711,-992.188
1742471964.525,-1000.0,47.852,301.758,-1000.0
1742471964.529,-1000.0,-503.906,336.426,-1000.0
1742471964.532,-1000.0,-490.723,357.422,-1000.0
1742471964.536,-1000.0,-49.316,237.305,-1000.0
1742471964.54,-1000.0,-71.289,149.414,-1000.0
1742471964.544,-1000.0,-186.035,40.527,-1000.0
1742471964.548,-1000.0,-259.766,-34.18,-1000.0
1742471964.553,-1000.0,-128.418,-85.449,-1000.0
1742471964.557,-1000.0,-332.52,-170.898,-1000.0
1742471964.561,-1000.0,-373.535,-150.391,-1000.0
1742471964.565,-1000.0,-193.848,-204.102,-1000.0
1742471964.569,-1000.0,-128.418,-489.258,-1000.0
1742471964.573,-1000.0,-207.031,-867.188,-1000.0
1742471964.577,-1000.0,-465.332,-999.512,-1000.0
1742471964.58,-1000.0,-348.633,-989.746,-1000.0
1742471964.584,-1000.0,-217.773,-1000.0,-1000.0
1742471964.588,-1000.0,-180.664,-903.809,-1000.0
1742471964.592,-1000.0,-60.059,-829.102,-1000.0
1742471964.596,-1000.0,-112.305,-954.59,-1000.0
1742471964.553,-1000.0,-128.418,-85.449,-1000.0
1742471964.557,-1000.0,-332.52,-170.898,-1000.0
1742471964.561,-1000.0,-373.535,-150.391,-1000.0
1742471964.565,-1000.0,-193.848,-204.102,-1000.0
1742471964.569,-1000.0,-128.418,-489.258,-1000.0
1742471964.573,-1000.0,-207.031,-867.188,-1000.0
1742471964.577,-1000.0,-465.332,-999.512,-1000.0
1742471964.58,-1000.0,-348.633,-989.746,-1000.0
1742471964.584,-1000.0,-217.773,-1000.0,-1000.0
1742471964.588,-1000.0,-180.664,-903.809,-1000.0
1742471964.592,-1000.0,-60.059,-829.102,-1000.0
1742471964.596,-1000.0,-112.305,-954.59,-1000.0
1742471964.625,-1000.0,-76.172,-956.543,-1000.0
1742471964.629,-1000.0,-140.625,-974.121,-1000.0
1742471964.633,-1000.0,-136.719,-1000.0,-1000.0
1742471964.637,-953.613,-44.922,-989.258,-1000.0
1742471964.641,-1000.0,-18.066,-1000.0,-1000.0
1742471964.645,-968.75,-286.133,-994.629,-1000.0
1742471964.649,426.758,-100.098,-890.137,-1000.0
1742471964.652,999.512,-14.16,-817.871,-1000.0
1742471964.656,893.555,-56.152,-792.48,-1000.0
1742471964.66,977.539,-50.781,-739.746,-1000.0
1742471964.664,966.309,-163.574,-773.438,-1000.0
1742471964.668,966.309,-171.875,-788.086,-1000.0
1742471964.625,-1000.0,-76.172,-956.543,-1000.0
1742471964.629,-1000.0,-140.625,-974.121,-1000.0
1742471964.633,-1000.0,-136.719,-1000.0,-1000.0
1742471964.637,-953.613,-44.922,-989.258,-1000.0
1742471964.641,-1000.0,-18.066,-1000.0,-1000.0
1742471964.645,-968.75,-286.133,-994.629,-1000.0
1742471964.649,426.758,-100.098,-890.137,-1000.0
1742471964.652,999.512,-14.16,-817.871,-1000.0
1742471964.656,893.555,-56.152,-792.48,-1000.0
1742471964.66,977.539,-50.781,-739.746,-1000.0
1742471964.664,966.309,-163.574,-773.438,-1000.0
1742471964.668,966.309,-171.875,-788.086,-1000.0
1742471964.625,-1000.0,-76.172,-956.543,-1000.0
1742471964.629,-1000.0,-140.625,-974.121,-1000.0
1742471964.633,-1000.0,-136.719,-1000.0,-1000.0
1742471964.637,-953.613,-44.922,-989.258,-1000.0
1742471964.641,-1000.0,-18.066,-1000.0,-1000.0
1742471964.645,-968.75,-286.133,-994.629,-1000.0
1742471964.649,426.758,-100.098,-890.137,-1000.0
1742471964.652,999.512,-14.16,-817.871,-1000.0
1742471964.656,893.555,-56.152,-792.48,-1000.0
1742471964.66,977.539,-50.781,-739.746,-1000.0
1742471964.664,966.309,-163.574,-773.438,-1000.0
1742471964.668,966.309,-171.875,-788.086,-1000.0
1742471964.669,966.309,-100.098,-726.562,-1000.0
1742471964.673,966.309,-136.23,-687.988,-1000.0
1742471964.677,966.309,-222.168,-635.254,-1000.0
1742471964.681,966.309,-270.02,-570.801,-1000.0
1742471964.685,981.934,-215.82,-426.27,-1000.0
1742471964.689,911.621,-92.773,-275.879,-1000.0
1742471964.693,999.512,-255.859,-356.934,-1000.0
1742471964.696,879.883,-539.062,-441.895,-1000.0
1742471964.7,-559.57,-630.371,-378.906,-1000.0
1742471964.704,-1000.0,-385.742,-292.48,-1000.0
1742471964.708,-925.781,-165.039,-278.809,-1000.0
1742471964.712,-1000.0,-58.105,-240.723,-1000.0
1742471964.669,966.309,-100.098,-726.562,-1000.0
1742471964.673,966.309,-136.23,-687.988,-1000.0
1742471964.677,966.309,-222.168,-635.254,-1000.0
1742471964.681,966.309,-270.02,-570.801,-1000.0
1742471964.685,981.934,-215.82,-426.27,-1000.0
1742471964.689,911.621,-92.773,-275.879,-1000.0
1742471964.693,999.512,-255.859,-356.934,-1000.0
1742471964.696,879.883,-539.062,-441.895,-1000.0
1742471964.7,-559.57,-630.371,-378.906,-1000.0
1742471964.704,-1000.0,-385.742,-292.48,-1000.0
1742471964.708,-925.781,-165.039,-278.809,-1000.0
1742471964.712,-1000.0,-58.105,-240.723,-1000.0
1742471964.699,-927.246,-280.762,-262.207,-931.641
1742471964.703,-1000.0,-598.633,-419.922,-1000.0
1742471964.707,-664.062,-135.742,-353.027,-593.75
1742471964.711,805.664,364.258,-186.035,827.148
1742471964.715,999.512,41.504,-280.762,999.512
1742471964.719,903.32,-84.473,-417.48,909.668
1742471964.723,983.398,-71.777,-429.199,982.422
1742471964.726,966.309,-179.688,-330.566,966.797
1742471964.73,966.309,-111.328,-260.742,966.797
1742471964.734,966.309,-30.273,-260.254,967.285
1742471964.738,966.309,102.051,-208.496,966.797
1742471964.742,966.309,-37.598,-256.836,966.797
1742471964.699,-927.246,-280.762,-262.207,-931.641
1742471964.703,-1000.0,-598.633,-419.922,-1000.0
1742471964.707,-664.062,-135.742,-353.027,-593.75
1742471964.711,805.664,364.258,-186.035,827.148
1742471964.715,999.512,41.504,-280.762,999.512
1742471964.719,903.32,-84.473,-417.48,909.668
1742471964.723,983.398,-71.777,-429.199,982.422
1742471964.726,966.309,-179.688,-330.566,966.797
1742471964.73,966.309,-111.328,-260.742,966.797
1742471964.734,966.309,-30.273,-260.254,967.285
1742471964.738,966.309,102.051,-208.496,966.797
1742471964.742,966.309,-37.598,-256.836,966.797
1742471964.699,-927.246,-280.762,-262.207,-931.641
1742471964.703,-1000.0,-598.633,-419.922,-1000.0
1742471964.707,-664.062,-135.742,-353.027,-593.75
1742471964.711,805.664,364.258,-186.035,827.148
1742471964.715,999.512,41.504,-280.762,999.512
1742471964.719,903.32,-84.473,-417.48,909.668
1742471964.723,983.398,-71.777,-429.199,982.422
1742471964.726,966.309,-179.688,-330.566,966.797
1742471964.73,966.309,-111.328,-260.742,966.797
1742471964.734,966.309,-30.273,-260.254,967.285
1742471964.738,966.309,102.051,-208.496,966.797
1742471964.742,966.309,-37.598,-256.836,966.797
1742471964.745,966.309,-376.465,-281.738,966.797
1742471964.749,966.309,-116.211,-247.559,966.797
1742471964.753,966.309,114.258,-251.953,966.797
1742471964.757,966.309,-44.434,-224.121,966.797
1742471964.761,966.309,99.121,-163.086,966.797
1742471964.765,966.309,243.652,-159.18,966.797
1742471964.769,981.445,138.672,-143.555,966.797
1742471964.772,898.926,-201.66,-146.484,967.285
1742471964.776,999.512,-97.168,-164.062,966.797
1742471964.78,663.086,143.066,-177.734,966.797
1742471964.784,-788.574,71.289,-118.164,966.797
1742471964.788,-1000.0,-13.672,-101.074,966.797
1742471964.804,-936.035,14.16,-187.5,966.797
1742471964.808,-1000.0,81.055,-292.969,966.797
1742471964.812,-1000.0,90.82,-331.055,966.797
1742471964.816,-1000.0,166.992,-300.293,966.797
1742471964.82,-1000.0,215.82,-286.133,966.797
1742471964.824,-1000.0,265.137,-210.449,967.285
1742471964.828,-1000.0,190.918,-157.715,966.797
1742471964.831,-1000.0,-44.434,-152.344,966.797
1742471964.835,-1000.0,81.543,-123.047,966.797
1742471964.839,-1000.0,155.273,-122.559,966.797
1742471964.843,-1000.0,81.543,-112.793,966.797
1742471964.847,-1000.0,140.625,-78.613,967.285
1742471964.837,-1000.0,69.824,-157.715,966.797
1742471964.841,-946.777,-44.434,-181.152,966.797
1742471964.845,-1000.0,-61.523,-128.418,966.797
1742471964.849,-924.316,17.578,-118.164,966.797
1742471964.853,509.766,342.285,-8.301,966.797
1742471964.857,999.512,336.426,38.574,966.797
1742471964.861,891.602,-68.359,-79.102,966.797
1742471964.864,987.793,-216.797,-145.02,966.797
1742471964.868,939.453,-50.781,-101.074,966.797
1742471964.872,951.172,117.676,-77.637,966.797
1742471964.876,999.512,-30.762,5.371,966.797
1742471964.88,-197.266,-490.723,-126.953,966.797
1742471964.837,-1000.0,69.824,-157.715,966.797
1742471964.841,-946.777,-44.434,-181.152,966.797
1742471964.845,-1000.0,-61.523,-128.418,966.797
1742471964.849,-924.316,17.578,-118.164,966.797
1742471964.853,509.766,342.285,-8.301,966.797
1742471964.857,999.512,336.426,38.574,966.797
1742471964.861,891.602,-68.359,-79.102,966.797
1742471964.864,987.793,-216.797,-145.02,966.797
1742471964.868,939.453,-50.781,-101.074,966.797
1742471964.872,951.172,117.676,-77.637,966.797
1742471964.876,999.512,-30.762,5.371,966.797
1742471964.88,-197.266,-490.723,-126.953,966.797
1742471964.879,-1000.0,-287.109,-187.012,966.797
1742471964.883,-944.336,-20.02,-78.613,966.797
1742471964.887,-998.047,-5.859,-87.402,966.797
1742471964.891,-1000.0,75.195,-68.848,966.797
1742471964.895,-1000.0,-38.086,-57.129,967.285
1742471964.899,-1000.0,50.293,-30.273,966.797
1742471964.903,-1000.0,-284.668,-88.379,966.797
1742471964.906,-1000.0,-604.492,-188.477,966.797
1742471964.91,-1000.0,-236.816,-190.918,966.797
1742471964.914,-945.312,-114.746,-153.32,966.797
1742471964.918,-1000.0,-196.777,-113.281,966.797
1742471964.922,-913.574,-83.008,-75.684,966.797
1742471964.879,-1000.0,-287.109,-187.012,966.797
1742471964.883,-944.336,-20.02,-78.613,966.797
1742471964.887,-998.047,-5.859,-87.402,966.797
1742471964.891,-1000.0,75.195,-68.848,966.797
1742471964.895,-1000.0,-38.086,-57.129,967.285
1742471964.899,-1000.0,50.293,-30.273,966.797
1742471964.903,-1000.0,-284.668,-88.379,966.797
1742471964.906,-1000.0,-604.492,-188.477,966.797
1742471964.91,-1000.0,-236.816,-190.918,966.797
1742471964.914,-945.312,-114.746,-153.32,966.797
1742471964.918,-1000.0,-196.777,-113.281,966.797
1742471964.922,-913.574,-83.008,-75.684,966.797
1742471964.925,528.809,121.094,-91.309,966.797
1742471964.929,999.512,-107.91,-142.578,966.797
1742471964.933,891.602,-314.941,-155.273,966.797
1742471964.937,981.445,-177.246,-88.379,966.797
1742471964.941,966.309,-186.035,-100.586,966.797
1742471964.945,966.309,-290.039,-102.539,966.797
1742471964.949,982.91,-313.477,-59.57,978.027
1742471964.952,906.25,-444.824,-124.023,925.781
1742471964.956,999.512,-355.957,-150.391,981.445
1742471964.96,829.59,-593.75,-93.262,963.867
1742471964.964,-630.371,-949.707,-112.305,-393.066
1742471964.968,-1000.0,-459.473,-185.059,-1000.0
1742471964.925,528.809,121.094,-91.309,966.797
1742471964.929,999.512,-107.91,-142.578,966.797
1742471964.933,891.602,-314.941,-155.273,966.797
1742471964.937,981.445,-177.246,-88.379,966.797
1742471964.941,966.309,-186.035,-100.586,966.797
1742471964.945,966.309,-290.039,-102.539,966.797
1742471964.949,982.91,-313.477,-59.57,978.027
1742471964.952,906.25,-444.824,-124.023,925.781
1742471964.956,999.512,-355.957,-150.391,981.445
1742471964.96,829.59,-593.75,-93.262,963.867
1742471964.964,-630.371,-949.707,-112.305,-393.066
1742471964.968,-1000.0,-459.473,-185.059,-1000.0
1742471964.984,-929.199,-64.453,-166.504,-937.5
1742471964.988,-1000.0,3.906,-94.727,-983.887
1742471964.992,-951.172,-14.648,-117.188,-984.375
1742471964.996,-1000.0,-46.875,-155.762,-1000.0
1742471965.0,-155.762,261.719,-97.656,122.07
1742471965.004,999.512,73.242,-40.039,999.512
1742471965.008,948.242,-245.605,-7.324,919.434
1742471965.011,942.383,-118.164,18.555,960.938
1742471965.015,972.656,-121.582,5.859,969.727
1742471965.019,966.309,-235.352,20.02,966.797
1742471965.023,966.309,-34.18,29.297,966.797
1742471965.027,966.309,-5.371,0.977,966.797
1742471964.984,-929.199,-64.453,-166.504,-937.5
1742471964.988,-1000.0,3.906,-94.727,-983.887
1742471964.992,-951.172,-14.648,-117.188,-984.375
1742471964.996,-1000.0,-46.875,-155.762,-1000.0
1742471965.0,-155.762,261.719,-97.656,122.07
1742471965.004,999.512,73.242,-40.039,999.512
1742471965.008,948.242,-245.605,-7.324,919.434
1742471965.011,942.383,-118.164,18.555,960.938
1742471965.015,972.656,-121.582,5.859,969.727
1742471965.019,966.309,-235.352,20.02,966.797
1742471965.023,966.309,-34.18,29.297,966.797
1742471965.027,966.309,-5.371,0.977,966.797
1742471965.044,966.309,11.719,42.48,966.797
1742471965.048,966.309,-78.613,-31.25,966.797
1742471965.052,966.309,-88.867,-81.055,966.797
1742471965.056,966.309,69.336,1.465,966.797
1742471965.06,966.309,32.227,7.812,966.797
1742471965.064,982.91,102.051,8.789,982.422
1742471965.068,907.227,167.969,51.27,911.133
1742471965.071,999.512,13.184,41.016,999.512
1742471965.075,841.797,-323.242,-23.926,872.07
1742471965.079,-616.699,-604.492,-59.57,-575.684
1742471965.083,-1000.0,-70.312,10.742,-1000.0
1742471965.087,-926.27,-87.891,-3.418,-925.781
1742471965.074,-1000.0,-355.469,-5.371,-1000.0
1742471965.078,-1000.0,-42.48,58.594,-1000.0
1742471965.082,-1000.0,-97.168,93.75,-995.117
1742471965.086,-931.641,-82.031,149.902,-954.59
1742471965.09,-1000.0,220.215,229.98,-1000.0
1742471965.094,-467.285,449.219,171.875,-204.59
1742471965.098,912.598,375.977,65.43,984.863
1742471965.101,997.559,-137.207,34.18,962.402
1742471965.105,918.457,-223.145,56.641,937.988
1742471965.109,979.492,-8.301,133.789,975.098
1742471965.113,966.309,69.336,135.742,966.797
1742471965.117,966.309,-195.801,87.402,966.797
1742471965.122,966.309,-461.426,125.977,966.797
1742471965.126,966.309,-181.152,82.52,966.797
1742471965.13,966.309,-74.707,5.371,966.797
1742471965.134,972.656,-289.062,-73.73,972.168
1742471965.138,940.43,-298.34,-155.273,949.707
1742471965.142,948.73,-24.902,-161.621,936.523
1742471965.146,999.512,-10.254,-174.316,999.512
1742471965.149,-191.406,-664.062,-147.949,-51.27
1742471965.153,-1000.0,-642.578,-37.109,-1000.0
1742471965.157,-942.871,-143.066,-95.703,-961.914
1742471965.161,-998.535,-373.047,-313.477,-988.281
1742471965.165,-1000.0,-398.438,-356.445,-1000.0
1742471965.122,966.309,-461.426,125.977,966.797
1742471965.126,966.309,-181.152,82.52,966.797
1742471965.13,966.309,-74.707,5.371,966.797
1742471965.134,972.656,-289.062,-73.73,972.168
1742471965.138,940.43,-298.34,-155.273,949.707
1742471965.142,948.73,-24.902,-161.621,936.523
1742471965.146,999.512,-10.254,-174.316,999.512
1742471965.149,-191.406,-664.062,-147.949,-51.27
1742471965.153,-1000.0,-642.578,-37.109,-1000.0
1742471965.157,-942.871,-143.066,-95.703,-961.914
1742471965.161,-998.535,-373.047,-313.477,-988.281
1742471965.165,-1000.0,-398.438,-356.445,-1000.0
1742471965.164,-1000.0,-78.613,-242.188,-1000.0
1742471965.168,-1000.0,-132.324,-254.883,-1000.0
1742471965.172,-1000.0,-185.547,-284.18,-1000.0
1742471965.176,-932.617,-50.293,-243.164,-934.082
1742471965.18,-1000.0,-198.242,-219.238,-1000.0
1742471965.184,-768.066,-33.203,-171.387,-697.754
1742471965.188,709.961,122.07,-182.617,748.535
1742471965.191,999.512,-812.012,-277.344,999.512
1742471965.195,896.973,-956.543,-287.109,902.832
1742471965.199,983.887,-278.809,-216.797,982.91
1742471965.203,966.309,-166.016,-166.992,966.797
1742471965.207,966.309,-238.77,-150.391,966.797
1742471965.239,966.309,-137.207,-95.215,966.797
1742471965.243,966.309,-137.207,-115.723,966.797
1742471965.247,966.309,-198.242,-165.039,966.797
1742471965.251,966.309,-157.227,-142.578,966.797
1742471965.255,966.309,-108.887,-122.559,966.797
1742471965.259,966.309,59.57,-78.125,966.797
1742471965.263,966.309,-266.602,-143.555,966.797
1742471965.266,966.309,-604.98,-180.664,966.797
1742471965.27,966.309,-186.523,-135.254,966.797
1742471965.274,966.309,-154.785,-165.039,966.797
1742471965.278,966.309,-360.352,-216.797,966.797
1742471965.282,966.309,-104.98,-78.125,966.797
1742471965.239,966.309,-137.207,-95.215,966.797
1742471965.243,966.309,-137.207,-115.723,966.797
1742471965.247,966.309,-198.242,-165.039,966.797
1742471965.251,966.309,-157.227,-142.578,966.797
1742471965.255,966.309,-108.887,-122.559,966.797
1742471965.259,966.309,59.57,-78.125,966.797
1742471965.263,966.309,-266.602,-143.555,966.797
1742471965.266,966.309,-604.98,-180.664,966.797
1742471965.27,966.309,-186.523,-135.254,966.797
1742471965.274,966.309,-154.785,-165.039,966.797
1742471965.278,966.309,-360.352,-216.797,966.797
1742471965.282,966.309,-104.98,-78.125,966.797
1742471965.254,966.309,0.0,-46.875,966.797
1742471965.258,966.309,-242.676,-230.469,966.797
1742471965.262,966.309,-230.469,-255.371,966.797
1742471965.266,976.074,-47.363,-193.359,969.238
1742471965.27,930.176,-58.594,-157.715,966.309
1742471965.274,969.727,-103.516,-132.812,912.109
1742471965.278,990.723,-190.43,-136.23,999.512
1742471965.281,-332.52,-591.797,-118.652,236.816
1742471965.285,-1000.0,-404.785,-73.73,-1000.0
1742471965.289,-932.617,-322.266,-106.934,-1000.0
1742471965.293,-1000.0,-607.422,-125.0,-968.262
1742471965.297,-1000.0,-252.93,-47.852,-1000.0
1742471965.254,966.309,0.0,-46.875,966.797
1742471965.258,966.309,-242.676,-230.469,966.797
1742471965.262,966.309,-230.469,-255.371,966.797
1742471965.266,976.074,-47.363,-193.359,969.238
1742471965.27,930.176,-58.594,-157.715,966.309
1742471965.274,969.727,-103.516,-132.812,912.109
1742471965.278,990.723,-190.43,-136.23,999.512
1742471965.281,-332.52,-591.797,-118.652,236.816
1742471965.285,-1000.0,-404.785,-73.73,-1000.0
1742471965.289,-932.617,-322.266,-106.934,-1000.0
1742471965.293,-1000.0,-607.422,-125.0,-968.262
1742471965.297,-1000.0,-252.93,-47.852,-1000.0
1742471965.254,966.309,0.0,-46.875,966.797
1742471965.258,966.309,-242.676,-230.469,966.797
1742471965.262,966.309,-230.469,-255.371,966.797
1742471965.266,976.074,-47.363,-193.359,969.238
1742471965.27,930.176,-58.594,-157.715,966.309
1742471965.274,969.727,-103.516,-132.812,912.109
1742471965.278,990.723,-190.43,-136.23,999.512
1742471965.281,-332.52,-591.797,-118.652,236.816
1742471965.285,-1000.0,-404.785,-73.73,-1000.0
1742471965.289,-932.617,-322.266,-106.934,-1000.0
1742471965.293,-1000.0,-607.422,-125.0,-968.262
1742471965.297,-1000.0,-252.93,-47.852,-1000.0
1742471965.3,-941.895,74.219,3.906,-941.895
1742471965.304,-1000.0,-125.977,1.953,-1000.0
1742471965.308,-886.23,-244.141,6.836,-704.102
1742471965.312,570.312,443.359,59.082,702.637
1742471965.316,999.512,351.074,39.062,999.512
1742471965.32,891.602,77.148,-14.16,903.809
1742471965.324,982.422,181.152,-22.461,981.934
1742471965.327,966.309,112.793,-4.395,966.797
1742471965.331,966.309,228.516,17.578,966.797
1742471965.335,966.309,10.742,-16.602,966.797
1742471965.339,966.309,91.797,-69.824,966.797
1742471965.343,966.309,375.0,-37.109,966.797
1742471965.3,-941.895,74.219,3.906,-941.895
1742471965.304,-1000.0,-125.977,1.953,-1000.0
1742471965.308,-886.23,-244.141,6.836,-704.102
1742471965.312,570.312,443.359,59.082,702.637
1742471965.316,999.512,351.074,39.062,999.512
1742471965.32,891.602,77.148,-14.16,903.809
1742471965.324,982.422,181.152,-22.461,981.934
1742471965.327,966.309,112.793,-4.395,966.797
1742471965.331,966.309,228.516,17.578,966.797
1742471965.335,966.309,10.742,-16.602,966.797
1742471965.339,966.309,91.797,-69.824,966.797
1742471965.343,966.309,375.0,-37.109,966.797
1742471965.359,966.309,243.652,-13.672,966.797
1742471965.363,966.309,62.5,-67.871,966.797
1742471965.367,982.91,123.047,-40.527,983.398
1742471965.371,904.297,204.59,22.949,908.691
1742471965.375,999.512,143.066,-20.996,999.512
1742471965.379,800.781,-571.289,-124.023,852.539
1742471965.383,-661.133,-874.512,-181.641,-604.492
1742471965.386,-1000.0,-363.77,-158.691,-1000.0
1742471965.39,-928.223,-99.121,-86.426,-925.781
1742471965.394,-1000.0,-91.309,-17.578,-1000.0
1742471965.398,-1000.0,-25.391,9.277,-1000.0
1742471965.402,-1000.0,-51.27,-59.57,-1000.0
1742471965.359,966.309,243.652,-13.672,966.797
1742471965.363,966.309,62.5,-67.871,966.797
1742471965.367,982.91,123.047,-40.527,983.398
1742471965.371,904.297,204.59,22.949,908.691
1742471965.375,999.512,143.066,-20.996,999.512
1742471965.379,800.781,-571.289,-124.023,852.539
1742471965.383,-661.133,-874.512,-181.641,-604.492
1742471965.386,-1000.0,-363.77,-158.691,-1000.0
1742471965.39,-928.223,-99.121,-86.426,-925.781
1742471965.394,-1000.0,-91.309,-17.578,-1000.0
1742471965.398,-1000.0,-25.391,9.277,-1000.0
1742471965.402,-1000.0,-51.27,-59.57,-1000.0
1742471965.405,-1000.0,-139.16,-52.734,-1000.0
1742471965.409,-942.383,-156.25,13.184,-941.406
1742471965.413,-1000.0,-147.461,30.273,-1000.0
1742471965.417,-891.113,124.023,121.094,-877.441
1742471965.421,563.477,435.547,75.684,580.566
1742471965.425,999.512,148.438,-93.75,999.512
1742471965.429,891.602,-96.191,-110.352,893.066
1742471965.432,981.934,-119.141,-70.801,982.91
1742471965.436,966.309,-117.676,-37.598,966.797
1742471965.44,966.309,-77.637,14.648,966.797
1742471965.444,966.309,0.0,-32.227,967.285
1742471965.448,966.797,-73.73,-107.91,967.773
1742471965.405,-1000.0,-139.16,-52.734,-1000.0
1742471965.409,-942.383,-156.25,13.184,-941.406
1742471965.413,-1000.0,-147.461,30.273,-1000.0
1742471965.417,-891.113,124.023,121.094,-877.441
1742471965.421,563.477,435.547,75.684,580.566
1742471965.425,999.512,148.438,-93.75,999.512
1742471965.429,891.602,-96.191,-110.352,893.066
1742471965.432,981.934,-119.141,-70.801,982.91
1742471965.436,966.309,-117.676,-37.598,966.797
1742471965.44,966.309,-77.637,14.648,966.797
1742471965.444,966.309,0.0,-32.227,967.285
1742471965.448,966.797,-73.73,-107.91,967.773
1742471965.449,976.074,-78.613,-76.172,975.098
1742471965.453,897.461,-48.34,-75.684,902.832
1742471965.457,999.512,-11.23,-123.047,999.512
1742471965.461,435.547,-301.27,-167.48,417.969
1742471965.465,-944.824,-518.555,-155.273,-934.082
1742471965.469,-1000.0,-117.188,-74.219,-1000.0
1742471965.473,-952.637,7.812,-41.016,-953.613
1742471965.476,-1000.0,-196.777,-86.426,-1000.0
1742471965.48,-1000.0,-484.863,-91.309,-1000.0
1742471965.484,-1000.0,-192.383,-112.305,-1000.0
1742471965.488,-1000.0,122.559,-122.07,-1000.0
1742471965.492,-1000.0,163.574,-84.961,-1000.0
1742471965.496,-1000.0,323.242,-60.059,-1000.0
1742471965.5,-1000.0,437.012,-75.684,-1000.0
1742471965.504,-1000.0,381.836,-96.191,-1000.0
1742471965.508,-928.711,356.934,-109.375,-933.594
1742471965.512,-1000.0,402.832,-154.297,-1000.0
1742471965.516,-549.316,578.613,-147.949,-544.434
1742471965.52,874.512,846.68,-135.742,854.004
1742471965.523,999.512,168.457,-162.109,999.512
1742471965.527,912.598,-229.004,-119.629,913.574
1742471965.531,980.957,277.344,-112.793,981.445
1742471965.535,971.191,361.328,-127.441,975.586
1742471965.539,948.242,210.938,-83.008,934.082
1742471965.539,935.547,307.617,-41.016,966.797
1742471965.543,999.512,354.004,-0.488,981.445
1742471965.547,-82.031,-17.578,19.043,-287.109
1742471965.551,-1000.0,58.594,61.035,-1000.0
1742471965.555,-954.59,308.594,70.801,-941.406
1742471965.559,-991.211,325.684,49.805,-1000.0
1742471965.563,-1000.0,172.852,-32.227,-1000.0
1742471965.566,-1000.0,-551.27,-121.582,-1000.0
1742471965.57,-1000.0,-125.977,-129.883,-1000.0
1742471965.574,-1000.0,358.887,-130.371,-1000.0
1742471965.578,-1000.0,91.309,-124.023,-1000.0
1742471965.582,-1000.0,-7.324,-98.145,-1000.0
1742471965.539,935.547,307.617,-41.016,966.797
1742471965.543,999.512,354.004,-0.488,981.445
1742471965.547,-82.031,-17.578,19.043,-287.109
1742471965.551,-1000.0,58.594,61.035,-1000.0
1742471965.555,-954.59,308.594,70.801,-941.406
1742471965.559,-991.211,325.684,49.805,-1000.0
1742471965.563,-1000.0,172.852,-32.227,-1000.0
1742471965.566,-1000.0,-551.27,-121.582,-1000.0
1742471965.57,-1000.0,-125.977,-129.883,-1000.0
1742471965.574,-1000.0,358.887,-130.371,-1000.0
1742471965.578,-1000.0,91.309,-124.023,-1000.0
1742471965.582,-1000.0,-7.324,-98.145,-1000.0
1742471965.585,-1000.0,219.238,-41.504,-1000.0
1742471965.589,-1000.0,250.488,-67.383,-1000.0
1742471965.593,-1000.0,149.414,-101.562,-1000.0
1742471965.597,-943.359,129.395,-87.891,-960.449
1742471965.601,-1000.0,104.492,-48.34,-1000.0
1742471965.605,-896.973,384.277,20.02,-1000.0
1742471965.609,554.688,691.895,109.863,345.215
1742471965.612,999.512,416.016,176.758,999.512
1742471965.616,891.602,440.918,213.379,896.484
1742471965.62,981.934,475.098,205.078,975.098
1742471965.624,982.422,425.781,226.074,983.398
1742471965.628,908.691,417.969,255.859,905.762
1742471965.585,-1000.0,219.238,-41.504,-1000.0
1742471965.589,-1000.0,250.488,-67.383,-1000.0
1742471965.593,-1000.0,149.414,-101.562,-1000.0
1742471965.597,-943.359,129.395,-87.891,-960.449
1742471965.601,-1000.0,104.492,-48.34,-1000.0
1742471965.605,-896.973,384.277,20.02,-1000.0
1742471965.609,554.688,691.895,109.863,345.215
1742471965.612,999.512,416.016,176.758,999.512
1742471965.616,891.602,440.918,213.379,896.484
1742471965.62,981.934,475.098,205.078,975.098
1742471965.624,982.422,425.781,226.074,983.398
1742471965.628,908.691,417.969,255.859,905.762
1742471965.629,999.512,349.121,214.844,999.512
1742471965.633,856.934,197.266,166.016,807.129
1742471965.637,-598.145,-292.48,105.957,-651.367
1742471965.641,-1000.0,109.863,98.633,-1000.0
1742471965.645,-925.781,550.293,123.047,-928.223
1742471965.649,-1000.0,369.629,93.75,-1000.0
1742471965.653,-1000.0,-88.379,39.062,-1000.0
1742471965.656,-1000.0,-52.246,18.066,-1000.0
1742471965.66,-1000.0,432.129,152.344,-1000.0
1742471965.664,-1000.0,311.035,222.656,-1000.0
1742471965.668,-1000.0,73.242,173.828,-1000.0
1742471965.672,-1000.0,212.891,172.363,-1000.0
1742471965.677,-1000.0,316.895,188.965,-1000.0
1742471965.681,-1000.0,329.102,217.773,-1000.0
1742471965.685,-1000.0,175.293,217.285,-1000.0
1742471965.689,-1000.0,89.844,232.91,-1000.0
1742471965.693,-1000.0,227.539,201.66,-1000.0
1742471965.697,-1000.0,232.91,119.141,-1000.0
1742471965.701,-1000.0,54.199,82.031,-1000.0
1742471965.704,-1000.0,46.387,90.332,-1000.0
1742471965.708,-1000.0,105.469,54.199,-1000.0
1742471965.712,-1000.0,-3.418,11.23,-1000.0
1742471965.716,-939.941,92.773,35.156,-948.242
1742471965.72,-1000.0,29.297,-21.973,-1000.0
1742471965.677,-1000.0,316.895,188.965,-1000.0
1742471965.681,-1000.0,329.102,217.773,-1000.0
1742471965.685,-1000.0,175.293,217.285,-1000.0
1742471965.689,-1000.0,89.844,232.91,-1000.0
1742471965.693,-1000.0,227.539,201.66,-1000.0
1742471965.697,-1000.0,232.91,119.141,-1000.0
1742471965.701,-1000.0,54.199,82.031,-1000.0
1742471965.704,-1000.0,46.387,90.332,-1000.0
1742471965.708,-1000.0,105.469,54.199,-1000.0
1742471965.712,-1000.0,-3.418,11.23,-1000.0
1742471965.716,-939.941,92.773,35.156,-948.242
1742471965.72,-1000.0,29.297,-21.973,-1000.0
1742471965.734,-862.305,74.707,-51.27,-934.082
1742471965.738,598.633,487.305,1.465,492.676
1742471965.742,999.512,224.121,-36.133,999.512
1742471965.746,892.578,3.906,-71.289,892.578
1742471965.75,999.023,216.797,-28.809,997.07
1742471965.754,908.691,-181.641,-50.781,907.227
1742471965.758,999.512,-213.379,-76.172,999.512
1742471965.761,856.934,-161.133,-128.418,826.66
1742471965.765,-597.656,-607.91,-177.734,-630.859
1742471965.769,-1000.0,-348.145,-111.328,-1000.0
1742471965.773,-925.781,10.742,-93.262,-927.246
1742471965.777,-1000.0,-8.301,-98.145,-1000.0
1742471965.78,-1000.0,71.777,-32.227,-1000.0
1742471965.784,-1000.0,70.801,-18.555,-1000.0
1742471965.788,-1000.0,-1.465,-71.289,-1000.0
1742471965.792,-1000.0,-31.738,-89.844,-1000.0
1742471965.796,-1000.0,26.367,-59.082,-1000.0
1742471965.8,-1000.0,129.883,-11.719,-1000.0
1742471965.804,-1000.0,75.684,-41.016,-1000.0
1742471965.807,-1000.0,-34.18,-117.188,-1000.0
1742471965.811,-1000.0,-227.051,-140.137,-1000.0
1742471965.815,-1000.0,-249.023,-123.535,-1000.0
1742471965.819,-1000.0,34.18,-149.414,-1000.0
1742471965.823,-934.57,47.363,-196.289,-938.965
1742471965.78,-1000.0,71.777,-32.227,-1000.0
1742471965.784,-1000.0,70.801,-18.555,-1000.0
1742471965.788,-1000.0,-1.465,-71.289,-1000.0
1742471965.792,-1000.0,-31.738,-89.844,-1000.0
1742471965.796,-1000.0,26.367,-59.082,-1000.0
1742471965.8,-1000.0,129.883,-11.719,-1000.0
1742471965.804,-1000.0,75.684,-41.016,-1000.0
1742471965.807,-1000.0,-34.18,-117.188,-1000.0
1742471965.811,-1000.0,-227.051,-140.137,-1000.0
1742471965.815,-1000.0,-249.023,-123.535,-1000.0
1742471965.819,-1000.0,34.18,-149.414,-1000.0
1742471965.823,-934.57,47.363,-196.289,-938.965
1742471965.824,-1000.0,-23.438,-176.758,-1000.0
1742471965.828,-477.051,177.734,-122.07,-850.098
1742471965.832,893.066,428.223,-69.336,613.77
1742471965.836,999.512,179.199,-61.035,999.512
1742471965.84,917.969,149.902,-101.074,894.043
1742471965.844,979.492,170.898,-139.648,983.398
1742471965.848,970.215,81.543,-109.863,975.098
1742471965.851,952.637,9.277,-47.363,937.988
1742471965.855,928.223,-154.297,12.695,957.52
1742471965.859,999.512,-57.617,13.184,999.512
1742471965.863,-0.977,-224.121,-84.961,-220.703
1742471965.867,-1000.0,-242.676,-83.984,-1000.0
1742471965.824,-1000.0,-23.438,-176.758,-1000.0
1742471965.828,-477.051,177.734,-122.07,-850.098
1742471965.832,893.066,428.223,-69.336,613.77
1742471965.836,999.512,179.199,-61.035,999.512
1742471965.84,917.969,149.902,-101.074,894.043
1742471965.844,979.492,170.898,-139.648,983.398
1742471965.848,970.215,81.543,-109.863,975.098
1742471965.851,952.637,9.277,-47.363,937.988
1742471965.855,928.223,-154.297,12.695,957.52
1742471965.859,999.512,-57.617,13.184,999.512
1742471965.863,-0.977,-224.121,-84.961,-220.703
1742471965.867,-1000.0,-242.676,-83.984,-1000.0
1742471965.87,-965.332,228.516,17.09,-945.312
1742471965.874,-985.352,291.992,62.988,-998.535
1742471965.878,-1000.0,220.215,81.055,-1000.0
1742471965.882,-1000.0,181.641,100.586,-1000.0
1742471965.886,-1000.0,231.934,101.562,-1000.0
1742471965.89,-1000.0,362.793,94.727,-1000.0
1742471965.894,-1000.0,390.625,87.891,-1000.0
1742471965.897,-1000.0,-65.43,82.52,-1000.0
1742471965.901,-1000.0,-111.816,99.609,-1000.0
1742471965.905,-1000.0,258.789,93.75,-1000.0
1742471965.909,-1000.0,195.801,110.84,-1000.0
1742471965.913,-1000.0,83.984,52.734,-1000.0
1742471965.914,-1000.0,164.062,73.73,-1000.0
1742471965.918,-935.547,214.355,135.254,-942.383
1742471965.922,-1000.0,122.07,105.957,-1000.0
1742471965.926,-791.504,251.465,126.465,-891.113
1742471965.93,675.293,610.352,136.23,564.453
1742471965.934,999.512,392.578,46.387,999.512
1742471965.938,896.484,63.965,-11.23,892.09
1742471965.941,999.512,-525.879,-25.879,998.535
1742471965.945,908.203,-254.883,55.176,903.32
1742471965.949,999.512,351.074,117.188,999.512
1742471965.953,853.027,-11.23,-3.906,729.004
1742471965.957,-603.027,-454.102,-124.023,-720.703
1742471965.962,-1000.0,-93.262,-125.977,-1000.0
1742471965.966,-925.781,196.777,-76.66,-932.617
1742471965.97,-1000.0,52.734,-49.316,-1000.0
1742471965.974,-1000.0,-68.848,-45.41,-1000.0
1742471965.978,-1000.0,32.227,-60.059,-1000.0
1742471965.982,-1000.0,195.312,-33.203,-1000.0
1742471965.986,-1000.0,-0.977,9.277,-1000.0
1742471965.989,-1000.0,-216.309,23.926,-1000.0
1742471965.993,-1000.0,37.598,61.523,-1000.0
1742471965.997,-1000.0,106.934,62.012,-1000.0
1742471966.001,-1000.0,49.316,13.184,-1000.0
1742471966.005,-1000.0,39.551,41.992,-1000.0
1742471965.962,-1000.0,-93.262,-125.977,-1000.0
1742471965.966,-925.781,196.777,-76.66,-932.617
1742471965.97,-1000.0,52.734,-49.316,-1000.0
1742471965.974,-1000.0,-68.848,-45.41,-1000.0
1742471965.978,-1000.0,32.227,-60.059,-1000.0
1742471965.982,-1000.0,195.312,-33.203,-1000.0
1742471965.986,-1000.0,-0.977,9.277,-1000.0
1742471965.989,-1000.0,-216.309,23.926,-1000.0
1742471965.993,-1000.0,37.598,61.523,-1000.0
1742471965.997,-1000.0,106.934,62.012,-1000.0
1742471966.001,-1000.0,49.316,13.184,-1000.0
1742471966.005,-1000.0,39.551,41.992,-1000.0
1742471966.004,-1000.0,32.227,140.137,-1000.0
1742471966.008,-1000.0,-11.719,117.676,-1000.0
1742471966.012,-989.746,-98.633,1.953,-1000.0
1742471966.016,-959.473,-56.641,-11.23,-1000.0
1742471966.02,-1000.0,31.25,10.742,-1000.0
1742471966.024,-86.914,168.945,53.223,-1000.0
1742471966.028,999.512,-95.703,77.148,-1000.0
1742471966.031,940.918,-498.047,-11.23,-1000.0
1742471966.035,947.266,-184.082,-79.102,-1000.0
1742471966.039,972.168,76.172,23.926,-1000.0
1742471966.043,966.309,-2.93,113.281,-1000.0
1742471966.047,966.309,-108.398,52.734,-1000.0
1742471966.004,-1000.0,32.227,140.137,-1000.0
1742471966.008,-1000.0,-11.719,117.676,-1000.0
1742471966.012,-989.746,-98.633,1.953,-1000.0
1742471966.016,-959.473,-56.641,-11.23,-1000.0
1742471966.02,-1000.0,31.25,10.742,-1000.0
1742471966.024,-86.914,168.945,53.223,-1000.0
1742471966.028,999.512,-95.703,77.148,-1000.0
1742471966.031,940.918,-498.047,-11.23,-1000.0
1742471966.035,947.266,-184.082,-79.102,-1000.0
1742471966.039,972.168,76.172,23.926,-1000.0
1742471966.043,966.309,-2.93,113.281,-1000.0
1742471966.047,966.309,-108.398,52.734,-1000.0
1742471966.065,966.309,-180.176,66.895,-1000.0
1742471966.069,966.309,-395.02,113.281,-1000.0
1742471966.073,966.309,-583.984,120.117,-1000.0
1742471966.077,980.957,-629.395,136.23,-1000.0
1742471966.081,915.527,-504.395,148.438,-1000.0
1742471966.085,999.512,-347.168,171.875,-1000.0
1742471966.089,908.203,-481.934,131.348,-1000.0
1742471966.092,-513.184,-860.352,39.551,-1000.0
1742471966.096,-1000.0,-717.773,25.391,-1000.0
1742471966.1,-926.27,-594.727,61.035,-1000.0
1742471966.104,-1000.0,-614.746,83.008,-1000.0
1742471966.108,-1000.0,-409.668,60.059,-1000.0
1742471966.065,966.309,-180.176,66.895,-1000.0
1742471966.069,966.309,-395.02,113.281,-1000.0
1742471966.073,966.309,-583.984,120.117,-1000.0
1742471966.077,980.957,-629.395,136.23,-1000.0
1742471966.081,915.527,-504.395,148.438,-1000.0
1742471966.085,999.512,-347.168,171.875,-1000.0
1742471966.089,908.203,-481.934,131.348,-1000.0
1742471966.092,-513.184,-860.352,39.551,-1000.0
1742471966.096,-1000.0,-717.773,25.391,-1000.0
1742471966.1,-926.27,-594.727,61.035,-1000.0
1742471966.104,-1000.0,-614.746,83.008,-1000.0
1742471966.108,-1000.0,-409.668,60.059,-1000.0
1742471966.109,-1000.0,-345.215,93.75,-1000.0
1742471966.113,-1000.0,-326.172,123.535,-1000.0
1742471966.117,-1000.0,-277.832,33.203,-1000.0
1742471966.121,-1000.0,-212.891,19.043,-1000.0
1742471966.125,-1000.0,-140.625,3.906,-1000.0
1742471966.129,-1000.0,-142.09,-34.18,-1000.0
1742471966.133,-1000.0,-181.641,-48.828,-1000.0
1742471966.136,-1000.0,-253.906,-119.141,-1000.0
1742471966.14,-1000.0,-129.883,-89.844,-1000.0
1742471966.144,-1000.0,-437.988,-76.66,-1000.0
1742471966.148,-1000.0,-499.512,-116.699,-1000.0
1742471966.152,-1000.0,-26.855,-53.711,-1000.0
1742471966.109,-1000.0,-345.215,93.75,-1000.0
1742471966.113,-1000.0,-326.172,123.535,-1000.0
1742471966.117,-1000.0,-277.832,33.203,-1000.0
1742471966.121,-1000.0,-212.891,19.043,-1000.0
1742471966.125,-1000.0,-140.625,3.906,-1000.0
1742471966.129,-1000.0,-142.09,-34.18,-1000.0
1742471966.133,-1000.0,-181.641,-48.828,-1000.0
1742471966.136,-1000.0,-253.906,-119.141,-1000.0
1742471966.14,-1000.0,-129.883,-89.844,-1000.0
1742471966.144,-1000.0,-437.988,-76.66,-1000.0
1742471966.148,-1000.0,-499.512,-116.699,-1000.0
1742471966.152,-1000.0,-26.855,-53.711,-1000.0
1742471966.154,-941.895,48.34,-87.891,-1000.0
1742471966.158,-1000.0,-16.602,-117.676,-1000.0
1742471966.162,-867.676,64.941,-59.57,-1000.0
1742471966.166,583.984,177.734,-70.312,-1000.0
1742471966.17,999.512,103.027,-72.266,-1000.0
1742471966.174,893.066,173.34,-35.645,-1000.0
1742471966.178,981.934,128.906,-34.668,-1000.0
1742471966.181,966.309,-134.766,-97.656,-1000.0
1742471966.185,966.309,-201.172,-97.168,-1000.0
1742471966.189,982.91,-38.574,35.645,-1000.0
1742471966.193,905.273,23.926,37.109,-1000.0
1742471966.197,999.512,-111.816,-89.844,-1000.0
1742471966.154,-941.895,48.34,-87.891,-1000.0
1742471966.158,-1000.0,-16.602,-117.676,-1000.0
1742471966.162,-867.676,64.941,-59.57,-1000.0
1742471966.166,583.984,177.734,-70.312,-1000.0
1742471966.17,999.512,103.027,-72.266,-1000.0
1742471966.174,893.066,173.34,-35.645,-1000.0
1742471966.178,981.934,128.906,-34.668,-1000.0
1742471966.181,966.309,-134.766,-97.656,-1000.0
1742471966.185,966.309,-201.172,-97.168,-1000.0
1742471966.189,982.91,-38.574,35.645,-1000.0
1742471966.193,905.273,23.926,37.109,-1000.0
1742471966.197,999.512,-111.816,-89.844,-1000.0
1742471966.199,812.5,-173.828,-138.184,-1000.0
1742471966.203,-646.484,-268.066,-105.957,-1000.0
1742471966.207,-1000.0,-55.176,-20.508,-1000.0
1742471966.211,-927.734,101.562,25.391,-1000.0
1742471966.215,-1000.0,-75.195,-17.09,-1000.0
1742471966.219,-1000.0,-36.621,-104.98,-1000.0
1742471966.223,-1000.0,-8.301,-139.648,-1000.0
1742471966.226,-1000.0,-201.172,-123.047,-1000.0
1742471966.23,-1000.0,-248.535,-125.977,-1000.0
1742471966.234,-1000.0,-108.887,-98.633,-1000.0
1742471966.238,-1000.0,-38.086,-90.82,-1000.0
1742471966.242,-942.383,-19.043,-79.59,-955.566
1742471966.247,-1000.0,6.836,-46.387,-1000.0
1742471966.251,-890.625,98.145,-14.648,-981.445
1742471966.255,564.453,520.508,34.18,402.832
1742471966.259,999.512,99.609,-55.664,999.512
1742471966.263,891.602,-132.324,-87.891,895.996
1742471966.267,999.512,250.977,37.109,987.305
1742471966.271,900.391,110.352,57.129,905.273
1742471966.274,999.512,-329.59,-45.898,999.512
1742471966.278,768.555,-441.406,-98.145,524.414
1742471966.282,-708.008,-378.418,-112.305,-853.516
1742471966.286,-1000.0,-155.762,-74.707,-1000.0
1742471966.29,-929.199,-71.777,-60.547,-946.289
1742471966.247,-1000.0,6.836,-46.387,-1000.0
1742471966.251,-890.625,98.145,-14.648,-981.445
1742471966.255,564.453,520.508,34.18,402.832
1742471966.259,999.512,99.609,-55.664,999.512
1742471966.263,891.602,-132.324,-87.891,895.996
1742471966.267,999.512,250.977,37.109,987.305
1742471966.271,900.391,110.352,57.129,905.273
1742471966.274,999.512,-329.59,-45.898,999.512
1742471966.278,768.555,-441.406,-98.145,524.414
1742471966.282,-708.008,-378.418,-112.305,-853.516
1742471966.286,-1000.0,-155.762,-74.707,-1000.0
1742471966.29,-929.199,-71.777,-60.547,-946.289
1742471966.289,-1000.0,-22.461,-57.617,-1000.0
1742471966.293,-1000.0,15.625,-36.621,-1000.0
1742471966.297,-1000.0,-88.867,-26.855,-1000.0
1742471966.301,-1000.0,-57.617,8.789,-1000.0
1742471966.305,-1000.0,67.871,21.973,-1000.0
1742471966.309,-1000.0,157.227,20.996,-1000.0
1742471966.313,-1000.0,64.453,-27.832,-1000.0
1742471966.316,-1000.0,-664.551,-141.113,-1000.0
1742471966.32,-1000.0,-693.848,-184.082,-1000.0
1742471966.324,-1000.0,-24.414,-113.77,-1000.0
1742471966.328,-1000.0,69.824,-91.797,-1000.0
1742471966.332,-1000.0,-61.523,-185.059,-1000.0
1742471966.336,-1000.0,-98.633,-201.172,-1000.0
1742471966.34,-1000.0,-78.125,-147.949,-1000.0
1742471966.344,-1000.0,-52.246,-143.066,-1000.0
1742471966.348,-1000.0,-47.852,-150.879,-1000.0
1742471966.352,-1000.0,-58.594,-213.379,-1000.0
1742471966.356,-1000.0,-32.227,-237.793,-1000.0
1742471966.36,-1000.0,-133.789,-250.977,-1000.0
1742471966.363,-1000.0,-273.926,-270.996,-1000.0
1742471966.367,-1000.0,-171.387,-215.332,-1000.0
1742471966.371,-1000.0,-57.617,-168.945,-1000.0
1742471966.375,-1000.0,-245.605,-181.152,-1000.0
1742471966.379,-1000.0,-253.418,-201.66,-1000.0
1742471966.336,-1000.0,-98.633,-201.172,-1000.0
1742471966.34,-1000.0,-78.125,-147.949,-1000.0
1742471966.344,-1000.0,-52.246,-143.066,-1000.0
1742471966.348,-1000.0,-47.852,-150.879,-1000.0
1742471966.352,-1000.0,-58.594,-213.379,-1000.0
1742471966.356,-1000.0,-32.227,-237.793,-1000.0
1742471966.36,-1000.0,-133.789,-250.977,-1000.0
1742471966.363,-1000.0,-273.926,-270.996,-1000.0
1742471966.367,-1000.0,-171.387,-215.332,-1000.0
1742471966.371,-1000.0,-57.617,-168.945,-1000.0
1742471966.375,-1000.0,-245.605,-181.152,-1000.0
1742471966.379,-1000.0,-253.418,-201.66,-1000.0
1742471966.379,-1000.0,18.066,-201.172,-1000.0
1742471966.383,-1000.0,70.312,-155.762,-1000.0
1742471966.387,-1000.0,-61.035,-246.582,-1000.0
1742471966.391,-947.754,-63.477,-347.656,-973.633
1742471966.395,-1000.0,127.441,-267.578,-984.863
1742471966.399,-930.176,150.391,-177.246,-1000.0
1742471966.403,499.023,144.043,-115.723,164.062
1742471966.406,999.512,138.672,-101.074,999.512
1742471966.41,892.09,353.516,-59.082,910.645
1742471966.414,980.469,427.734,10.254,964.844
1742471966.418,966.309,207.031,39.551,968.262
1742471966.422,966.309,200.195,42.48,966.797
1742471966.379,-1000.0,18.066,-201.172,-1000.0
1742471966.383,-1000.0,70.312,-155.762,-1000.0
1742471966.387,-1000.0,-61.035,-246.582,-1000.0
1742471966.391,-947.754,-63.477,-347.656,-973.633
1742471966.395,-1000.0,127.441,-267.578,-984.863
1742471966.399,-930.176,150.391,-177.246,-1000.0
1742471966.403,499.023,144.043,-115.723,164.062
1742471966.406,999.512,138.672,-101.074,999.512
1742471966.41,892.09,353.516,-59.082,910.645
1742471966.414,980.469,427.734,10.254,964.844
1742471966.418,966.309,207.031,39.551,968.262
1742471966.422,966.309,200.195,42.48,966.797
1742471966.426,966.309,292.48,63.477,966.797
1742471966.43,966.309,269.531,48.34,966.797
1742471966.434,966.309,259.766,18.555,966.797
1742471966.438,966.309,316.895,33.203,966.797
1742471966.442,966.309,377.441,64.453,966.797
1742471966.446,966.309,422.852,89.355,966.797
1742471966.45,966.309,420.898,59.57,966.797
1742471966.453,966.309,294.434,20.508,966.797
1742471966.457,966.309,314.453,35.156,966.797
1742471966.461,966.309,169.434,40.527,966.797
1742471966.465,966.309,217.285,23.438,966.797
1742471966.469,966.309,499.512,59.57,966.797
1742471966.426,966.309,292.48,63.477,966.797
1742471966.43,966.309,269.531,48.34,966.797
1742471966.434,966.309,259.766,18.555,966.797
1742471966.438,966.309,316.895,33.203,966.797
1742471966.442,966.309,377.441,64.453,966.797
1742471966.446,966.309,422.852,89.355,966.797
1742471966.45,966.309,420.898,59.57,966.797
1742471966.453,966.309,294.434,20.508,966.797
1742471966.457,966.309,314.453,35.156,966.797
1742471966.461,966.309,169.434,40.527,966.797
1742471966.465,966.309,217.285,23.438,966.797
1742471966.469,966.309,499.512,59.57,966.797
1742471966.484,966.309,520.508,84.961,966.797
1742471966.488,966.309,290.527,81.055,966.797
1742471966.492,966.309,379.883,209.473,966.797
1742471966.496,966.309,552.734,317.383,967.285
1742471966.5,966.309,473.145,329.102,967.285
1742471966.504,966.309,178.223,363.281,966.797
1742471966.508,965.82,252.441,433.594,966.797
1742471966.511,966.309,344.238,466.309,966.797
1742471966.515,966.309,274.902,430.176,966.797
1742471966.519,966.309,134.766,418.945,966.797
1742471966.523,966.309,258.789,454.59,966.797
1742471966.527,966.309,304.199,491.699,966.797
1742471966.484,966.309,520.508,84.961,966.797
1742471966.488,966.309,290.527,81.055,966.797
1742471966.492,966.309,379.883,209.473,966.797
1742471966.496,966.309,552.734,317.383,967.285
1742471966.5,966.309,473.145,329.102,967.285
1742471966.504,966.309,178.223,363.281,966.797
1742471966.508,965.82,252.441,433.594,966.797
1742471966.511,966.309,344.238,466.309,966.797
1742471966.515,966.309,274.902,430.176,966.797
1742471966.519,966.309,134.766,418.945,966.797
1742471966.523,966.309,258.789,454.59,966.797
1742471966.527,966.309,304.199,491.699,966.797
1742471966.53,974.609,264.648,563.965,967.285
1742471966.534,935.547,268.555,599.609,967.285
1742471966.538,958.984,314.453,605.469,966.797
1742471966.542,999.512,157.715,562.988,966.797
1742471966.546,-250.977,-139.16,551.758,966.797
1742471966.55,-1000.0,114.746,609.375,966.797
1742471966.554,-940.43,205.078,572.754,967.285
1742471966.557,-1000.0,-89.355,432.617,967.285
1742471966.561,-1000.0,-113.281,340.332,966.797
1742471966.565,-1000.0,-10.254,352.539,966.797
1742471966.569,-1000.0,124.023,423.828,966.797
1742471966.573,-1000.0,49.316,484.375,966.797
1742471966.53,974.609,264.648,563.965,967.285
1742471966.534,935.547,268.555,599.609,967.285
1742471966.538,958.984,314.453,605.469,966.797
1742471966.542,999.512,157.715,562.988,966.797
1742471966.546,-250.977,-139.16,551.758,966.797
1742471966.55,-1000.0,114.746,609.375,966.797
1742471966.554,-940.43,205.078,572.754,967.285
1742471966.557,-1000.0,-89.355,432.617,967.285
1742471966.561,-1000.0,-113.281,340.332,966.797
1742471966.565,-1000.0,-10.254,352.539,966.797
1742471966.569,-1000.0,124.023,423.828,966.797
1742471966.573,-1000.0,49.316,484.375,966.797
1742471966.574,-1000.0,53.711,544.434,966.797
1742471966.578,-931.641,86.426,672.852,966.797
1742471966.582,-1000.0,65.43,830.078,967.285
1742471966.586,-731.445,178.223,924.805,966.797
1742471966.59,744.141,178.223,925.781,972.168
1742471966.594,999.512,37.598,838.867,947.754
1742471966.598,879.883,-3.906,732.422,939.453
1742471966.601,999.512,-189.453,670.41,999.512
1742471966.605,-178.711,-745.605,581.543,-81.055
1742471966.609,-1000.0,-571.289,520.508,-1000.0
1742471966.613,-943.848,20.996,494.629,-958.008
1742471966.617,-997.559,24.414,425.781,-990.234
1742471966.574,-1000.0,53.711,544.434,966.797
1742471966.578,-931.641,86.426,672.852,966.797
1742471966.582,-1000.0,65.43,830.078,967.285
1742471966.586,-731.445,178.223,924.805,966.797
1742471966.59,744.141,178.223,925.781,972.168
1742471966.594,999.512,37.598,838.867,947.754
1742471966.598,879.883,-3.906,732.422,939.453
1742471966.601,999.512,-189.453,670.41,999.512
1742471966.605,-178.711,-745.605,581.543,-81.055
1742471966.609,-1000.0,-571.289,520.508,-1000.0
1742471966.613,-943.848,20.996,494.629,-958.008
1742471966.617,-997.559,24.414,425.781,-990.234
1742471966.621,-1000.0,-9.766,385.254,-1000.0
1742471966.625,-1000.0,15.137,375.977,-1000.0
1742471966.629,-1000.0,19.043,376.465,-1000.0
1742471966.633,-930.664,5.859,371.094,-937.5
1742471966.637,-1000.0,60.059,359.375,-1000.0
1742471966.641,-736.816,288.086,340.82,-576.172
1742471966.645,741.699,441.406,300.293,813.965
1742471966.648,999.512,-186.523,282.715,999.512
1742471966.652,898.926,-461.426,298.828,911.621
1742471966.656,983.887,-40.527,281.738,981.445
1742471966.66,966.309,-34.668,314.453,966.797
1742471966.664,966.309,-206.543,351.562,966.797
1742471966.621,-1000.0,-9.766,385.254,-1000.0
1742471966.625,-1000.0,15.137,375.977,-1000.0
1742471966.629,-1000.0,19.043,376.465,-1000.0
1742471966.633,-930.664,5.859,371.094,-937.5
1742471966.637,-1000.0,60.059,359.375,-1000.0
1742471966.641,-736.816,288.086,340.82,-576.172
1742471966.645,741.699,441.406,300.293,813.965
1742471966.648,999.512,-186.523,282.715,999.512
1742471966.652,898.926,-461.426,298.828,911.621
1742471966.656,983.887,-40.527,281.738,981.445
1742471966.66,966.309,-34.668,314.453,966.797
1742471966.664,966.309,-206.543,351.562,966.797
1742471966.664,966.309,-77.148,400.879,966.797
1742471966.668,966.309,56.152,438.965,966.797
1742471966.672,966.309,-38.574,433.105,966.797
1742471966.676,966.309,-50.781,470.703,966.797
1742471966.68,966.309,10.254,539.062,966.797
1742471966.684,966.309,76.66,703.613,966.797
1742471966.688,966.309,9.277,849.609,966.797
1742471966.691,966.309,-587.402,858.887,966.797
1742471966.695,966.309,-412.109,865.234,966.797
1742471966.699,974.609,68.848,895.02,966.797
1742471966.703,934.57,-107.91,829.59,966.797
1742471966.707,960.938,-274.414,767.09,975.586
1742471966.71,999.512,-197.754,651.367,935.547
1742471966.714,-267.09,-462.891,448.73,962.402
1742471966.718,-1000.0,-617.676,339.355,999.512
1742471966.722,-938.477,-719.727,306.152,-254.883
1742471966.726,-1000.0,-631.836,339.844,-1000.0
1742471966.73,-1000.0,-363.77,332.52,-942.383
1742471966.734,-1000.0,-677.246,231.445,-1000.0
1742471966.737,-941.895,-960.449,208.008,-937.988
1742471966.741,-1000.0,-758.789,336.426,-1000.0
1742471966.745,-883.789,-478.516,505.859,-778.809
1742471966.749,573.73,-205.078,509.277,677.734
1742471966.753,999.512,-419.922,581.543,999.512
1742471966.71,999.512,-197.754,651.367,935.547
1742471966.714,-267.09,-462.891,448.73,962.402
1742471966.718,-1000.0,-617.676,339.355,999.512
1742471966.722,-938.477,-719.727,306.152,-254.883
1742471966.726,-1000.0,-631.836,339.844,-1000.0
1742471966.73,-1000.0,-363.77,332.52,-942.383
1742471966.734,-1000.0,-677.246,231.445,-1000.0
1742471966.737,-941.895,-960.449,208.008,-937.988
1742471966.741,-1000.0,-758.789,336.426,-1000.0
1742471966.745,-883.789,-478.516,505.859,-778.809
1742471966.749,573.73,-205.078,509.277,677.734
1742471966.753,999.512,-419.922,581.543,999.512
1742471966.755,891.602,-409.668,771.484,898.438
1742471966.759,982.422,-406.738,776.367,983.398
1742471966.763,966.309,-577.637,779.785,966.797
1742471966.767,975.586,-408.203,768.555,976.562
1742471966.771,931.641,-213.867,705.566,931.152
1742471966.775,964.844,-253.418,686.523,970.215
1742471966.779,999.512,-525.391,634.766,988.281
1742471966.782,-311.523,-916.992,581.543,-322.266
1742471966.786,-1000.0,-672.363,645.996,-1000.0
1742471966.79,-932.129,-290.527,733.398,-935.059
1742471966.794,-1000.0,-238.77,701.172,-1000.0
1742471966.798,-1000.0,-225.098,570.801,-1000.0
1742471966.755,891.602,-409.668,771.484,898.438
1742471966.759,982.422,-406.738,776.367,983.398
1742471966.763,966.309,-577.637,779.785,966.797
1742471966.767,975.586,-408.203,768.555,976.562
1742471966.771,931.641,-213.867,705.566,931.152
1742471966.775,964.844,-253.418,686.523,970.215
1742471966.779,999.512,-525.391,634.766,988.281
1742471966.782,-311.523,-916.992,581.543,-322.266
1742471966.786,-1000.0,-672.363,645.996,-1000.0
1742471966.79,-932.129,-290.527,733.398,-935.059
1742471966.794,-1000.0,-238.77,701.172,-1000.0
1742471966.798,-1000.0,-225.098,570.801,-1000.0
1742471966.802,-1000.0,-159.668,521.484,-1000.0
1742471966.806,-1000.0,-186.523,452.637,-1000.0
1742471966.81,-1000.0,-127.441,356.445,-1000.0
1742471966.814,-1000.0,-212.402,316.895,-1000.0
1742471966.818,-1000.0,-168.945,335.449,-1000.0
1742471966.822,-1000.0,-194.824,390.137,-1000.0
1742471966.826,-1000.0,-579.102,303.711,-1000.0
1742471966.829,-1000.0,-383.301,154.297,-1000.0
1742471966.833,-1000.0,-187.5,81.055,-1000.0
1742471966.837,-942.383,-270.996,23.438,-944.824
1742471966.841,-1000.0,-243.164,14.648,-1000.0
1742471966.845,-887.207,-122.07,72.266,-909.18
1742471966.802,-1000.0,-159.668,521.484,-1000.0
1742471966.806,-1000.0,-186.523,452.637,-1000.0
1742471966.81,-1000.0,-127.441,356.445,-1000.0
1742471966.814,-1000.0,-212.402,316.895,-1000.0
1742471966.818,-1000.0,-168.945,335.449,-1000.0
1742471966.822,-1000.0,-194.824,390.137,-1000.0
1742471966.826,-1000.0,-579.102,303.711,-1000.0
1742471966.829,-1000.0,-383.301,154.297,-1000.0
1742471966.833,-1000.0,-187.5,81.055,-1000.0
1742471966.837,-942.383,-270.996,23.438,-944.824
1742471966.841,-1000.0,-243.164,14.648,-1000.0
1742471966.845,-887.207,-122.07,72.266,-909.18
1742471966.859,568.848,230.469,167.969,536.133
1742471966.863,999.512,-1.953,173.34,999.512
1742471966.867,891.602,-275.879,145.02,892.09
1742471966.871,982.422,-75.195,182.617,981.934
1742471966.875,966.309,-86.426,191.895,966.797
1742471966.879,966.309,-605.957,159.668,966.797
1742471966.883,966.309,-599.121,125.0,966.797
1742471966.886,966.309,-293.945,41.016,967.285
1742471966.89,966.309,-252.441,40.039,967.285
1742471966.894,982.422,-258.789,57.129,983.398
1742471966.898,908.691,-186.523,13.184,907.715
1742471966.902,999.512,-88.379,25.391,999.512
1742471966.859,568.848,230.469,167.969,536.133
1742471966.863,999.512,-1.953,173.34,999.512
1742471966.867,891.602,-275.879,145.02,892.09
1742471966.871,982.422,-75.195,182.617,981.934
1742471966.875,966.309,-86.426,191.895,966.797
1742471966.879,966.309,-605.957,159.668,966.797
1742471966.883,966.309,-599.121,125.0,966.797
1742471966.886,966.309,-293.945,41.016,967.285
1742471966.89,966.309,-252.441,40.039,967.285
1742471966.894,982.422,-258.789,57.129,983.398
1742471966.898,908.691,-186.523,13.184,907.715
1742471966.902,999.512,-88.379,25.391,999.512
1742471966.904,856.934,-211.426,-9.277,838.379
1742471966.908,-598.145,-588.867,-105.469,-620.605
1742471966.912,-1000.0,-310.059,-91.309,-1000.0
1742471966.916,-925.781,-122.559,-24.414,-926.758
1742471966.92,-1000.0,-96.68,30.762,-1000.0
1742471966.924,-1000.0,-7.812,30.762,-1000.0
1742471966.928,-1000.0,-174.316,-5.371,-1000.0
1742471966.931,-1000.0,-169.922,-13.672,-1000.0
1742471966.935,-1000.0,-395.508,-59.57,-1000.0
1742471966.939,-1000.0,-520.508,-57.617,-1000.0
1742471966.943,-942.383,-116.211,14.648,-943.359
1742471966.947,-1000.0,-145.02,47.852,-1000.0
1742471966.904,856.934,-211.426,-9.277,838.379
1742471966.908,-598.145,-588.867,-105.469,-620.605
1742471966.912,-1000.0,-310.059,-91.309,-1000.0
1742471966.916,-925.781,-122.559,-24.414,-926.758
1742471966.92,-1000.0,-96.68,30.762,-1000.0
1742471966.924,-1000.0,-7.812,30.762,-1000.0
1742471966.928,-1000.0,-174.316,-5.371,-1000.0
1742471966.931,-1000.0,-169.922,-13.672,-1000.0
1742471966.935,-1000.0,-395.508,-59.57,-1000.0
1742471966.939,-1000.0,-520.508,-57.617,-1000.0
1742471966.943,-942.383,-116.211,14.648,-943.359
1742471966.947,-1000.0,-145.02,47.852,-1000.0
1742471966.949,-891.113,-146.484,97.168,-898.926
1742471966.953,563.477,320.801,177.246,551.758
1742471966.957,999.512,67.383,124.023,999.512
1742471966.961,891.602,-206.055,54.199,892.09
1742471966.965,981.934,-252.93,-21.973,982.422
1742471966.969,966.309,-173.34,-13.672,967.285
1742471966.973,966.309,-88.379,11.719,966.797
1742471966.976,966.309,-218.262,9.766,966.797
1742471966.98,966.309,-298.34,110.84,966.797
1742471966.984,966.309,-235.84,139.648,966.797
1742471966.988,966.309,-120.117,128.906,966.797
1742471966.992,966.309,-249.512,88.379,966.797
1742471966.949,-891.113,-146.484,97.168,-898.926
1742471966.953,563.477,320.801,177.246,551.758
1742471966.957,999.512,67.383,124.023,999.512
1742471966.961,891.602,-206.055,54.199,892.09
1742471966.965,981.934,-252.93,-21.973,982.422
1742471966.969,966.309,-173.34,-13.672,967.285
1742471966.973,966.309,-88.379,11.719,966.797
1742471966.976,966.309,-218.262,9.766,966.797
1742471966.98,966.309,-298.34,110.84,966.797
1742471966.984,966.309,-235.84,139.648,966.797
1742471966.988,966.309,-120.117,128.906,966.797
1742471966.992,966.309,-249.512,88.379,966.797
1742471966.995,966.309,-271.484,0.977,965.82
1742471966.999,966.309,-169.922,35.156,968.262
1742471967.003,966.309,-189.453,60.547,964.844
1742471967.007,982.91,-187.988,33.691,969.727
1742471967.011,907.227,-69.336,119.629,906.738
1742471967.015,999.512,93.75,315.43,999.512
1742471967.019,840.332,-43.945,85.938,856.934
1742471967.022,-618.652,-671.387,-703.613,-597.656
1742471967.026,-1000.0,-458.008,-1000.0,-1000.0
1742471967.03,-926.27,-51.758,-977.539,-925.781
1742471967.034,-1000.0,-150.391,-1000.0,-1000.0
1742471967.038,-1000.0,-98.145,-1000.0,-1000.0
1742471966.995,966.309,-271.484,0.977,965.82
1742471966.999,966.309,-169.922,35.156,968.262
1742471967.003,966.309,-189.453,60.547,964.844
1742471967.007,982.91,-187.988,33.691,969.727
1742471967.011,907.227,-69.336,119.629,906.738
1742471967.015,999.512,93.75,315.43,999.512
1742471967.019,840.332,-43.945,85.938,856.934
1742471967.022,-618.652,-671.387,-703.613,-597.656
1742471967.026,-1000.0,-458.008,-1000.0,-1000.0
1742471967.03,-926.27,-51.758,-977.539,-925.781
1742471967.034,-1000.0,-150.391,-1000.0,-1000.0
1742471967.038,-1000.0,-98.145,-1000.0,-1000.0
1742471967.039,-1000.0,34.668,-999.023,-1000.0
1742471967.043,-942.383,-62.012,-999.512,-941.406
1742471967.047,-1000.0,-229.492,-995.117,-1000.0
1742471967.051,-891.113,-119.629,-915.527,-878.906
1742471967.055,563.965,402.832,-844.727,579.102
1742471967.059,999.512,243.164,-858.887,999.512
1742471967.063,891.602,-72.266,-802.246,893.066
1742471967.066,981.934,-319.336,-708.496,982.91
1742471967.07,966.309,-257.324,-657.227,966.797
1742471967.074,966.309,-3.906,-636.23,966.797
1742471967.078,966.309,-54.199,-630.371,966.797
1742471967.082,966.309,-93.262,-599.121,966.797
1742471967.039,-1000.0,34.668,-999.023,-1000.0
1742471967.043,-942.383,-62.012,-999.512,-941.406
1742471967.047,-1000.0,-229.492,-995.117,-1000.0
1742471967.051,-891.113,-119.629,-915.527,-878.906
1742471967.055,563.965,402.832,-844.727,579.102
1742471967.059,999.512,243.164,-858.887,999.512
1742471967.063,891.602,-72.266,-802.246,893.066
1742471967.066,981.934,-319.336,-708.496,982.91
1742471967.07,966.309,-257.324,-657.227,966.797
1742471967.074,966.309,-3.906,-636.23,966.797
1742471967.078,966.309,-54.199,-630.371,966.797
1742471967.082,966.309,-93.262,-599.121,966.797
1742471967.086,966.309,34.18,-549.316,966.797
1742471967.09,966.309,48.828,-539.551,966.797
1742471967.094,966.309,-45.41,-564.941,966.797
1742471967.098,967.285,-184.082,-577.637,966.797
1742471967.102,975.098,-149.902,-574.707,967.285
1742471967.106,905.273,82.52,-483.398,966.797
1742471967.11,999.512,-115.723,-452.148,966.797
1742471967.113,500.488,-557.129,-508.301,966.797
1742471967.117,-868.164,-260.742,-451.66,966.797
1742471967.121,-1000.0,12.207,-399.902,966.797
1742471967.125,-947.754,-62.012,-363.281,966.797
1742471967.129,-1000.0,-89.844,-375.488,966.797
1742471967.086,966.309,34.18,-549.316,966.797
1742471967.09,966.309,48.828,-539.551,966.797
1742471967.094,966.309,-45.41,-564.941,966.797
1742471967.098,967.285,-184.082,-577.637,966.797
1742471967.102,975.098,-149.902,-574.707,967.285
1742471967.106,905.273,82.52,-483.398,966.797
1742471967.11,999.512,-115.723,-452.148,966.797
1742471967.113,500.488,-557.129,-508.301,966.797
1742471967.117,-868.164,-260.742,-451.66,966.797
1742471967.121,-1000.0,12.207,-399.902,966.797
1742471967.125,-947.754,-62.012,-363.281,966.797
1742471967.129,-1000.0,-89.844,-375.488,966.797
1742471967.13,-1000.0,-35.156,-391.602,967.285
1742471967.134,-943.848,-9.277,-325.684,966.797
1742471967.138,-1000.0,-51.27,-280.762,966.797
1742471967.142,-902.832,62.988,-253.906,966.797
1742471967.146,545.41,242.188,-232.422,966.797
1742471967.15,999.512,140.625,-235.84,966.797
1742471967.154,891.602,-243.164,-272.461,967.285
1742471967.157,981.445,-520.996,-275.879,966.797
1742471967.161,966.309,-178.711,-206.543,966.797
1742471967.165,966.309,41.016,-159.668,966.797
1742471967.169,966.309,-1.953,-181.641,966.797
1742471967.173,966.309,-57.617,-215.82,967.285
1742471967.13,-1000.0,-35.156,-391.602,967.285
1742471967.134,-943.848,-9.277,-325.684,966.797
1742471967.138,-1000.0,-51.27,-280.762,966.797
1742471967.142,-902.832,62.988,-253.906,966.797
1742471967.146,545.41,242.188,-232.422,966.797
1742471967.15,999.512,140.625,-235.84,966.797
1742471967.154,891.602,-243.164,-272.461,967.285
1742471967.157,981.445,-520.996,-275.879,966.797
1742471967.161,966.309,-178.711,-206.543,966.797
1742471967.165,966.309,41.016,-159.668,966.797
1742471967.169,966.309,-1.953,-181.641,966.797
1742471967.173,966.309,-57.617,-215.82,967.285
1742471967.175,966.309,24.414,-205.566,966.797
1742471967.179,980.469,50.293,-165.527,966.797
1742471967.183,915.527,-1.953,-173.828,967.285
1742471967.187,999.512,62.012,-238.77,966.797
1742471967.191,908.203,8.789,-249.023,966.797
1742471967.195,-510.742,-228.027,-227.539,967.285
1742471967.199,-1000.0,-214.844,-219.238,967.285
1742471967.202,-926.27,-110.352,-175.781,966.797
1742471967.206,-1000.0,-30.273,-145.02,966.797
1742471967.21,-1000.0,-148.926,-176.27,967.285
1742471967.214,-1000.0,-177.246,-173.34,967.285
1742471967.218,-1000.0,-16.602,-149.414,966.797
1742471967.175,966.309,24.414,-205.566,966.797
1742471967.179,980.469,50.293,-165.527,966.797
1742471967.183,915.527,-1.953,-173.828,967.285
1742471967.187,999.512,62.012,-238.77,966.797
1742471967.191,908.203,8.789,-249.023,966.797
1742471967.195,-510.742,-228.027,-227.539,967.285
1742471967.199,-1000.0,-214.844,-219.238,967.285
1742471967.202,-926.27,-110.352,-175.781,966.797
1742471967.206,-1000.0,-30.273,-145.02,966.797
1742471967.21,-1000.0,-148.926,-176.27,967.285
1742471967.214,-1000.0,-177.246,-173.34,967.285
1742471967.218,-1000.0,-16.602,-149.414,966.797
1742471967.234,-1000.0,13.184,-143.555,966.797
1742471967.238,-1000.0,-7.324,-100.586,966.797
1742471967.242,-1000.0,-67.871,-111.328,966.797
1742471967.246,-1000.0,22.949,-93.75,967.285
1742471967.25,-1000.0,65.43,-88.867,966.797
1742471967.254,-1000.0,-227.051,-79.102,966.797
1742471967.258,-1000.0,-165.527,-44.434,966.797
1742471967.261,-974.609,-91.797,-78.613,966.797
1742471967.265,-983.398,-71.289,-82.52,966.797
1742471967.269,-1000.0,-31.738,2.93,966.797
1742471967.273,151.855,208.496,142.578,967.285
1742471967.277,999.512,153.809,141.602,966.797
1742471967.234,-1000.0,13.184,-143.555,966.797
1742471967.238,-1000.0,-7.324,-100.586,966.797
1742471967.242,-1000.0,-67.871,-111.328,966.797
1742471967.246,-1000.0,22.949,-93.75,967.285
1742471967.25,-1000.0,65.43,-88.867,966.797
1742471967.254,-1000.0,-227.051,-79.102,966.797
1742471967.258,-1000.0,-165.527,-44.434,966.797
1742471967.261,-974.609,-91.797,-78.613,966.797
1742471967.265,-983.398,-71.289,-82.52,966.797
1742471967.269,-1000.0,-31.738,2.93,966.797
1742471967.273,151.855,208.496,142.578,967.285
1742471967.277,999.512,153.809,141.602,966.797
1742471967.279,910.645,9.277,161.133,966.797
1742471967.283,963.379,37.598,377.441,966.797
1742471967.287,967.773,55.176,508.301,966.797
1742471967.291,969.727,54.199,336.914,967.285
1742471967.295,957.52,135.254,222.168,979.492
1742471967.299,922.852,213.867,237.305,897.949
1742471967.303,999.512,155.762,203.613,999.512
1742471967.306,93.262,-211.914,326.66,511.23
1742471967.31,-1000.0,-483.887,635.742,-899.414
1742471967.314,-980.957,-139.648,878.906,-1000.0
1742471967.318,-978.027,165.527,935.547,-946.777
1742471967.322,-1000.0,132.324,948.242,-1000.0
1742471967.279,910.645,9.277,161.133,966.797
1742471967.283,963.379,37.598,377.441,966.797
1742471967.287,967.773,55.176,508.301,966.797
1742471967.291,969.727,54.199,336.914,967.285
1742471967.295,957.52,135.254,222.168,979.492
1742471967.299,922.852,213.867,237.305,897.949
1742471967.303,999.512,155.762,203.613,999.512
1742471967.306,93.262,-211.914,326.66,511.23
1742471967.31,-1000.0,-483.887,635.742,-899.414
1742471967.314,-980.957,-139.648,878.906,-1000.0
1742471967.318,-978.027,165.527,935.547,-946.777
1742471967.322,-1000.0,132.324,948.242,-1000.0
1742471967.324,-1000.0,204.59,928.223,-1000.0
1742471967.328,-995.117,188.477,905.762,-978.027
1742471967.332,-949.707,174.316,893.555,-979.98
1742471967.336,-1000.0,177.734,817.383,-1000.0
1742471967.34,-165.039,147.461,790.039,90.82
1742471967.344,999.512,326.66,767.09,999.512
1742471967.348,948.73,385.254,736.328,921.875
1742471967.351,942.383,165.527,716.797,958.984
1742471967.355,972.168,-103.027,669.434,969.727
1742471967.359,966.309,146.973,633.789,966.797
1742471967.363,966.309,281.25,539.062,966.797
1742471967.367,968.75,226.562,549.316,968.262
1742471967.324,-1000.0,204.59,928.223,-1000.0
1742471967.328,-995.117,188.477,905.762,-978.027
1742471967.332,-949.707,174.316,893.555,-979.98
1742471967.336,-1000.0,177.734,817.383,-1000.0
1742471967.34,-165.039,147.461,790.039,90.82
1742471967.344,999.512,326.66,767.09,999.512
1742471967.348,948.73,385.254,736.328,921.875
1742471967.351,942.383,165.527,716.797,958.984
1742471967.355,972.168,-103.027,669.434,969.727
1742471967.359,966.309,146.973,633.789,966.797
1742471967.363,966.309,281.25,539.062,966.797
1742471967.367,968.75,226.562,549.316,968.262
1742471967.371,961.426,338.867,684.57,971.68
1742471967.375,916.016,238.281,700.195,905.273
1742471967.379,999.512,248.535,640.137,999.512
1742471967.383,147.461,-106.445,532.227,333.008
1742471967.387,-1000.0,-324.219,524.902,-979.98
1742471967.391,-986.816,288.086,666.504,-1000.0
1742471967.395,-974.609,395.02,666.504,-960.449
1742471967.398,-1000.0,53.223,575.684,-1000.0
1742471967.402,-1000.0,-36.133,526.855,-1000.0
1742471967.406,-1000.0,188.477,537.109,-1000.0
1742471967.41,-1000.0,239.258,557.129,-1000.0
1742471967.414,-1000.0,60.547,470.215,-1000.0
1742471967.371,961.426,338.867,684.57,971.68
1742471967.375,916.016,238.281,700.195,905.273
1742471967.379,999.512,248.535,640.137,999.512
1742471967.383,147.461,-106.445,532.227,333.008
1742471967.387,-1000.0,-324.219,524.902,-979.98
1742471967.391,-986.816,288.086,666.504,-1000.0
1742471967.395,-974.609,395.02,666.504,-960.449
1742471967.398,-1000.0,53.223,575.684,-1000.0
1742471967.402,-1000.0,-36.133,526.855,-1000.0
1742471967.406,-1000.0,188.477,537.109,-1000.0
1742471967.41,-1000.0,239.258,557.129,-1000.0
1742471967.414,-1000.0,60.547,470.215,-1000.0
1742471967.414,-1000.0,40.527,417.48,-1000.0
1742471967.418,-1000.0,68.848,444.336,-1000.0
1742471967.422,-939.941,-17.578,413.574,-939.453
1742471967.426,-1000.0,-125.0,446.289,-1000.0
1742471967.43,-861.328,13.672,490.723,-666.992
1742471967.434,601.562,184.57,431.152,738.77
1742471967.438,999.512,-50.781,430.664,999.512
1742471967.441,892.578,-745.605,376.465,906.25
1742471967.445,982.422,-802.734,320.312,981.445
1742471967.449,982.91,-312.012,341.309,982.91
1742471967.453,905.762,-381.348,313.965,905.762
1742471967.457,999.512,-404.297,330.078,999.512
1742471967.414,-1000.0,40.527,417.48,-1000.0
1742471967.418,-1000.0,68.848,444.336,-1000.0
1742471967.422,-939.941,-17.578,413.574,-939.453
1742471967.426,-1000.0,-125.0,446.289,-1000.0
1742471967.43,-861.328,13.672,490.723,-666.992
1742471967.434,601.562,184.57,431.152,738.77
1742471967.438,999.512,-50.781,430.664,999.512
1742471967.441,892.578,-745.605,376.465,906.25
1742471967.445,982.422,-802.734,320.312,981.445
1742471967.449,982.91,-312.012,341.309,982.91
1742471967.453,905.762,-381.348,313.965,905.762
1742471967.457,999.512,-404.297,330.078,999.512
1742471967.461,827.637,-410.156,387.207,799.805
1742471967.465,-634.766,-790.039,345.703,-658.203
1742471967.469,-1000.0,-637.695,283.203,-1000.0
1742471967.473,-926.758,-474.121,204.59,-928.711
1742471967.477,-1000.0,-493.164,183.105,-1000.0
1742471967.481,-1000.0,-266.113,213.379,-1000.0
1742471967.485,-942.383,-538.086,147.461,-939.453
1742471967.488,-1000.0,-876.465,99.609,-1000.0
1742471967.492,-891.113,-344.727,116.211,-790.039
1742471967.496,563.965,1.465,127.93,650.879
1742471967.5,999.512,-467.773,75.195,999.512
1742471967.504,891.602,-566.895,39.062,898.438
1742471967.461,827.637,-410.156,387.207,799.805
1742471967.465,-634.766,-790.039,345.703,-658.203
1742471967.469,-1000.0,-637.695,283.203,-1000.0
1742471967.473,-926.758,-474.121,204.59,-928.711
1742471967.477,-1000.0,-493.164,183.105,-1000.0
1742471967.481,-1000.0,-266.113,213.379,-1000.0
1742471967.485,-942.383,-538.086,147.461,-939.453
1742471967.488,-1000.0,-876.465,99.609,-1000.0
1742471967.492,-891.113,-344.727,116.211,-790.039
1742471967.496,563.965,1.465,127.93,650.879
1742471967.5,999.512,-467.773,75.195,999.512
1742471967.504,891.602,-566.895,39.062,898.438
1742471967.504,981.934,-338.379,111.816,982.422
1742471967.508,966.309,-338.379,160.645,966.797
1742471967.512,966.309,-379.395,100.098,966.797
1742471967.516,966.309,-357.422,113.281,967.285
1742471967.52,966.309,-202.148,153.809,966.797
1742471967.524,966.309,-121.582,135.742,966.797
1742471967.528,966.309,-472.656,82.52,966.797
1742471967.531,966.309,-592.285,-20.996,967.285
1742471967.535,966.309,-204.102,-33.691,966.797
1742471967.539,966.309,-173.828,-20.02,966.797
1742471967.543,966.309,-85.449,48.34,966.797
1742471967.547,966.309,-96.68,39.551,967.285
1742471967.504,981.934,-338.379,111.816,982.422
1742471967.508,966.309,-338.379,160.645,966.797
1742471967.512,966.309,-379.395,100.098,966.797
1742471967.516,966.309,-357.422,113.281,967.285
1742471967.52,966.309,-202.148,153.809,966.797
1742471967.524,966.309,-121.582,135.742,966.797
1742471967.528,966.309,-472.656,82.52,966.797
1742471967.531,966.309,-592.285,-20.996,967.285
1742471967.535,966.309,-204.102,-33.691,966.797
1742471967.539,966.309,-173.828,-20.02,966.797
1742471967.543,966.309,-85.449,48.34,966.797
1742471967.547,966.309,-96.68,39.551,967.285
1742471967.504,981.934,-338.379,111.816,982.422
1742471967.508,966.309,-338.379,160.645,966.797
1742471967.512,966.309,-379.395,100.098,966.797
1742471967.516,966.309,-357.422,113.281,967.285
1742471967.52,966.309,-202.148,153.809,966.797
1742471967.524,966.309,-121.582,135.742,966.797
1742471967.528,966.309,-472.656,82.52,966.797
1742471967.531,966.309,-592.285,-20.996,967.285
1742471967.535,966.309,-204.102,-33.691,966.797
1742471967.539,966.309,-173.828,-20.02,966.797
1742471967.543,966.309,-85.449,48.34,966.797
1742471967.547,966.309,-96.68,39.551,967.285
1742471967.551,966.309,-192.871,-22.949,966.797
1742471967.555,966.309,-115.723,23.438,966.797
1742471967.559,966.309,-116.211,48.828,966.797
1742471967.563,981.934,-74.219,-46.875,967.773
1742471967.567,910.156,25.879,-124.512,975.098
1742471967.571,999.512,84.961,-96.191,906.738
1742471967.575,871.094,-19.531,-160.645,999.512
1742471967.578,-589.355,-451.66,-261.23,460.449
1742471967.582,-1000.0,-342.285,-173.34,-820.312
1742471967.586,-955.078,-152.832,-170.41,-1000.0
1742471967.59,-978.027,5.371,-192.383,-828.125
1742471967.594,443.848,555.176,-102.539,565.918
1742471967.551,966.309,-192.871,-22.949,966.797
1742471967.555,966.309,-115.723,23.438,966.797
1742471967.559,966.309,-116.211,48.828,966.797
1742471967.563,981.934,-74.219,-46.875,967.773
1742471967.567,910.156,25.879,-124.512,975.098
1742471967.571,999.512,84.961,-96.191,906.738
1742471967.575,871.094,-19.531,-160.645,999.512
1742471967.578,-589.355,-451.66,-261.23,460.449
1742471967.582,-1000.0,-342.285,-173.34,-820.312
1742471967.586,-955.078,-152.832,-170.41,-1000.0
1742471967.59,-978.027,5.371,-192.383,-828.125
1742471967.594,443.848,555.176,-102.539,565.918
1742471967.609,999.512,371.094,-258.789,999.512
1742471967.613,892.578,75.684,-290.527,892.578
1742471967.617,979.004,20.508,-147.461,982.91
1742471967.621,966.309,91.797,-122.07,966.797
1742471967.625,966.309,239.746,-37.598,966.797
1742471967.629,966.309,-145.508,-33.691,966.797
1742471967.633,966.309,-168.945,-59.57,966.797
1742471967.636,966.309,-14.648,-67.383,966.797
1742471967.64,966.309,3.906,-73.242,966.797
1742471967.644,966.309,104.98,-78.613,966.797
1742471967.648,965.82,82.52,-102.539,966.797
1742471967.652,981.934,82.52,-70.312,966.797
1742471967.654,907.715,185.059,-33.691,966.797
1742471967.658,999.512,165.527,-75.195,966.797
1742471967.662,846.68,66.895,-153.809,966.797
1742471967.666,-610.352,20.996,-193.848,966.797
1742471967.67,-1000.0,-26.855,-60.059,967.285
1742471967.674,-926.27,63.965,62.012,980.957
1742471967.678,-1000.0,87.891,-19.531,916.992
1742471967.681,-1000.0,-17.578,-31.738,999.512
1742471967.685,-1000.0,-238.77,-20.508,911.621
1742471967.689,-1000.0,-466.797,-46.875,-501.953
1742471967.693,-1000.0,-228.516,23.438,-1000.0
1742471967.697,-1000.0,-125.488,27.832,-926.758
1742471967.654,907.715,185.059,-33.691,966.797
1742471967.658,999.512,165.527,-75.195,966.797
1742471967.662,846.68,66.895,-153.809,966.797
1742471967.666,-610.352,20.996,-193.848,966.797
1742471967.67,-1000.0,-26.855,-60.059,967.285
1742471967.674,-926.27,63.965,62.012,980.957
1742471967.678,-1000.0,87.891,-19.531,916.992
1742471967.681,-1000.0,-17.578,-31.738,999.512
1742471967.685,-1000.0,-238.77,-20.508,911.621
1742471967.689,-1000.0,-466.797,-46.875,-501.953
1742471967.693,-1000.0,-228.516,23.438,-1000.0
1742471967.697,-1000.0,-125.488,27.832,-926.758
1742471967.699,-1000.0,-148.926,26.855,-1000.0
1742471967.703,-942.383,-94.727,62.988,-941.406
1742471967.707,-1000.0,-197.754,32.715,-1000.0
1742471967.711,-891.113,-123.047,81.543,-877.441
1742471967.715,563.965,220.703,149.414,581.055
1742471967.719,999.512,3.418,102.539,999.512
1742471967.723,891.602,-127.441,121.094,892.578
1742471967.726,982.422,-303.711,82.52,982.91
1742471967.73,966.309,-700.684,89.844,966.797
1742471967.734,966.309,-507.812,113.77,966.797
1742471967.738,966.309,-254.883,75.684,966.797
1742471967.742,966.309,-324.219,83.008,966.797
1742471967.699,-1000.0,-148.926,26.855,-1000.0
1742471967.703,-942.383,-94.727,62.988,-941.406
1742471967.707,-1000.0,-197.754,32.715,-1000.0
1742471967.711,-891.113,-123.047,81.543,-877.441
1742471967.715,563.965,220.703,149.414,581.055
1742471967.719,999.512,3.418,102.539,999.512
1742471967.723,891.602,-127.441,121.094,892.578
1742471967.726,982.422,-303.711,82.52,982.91
1742471967.73,966.309,-700.684,89.844,966.797
1742471967.734,966.309,-507.812,113.77,966.797
1742471967.738,966.309,-254.883,75.684,966.797
1742471967.742,966.309,-324.219,83.008,966.797
1742471967.746,966.309,-239.258,111.328,966.797
1742471967.75,966.309,-152.832,154.297,966.797
1742471967.754,966.309,-106.445,197.266,966.797
1742471967.758,966.309,-157.227,145.996,966.797
1742471967.762,966.309,-202.148,108.887,966.797
1742471967.766,966.309,-47.363,158.203,967.285
1742471967.77,983.398,-83.984,169.434,980.469
1742471967.773,894.531,-355.957,135.742,899.902
1742471967.777,999.512,-189.941,138.672,999.512
1742471967.781,661.621,-214.844,91.309,602.051
1742471967.785,-812.012,-548.828,64.941,-828.613
1742471967.789,-1000.0,-374.512,173.34,-1000.0
1742471967.789,-935.547,-72.754,281.738,-940.43
1742471967.793,-1000.0,33.203,261.719,-1000.0
1742471967.797,-1000.0,11.719,221.68,-1000.0
1742471967.801,-942.383,106.934,251.465,-943.848
1742471967.805,-1000.0,28.809,234.863,-1000.0
1742471967.809,-891.113,143.066,188.477,-898.926
1742471967.813,563.477,484.863,62.988,550.293
1742471967.816,999.512,-234.863,-71.289,999.512
1742471967.82,891.602,-319.824,-90.332,892.09
1742471967.824,981.934,140.137,-30.273,982.422
1742471967.828,966.309,119.141,90.82,966.797
1742471967.832,966.309,-126.465,86.914,966.797
1742471967.789,-935.547,-72.754,281.738,-940.43
1742471967.793,-1000.0,33.203,261.719,-1000.0
1742471967.797,-1000.0,11.719,221.68,-1000.0
1742471967.801,-942.383,106.934,251.465,-943.848
1742471967.805,-1000.0,28.809,234.863,-1000.0
1742471967.809,-891.113,143.066,188.477,-898.926
1742471967.813,563.477,484.863,62.988,550.293
1742471967.816,999.512,-234.863,-71.289,999.512
1742471967.82,891.602,-319.824,-90.332,892.09
1742471967.824,981.934,140.137,-30.273,982.422
1742471967.828,966.309,119.141,90.82,966.797
1742471967.832,966.309,-126.465,86.914,966.797
1742471967.836,966.309,-65.918,106.934,966.797
1742471967.84,966.309,104.004,120.117,966.797
1742471967.844,966.309,-4.883,39.062,966.797
1742471967.848,966.309,-50.781,48.34,966.797
1742471967.852,966.309,92.285,75.195,967.285
1742471967.856,966.309,230.957,62.012,966.797
1742471967.86,966.309,-11.23,40.039,966.797
1742471967.863,966.309,-277.344,-14.16,967.285
1742471967.867,966.309,91.309,48.828,966.797
1742471967.871,966.309,156.738,20.02,966.797
1742471967.875,966.309,74.707,10.742,967.285
1742471967.879,966.309,69.336,11.23,966.797
1742471967.836,966.309,-65.918,106.934,966.797
1742471967.84,966.309,104.004,120.117,966.797
1742471967.844,966.309,-4.883,39.062,966.797
1742471967.848,966.309,-50.781,48.34,966.797
1742471967.852,966.309,92.285,75.195,967.285
1742471967.856,966.309,230.957,62.012,966.797
1742471967.86,966.309,-11.23,40.039,966.797
1742471967.863,966.309,-277.344,-14.16,967.285
1742471967.867,966.309,91.309,48.828,966.797
1742471967.871,966.309,156.738,20.02,966.797
1742471967.875,966.309,74.707,10.742,967.285
1742471967.879,966.309,69.336,11.23,966.797
1742471967.88,966.309,100.098,-34.668,966.797
1742471967.884,966.309,179.199,47.363,966.797
1742471967.888,966.309,-193.359,-41.992,966.797
1742471967.892,966.309,-56.641,-102.539,966.797
1742471967.896,966.309,200.195,-38.574,966.797
1742471967.9,966.309,60.547,-7.324,966.797
1742471967.904,966.309,-271.484,13.184,966.797
1742471967.907,966.309,-345.215,-44.922,966.797
1742471967.911,966.309,88.867,-34.18,966.797
1742471967.915,966.309,141.602,-13.184,966.797
1742471967.919,966.309,16.113,-48.828,966.797
1742471967.923,966.309,-6.836,-52.734,966.797
1742471967.88,966.309,100.098,-34.668,966.797
1742471967.884,966.309,179.199,47.363,966.797
1742471967.888,966.309,-193.359,-41.992,966.797
1742471967.892,966.309,-56.641,-102.539,966.797
1742471967.896,966.309,200.195,-38.574,966.797
1742471967.9,966.309,60.547,-7.324,966.797
1742471967.904,966.309,-271.484,13.184,966.797
1742471967.907,966.309,-345.215,-44.922,966.797
1742471967.911,966.309,88.867,-34.18,966.797
1742471967.915,966.309,141.602,-13.184,966.797
1742471967.919,966.309,16.113,-48.828,966.797
1742471967.923,966.309,-6.836,-52.734,966.797
1742471967.941,966.309,69.336,-85.449,966.797
1742471967.945,966.309,69.824,-164.551,966.797
1742471967.949,965.82,31.25,-198.242,966.797
1742471967.953,966.309,31.738,-197.266,966.797
1742471967.957,966.309,215.332,-107.91,967.285
1742471967.961,966.309,138.672,-32.227,966.797
1742471967.965,966.309,-226.562,-121.582,966.797
1742471967.968,966.309,-92.773,-242.676,966.797
1742471967.972,966.309,53.711,-229.98,966.797
1742471967.976,966.309,27.832,-163.086,966.797
1742471967.98,982.91,98.145,-150.879,983.398
1742471967.984,903.809,32.227,-145.996,908.691
1742471967.941,966.309,69.336,-85.449,966.797
1742471967.945,966.309,69.824,-164.551,966.797
1742471967.949,965.82,31.25,-198.242,966.797
1742471967.953,966.309,31.738,-197.266,966.797
1742471967.957,966.309,215.332,-107.91,967.285
1742471967.961,966.309,138.672,-32.227,966.797
1742471967.965,966.309,-226.562,-121.582,966.797
1742471967.968,966.309,-92.773,-242.676,966.797
1742471967.972,966.309,53.711,-229.98,966.797
1742471967.976,966.309,27.832,-163.086,966.797
1742471967.98,982.91,98.145,-150.879,983.398
1742471967.984,903.809,32.227,-145.996,908.691
1742471968.014,999.512,78.613,-80.566,999.512
1742471968.018,784.18,-8.789,-150.391,852.051
1742471968.022,-676.758,-370.117,-181.641,-604.98
1742471968.026,-1000.0,-166.016,-67.383,-1000.0
1742471968.03,-929.199,26.855,-38.574,-925.781
1742471968.034,-1000.0,-160.156,-79.59,-1000.0
1742471968.038,-1000.0,-215.332,-188.965,-1000.0
1742471968.041,-1000.0,-288.574,-258.301,-1000.0
1742471968.045,-1000.0,-314.941,-190.918,-1000.0
1742471968.049,-1000.0,-575.195,-80.078,-1000.0
1742471968.053,-1000.0,-587.402,-375.488,-1000.0
1742471968.057,-1000.0,-186.035,-944.824,-1000.0
1742471968.014,999.512,78.613,-80.566,999.512
1742471968.018,784.18,-8.789,-150.391,852.051
1742471968.022,-676.758,-370.117,-181.641,-604.98
1742471968.026,-1000.0,-166.016,-67.383,-1000.0
1742471968.03,-929.199,26.855,-38.574,-925.781
1742471968.034,-1000.0,-160.156,-79.59,-1000.0
1742471968.038,-1000.0,-215.332,-188.965,-1000.0
1742471968.041,-1000.0,-288.574,-258.301,-1000.0
1742471968.045,-1000.0,-314.941,-190.918,-1000.0
1742471968.049,-1000.0,-575.195,-80.078,-1000.0
1742471968.053,-1000.0,-587.402,-375.488,-1000.0
1742471968.057,-1000.0,-186.035,-944.824,-1000.0
1742471968.029,-1000.0,-108.398,-1000.0,-1000.0
1742471968.033,-1000.0,-88.867,-980.469,-1000.0
1742471968.037,-1000.0,47.852,-1000.0,-1000.0
1742471968.041,-1000.0,-13.672,-1000.0,-1000.0
1742471968.045,-1000.0,6.348,-1000.0,-1000.0
1742471968.049,-973.145,99.609,-1000.0,-991.699
1742471968.053,-985.84,92.285,-1000.0,-957.031
1742471968.056,-1000.0,-41.016,-1000.0,-1000.0
1742471968.06,172.363,399.902,-1000.0,-123.047
1742471968.064,999.512,386.23,-1000.0,999.512
1742471968.068,908.691,-82.031,-1000.0,947.266
1742471968.072,965.332,-104.98,-1000.0,944.824
1742471968.029,-1000.0,-108.398,-1000.0,-1000.0
1742471968.033,-1000.0,-88.867,-980.469,-1000.0
1742471968.037,-1000.0,47.852,-1000.0,-1000.0
1742471968.041,-1000.0,-13.672,-1000.0,-1000.0
1742471968.045,-1000.0,6.348,-1000.0,-1000.0
1742471968.049,-973.145,99.609,-1000.0,-991.699
1742471968.053,-985.84,92.285,-1000.0,-957.031
1742471968.056,-1000.0,-41.016,-1000.0,-1000.0
1742471968.06,172.363,399.902,-1000.0,-123.047
1742471968.064,999.512,386.23,-1000.0,999.512
1742471968.068,908.691,-82.031,-1000.0,947.266
1742471968.072,965.332,-104.98,-1000.0,944.824
1742471968.029,-1000.0,-108.398,-1000.0,-1000.0
1742471968.033,-1000.0,-88.867,-980.469,-1000.0
1742471968.037,-1000.0,47.852,-1000.0,-1000.0
1742471968.041,-1000.0,-13.672,-1000.0,-1000.0
1742471968.045,-1000.0,6.348,-1000.0,-1000.0
1742471968.049,-973.145,99.609,-1000.0,-991.699
1742471968.053,-985.84,92.285,-1000.0,-957.031
1742471968.056,-1000.0,-41.016,-1000.0,-1000.0
1742471968.06,172.363,399.902,-1000.0,-123.047
1742471968.064,999.512,386.23,-1000.0,999.512
1742471968.068,908.691,-82.031,-1000.0,947.266
1742471968.072,965.332,-104.98,-1000.0,944.824
1742471968.074,967.285,-93.262,-1000.0,973.145
1742471968.078,966.309,15.137,-997.559,966.797
1742471968.082,966.309,46.875,-1000.0,966.797
1742471968.086,966.309,98.145,-979.98,966.797
1742471968.09,982.422,-176.758,-905.273,982.91
1742471968.094,910.156,-385.742,-855.957,909.668
1742471968.098,999.512,-36.133,-847.168,999.512
1742471968.101,870.605,-141.602,-864.258,857.91
1742471968.105,-576.66,-774.414,-859.375,-594.238
1742471968.109,-1000.0,-379.883,-753.906,-1000.0
1742471968.113,-925.781,194.824,-655.273,-925.781
1742471968.117,-1000.0,106.934,-645.02,-1000.0
1742471968.12,-1000.0,-74.707,-684.57,-1000.0
1742471968.124,-1000.0,19.043,-714.355,-1000.0
1742471968.128,-992.676,89.844,-697.266,-991.699
1742471968.132,-953.613,29.785,-722.656,-957.031
1742471968.136,-1000.0,38.574,-764.16,-1000.0
1742471968.14,-128.906,476.074,-661.621,-126.465
1742471968.144,999.512,519.043,-611.328,999.512
1742471968.147,944.824,-182.617,-668.457,947.754
1742471968.151,944.336,-178.711,-576.172,944.336
1742471968.155,972.168,123.535,-571.777,973.145
1742471968.159,966.309,73.73,-601.562,966.797
1742471968.163,966.309,-8.789,-567.871,966.797
1742471968.12,-1000.0,-74.707,-684.57,-1000.0
1742471968.124,-1000.0,19.043,-714.355,-1000.0
1742471968.128,-992.676,89.844,-697.266,-991.699
1742471968.132,-953.613,29.785,-722.656,-957.031
1742471968.136,-1000.0,38.574,-764.16,-1000.0
1742471968.14,-128.906,476.074,-661.621,-126.465
1742471968.144,999.512,519.043,-611.328,999.512
1742471968.147,944.824,-182.617,-668.457,947.754
1742471968.151,944.336,-178.711,-576.172,944.336
1742471968.155,972.168,123.535,-571.777,973.145
1742471968.159,966.309,73.73,-601.562,966.797
1742471968.163,966.309,-8.789,-567.871,966.797
1742471968.165,966.309,24.902,-534.18,966.797
1742471968.169,966.309,187.012,-460.938,966.797
1742471968.173,966.309,3.418,-518.066,966.797
1742471968.177,966.309,-207.031,-595.215,966.797
1742471968.181,966.309,33.203,-530.762,966.797
1742471968.185,966.309,130.371,-445.312,966.797
1742471968.189,966.309,0.977,-437.012,966.797
1742471968.192,966.309,-417.969,-493.164,966.797
1742471968.196,966.309,-278.32,-502.93,966.797
1742471968.2,966.309,69.336,-519.531,967.285
1742471968.204,966.309,34.18,-500.977,966.797
1742471968.208,982.422,54.199,-378.906,983.398
1742471968.165,966.309,24.902,-534.18,966.797
1742471968.169,966.309,187.012,-460.938,966.797
1742471968.173,966.309,3.418,-518.066,966.797
1742471968.177,966.309,-207.031,-595.215,966.797
1742471968.181,966.309,33.203,-530.762,966.797
1742471968.185,966.309,130.371,-445.312,966.797
1742471968.189,966.309,0.977,-437.012,966.797
1742471968.192,966.309,-417.969,-493.164,966.797
1742471968.196,966.309,-278.32,-502.93,966.797
1742471968.2,966.309,69.336,-519.531,967.285
1742471968.204,966.309,34.18,-500.977,966.797
1742471968.208,982.422,54.199,-378.906,983.398
1742471968.211,902.832,44.434,-333.984,909.668
1742471968.215,999.512,45.41,-344.727,999.512
1742471968.219,765.137,-62.988,-342.773,857.422
1742471968.223,-694.336,-381.348,-321.289,-597.656
1742471968.227,-1000.0,-18.066,-217.285,-1000.0
1742471968.231,-930.176,293.945,-200.195,-925.781
1742471968.235,-1000.0,-117.188,-273.926,-1000.0
1742471968.238,-1000.0,-476.562,-293.945,-1000.0
1742471968.242,-1000.0,-71.289,-232.422,-1000.0
1742471968.246,-1000.0,143.066,-176.27,-1000.0
1742471968.25,-1000.0,88.867,-166.992,-1000.0
1742471968.254,-1000.0,47.363,-202.637,-1000.0
1742471968.211,902.832,44.434,-333.984,909.668
1742471968.215,999.512,45.41,-344.727,999.512
1742471968.219,765.137,-62.988,-342.773,857.422
1742471968.223,-694.336,-381.348,-321.289,-597.656
1742471968.227,-1000.0,-18.066,-217.285,-1000.0
1742471968.231,-930.176,293.945,-200.195,-925.781
1742471968.235,-1000.0,-117.188,-273.926,-1000.0
1742471968.238,-1000.0,-476.562,-293.945,-1000.0
1742471968.242,-1000.0,-71.289,-232.422,-1000.0
1742471968.246,-1000.0,143.066,-176.27,-1000.0
1742471968.25,-1000.0,88.867,-166.992,-1000.0
1742471968.254,-1000.0,47.363,-202.637,-1000.0
1742471968.254,-1000.0,108.887,-198.242,-1000.0
1742471968.258,-1000.0,101.562,-180.176,-1000.0
1742471968.262,-1000.0,65.918,-133.301,-1000.0
1742471968.266,-1000.0,132.324,-65.918,-1000.0
1742471968.27,-1000.0,218.75,-98.145,-1000.0
1742471968.274,-1000.0,124.023,-165.527,-1000.0
1742471968.278,-1000.0,-215.332,-149.902,-1000.0
1742471968.281,-1000.0,-416.992,-143.066,-1000.0
1742471968.285,-1000.0,-107.422,-146.973,-1000.0
1742471968.289,-1000.0,46.875,-172.852,-1000.0
1742471968.293,-1000.0,-1.465,-204.59,-1000.0
1742471968.297,-1000.0,13.184,-206.055,-1000.0
1742471968.254,-1000.0,108.887,-198.242,-1000.0
1742471968.258,-1000.0,101.562,-180.176,-1000.0
1742471968.262,-1000.0,65.918,-133.301,-1000.0
1742471968.266,-1000.0,132.324,-65.918,-1000.0
1742471968.27,-1000.0,218.75,-98.145,-1000.0
1742471968.274,-1000.0,124.023,-165.527,-1000.0
1742471968.278,-1000.0,-215.332,-149.902,-1000.0
1742471968.281,-1000.0,-416.992,-143.066,-1000.0
1742471968.285,-1000.0,-107.422,-146.973,-1000.0
1742471968.289,-1000.0,46.875,-172.852,-1000.0
1742471968.293,-1000.0,-1.465,-204.59,-1000.0
1742471968.297,-1000.0,13.184,-206.055,-1000.0
1742471968.3,-1000.0,93.262,-142.578,-1000.0
1742471968.304,-1000.0,149.902,-70.312,-1000.0
1742471968.308,-1000.0,153.32,-61.523,-1000.0
1742471968.312,-1000.0,68.359,-84.473,-1000.0
1742471968.316,-1000.0,11.719,-97.656,-1000.0
1742471968.32,-1000.0,124.512,-70.312,-1000.0
1742471968.324,-1000.0,95.215,-89.355,-1000.0
1742471968.327,-1000.0,-128.906,-154.297,-1000.0
1742471968.331,-1000.0,54.688,-131.348,-1000.0
1742471968.335,-964.844,9.766,-135.254,-1000.0
1742471968.339,-1000.0,-251.465,-115.234,-1000.0
1742471968.343,-1000.0,-13.672,-22.949,-1000.0
1742471968.3,-1000.0,93.262,-142.578,-1000.0
1742471968.304,-1000.0,149.902,-70.312,-1000.0
1742471968.308,-1000.0,153.32,-61.523,-1000.0
1742471968.312,-1000.0,68.359,-84.473,-1000.0
1742471968.316,-1000.0,11.719,-97.656,-1000.0
1742471968.32,-1000.0,124.512,-70.312,-1000.0
1742471968.324,-1000.0,95.215,-89.355,-1000.0
1742471968.327,-1000.0,-128.906,-154.297,-1000.0
1742471968.331,-1000.0,54.688,-131.348,-1000.0
1742471968.335,-964.844,9.766,-135.254,-1000.0
1742471968.339,-1000.0,-251.465,-115.234,-1000.0
1742471968.343,-1000.0,-13.672,-22.949,-1000.0
1742471968.359,285.645,299.805,-11.23,-1000.0
1742471968.363,999.512,185.547,-53.711,-1000.0
1742471968.367,899.902,8.789,-86.914,-1000.0
1742471968.371,978.516,122.07,-70.312,-1000.0
1742471968.375,939.453,126.953,-46.387,-1000.0
1742471968.379,952.637,-76.66,-71.777,-1000.0
1742471968.383,999.512,-165.039,-104.492,-1000.0
1742471968.386,-205.078,-357.91,-174.316,-1000.0
1742471968.39,-1000.0,-225.586,-180.664,-1000.0
1742471968.394,-943.848,-36.133,-110.352,-1000.0
1742471968.398,-998.535,-10.254,-100.098,-1000.0
1742471968.402,-1000.0,131.348,-91.309,-1000.0
1742471968.359,285.645,299.805,-11.23,-1000.0
1742471968.363,999.512,185.547,-53.711,-1000.0
1742471968.367,899.902,8.789,-86.914,-1000.0
1742471968.371,978.516,122.07,-70.312,-1000.0
1742471968.375,939.453,126.953,-46.387,-1000.0
1742471968.379,952.637,-76.66,-71.777,-1000.0
1742471968.383,999.512,-165.039,-104.492,-1000.0
1742471968.386,-205.078,-357.91,-174.316,-1000.0
1742471968.39,-1000.0,-225.586,-180.664,-1000.0
1742471968.394,-943.848,-36.133,-110.352,-1000.0
1742471968.398,-998.535,-10.254,-100.098,-1000.0
1742471968.402,-1000.0,131.348,-91.309,-1000.0
1742471968.419,-1000.0,18.066,-92.773,-1000.0
1742471968.423,-1000.0,-148.926,-105.957,-1000.0
1742471968.427,-992.188,-40.527,-52.246,-1000.0
1742471968.431,-956.543,12.695,-33.691,-1000.0
1742471968.435,-1000.0,70.312,-3.906,-1000.0
1742471968.439,-140.625,285.156,7.324,-1000.0
1742471968.443,999.512,150.391,-93.262,-1000.0
1742471968.446,950.195,-46.875,-86.426,-1000.0
1742471968.45,958.008,-96.191,-38.574,-1000.0
1742471968.454,908.203,-165.527,-93.262,-1000.0
1742471968.458,999.512,15.625,-111.328,-1000.0
1742471968.462,673.828,-49.316,-106.445,-1000.0
1742471968.419,-1000.0,18.066,-92.773,-1000.0
1742471968.423,-1000.0,-148.926,-105.957,-1000.0
1742471968.427,-992.188,-40.527,-52.246,-1000.0
1742471968.431,-956.543,12.695,-33.691,-1000.0
1742471968.435,-1000.0,70.312,-3.906,-1000.0
1742471968.439,-140.625,285.156,7.324,-1000.0
1742471968.443,999.512,150.391,-93.262,-1000.0
1742471968.446,950.195,-46.875,-86.426,-1000.0
1742471968.45,958.008,-96.191,-38.574,-1000.0
1742471968.454,908.203,-165.527,-93.262,-1000.0
1742471968.458,999.512,15.625,-111.328,-1000.0
1742471968.462,673.828,-49.316,-106.445,-1000.0
1742471968.45,-768.555,-180.664,-29.785,-1000.0
1742471968.454,-1000.0,26.367,41.992,-1000.0
1742471968.458,-936.035,113.77,6.836,-1000.0
1742471968.462,-1000.0,-7.812,-74.219,-1000.0
1742471968.466,-1000.0,-65.918,-103.027,-1000.0
1742471968.47,-1000.0,-36.621,-62.5,-1000.0
1742471968.474,-1000.0,2.93,-59.57,-1000.0
1742471968.477,-1000.0,-157.227,-129.883,-1000.0
1742471968.481,-1000.0,-96.68,-99.609,-1000.0
1742471968.485,-1000.0,-10.254,-93.262,-1000.0
1742471968.489,-1000.0,29.785,-87.891,-1000.0
1742471968.493,-1000.0,4.395,-59.57,-1000.0
1742471968.45,-768.555,-180.664,-29.785,-1000.0
1742471968.454,-1000.0,26.367,41.992,-1000.0
1742471968.458,-936.035,113.77,6.836,-1000.0
1742471968.462,-1000.0,-7.812,-74.219,-1000.0
1742471968.466,-1000.0,-65.918,-103.027,-1000.0
1742471968.47,-1000.0,-36.621,-62.5,-1000.0
1742471968.474,-1000.0,2.93,-59.57,-1000.0
1742471968.477,-1000.0,-157.227,-129.883,-1000.0
1742471968.481,-1000.0,-96.68,-99.609,-1000.0
1742471968.485,-1000.0,-10.254,-93.262,-1000.0
1742471968.489,-1000.0,29.785,-87.891,-1000.0
1742471968.493,-1000.0,4.395,-59.57,-1000.0
1742471968.45,-768.555,-180.664,-29.785,-1000.0
1742471968.454,-1000.0,26.367,41.992,-1000.0
1742471968.458,-936.035,113.77,6.836,-1000.0
1742471968.462,-1000.0,-7.812,-74.219,-1000.0
1742471968.466,-1000.0,-65.918,-103.027,-1000.0
1742471968.47,-1000.0,-36.621,-62.5,-1000.0
1742471968.474,-1000.0,2.93,-59.57,-1000.0
1742471968.477,-1000.0,-157.227,-129.883,-1000.0
1742471968.481,-1000.0,-96.68,-99.609,-1000.0
1742471968.485,-1000.0,-10.254,-93.262,-1000.0
1742471968.489,-1000.0,29.785,-87.891,-1000.0
1742471968.493,-1000.0,4.395,-59.57,-1000.0
1742471968.51,-1000.0,-166.016,-83.984,-1000.0
1742471968.514,-1000.0,12.695,-77.637,-1000.0
1742471968.518,-940.43,55.176,-83.984,-934.57
1742471968.522,-1000.0,-130.859,-85.449,-1000.0
1742471968.526,-341.797,266.113,26.855,-790.039
1742471968.53,954.102,515.137,48.34,679.688
1742471968.534,978.516,125.488,-92.773,999.512
1742471968.537,928.223,-318.848,-184.57,896.973
1742471968.541,977.051,-442.871,-115.723,986.816
1742471968.545,977.051,-26.367,11.719,963.867
1742471968.549,896.973,70.801,30.762,916.992
1742471968.553,999.512,50.293,-1.953,999.512
1742471968.539,447.754,-185.547,-37.598,201.66
1742471968.543,-940.918,-349.121,-54.199,-1000.0
1742471968.547,-1000.0,-86.426,-17.09,-998.535
1742471968.551,-951.66,21.484,-3.906,-969.727
1742471968.555,-1000.0,75.195,-29.297,-1000.0
1742471968.559,-1000.0,127.93,-61.523,-1000.0
1742471968.563,-1000.0,100.098,-36.621,-1000.0
1742471968.566,-1000.0,-180.664,11.719,-1000.0
1742471968.57,-1000.0,-196.289,23.926,-1000.0
1742471968.574,-1000.0,-58.105,20.508,-1000.0
1742471968.578,-1000.0,-76.172,-8.789,-1000.0
1742471968.582,-1000.0,-223.145,-49.316,-1000.0
1742471968.585,-1000.0,-134.277,-35.156,-1000.0
1742471968.589,-1000.0,45.898,-33.691,-1000.0
1742471968.593,-1000.0,-32.227,-68.848,-1000.0
1742471968.597,-1000.0,-26.855,-63.965,-1000.0
1742471968.601,-934.57,100.098,-54.688,-938.965
1742471968.605,-1000.0,122.07,-31.25,-1000.0
1742471968.609,-414.062,214.844,-18.555,-403.809
1742471968.612,933.594,143.555,-61.523,923.34
1742471968.616,988.77,40.039,-92.285,990.723
1742471968.62,922.852,155.273,-75.684,923.828
1742471968.624,994.141,-43.457,-45.41,995.117
1742471968.628,910.156,-135.254,-40.039,910.156
1742471968.585,-1000.0,-134.277,-35.156,-1000.0
1742471968.589,-1000.0,45.898,-33.691,-1000.0
1742471968.593,-1000.0,-32.227,-68.848,-1000.0
1742471968.597,-1000.0,-26.855,-63.965,-1000.0
1742471968.601,-934.57,100.098,-54.688,-938.965
1742471968.605,-1000.0,122.07,-31.25,-1000.0
1742471968.609,-414.062,214.844,-18.555,-403.809
1742471968.612,933.594,143.555,-61.523,923.34
1742471968.616,988.77,40.039,-92.285,990.723
1742471968.62,922.852,155.273,-75.684,923.828
1742471968.624,994.141,-43.457,-45.41,995.117
1742471968.628,910.156,-135.254,-40.039,910.156
1742471968.629,999.512,53.223,-99.609,999.512
1742471968.633,869.629,-9.277,-149.414,864.746
1742471968.637,-578.613,-493.164,-161.621,-585.449
1742471968.641,-1000.0,-265.137,-52.246,-1000.0
1742471968.645,-925.781,131.348,46.875,-925.781
1742471968.649,-1000.0,59.57,63.965,-1000.0
1742471968.653,-1000.0,-127.93,104.004,-1000.0
1742471968.656,-1000.0,-258.789,71.777,-1000.0
1742471968.66,-1000.0,-65.43,27.344,-1000.0
1742471968.664,-1000.0,15.137,20.02,-1000.0
1742471968.668,-1000.0,-40.039,-23.438,-1000.0
1742471968.672,-1000.0,-64.941,-14.16,-1000.0
1742471968.629,999.512,53.223,-99.609,999.512
1742471968.633,869.629,-9.277,-149.414,864.746
1742471968.637,-578.613,-493.164,-161.621,-585.449
1742471968.641,-1000.0,-265.137,-52.246,-1000.0
1742471968.645,-925.781,131.348,46.875,-925.781
1742471968.649,-1000.0,59.57,63.965,-1000.0
1742471968.653,-1000.0,-127.93,104.004,-1000.0
1742471968.656,-1000.0,-258.789,71.777,-1000.0
1742471968.66,-1000.0,-65.43,27.344,-1000.0
1742471968.664,-1000.0,15.137,20.02,-1000.0
1742471968.668,-1000.0,-40.039,-23.438,-1000.0
1742471968.672,-1000.0,-64.941,-14.16,-1000.0
1742471968.677,-1000.0,3.418,-3.906,-1000.0
1742471968.681,-1000.0,-69.336,1.465,-1000.0
1742471968.685,-1000.0,-39.062,79.59,-1000.0
1742471968.689,-1000.0,13.184,52.734,-1000.0
1742471968.693,-1000.0,30.762,-13.672,-1000.0
1742471968.697,-1000.0,134.277,5.859,-1000.0
1742471968.701,-1000.0,-56.152,-17.09,-1000.0
1742471968.704,-1000.0,-192.383,-33.203,-1000.0
1742471968.708,-1000.0,-59.082,-10.254,-1000.0
1742471968.712,-1000.0,-34.668,-11.719,-1000.0
1742471968.716,-1000.0,-12.207,-5.859,-1000.0
1742471968.72,-1000.0,-29.785,-13.184,-1000.0
1742471968.677,-1000.0,3.418,-3.906,-1000.0
1742471968.681,-1000.0,-69.336,1.465,-1000.0
1742471968.685,-1000.0,-39.062,79.59,-1000.0
1742471968.689,-1000.0,13.184,52.734,-1000.0
1742471968.693,-1000.0,30.762,-13.672,-1000.0
1742471968.697,-1000.0,134.277,5.859,-1000.0
1742471968.701,-1000.0,-56.152,-17.09,-1000.0
1742471968.704,-1000.0,-192.383,-33.203,-1000.0
1742471968.708,-1000.0,-59.082,-10.254,-1000.0
1742471968.712,-1000.0,-34.668,-11.719,-1000.0
1742471968.716,-1000.0,-12.207,-5.859,-1000.0
1742471968.72,-1000.0,-29.785,-13.184,-1000.0
1742471968.734,-1000.0,-39.062,7.324,-1000.0
1742471968.738,-1000.0,40.527,36.133,-1000.0
1742471968.742,-1000.0,93.75,29.785,-1000.0
1742471968.746,-1000.0,-40.039,-74.219,-1000.0
1742471968.75,-1000.0,-80.078,-94.238,-1000.0
1742471968.754,-1000.0,-249.023,36.133,-1000.0
1742471968.758,-1000.0,-345.703,83.008,-1000.0
1742471968.761,-1000.0,-233.887,-26.367,-1000.0
1742471968.765,-991.211,-85.938,-47.363,-1000.0
1742471968.769,-957.031,-69.824,-5.371,-929.688
1742471968.773,-1000.0,-137.207,-1.465,-1000.0
1742471968.777,-121.582,149.414,26.367,-616.699
1742471968.734,-1000.0,-39.062,7.324,-1000.0
1742471968.738,-1000.0,40.527,36.133,-1000.0
1742471968.742,-1000.0,93.75,29.785,-1000.0
1742471968.746,-1000.0,-40.039,-74.219,-1000.0
1742471968.75,-1000.0,-80.078,-94.238,-1000.0
1742471968.754,-1000.0,-249.023,36.133,-1000.0
1742471968.758,-1000.0,-345.703,83.008,-1000.0
1742471968.761,-1000.0,-233.887,-26.367,-1000.0
1742471968.765,-991.211,-85.938,-47.363,-1000.0
1742471968.769,-957.031,-69.824,-5.371,-929.688
1742471968.773,-1000.0,-137.207,-1.465,-1000.0
1742471968.777,-121.582,149.414,26.367,-616.699
1742471968.779,999.512,307.617,42.969,824.219
1742471968.783,946.289,33.203,-14.648,999.512
1742471968.787,944.336,-52.734,-89.844,908.203
1742471968.791,972.656,-9.277,-27.832,982.91
1742471968.795,982.422,125.488,61.523,983.398
1742471968.799,908.691,45.41,-15.625,907.715
1742471968.803,999.512,-44.434,-59.082,999.512
1742471968.806,856.934,-197.754,-61.035,838.379
1742471968.81,-597.656,-726.074,-88.867,-620.605
1742471968.814,-1000.0,-538.086,-29.297,-1000.0
1742471968.818,-925.781,41.016,40.039,-926.27
1742471968.822,-1000.0,24.902,25.391,-1000.0
1742471968.839,-1000.0,-115.234,-59.082,-1000.0
1742471968.843,-1000.0,-48.828,-106.445,-1000.0
1742471968.847,-1000.0,30.273,-108.398,-1000.0
1742471968.851,-1000.0,-4.395,-68.359,-1000.0
1742471968.855,-1000.0,-236.328,-50.293,-1000.0
1742471968.859,-1000.0,-100.098,-82.52,-1000.0
1742471968.863,-928.223,84.473,-111.816,-941.406
1742471968.866,-1000.0,-173.34,-145.508,-1000.0
1742471968.87,-541.016,-73.73,-155.273,-399.414
1742471968.874,882.324,268.555,-112.793,916.016
1742471968.878,999.512,85.449,-108.398,992.188
1742471968.882,913.086,-63.477,-124.512,923.828
1742471968.839,-1000.0,-115.234,-59.082,-1000.0
1742471968.843,-1000.0,-48.828,-106.445,-1000.0
1742471968.847,-1000.0,30.273,-108.398,-1000.0
1742471968.851,-1000.0,-4.395,-68.359,-1000.0
1742471968.855,-1000.0,-236.328,-50.293,-1000.0
1742471968.859,-1000.0,-100.098,-82.52,-1000.0
1742471968.863,-928.223,84.473,-111.816,-941.406
1742471968.866,-1000.0,-173.34,-145.508,-1000.0
1742471968.87,-541.016,-73.73,-155.273,-399.414
1742471968.874,882.324,268.555,-112.793,916.016
1742471968.878,999.512,85.449,-108.398,992.188
1742471968.882,913.086,-63.477,-124.512,923.828
1742471968.871,980.957,21.973,-100.586,979.004
1742471968.875,966.309,37.598,-113.77,966.797
1742471968.879,966.309,19.531,-110.84,966.797
1742471968.883,966.309,-76.66,-122.559,966.797
1742471968.887,966.309,-60.059,-133.789,966.797
1742471968.891,966.309,123.535,-76.172,966.797
1742471968.895,966.309,57.617,-113.281,966.797
1742471968.898,967.285,-148.438,-159.668,966.797
1742471968.902,974.121,-132.324,-121.582,983.887
1742471968.906,901.855,20.508,-63.477,897.949
1742471968.91,999.512,62.5,-40.527,999.512
1742471968.914,414.062,-407.715,-107.422,696.289
1742471968.871,980.957,21.973,-100.586,979.004
1742471968.875,966.309,37.598,-113.77,966.797
1742471968.879,966.309,19.531,-110.84,966.797
1742471968.883,966.309,-76.66,-122.559,966.797
1742471968.887,966.309,-60.059,-133.789,966.797
1742471968.891,966.309,123.535,-76.172,966.797
1742471968.895,966.309,57.617,-113.281,966.797
1742471968.898,967.285,-148.438,-159.668,966.797
1742471968.902,974.121,-132.324,-121.582,983.887
1742471968.906,901.855,20.508,-63.477,897.949
1742471968.91,999.512,62.5,-40.527,999.512
1742471968.914,414.062,-407.715,-107.422,696.289
1742471969.379,-1000.0,-20.02,-127.93,-1000.0
1742471969.383,-932.617,30.762,-79.59,-942.383
1742471969.387,-1000.0,-78.125,-96.191,-1000.0
1742471969.391,-765.137,70.801,-58.105,-890.137
1742471969.395,708.984,497.559,-22.949,565.43
1742471969.399,999.512,196.289,-98.633,999.512
1742471969.403,901.367,-344.238,-126.953,900.879
1742471969.406,970.703,-261.719,-72.266,950.684
1742471969.41,927.246,-11.23,-91.309,962.891
1742471969.414,999.512,-92.285,-99.121,999.512
1742471969.418,7.812,-465.82,-91.797,-265.625
1742471969.422,-1000.0,-328.125,-60.059,-1000.0
1742471968.915,-940.918,-755.371,-177.734,-773.926
1742471968.919,-1000.0,-192.383,-177.734,-1000.0
1742471968.923,-954.102,-26.367,-205.078,-933.594
1742471968.927,-1000.0,-58.594,-150.879,-1000.0
1742471968.931,-1000.0,64.941,-76.172,-1000.0
1742471968.935,-1000.0,11.719,-104.98,-1000.0
1742471968.939,-1000.0,-30.762,-87.402,-1000.0
1742471968.942,-1000.0,-294.434,-105.957,-1000.0
1742471968.946,-1000.0,-261.719,-73.73,-1000.0
1742471968.95,-1000.0,-32.715,-50.781,-1000.0
1742471968.954,-1000.0,-147.949,-204.59,-1000.0
1742471968.958,-1000.0,-165.039,-202.637,-1000.0
1742471968.975,-931.641,13.672,-92.773,-938.477
1742471968.979,-1000.0,-143.555,-53.711,-1000.0
1742471968.983,-468.262,54.688,-7.324,-397.949
1742471968.987,912.109,293.457,-28.32,927.246
1742471968.991,998.047,0.0,-66.895,989.258
1742471968.995,918.457,80.566,-50.781,924.805
1742471968.999,979.492,21.484,-67.383,979.004
1742471969.002,966.309,-402.344,-139.648,966.797
1742471969.006,966.309,-186.523,-144.531,966.797
1742471969.01,966.309,-44.922,-177.734,966.797
1742471969.014,966.309,-135.254,-191.406,967.285
1742471969.018,966.309,-94.238,-150.879,966.797
1742471968.975,-931.641,13.672,-92.773,-938.477
1742471968.979,-1000.0,-143.555,-53.711,-1000.0
1742471968.983,-468.262,54.688,-7.324,-397.949
1742471968.987,912.109,293.457,-28.32,927.246
1742471968.991,998.047,0.0,-66.895,989.258
1742471968.995,918.457,80.566,-50.781,924.805
1742471968.999,979.492,21.484,-67.383,979.004
1742471969.002,966.309,-402.344,-139.648,966.797
1742471969.006,966.309,-186.523,-144.531,966.797
1742471969.01,966.309,-44.922,-177.734,966.797
1742471969.014,966.309,-135.254,-191.406,967.285
1742471969.018,966.309,-94.238,-150.879,966.797
1742471969.005,966.309,-70.312,-113.281,967.285
1742471969.009,983.398,-34.18,-103.027,980.957
1742471969.013,895.02,-15.625,-85.449,900.879
1742471969.017,999.512,-48.828,-88.867,999.512
1742471969.021,666.992,-253.418,-99.609,634.766
1742471969.025,-807.129,-389.648,-37.598,-799.805
1742471969.029,-1000.0,-218.75,-17.578,-1000.0
1742471969.032,-935.059,-275.879,-86.914,-938.477
1742471969.036,-1000.0,-150.391,-81.055,-1000.0
1742471969.04,-1000.0,-72.266,-63.477,-1000.0
1742471969.044,-1000.0,-256.348,-83.496,-1000.0
1742471969.048,-1000.0,-181.641,-87.891,-1000.0
1742471969.005,966.309,-70.312,-113.281,967.285
1742471969.009,983.398,-34.18,-103.027,980.957
1742471969.013,895.02,-15.625,-85.449,900.879
1742471969.017,999.512,-48.828,-88.867,999.512
1742471969.021,666.992,-253.418,-99.609,634.766
1742471969.025,-807.129,-389.648,-37.598,-799.805
1742471969.029,-1000.0,-218.75,-17.578,-1000.0
1742471969.032,-935.059,-275.879,-86.914,-938.477
1742471969.036,-1000.0,-150.391,-81.055,-1000.0
1742471969.04,-1000.0,-72.266,-63.477,-1000.0
1742471969.044,-1000.0,-256.348,-83.496,-1000.0
1742471969.048,-1000.0,-181.641,-87.891,-1000.0
1742471969.05,-1000.0,-14.16,-95.215,-1000.0
1742471969.054,-942.383,-0.977,-118.164,-941.406
1742471969.058,-1000.0,-88.867,-149.414,-1000.0
1742471969.062,-891.113,-47.852,-167.48,-879.883
1742471969.066,563.965,514.648,-85.449,578.125
1742471969.07,999.512,323.242,-79.59,999.512
1742471969.074,891.602,-169.922,-156.25,893.066
1742471969.077,981.934,-109.375,-177.734,983.398
1742471969.081,966.309,-38.574,-111.816,966.797
1742471969.085,965.82,-156.25,-91.309,966.797
1742471969.089,966.309,-104.98,-133.301,966.797
1742471969.093,966.309,-9.766,-157.715,966.797
1742471969.05,-1000.0,-14.16,-95.215,-1000.0
1742471969.054,-942.383,-0.977,-118.164,-941.406
1742471969.058,-1000.0,-88.867,-149.414,-1000.0
1742471969.062,-891.113,-47.852,-167.48,-879.883
1742471969.066,563.965,514.648,-85.449,578.125
1742471969.07,999.512,323.242,-79.59,999.512
1742471969.074,891.602,-169.922,-156.25,893.066
1742471969.077,981.934,-109.375,-177.734,983.398
1742471969.081,966.309,-38.574,-111.816,966.797
1742471969.085,965.82,-156.25,-91.309,966.797
1742471969.089,966.309,-104.98,-133.301,966.797
1742471969.093,966.309,-9.766,-157.715,966.797
1742471969.109,966.309,-66.895,-147.461,966.797
1742471969.113,966.309,4.395,-54.199,966.797
1742471969.117,982.422,-21.973,-0.488,983.398
1742471969.121,907.715,-20.996,-20.996,906.738
1742471969.125,999.512,123.535,-43.457,999.512
1742471969.129,851.074,-381.348,-63.965,821.777
1742471969.133,-605.957,-640.625,-41.504,-638.672
1742471969.136,-1000.0,-70.312,-26.367,-1000.0
1742471969.14,-925.781,-67.871,-99.121,-927.246
1742471969.144,-1000.0,-328.125,-132.812,-1000.0
1742471969.148,-1000.0,-44.434,-101.562,-1000.0
1742471969.152,-1000.0,128.906,-7.812,-1000.0
1742471969.109,966.309,-66.895,-147.461,966.797
1742471969.113,966.309,4.395,-54.199,966.797
1742471969.117,982.422,-21.973,-0.488,983.398
1742471969.121,907.715,-20.996,-20.996,906.738
1742471969.125,999.512,123.535,-43.457,999.512
1742471969.129,851.074,-381.348,-63.965,821.777
1742471969.133,-605.957,-640.625,-41.504,-638.672
1742471969.136,-1000.0,-70.312,-26.367,-1000.0
1742471969.14,-925.781,-67.871,-99.121,-927.246
1742471969.144,-1000.0,-328.125,-132.812,-1000.0
1742471969.148,-1000.0,-44.434,-101.562,-1000.0
1742471969.152,-1000.0,128.906,-7.812,-1000.0
1742471969.156,-1000.0,66.406,47.363,-1000.0
1742471969.16,-1000.0,29.785,15.137,-1000.0
1742471969.164,-1000.0,4.883,-25.879,-1000.0
1742471969.168,-942.383,2.441,-56.641,-941.895
1742471969.172,-1000.0,18.066,-31.25,-1000.0
1742471969.176,-891.113,237.305,41.504,-881.836
1742471969.18,563.965,570.312,62.988,575.684
1742471969.183,999.512,202.637,-40.527,999.512
1742471969.187,891.602,-274.902,-106.445,892.578
1742471969.191,981.934,-228.027,-51.27,982.91
1742471969.195,971.68,-59.57,-35.645,976.074
1742471969.199,945.312,-116.211,-43.457,934.082
1742471969.156,-1000.0,66.406,47.363,-1000.0
1742471969.16,-1000.0,29.785,15.137,-1000.0
1742471969.164,-1000.0,4.883,-25.879,-1000.0
1742471969.168,-942.383,2.441,-56.641,-941.895
1742471969.172,-1000.0,18.066,-31.25,-1000.0
1742471969.176,-891.113,237.305,41.504,-881.836
1742471969.18,563.965,570.312,62.988,575.684
1742471969.183,999.512,202.637,-40.527,999.512
1742471969.187,891.602,-274.902,-106.445,892.578
1742471969.191,981.934,-228.027,-51.27,982.91
1742471969.195,971.68,-59.57,-35.645,976.074
1742471969.199,945.312,-116.211,-43.457,934.082
1742471969.199,940.43,-93.262,-7.812,964.844
1742471969.203,999.512,19.531,-10.742,999.512
1742471969.207,-123.047,-309.082,-85.938,-281.738
1742471969.211,-1000.0,-240.723,-37.109,-1000.0
1742471969.215,-949.707,169.922,28.32,-938.477
1742471969.219,-994.141,81.543,-44.434,-1000.0
1742471969.223,-1000.0,22.949,-68.359,-1000.0
1742471969.226,-1000.0,-144.043,-81.055,-1000.0
1742471969.23,-1000.0,-316.406,-5.371,-1000.0
1742471969.234,-1000.0,-129.883,37.598,-1000.0
1742471969.238,-1000.0,-0.488,-67.383,-1000.0
1742471969.242,-1000.0,19.043,-106.934,-1000.0
1742471969.199,940.43,-93.262,-7.812,964.844
1742471969.203,999.512,19.531,-10.742,999.512
1742471969.207,-123.047,-309.082,-85.938,-281.738
1742471969.211,-1000.0,-240.723,-37.109,-1000.0
1742471969.215,-949.707,169.922,28.32,-938.477
1742471969.219,-994.141,81.543,-44.434,-1000.0
1742471969.223,-1000.0,22.949,-68.359,-1000.0
1742471969.226,-1000.0,-144.043,-81.055,-1000.0
1742471969.23,-1000.0,-316.406,-5.371,-1000.0
1742471969.234,-1000.0,-129.883,37.598,-1000.0
1742471969.238,-1000.0,-0.488,-67.383,-1000.0
1742471969.242,-1000.0,19.043,-106.934,-1000.0
1742471969.246,-1000.0,172.852,-56.152,-1000.0
1742471969.25,-1000.0,58.594,-28.32,-1000.0
1742471969.254,-1000.0,64.453,8.789,-1000.0
1742471969.258,-1000.0,67.871,-11.719,-1000.0
1742471969.262,-1000.0,18.555,-38.574,-1000.0
1742471969.266,-1000.0,156.25,-11.719,-1000.0
1742471969.27,-975.098,95.215,-51.27,-1000.0
1742471969.273,-982.91,-263.184,-121.094,-944.336
1742471969.277,-1000.0,-247.07,-111.328,-1000.0
1742471969.281,145.508,280.762,-81.055,-275.879
1742471969.285,999.512,324.707,-79.59,979.492
1742471969.289,912.109,11.23,-49.316,968.75
1742471969.289,962.891,39.062,-10.254,933.594
1742471969.293,967.773,17.578,-42.969,976.074
1742471969.297,966.309,30.273,-36.621,966.797
1742471969.301,982.422,-24.414,-23.926,983.398
1742471969.305,908.691,8.789,-30.762,908.691
1742471969.309,999.512,213.867,4.883,999.512
1742471969.313,856.934,22.461,-37.598,854.492
1742471969.316,-597.656,-654.297,-113.77,-602.051
1742471969.32,-1000.0,-391.113,-75.684,-1000.0
1742471969.324,-925.781,44.434,-16.602,-925.781
1742471969.328,-1000.0,3.906,52.734,-1000.0
1742471969.332,-1000.0,-17.09,42.969,-1000.0
1742471969.289,962.891,39.062,-10.254,933.594
1742471969.293,967.773,17.578,-42.969,976.074
1742471969.297,966.309,30.273,-36.621,966.797
1742471969.301,982.422,-24.414,-23.926,983.398
1742471969.305,908.691,8.789,-30.762,908.691
1742471969.309,999.512,213.867,4.883,999.512
1742471969.313,856.934,22.461,-37.598,854.492
1742471969.316,-597.656,-654.297,-113.77,-602.051
1742471969.32,-1000.0,-391.113,-75.684,-1000.0
1742471969.324,-925.781,44.434,-16.602,-925.781
1742471969.328,-1000.0,3.906,52.734,-1000.0
1742471969.332,-1000.0,-17.09,42.969,-1000.0
1742471969.336,-1000.0,36.621,-10.254,-1000.0
1742471969.34,-1000.0,28.809,9.277,-1000.0
1742471969.344,-1000.0,30.762,30.762,-1000.0
1742471969.348,-1000.0,67.871,53.711,-1000.0
1742471969.352,-1000.0,1.465,9.277,-1000.0
1742471969.356,-1000.0,62.012,-61.035,-1000.0
1742471969.36,-1000.0,75.684,-97.168,-1000.0
1742471969.363,-1000.0,-191.406,-187.5,-1000.0
1742471969.367,-1000.0,-126.953,-177.246,-1000.0
1742471969.371,-1000.0,33.691,-124.512,-1000.0
1742471969.375,-1000.0,-17.09,-139.648,-1000.0
1742471969.379,-1000.0,-54.199,-159.668,-1000.0
1742471969.425,-966.309,51.758,-18.555,-940.43
1742471969.429,-984.863,1.953,-43.457,-1000.0
1742471969.433,-1000.0,-42.969,-73.73,-1000.0
1742471969.437,-1000.0,-28.809,-103.027,-1000.0
1742471969.441,-1000.0,60.547,-57.617,-1000.0
1742471969.445,-1000.0,124.512,26.367,-1000.0
1742471969.449,-1000.0,-24.902,-67.383,-1000.0
1742471969.452,-1000.0,-152.344,-187.5,-1000.0
1742471969.456,-979.98,-67.871,-136.23,-1000.0
1742471969.46,-980.957,-117.188,-51.27,-932.617
1742471969.464,-1000.0,-79.59,12.207,-1000.0
1742471969.468,40.039,81.543,7.324,-734.863
1742471969.425,-966.309,51.758,-18.555,-940.43
1742471969.429,-984.863,1.953,-43.457,-1000.0
1742471969.433,-1000.0,-42.969,-73.73,-1000.0
1742471969.437,-1000.0,-28.809,-103.027,-1000.0
1742471969.441,-1000.0,60.547,-57.617,-1000.0
1742471969.445,-1000.0,124.512,26.367,-1000.0
1742471969.449,-1000.0,-24.902,-67.383,-1000.0
1742471969.452,-1000.0,-152.344,-187.5,-1000.0
1742471969.456,-979.98,-67.871,-136.23,-1000.0
1742471969.46,-980.957,-117.188,-51.27,-932.617
1742471969.464,-1000.0,-79.59,12.207,-1000.0
1742471969.468,40.039,81.543,7.324,-734.863
1742471969.484,999.512,187.5,-15.137,730.957
1742471969.488,934.57,-91.797,-58.105,999.512
1742471969.492,952.637,-160.645,-57.617,900.391
1742471969.496,987.305,39.551,8.301,999.512
1742471969.5,908.691,91.797,-7.812,908.203
1742471969.504,999.512,-325.195,-84.473,999.512
1742471969.508,857.91,-456.055,-121.582,849.609
1742471969.511,-596.68,-523.438,-135.254,-607.422
1742471969.515,-1000.0,-261.23,-53.711,-1000.0
1742471969.519,-925.781,28.32,-32.715,-925.781
1742471969.523,-1000.0,-47.852,-76.172,-1000.0
1742471969.527,-1000.0,-43.457,-50.781,-1000.0
1742471969.529,-1000.0,93.262,21.484,-1000.0
1742471969.533,-1000.0,-34.18,33.203,-1000.0
1742471969.537,-1000.0,-37.109,32.715,-1000.0
1742471969.541,-1000.0,10.742,43.945,-1000.0
1742471969.545,-1000.0,-13.184,37.109,-1000.0
1742471969.549,-1000.0,99.609,21.973,-1000.0
1742471969.553,-1000.0,170.41,21.973,-1000.0
1742471969.556,-1000.0,27.344,-4.395,-1000.0
1742471969.56,-1000.0,-277.832,-14.648,-1000.0
1742471969.564,-964.844,-269.531,20.508,-978.027
1742471969.568,-1000.0,-16.602,28.809,-977.051
1742471969.572,-1000.0,-86.426,38.574,-1000.0
1742471969.529,-1000.0,93.262,21.484,-1000.0
1742471969.533,-1000.0,-34.18,33.203,-1000.0
1742471969.537,-1000.0,-37.109,32.715,-1000.0
1742471969.541,-1000.0,10.742,43.945,-1000.0
1742471969.545,-1000.0,-13.184,37.109,-1000.0
1742471969.549,-1000.0,99.609,21.973,-1000.0
1742471969.553,-1000.0,170.41,21.973,-1000.0
1742471969.556,-1000.0,27.344,-4.395,-1000.0
1742471969.56,-1000.0,-277.832,-14.648,-1000.0
1742471969.564,-964.844,-269.531,20.508,-978.027
1742471969.568,-1000.0,-16.602,28.809,-977.051
1742471969.572,-1000.0,-86.426,38.574,-1000.0
1742471969.574,286.621,264.16,26.855,97.656
1742471969.578,999.512,258.789,-43.945,999.512
1742471969.582,898.438,-19.043,-81.543,917.48
1742471969.586,971.68,65.918,-64.453,960.938
1742471969.59,966.309,-415.527,-51.27,969.238
1742471969.594,966.309,-373.535,-43.945,966.797
1742471969.598,966.309,52.246,-62.5,966.797
1742471969.601,966.309,-216.797,-130.371,966.797
1742471969.605,966.309,-327.148,-128.418,966.797
1742471969.609,967.285,-55.664,-77.148,969.727
1742471969.613,969.238,44.434,-36.133,962.891
1742471969.617,905.762,-43.457,-27.832,918.457
1742471969.621,999.512,58.594,-39.551,999.512
1742471969.625,284.18,-182.617,-76.66,184.082
1742471969.629,-1000.0,-344.727,-53.711,-1000.0
1742471969.633,-1000.0,-40.527,-43.945,-996.094
1742471969.637,-964.355,19.531,-106.445,-970.703
1742471969.641,-1000.0,62.5,-101.562,-1000.0
1742471969.645,-1000.0,155.273,-78.125,-1000.0
1742471969.648,-1000.0,-260.742,-68.359,-1000.0
1742471969.652,-1000.0,-643.555,-19.531,-1000.0
1742471969.656,-1000.0,-76.172,23.438,-1000.0
1742471969.66,-1000.0,90.332,33.691,-1000.0
1742471969.664,-942.383,-19.531,23.926,-939.941
1742471969.621,999.512,58.594,-39.551,999.512
1742471969.625,284.18,-182.617,-76.66,184.082
1742471969.629,-1000.0,-344.727,-53.711,-1000.0
1742471969.633,-1000.0,-40.527,-43.945,-996.094
1742471969.637,-964.355,19.531,-106.445,-970.703
1742471969.641,-1000.0,62.5,-101.562,-1000.0
1742471969.645,-1000.0,155.273,-78.125,-1000.0
1742471969.648,-1000.0,-260.742,-68.359,-1000.0
1742471969.652,-1000.0,-643.555,-19.531,-1000.0
1742471969.656,-1000.0,-76.172,23.438,-1000.0
1742471969.66,-1000.0,90.332,33.691,-1000.0
1742471969.664,-942.383,-19.531,23.926,-939.941
1742471969.664,-1000.0,36.621,40.527,-1000.0
1742471969.668,-888.672,170.898,101.562,-856.445
1742471969.672,566.895,427.246,131.836,604.004
1742471969.676,999.512,234.863,99.121,999.512
1742471969.68,891.602,124.512,41.992,894.043
1742471969.684,982.422,125.977,15.625,983.398
1742471969.688,966.309,31.738,63.477,966.797
1742471969.691,966.309,-396.484,53.223,966.797
1742471969.695,966.309,-348.633,59.57,966.797
1742471969.699,966.309,41.504,71.777,966.797
1742471969.703,966.309,27.344,33.203,966.797
1742471969.707,982.422,-7.324,62.988,983.887
1742471969.664,-1000.0,36.621,40.527,-1000.0
1742471969.668,-888.672,170.898,101.562,-856.445
1742471969.672,566.895,427.246,131.836,604.004
1742471969.676,999.512,234.863,99.121,999.512
1742471969.68,891.602,124.512,41.992,894.043
1742471969.684,982.422,125.977,15.625,983.398
1742471969.688,966.309,31.738,63.477,966.797
1742471969.691,966.309,-396.484,53.223,966.797
1742471969.695,966.309,-348.633,59.57,966.797
1742471969.699,966.309,41.504,71.777,966.797
1742471969.703,966.309,27.344,33.203,966.797
1742471969.707,982.422,-7.324,62.988,983.887
1742471969.71,908.203,20.508,38.086,907.227
1742471969.714,999.512,72.754,-17.09,999.512
1742471969.718,854.492,-64.941,-14.16,829.59
1742471969.722,-601.562,-424.316,-33.691,-629.395
1742471969.726,-1000.0,-102.539,15.625,-1000.0
1742471969.73,-925.781,177.246,6.348,-926.758
1742471969.734,-1000.0,-87.891,-104.98,-1000.0
1742471969.737,-1000.0,-331.543,-121.094,-1000.0
1742471969.741,-1000.0,-73.73,-83.496,-1000.0
1742471969.745,-1000.0,83.496,-9.766,-1000.0
1742471969.749,-1000.0,24.414,65.43,-1000.0
1742471969.753,-1000.0,-47.363,8.789,-1000.0
1742471969.71,908.203,20.508,38.086,907.227
1742471969.714,999.512,72.754,-17.09,999.512
1742471969.718,854.492,-64.941,-14.16,829.59
1742471969.722,-601.562,-424.316,-33.691,-629.395
1742471969.726,-1000.0,-102.539,15.625,-1000.0
1742471969.73,-925.781,177.246,6.348,-926.758
1742471969.734,-1000.0,-87.891,-104.98,-1000.0
1742471969.737,-1000.0,-331.543,-121.094,-1000.0
1742471969.741,-1000.0,-73.73,-83.496,-1000.0
1742471969.745,-1000.0,83.496,-9.766,-1000.0
1742471969.749,-1000.0,24.414,65.43,-1000.0
1742471969.753,-1000.0,-47.363,8.789,-1000.0
1742471969.754,-1000.0,-7.812,-68.359,-1000.0
1742471969.758,-941.895,-21.973,-130.371,-939.941
1742471969.762,-1000.0,-228.027,-148.438,-1000.0
1742471969.766,-885.254,-13.184,-56.641,-860.352
1742471969.77,571.777,512.207,33.203,600.586
1742471969.774,999.512,297.363,90.332,999.512
1742471969.778,891.602,-341.797,66.895,893.555
1742471969.781,982.422,-477.539,3.906,982.91
1742471969.785,966.309,-67.871,1.953,966.797
1742471969.789,966.309,1.953,-99.609,966.797
1742471969.793,966.309,-54.199,-152.832,966.797
1742471969.797,966.309,-82.031,-120.605,966.797
1742471969.754,-1000.0,-7.812,-68.359,-1000.0
1742471969.758,-941.895,-21.973,-130.371,-939.941
1742471969.762,-1000.0,-228.027,-148.438,-1000.0
1742471969.766,-885.254,-13.184,-56.641,-860.352
1742471969.77,571.777,512.207,33.203,600.586
1742471969.774,999.512,297.363,90.332,999.512
1742471969.778,891.602,-341.797,66.895,893.555
1742471969.781,982.422,-477.539,3.906,982.91
1742471969.785,966.309,-67.871,1.953,966.797
1742471969.789,966.309,1.953,-99.609,966.797
1742471969.793,966.309,-54.199,-152.832,966.797
1742471969.797,966.309,-82.031,-120.605,966.797
1742471969.802,966.309,57.129,-55.664,967.285
1742471969.806,983.398,81.055,-41.016,979.492
