timestamps,TP9,AF7,AF8,TP10
1742473301.089,-361.328,-10.742,-23.438,-7.812
1742473301.093,999.512,-12.695,-26.367,646.484
1742473301.097,-649.902,-19.531,-44.434,-470.215
1742473301.1,-332.031,10.254,-52.734,79.59
1742473301.104,958.496,8.789,-24.414,365.234
1742473301.108,-853.516,-15.625,-18.066,-478.516
1742473301.112,-37.598,-4.395,-22.461,347.656
1742473301.116,313.965,-10.742,-34.668,59.082
1742473301.089,-361.328,-10.742,-23.438,-7.812
1742473301.093,999.512,-12.695,-26.367,646.484
1742473301.097,-649.902,-19.531,-44.434,-470.215
1742473301.1,-332.031,10.254,-52.734,79.59
1742473301.104,958.496,8.789,-24.414,365.234
1742473301.108,-853.516,-15.625,-18.066,-478.516
1742473301.112,-37.598,-4.395,-22.461,347.656
1742473301.116,313.965,-10.742,-34.668,59.082
1742473301.117,-925.781,-22.461,-20.02,-434.57
1742473301.121,790.527,-2.93,7.324,392.578
1742473301.125,-89.355,-7.812,-10.742,-285.156
1742473301.129,-515.625,-20.996,-52.246,-24.414
1742473301.133,999.512,-11.719,-53.711,473.633
1742473301.137,-424.316,-14.648,-4.395,-333.984
1742473301.141,-253.906,1.465,-1.953,122.07
1742473301.144,442.383,0.488,-33.203,119.629
1742473301.148,-870.117,-19.531,-21.484,-291.992
1742473301.152,658.203,-6.836,0.488,458.984
1742473301.156,123.535,-16.113,-5.859,-217.773
1742473301.16,-993.652,-32.715,-3.906,-336.914
1742473301.117,-925.781,-22.461,-20.02,-434.57
1742473301.121,790.527,-2.93,7.324,392.578
1742473301.125,-89.355,-7.812,-10.742,-285.156
1742473301.129,-515.625,-20.996,-52.246,-24.414
1742473301.133,999.512,-11.719,-53.711,473.633
1742473301.137,-424.316,-14.648,-4.395,-333.984
1742473301.141,-253.906,1.465,-1.953,122.07
1742473301.144,442.383,0.488,-33.203,119.629
1742473301.148,-870.117,-19.531,-21.484,-291.992
1742473301.152,658.203,-6.836,0.488,458.984
1742473301.156,123.535,-16.113,-5.859,-217.773
1742473301.16,-993.652,-32.715,-3.906,-336.914
1742473301.177,917.969,3.418,11.23,536.621
1742473301.181,267.578,5.371,3.906,-124.512
1742473301.185,-1000.0,-19.043,-4.883,-309.082
1742473301.189,728.516,-20.02,-11.23,432.617
1742473301.193,22.949,-22.949,-25.879,-283.203
1742473301.197,-471.68,-3.418,-20.02,-48.828
1742473301.201,999.512,-8.789,-28.32,531.738
1742473301.204,-395.996,-32.715,-30.762,-411.621
1742473301.208,-547.852,-18.066,-34.668,-26.855
1742473301.212,999.512,2.441,-42.48,395.508
1742473301.216,-572.266,-2.441,-42.48,-470.703
1742473301.22,-140.137,0.488,-31.738,241.211
1742473301.177,917.969,3.418,11.23,536.621
1742473301.181,267.578,5.371,3.906,-124.512
1742473301.185,-1000.0,-19.043,-4.883,-309.082
1742473301.189,728.516,-20.02,-11.23,432.617
1742473301.193,22.949,-22.949,-25.879,-283.203
1742473301.197,-471.68,-3.418,-20.02,-48.828
1742473301.201,999.512,-8.789,-28.32,531.738
1742473301.204,-395.996,-32.715,-30.762,-411.621
1742473301.208,-547.852,-18.066,-34.668,-26.855
1742473301.212,999.512,2.441,-42.48,395.508
1742473301.216,-572.266,-2.441,-42.48,-470.703
1742473301.22,-140.137,0.488,-31.738,241.211
1742473301.222,601.074,-0.488,-28.32,226.074
1742473301.226,-1000.0,-4.883,-36.621,-499.023
1742473301.23,376.465,0.0,-23.438,377.93
1742473301.234,162.109,-19.531,-33.691,-308.105
1742473301.238,-372.559,0.0,-55.176,-112.305
1742473301.242,999.512,9.277,-54.688,623.535
1742473301.246,-687.5,-24.902,-58.594,-522.461
1742473301.249,-213.867,0.488,-44.434,156.738
1742473301.253,642.578,0.977,-55.664,246.094
1742473301.257,-1000.0,-33.203,-85.938,-597.168
1742473301.261,238.281,-19.531,-62.5,361.816
1742473301.265,379.883,-25.391,-48.34,-15.137
1742473301.222,601.074,-0.488,-28.32,226.074
1742473301.226,-1000.0,-4.883,-36.621,-499.023
1742473301.23,376.465,0.0,-23.438,377.93
1742473301.234,162.109,-19.531,-33.691,-308.105
1742473301.238,-372.559,0.0,-55.176,-112.305
1742473301.242,999.512,9.277,-54.688,623.535
1742473301.246,-687.5,-24.902,-58.594,-522.461
1742473301.249,-213.867,0.488,-44.434,156.738
1742473301.253,642.578,0.977,-55.664,246.094
1742473301.257,-1000.0,-33.203,-85.938,-597.168
1742473301.261,238.281,-19.531,-62.5,361.816
1742473301.265,379.883,-25.391,-48.34,-15.137
1742473301.267,-1000.0,-30.273,-58.594,-472.168
1742473301.271,640.137,-5.371,-54.688,392.09
1742473301.275,114.746,-14.16,-43.457,-271.973
1742473301.279,-451.66,-13.184,-50.293,-52.734
1742473301.283,999.512,3.418,-53.223,522.461
1742473301.287,-545.898,-5.371,-32.715,-365.723
1742473301.291,-393.555,-16.602,-32.715,71.777
1742473301.294,999.512,-27.344,-31.738,313.477
1742473301.298,-649.902,-32.715,-22.949,-349.609
1742473301.302,-159.668,-12.695,-48.828,310.547
1742473301.306,839.355,-10.254,-52.246,333.984
1742473301.31,-1000.0,-27.832,-36.133,-583.496
1742473301.267,-1000.0,-30.273,-58.594,-472.168
1742473301.271,640.137,-5.371,-54.688,392.09
1742473301.275,114.746,-14.16,-43.457,-271.973
1742473301.279,-451.66,-13.184,-50.293,-52.734
1742473301.283,999.512,3.418,-53.223,522.461
1742473301.287,-545.898,-5.371,-32.715,-365.723
1742473301.291,-393.555,-16.602,-32.715,71.777
1742473301.294,999.512,-27.344,-31.738,313.477
1742473301.298,-649.902,-32.715,-22.949,-349.609
1742473301.302,-159.668,-12.695,-48.828,310.547
1742473301.306,839.355,-10.254,-52.246,333.984
1742473301.31,-1000.0,-27.832,-36.133,-583.496
1742473301.777,434.57,-15.625,-80.566,412.109
1742473301.781,245.117,-22.461,-70.801,-201.66
1742473301.785,-860.352,-23.438,-83.496,-402.344
1742473301.789,999.512,-19.043,-90.332,455.078
1742473301.793,61.523,-16.602,-65.918,-296.875
1742473301.797,-506.348,-3.906,-62.5,-80.078
1742473301.801,893.555,-15.137,-81.055,376.465
1742473301.804,-742.676,-36.621,-84.961,-600.098
1742473301.808,-115.234,-27.832,-82.031,197.754
1742473301.812,592.773,-37.109,-86.426,187.012
1742473301.816,-1000.0,-50.293,-98.633,-640.137
1742473301.82,261.23,-40.039,-83.496,313.965
1742473301.312,-229.004,-22.949,-28.809,252.93
1742473301.316,999.512,-34.668,-17.09,471.68
1742473301.32,-826.172,-44.434,-10.254,-401.855
1742473301.324,-136.719,-29.785,-16.113,320.312
1742473301.328,452.148,-44.434,-11.23,125.977
1742473301.332,-895.996,-59.57,0.977,-386.719
1742473301.336,750.488,-46.387,6.348,526.367
1742473301.339,23.438,-62.012,16.113,-251.465
1742473301.343,-277.344,-63.477,16.602,6.348
1742473301.347,664.062,-73.242,-3.418,340.332
1742473301.351,-983.398,-98.145,-12.695,-520.996
1742473301.355,335.449,-64.453,6.836,460.449
1742473301.312,-229.004,-22.949,-28.809,252.93
1742473301.316,999.512,-34.668,-17.09,471.68
1742473301.32,-826.172,-44.434,-10.254,-401.855
1742473301.324,-136.719,-29.785,-16.113,320.312
1742473301.328,452.148,-44.434,-11.23,125.977
1742473301.332,-895.996,-59.57,0.977,-386.719
1742473301.336,750.488,-46.387,6.348,526.367
1742473301.339,23.438,-62.012,16.113,-251.465
1742473301.343,-277.344,-63.477,16.602,6.348
1742473301.347,664.062,-73.242,-3.418,340.332
1742473301.351,-983.398,-98.145,-12.695,-520.996
1742473301.355,335.449,-64.453,6.836,460.449
1742473301.357,269.531,-57.129,-6.348,10.254
1742473301.361,-878.906,-71.289,-21.973,-330.078
1742473301.365,955.078,-61.035,14.648,544.922
1742473301.369,-75.684,-62.012,25.391,-401.855
1742473301.373,-334.961,-62.012,7.324,46.875
1742473301.377,990.234,-46.875,4.883,642.578
1742473301.381,-816.406,-54.199,4.883,-437.5
1742473301.384,-246.582,-46.387,5.371,177.734
1742473301.388,842.773,-38.574,8.789,297.852
1742473301.392,-943.359,-46.875,-1.465,-361.328
1742473301.396,185.059,-32.715,-7.812,503.906
1742473301.4,270.996,-37.598,2.441,67.871
1742473301.357,269.531,-57.129,-6.348,10.254
1742473301.361,-878.906,-71.289,-21.973,-330.078
1742473301.365,955.078,-61.035,14.648,544.922
1742473301.369,-75.684,-62.012,25.391,-401.855
1742473301.373,-334.961,-62.012,7.324,46.875
1742473301.377,990.234,-46.875,4.883,642.578
1742473301.381,-816.406,-54.199,4.883,-437.5
1742473301.384,-246.582,-46.387,5.371,177.734
1742473301.388,842.773,-38.574,8.789,297.852
1742473301.392,-943.359,-46.875,-1.465,-361.328
1742473301.396,185.059,-32.715,-7.812,503.906
1742473301.4,270.996,-37.598,2.441,67.871
1742473301.402,-851.562,-34.18,-5.859,-259.277
1742473301.406,956.543,-19.043,-16.602,543.945
1742473301.41,-92.773,-27.344,-12.207,-206.055
1742473301.414,-289.551,-25.879,-12.695,171.875
1742473301.418,818.359,-32.227,-26.855,424.316
1742473301.422,-978.027,-31.738,-23.438,-376.465
1742473301.426,16.113,-18.066,-19.531,344.727
1742473301.429,156.25,-24.414,-38.086,-123.047
1742473301.433,-442.383,-22.949,-41.992,-142.09
1742473301.437,853.516,-23.438,-35.156,502.441
1742473301.441,-751.953,-30.273,-30.762,-402.344
1742473301.445,-302.734,-19.043,-20.508,160.645
1742473301.402,-851.562,-34.18,-5.859,-259.277
1742473301.406,956.543,-19.043,-16.602,543.945
1742473301.41,-92.773,-27.344,-12.207,-206.055
1742473301.414,-289.551,-25.879,-12.695,171.875
1742473301.418,818.359,-32.227,-26.855,424.316
1742473301.422,-978.027,-31.738,-23.438,-376.465
1742473301.426,16.113,-18.066,-19.531,344.727
1742473301.429,156.25,-24.414,-38.086,-123.047
1742473301.433,-442.383,-22.949,-41.992,-142.09
1742473301.437,853.516,-23.438,-35.156,502.441
1742473301.441,-751.953,-30.273,-30.762,-402.344
1742473301.445,-302.734,-19.043,-20.508,160.645
1742473301.446,999.512,-10.742,-26.855,364.746
1742473301.45,-689.941,-16.113,-30.273,-354.004
1742473301.454,-194.336,-14.648,-21.484,322.754
1742473301.458,611.328,-12.207,-29.785,198.242
1742473301.462,-1000.0,-18.555,-41.992,-625.977
1742473301.466,92.773,-4.395,-29.297,324.707
1742473301.47,638.184,-5.371,-23.926,151.855
1742473301.473,-1000.0,-25.391,-27.832,-548.34
1742473301.477,16.602,-11.719,-23.438,335.938
1742473301.481,229.98,-13.184,-35.156,-144.043
1742473301.485,-769.531,-15.625,-37.109,-446.777
1742473301.489,997.559,4.395,-28.32,534.668
1742473301.446,999.512,-10.742,-26.855,364.746
1742473301.45,-689.941,-16.113,-30.273,-354.004
1742473301.454,-194.336,-14.648,-21.484,322.754
1742473301.458,611.328,-12.207,-29.785,198.242
1742473301.462,-1000.0,-18.555,-41.992,-625.977
1742473301.466,92.773,-4.395,-29.297,324.707
1742473301.47,638.184,-5.371,-23.926,151.855
1742473301.473,-1000.0,-25.391,-27.832,-548.34
1742473301.477,16.602,-11.719,-23.438,335.938
1742473301.481,229.98,-13.184,-35.156,-144.043
1742473301.485,-769.531,-15.625,-37.109,-446.777
1742473301.489,997.559,4.395,-28.32,534.668
1742473301.495,-103.516,0.977,-16.602,-292.969
1742473301.499,-410.645,5.371,-13.184,-21.973
1742473301.503,876.953,-0.488,-18.066,348.145
1742473301.507,-857.422,-19.043,-6.348,-583.496
1742473301.511,-54.199,-9.277,8.301,221.68
1742473301.515,780.273,-9.277,8.301,254.883
1742473301.519,-1000.0,-21.973,-7.812,-551.27
1742473301.522,-327.148,-11.23,-33.203,98.145
1742473301.526,999.512,11.719,-38.574,336.426
1742473301.53,-153.32,-14.648,-43.457,-444.824
1742473301.534,-525.391,-30.762,-51.758,-114.258
1742473301.538,999.512,-14.16,-31.738,350.098
1742473301.495,-103.516,0.977,-16.602,-292.969
1742473301.499,-410.645,5.371,-13.184,-21.973
1742473301.503,876.953,-0.488,-18.066,348.145
1742473301.507,-857.422,-19.043,-6.348,-583.496
1742473301.511,-54.199,-9.277,8.301,221.68
1742473301.515,780.273,-9.277,8.301,254.883
1742473301.519,-1000.0,-21.973,-7.812,-551.27
1742473301.522,-327.148,-11.23,-33.203,98.145
1742473301.526,999.512,11.719,-38.574,336.426
1742473301.53,-153.32,-14.648,-43.457,-444.824
1742473301.534,-525.391,-30.762,-51.758,-114.258
1742473301.538,999.512,-14.16,-31.738,350.098
1742473301.552,-524.902,-14.648,-15.137,-486.328
1742473301.556,-345.703,-9.766,-23.438,47.852
1742473301.56,999.512,-15.137,-31.738,332.52
1742473301.564,-711.426,-19.531,-31.25,-469.727
1742473301.568,-247.559,-5.371,-31.738,198.73
1742473301.572,902.344,0.488,-20.508,294.922
1742473301.576,-958.008,-11.719,-47.363,-650.879
1742473301.579,-275.391,-9.766,-69.824,86.426
1742473301.583,999.512,-19.043,-28.809,379.395
1742473301.587,-747.559,-31.738,-28.32,-530.273
1742473301.591,-66.895,4.395,-19.531,286.133
1742473301.595,228.027,-1.953,-18.555,-86.426
1742473301.552,-524.902,-14.648,-15.137,-486.328
1742473301.556,-345.703,-9.766,-23.438,47.852
1742473301.56,999.512,-15.137,-31.738,332.52
1742473301.564,-711.426,-19.531,-31.25,-469.727
1742473301.568,-247.559,-5.371,-31.738,198.73
1742473301.572,902.344,0.488,-20.508,294.922
1742473301.576,-958.008,-11.719,-47.363,-650.879
1742473301.579,-275.391,-9.766,-69.824,86.426
1742473301.583,999.512,-19.043,-28.809,379.395
1742473301.587,-747.559,-31.738,-28.32,-530.273
1742473301.591,-66.895,4.395,-19.531,286.133
1742473301.595,228.027,-1.953,-18.555,-86.426
1742473301.597,-774.414,-55.176,-32.227,-564.941
1742473301.601,999.512,-60.059,-23.926,496.094
1742473301.605,-88.867,-60.059,-19.043,-377.93
1742473301.609,-329.59,-48.34,-11.23,-66.406
1742473301.613,863.281,-37.598,-2.441,325.195
1742473301.617,-903.32,-59.082,-17.578,-530.762
1742473301.621,64.453,-65.43,-20.996,333.984
1742473301.624,236.816,-72.266,-12.207,-77.148
1742473301.628,-705.078,-48.34,-27.832,-403.32
1742473301.632,942.383,-33.203,-44.434,355.957
1742473301.636,-398.438,-47.363,-35.645,-440.918
1742473301.64,-313.965,-44.922,-41.504,104.492
1742473301.597,-774.414,-55.176,-32.227,-564.941
1742473301.601,999.512,-60.059,-23.926,496.094
1742473301.605,-88.867,-60.059,-19.043,-377.93
1742473301.609,-329.59,-48.34,-11.23,-66.406
1742473301.613,863.281,-37.598,-2.441,325.195
1742473301.617,-903.32,-59.082,-17.578,-530.762
1742473301.621,64.453,-65.43,-20.996,333.984
1742473301.624,236.816,-72.266,-12.207,-77.148
1742473301.628,-705.078,-48.34,-27.832,-403.32
1742473301.632,942.383,-33.203,-44.434,355.957
1742473301.636,-398.438,-47.363,-35.645,-440.918
1742473301.64,-313.965,-44.922,-41.504,104.492
1742473301.641,907.715,-47.363,-47.363,331.055
1742473301.645,-971.68,-52.246,-43.457,-541.016
1742473301.649,-108.887,-45.898,-43.457,239.746
1742473301.653,414.062,-53.711,-47.363,41.504
1742473301.657,-857.91,-56.152,-63.477,-390.625
1742473301.661,759.277,-36.621,-54.199,519.043
1742473301.665,169.922,-50.781,-53.711,-186.035
1742473301.668,-1000.0,-52.246,-60.547,-454.59
1742473301.672,459.961,-23.438,-53.223,388.672
1742473301.676,296.387,-42.48,-60.547,-135.742
1742473301.68,-1000.0,-66.406,-67.871,-422.852
1742473301.684,748.535,-43.945,-57.617,421.387
1742473301.641,907.715,-47.363,-47.363,331.055
1742473301.645,-971.68,-52.246,-43.457,-541.016
1742473301.649,-108.887,-45.898,-43.457,239.746
1742473301.653,414.062,-53.711,-47.363,41.504
1742473301.657,-857.91,-56.152,-63.477,-390.625
1742473301.661,759.277,-36.621,-54.199,519.043
1742473301.665,169.922,-50.781,-53.711,-186.035
1742473301.668,-1000.0,-52.246,-60.547,-454.59
1742473301.672,459.961,-23.438,-53.223,388.672
1742473301.676,296.387,-42.48,-60.547,-135.742
1742473301.68,-1000.0,-66.406,-67.871,-422.852
1742473301.684,748.535,-43.945,-57.617,421.387
1742473301.686,122.559,-45.41,-70.312,-349.609
1742473301.69,-694.336,-48.828,-86.914,-341.309
1742473301.694,999.512,-20.02,-61.523,594.238
1742473301.698,100.586,-20.996,-48.828,-299.805
1742473301.702,-838.867,-23.926,-57.129,-287.109
1742473301.706,933.105,-6.836,-59.57,502.441
1742473301.71,-246.094,-31.25,-64.453,-441.406
1742473301.713,-322.754,-35.645,-75.195,19.531
1742473301.717,893.066,-23.438,-79.102,464.844
1742473301.721,-967.285,-32.227,-86.426,-610.352
1742473301.725,-96.68,-28.32,-83.984,197.754
1742473301.729,550.293,-22.949,-46.387,115.723
1742473301.686,122.559,-45.41,-70.312,-349.609
1742473301.69,-694.336,-48.828,-86.914,-341.309
1742473301.694,999.512,-20.02,-61.523,594.238
1742473301.698,100.586,-20.996,-48.828,-299.805
1742473301.702,-838.867,-23.926,-57.129,-287.109
1742473301.706,933.105,-6.836,-59.57,502.441
1742473301.71,-246.094,-31.25,-64.453,-441.406
1742473301.713,-322.754,-35.645,-75.195,19.531
1742473301.717,893.066,-23.438,-79.102,464.844
1742473301.721,-967.285,-32.227,-86.426,-610.352
1742473301.725,-96.68,-28.32,-83.984,197.754
1742473301.729,550.293,-22.949,-46.387,115.723
1742473301.732,-1000.0,-17.578,-36.621,-474.121
1742473301.736,537.598,-19.531,-61.035,421.875
1742473301.74,157.227,-35.645,-81.055,-252.441
1742473301.744,-693.359,-27.344,-69.336,-305.176
1742473301.748,999.512,-12.207,-65.918,436.035
1742473301.752,-226.562,-22.949,-79.59,-368.652
1742473301.756,-237.793,-6.836,-73.73,215.82
1742473301.759,515.137,-19.531,-70.312,191.895
1742473301.763,-1000.0,-44.922,-80.078,-697.266
1742473301.767,128.906,-19.531,-90.332,225.098
1742473301.771,505.859,-22.461,-103.027,-45.898
1742473301.775,-1000.0,-26.367,-100.098,-472.656
1742473301.821,301.758,-43.457,-68.359,-138.184
1742473301.825,-923.828,-38.574,-69.824,-480.469
1742473301.829,904.785,3.906,-55.176,542.969
1742473301.833,33.203,-18.555,-63.477,-343.262
1742473301.837,-433.594,-43.945,-88.379,-199.707
1742473301.841,971.68,-26.367,-87.891,455.566
1742473301.845,-752.441,-42.969,-92.285,-639.16
1742473301.848,-188.477,-33.691,-86.426,86.914
1742473301.852,682.617,-30.273,-88.867,185.059
1742473301.856,-999.023,-24.902,-96.68,-548.828
1742473301.86,382.324,0.488,-90.332,307.129
1742473301.864,77.637,-32.227,-110.84,-398.926
1742473301.821,301.758,-43.457,-68.359,-138.184
1742473301.825,-923.828,-38.574,-69.824,-480.469
1742473301.829,904.785,3.906,-55.176,542.969
1742473301.833,33.203,-18.555,-63.477,-343.262
1742473301.837,-433.594,-43.945,-88.379,-199.707
1742473301.841,971.68,-26.367,-87.891,455.566
1742473301.845,-752.441,-42.969,-92.285,-639.16
1742473301.848,-188.477,-33.691,-86.426,86.914
1742473301.852,682.617,-30.273,-88.867,185.059
1742473301.856,-999.023,-24.902,-96.68,-548.828
1742473301.86,382.324,0.488,-90.332,307.129
1742473301.864,77.637,-32.227,-110.84,-398.926
1742473301.867,-283.691,-20.508,-115.234,-147.949
1742473301.871,796.387,-17.09,-92.285,397.461
1742473301.875,-981.934,-58.105,-91.797,-607.91
1742473301.879,32.715,-33.203,-90.82,186.035
1742473301.883,246.582,-26.367,-87.402,-161.621
1742473301.887,-643.066,-33.203,-104.98,-370.605
1742473301.891,946.289,-12.695,-119.629,435.547
1742473301.894,-437.012,-28.809,-90.332,-544.922
1742473301.898,-166.016,-10.742,-67.383,96.191
1742473301.902,313.477,-16.602,-77.148,-3.906
1742473301.906,-918.945,-45.898,-97.168,-672.852
1742473301.91,845.703,-24.902,-93.75,418.457
1742473301.867,-283.691,-20.508,-115.234,-147.949
1742473301.871,796.387,-17.09,-92.285,397.461
1742473301.875,-981.934,-58.105,-91.797,-607.91
1742473301.879,32.715,-33.203,-90.82,186.035
1742473301.883,246.582,-26.367,-87.402,-161.621
1742473301.887,-643.066,-33.203,-104.98,-370.605
1742473301.891,946.289,-12.695,-119.629,435.547
1742473301.894,-437.012,-28.809,-90.332,-544.922
1742473301.898,-166.016,-10.742,-67.383,96.191
1742473301.902,313.477,-16.602,-77.148,-3.906
1742473301.906,-918.945,-45.898,-97.168,-672.852
1742473301.91,845.703,-24.902,-93.75,418.457
1742473301.927,136.23,-25.879,-80.078,-334.473
1742473301.931,-664.062,-24.902,-88.867,-395.02
1742473301.935,999.512,-13.184,-67.383,317.871
1742473301.939,-221.191,-22.461,-50.781,-493.164
1742473301.943,-357.91,-34.668,-50.293,-15.625
1742473301.947,964.355,-45.41,-50.293,396.484
1742473301.951,-769.531,-61.035,-71.777,-624.512
1742473301.954,-437.5,-58.105,-64.941,-107.422
1742473301.958,999.512,-53.711,-59.082,358.398
1742473301.962,-56.152,-59.57,-70.801,-411.133
1742473301.966,-662.598,-59.082,-75.195,-132.812
1742473301.97,971.191,-63.477,-78.125,376.465
1742473301.927,136.23,-25.879,-80.078,-334.473
1742473301.931,-664.062,-24.902,-88.867,-395.02
1742473301.935,999.512,-13.184,-67.383,317.871
1742473301.939,-221.191,-22.461,-50.781,-493.164
1742473301.943,-357.91,-34.668,-50.293,-15.625
1742473301.947,964.355,-45.41,-50.293,396.484
1742473301.951,-769.531,-61.035,-71.777,-624.512
1742473301.954,-437.5,-58.105,-64.941,-107.422
1742473301.958,999.512,-53.711,-59.082,358.398
1742473301.962,-56.152,-59.57,-70.801,-411.133
1742473301.966,-662.598,-59.082,-75.195,-132.812
1742473301.97,971.191,-63.477,-78.125,376.465
1742473301.972,-455.078,-84.473,-78.613,-510.254
1742473301.976,-340.82,-83.496,-84.961,32.715
1742473301.98,999.512,-78.613,-103.027,412.109
1742473301.984,-840.332,-70.312,-104.004,-491.699
1742473301.988,-140.625,-57.129,-114.258,206.543
1742473301.992,677.246,-48.828,-118.652,136.23
1742473301.996,-1000.0,-50.781,-97.656,-573.242
1742473301.999,194.824,-62.988,-111.328,311.523
1742473302.003,521.973,-74.707,-115.723,15.625
1742473302.007,-1000.0,-74.707,-115.723,-602.051
1742473302.011,162.598,-49.805,-120.605,261.23
1742473302.015,252.441,-44.434,-118.164,-145.996
1742473301.972,-455.078,-84.473,-78.613,-510.254
1742473301.976,-340.82,-83.496,-84.961,32.715
1742473301.98,999.512,-78.613,-103.027,412.109
1742473301.984,-840.332,-70.312,-104.004,-491.699
1742473301.988,-140.625,-57.129,-114.258,206.543
1742473301.992,677.246,-48.828,-118.652,136.23
1742473301.996,-1000.0,-50.781,-97.656,-573.242
1742473301.999,194.824,-62.988,-111.328,311.523
1742473302.003,521.973,-74.707,-115.723,15.625
1742473302.007,-1000.0,-74.707,-115.723,-602.051
1742473302.011,162.598,-49.805,-120.605,261.23
1742473302.015,252.441,-44.434,-118.164,-145.996
1742473302.017,-841.797,-49.316,-136.23,-363.77
1742473302.021,902.344,-43.945,-151.367,407.715
1742473302.025,-45.41,-46.387,-141.113,-361.328
1742473302.029,-926.758,-48.34,-140.137,-343.75
1742473302.033,870.605,-41.016,-144.043,308.105
1742473302.037,865.723,-37.598,-144.531,-71.777
1742473302.041,-941.406,-39.062,-132.812,-416.992
1742473302.044,-46.387,-26.855,-127.93,247.07
1742473302.048,367.188,-31.25,-125.0,-130.859
1742473302.052,-1000.0,-50.781,-126.953,-621.094
1742473302.056,607.91,-39.551,-133.789,395.508
1742473302.06,216.797,-39.551,-130.371,-233.398
1742473302.017,-841.797,-49.316,-136.23,-363.77
1742473302.021,902.344,-43.945,-151.367,407.715
1742473302.025,-45.41,-46.387,-141.113,-361.328
1742473302.029,-926.758,-48.34,-140.137,-343.75
1742473302.033,870.605,-41.016,-144.043,308.105
1742473302.037,865.723,-37.598,-144.531,-71.777
1742473302.041,-941.406,-39.062,-132.812,-416.992
1742473302.044,-46.387,-26.855,-127.93,247.07
1742473302.048,367.188,-31.25,-125.0,-130.859
1742473302.052,-1000.0,-50.781,-126.953,-621.094
1742473302.056,607.91,-39.551,-133.789,395.508
1742473302.06,216.797,-39.551,-130.371,-233.398
1742473302.062,-838.379,-30.762,-121.094,-372.559
1742473302.066,902.832,-9.277,-104.004,395.02
1742473302.07,-324.219,-31.25,-104.004,-528.32
1742473302.074,-302.734,-23.926,-117.188,24.902
1742473302.078,852.051,-16.113,-122.559,384.277
1742473302.082,-955.566,-22.949,-120.117,-475.586
1742473302.086,115.234,-20.508,-108.398,282.715
1742473302.089,170.41,-20.996,-100.586,-240.234
1742473302.093,-458.008,5.859,-94.727,-212.891
1742473302.097,923.828,-17.09,-105.957,473.145
1742473302.101,-723.145,-45.898,-120.117,-561.523
1742473302.105,-162.598,-24.902,-126.465,109.375
1742473302.062,-838.379,-30.762,-121.094,-372.559
1742473302.066,902.832,-9.277,-104.004,395.02
1742473302.07,-324.219,-31.25,-104.004,-528.32
1742473302.074,-302.734,-23.926,-117.188,24.902
1742473302.078,852.051,-16.113,-122.559,384.277
1742473302.082,-955.566,-22.949,-120.117,-475.586
1742473302.086,115.234,-20.508,-108.398,282.715
1742473302.089,170.41,-20.996,-100.586,-240.234
1742473302.093,-458.008,5.859,-94.727,-212.891
1742473302.097,923.828,-17.09,-105.957,473.145
1742473302.101,-723.145,-45.898,-120.117,-561.523
1742473302.105,-162.598,-24.902,-126.465,109.375
1742473302.107,471.68,-28.32,-133.789,67.871
1742473302.111,-1000.0,-24.902,-115.723,-529.297
1742473302.115,649.902,-12.695,-88.867,427.246
1742473302.119,210.938,-14.648,-71.777,-225.586
1742473302.123,-826.66,-13.672,-80.078,-418.457
1742473302.127,999.512,-4.883,-102.539,397.461
1742473302.131,-151.367,-16.113,-108.887,-395.996
1742473302.134,-429.688,-18.066,-104.004,-63.965
1742473302.138,966.797,-8.789,-95.215,395.996
1742473302.142,-804.199,-13.184,-98.633,-526.855
1742473302.146,-317.383,-8.301,-116.699,89.355
1742473302.15,901.855,-9.277,-102.539,276.367
1742473302.182,-892.578,-21.973,-95.215,-496.094
1742473302.186,-14.648,-9.277,-106.934,293.457
1742473302.19,449.219,-10.254,-113.281,21.973
1742473302.194,-1000.0,-20.996,-125.0,-657.227
1742473302.198,99.121,-2.93,-109.375,316.895
1742473302.202,905.273,4.883,-84.473,260.742
1742473302.206,-714.355,-9.277,-93.75,-403.809
1742473302.209,-1000.0,-11.719,-105.957,-178.223
1742473302.213,449.707,1.465,-117.188,328.125
1742473302.217,93.75,-26.367,-118.164,-368.164
1742473302.221,-437.5,-38.086,-115.723,-190.918
1742473302.225,912.598,-19.531,-103.027,477.539
1742473302.182,-892.578,-21.973,-95.215,-496.094
1742473302.186,-14.648,-9.277,-106.934,293.457
1742473302.19,449.219,-10.254,-113.281,21.973
1742473302.194,-1000.0,-20.996,-125.0,-657.227
1742473302.198,99.121,-2.93,-109.375,316.895
1742473302.202,905.273,4.883,-84.473,260.742
1742473302.206,-714.355,-9.277,-93.75,-403.809
1742473302.209,-1000.0,-11.719,-105.957,-178.223
1742473302.213,449.707,1.465,-117.188,328.125
1742473302.217,93.75,-26.367,-118.164,-368.164
1742473302.221,-437.5,-38.086,-115.723,-190.918
1742473302.225,912.598,-19.531,-103.027,477.539
1742473302.198,-743.164,-30.273,-100.098,-480.957
1742473302.202,-104.492,-20.996,-112.305,252.93
1742473302.206,257.324,-28.32,-95.215,-0.977
1742473302.21,-765.137,-29.785,-65.918,-424.805
1742473302.214,970.703,-24.902,-72.266,513.672
1742473302.218,-156.25,-51.27,-92.773,-333.496
1742473302.222,-611.328,-52.734,-98.633,-193.848
1742473302.225,999.512,-46.875,-90.332,285.156
1742473302.229,-592.773,-44.922,-90.332,-457.031
1742473302.233,-203.613,-30.762,-91.309,222.168
1742473302.237,559.082,-47.363,-80.078,140.625
1742473302.241,-1000.0,-62.988,-89.355,-687.5
1742473302.198,-743.164,-30.273,-100.098,-480.957
1742473302.202,-104.492,-20.996,-112.305,252.93
1742473302.206,257.324,-28.32,-95.215,-0.977
1742473302.21,-765.137,-29.785,-65.918,-424.805
1742473302.214,970.703,-24.902,-72.266,513.672
1742473302.218,-156.25,-51.27,-92.773,-333.496
1742473302.222,-611.328,-52.734,-98.633,-193.848
1742473302.225,999.512,-46.875,-90.332,285.156
1742473302.229,-592.773,-44.922,-90.332,-457.031
1742473302.233,-203.613,-30.762,-91.309,222.168
1742473302.237,559.082,-47.363,-80.078,140.625
1742473302.241,-1000.0,-62.988,-89.355,-687.5
1742473302.198,-743.164,-30.273,-100.098,-480.957
1742473302.202,-104.492,-20.996,-112.305,252.93
1742473302.206,257.324,-28.32,-95.215,-0.977
1742473302.21,-765.137,-29.785,-65.918,-424.805
1742473302.214,970.703,-24.902,-72.266,513.672
1742473302.218,-156.25,-51.27,-92.773,-333.496
1742473302.222,-611.328,-52.734,-98.633,-193.848
1742473302.225,999.512,-46.875,-90.332,285.156
1742473302.229,-592.773,-44.922,-90.332,-457.031
1742473302.233,-203.613,-30.762,-91.309,222.168
1742473302.237,559.082,-47.363,-80.078,140.625
1742473302.241,-1000.0,-62.988,-89.355,-687.5
1742473302.241,40.527,-25.879,-84.961,294.922
1742473302.245,534.18,-27.344,-74.707,78.613
1742473302.249,-1000.0,-50.293,-78.613,-510.254
1742473302.253,210.938,-46.875,-79.59,316.895
1742473302.257,650.391,-43.945,-76.66,11.23
1742473302.261,-1000.0,-41.016,-79.102,-578.125
1742473302.265,4.883,-38.086,-73.242,269.043
1742473302.268,568.359,-33.203,-72.754,74.707
1742473302.272,-1000.0,-25.879,-80.078,-467.285
1742473302.276,345.215,-22.461,-66.895,331.543
1742473302.28,201.66,-51.758,-67.383,-306.641
1742473302.284,-722.656,-54.688,-71.289,-359.375
1742473302.241,40.527,-25.879,-84.961,294.922
1742473302.245,534.18,-27.344,-74.707,78.613
1742473302.249,-1000.0,-50.293,-78.613,-510.254
1742473302.253,210.938,-46.875,-79.59,316.895
1742473302.257,650.391,-43.945,-76.66,11.23
1742473302.261,-1000.0,-41.016,-79.102,-578.125
1742473302.265,4.883,-38.086,-73.242,269.043
1742473302.268,568.359,-33.203,-72.754,74.707
1742473302.272,-1000.0,-25.879,-80.078,-467.285
1742473302.276,345.215,-22.461,-66.895,331.543
1742473302.28,201.66,-51.758,-67.383,-306.641
1742473302.284,-722.656,-54.688,-71.289,-359.375
1742473302.302,999.512,-14.16,-49.805,582.52
1742473302.306,-223.145,-29.785,-72.266,-391.602
1742473302.31,-316.406,-34.18,-95.703,-46.387
1742473302.314,622.07,-27.832,-79.59,213.867
1742473302.318,-931.152,-30.273,-82.52,-527.832
1742473302.322,429.688,6.348,-76.66,444.824
1742473302.326,338.867,-12.207,-63.477,-86.914
1742473302.329,-1000.0,-45.898,-75.195,-516.113
1742473302.333,485.352,-30.762,-81.543,330.566
1742473302.337,150.391,-41.016,-77.148,-339.844
1742473302.341,-555.664,-50.293,-74.219,-187.988
1742473302.345,999.512,-35.156,-69.336,522.949
1742473302.302,999.512,-14.16,-49.805,582.52
1742473302.306,-223.145,-29.785,-72.266,-391.602
1742473302.31,-316.406,-34.18,-95.703,-46.387
1742473302.314,622.07,-27.832,-79.59,213.867
1742473302.318,-931.152,-30.273,-82.52,-527.832
1742473302.322,429.688,6.348,-76.66,444.824
1742473302.326,338.867,-12.207,-63.477,-86.914
1742473302.329,-1000.0,-45.898,-75.195,-516.113
1742473302.333,485.352,-30.762,-81.543,330.566
1742473302.337,150.391,-41.016,-77.148,-339.844
1742473302.341,-555.664,-50.293,-74.219,-187.988
1742473302.345,999.512,-35.156,-69.336,522.949
1742473302.812,-600.586,-21.973,-38.086,-492.188
1742473302.816,-203.613,-33.203,-52.734,227.051
1742473302.82,547.363,-26.367,-52.246,207.52
1742473302.824,-1000.0,-27.832,-54.688,-585.938
1742473302.828,419.922,19.531,-32.715,425.781
1742473302.832,196.777,21.973,-32.715,-189.453
1742473302.836,-695.312,-18.066,-71.289,-352.539
1742473302.839,947.754,-20.02,-73.242,398.926
1742473302.843,-419.922,-41.016,-82.031,-438.965
1742473302.847,-719.238,-46.387,-88.867,-172.363
1742473302.851,999.512,-38.086,-83.496,332.031
1742473302.855,-162.109,-59.082,-98.145,-471.191
1742473302.347,-451.66,-43.457,-62.5,-412.598
1742473302.351,-251.953,-33.203,-53.223,116.211
1742473302.355,677.246,-30.273,-55.664,222.656
1742473302.359,-1000.0,-46.875,-47.852,-505.859
1742473302.363,189.453,-42.48,-50.293,391.113
1742473302.367,474.609,-47.852,-48.828,28.32
1742473302.371,-1000.0,-58.105,-30.273,-555.664
1742473302.374,-41.992,-61.523,-26.855,258.789
1742473302.378,966.309,-67.871,-42.48,192.383
1742473302.382,-603.516,-62.012,-54.199,-327.637
1742473302.386,-1000.0,-43.945,-66.895,-125.488
1742473302.39,519.531,-29.297,-55.664,295.41
1742473302.347,-451.66,-43.457,-62.5,-412.598
1742473302.351,-251.953,-33.203,-53.223,116.211
1742473302.355,677.246,-30.273,-55.664,222.656
1742473302.359,-1000.0,-46.875,-47.852,-505.859
1742473302.363,189.453,-42.48,-50.293,391.113
1742473302.367,474.609,-47.852,-48.828,28.32
1742473302.371,-1000.0,-58.105,-30.273,-555.664
1742473302.374,-41.992,-61.523,-26.855,258.789
1742473302.378,966.309,-67.871,-42.48,192.383
1742473302.382,-603.516,-62.012,-54.199,-327.637
1742473302.386,-1000.0,-43.945,-66.895,-125.488
1742473302.39,519.531,-29.297,-55.664,295.41
1742473302.392,155.273,-30.273,-40.039,-282.715
1742473302.396,-693.848,-21.973,-36.133,-207.52
1742473302.4,999.512,-20.02,-30.762,562.5
1742473302.404,-315.43,-45.898,-51.27,-400.391
1742473302.408,-291.504,-26.855,-49.805,60.547
1742473302.412,785.156,-12.695,-28.809,367.676
1742473302.416,-1000.0,-41.992,-42.48,-527.344
1742473302.419,26.367,-29.785,-51.27,351.074
1742473302.423,401.367,-20.02,-43.457,29.785
1742473302.427,-1000.0,-29.785,-48.828,-538.574
1742473302.431,361.328,-22.949,-67.383,367.188
1742473302.435,445.801,-41.992,-57.617,-105.469
1742473302.392,155.273,-30.273,-40.039,-282.715
1742473302.396,-693.848,-21.973,-36.133,-207.52
1742473302.4,999.512,-20.02,-30.762,562.5
1742473302.404,-315.43,-45.898,-51.27,-400.391
1742473302.408,-291.504,-26.855,-49.805,60.547
1742473302.412,785.156,-12.695,-28.809,367.676
1742473302.416,-1000.0,-41.992,-42.48,-527.344
1742473302.419,26.367,-29.785,-51.27,351.074
1742473302.423,401.367,-20.02,-43.457,29.785
1742473302.427,-1000.0,-29.785,-48.828,-538.574
1742473302.431,361.328,-22.949,-67.383,367.188
1742473302.435,445.801,-41.992,-57.617,-105.469
1742473302.436,-1000.0,-50.781,-54.199,-437.012
1742473302.44,383.789,-28.809,-64.453,387.207
1742473302.444,364.746,-24.414,-58.594,-175.293
1742473302.448,-1000.0,-28.32,-64.941,-555.664
1742473302.452,325.195,-8.789,-59.57,408.691
1742473302.456,583.984,-8.301,-61.035,79.59
1742473302.46,-1000.0,-32.715,-73.73,-521.973
1742473302.463,-35.645,-28.32,-56.641,267.578
1742473302.467,663.086,-22.461,-48.34,63.965
1742473302.471,-1000.0,-40.039,-65.43,-626.953
1742473302.475,90.332,-32.715,-76.172,341.797
1742473302.479,351.074,-15.137,-79.102,-13.672
1742473302.436,-1000.0,-50.781,-54.199,-437.012
1742473302.44,383.789,-28.809,-64.453,387.207
1742473302.444,364.746,-24.414,-58.594,-175.293
1742473302.448,-1000.0,-28.32,-64.941,-555.664
1742473302.452,325.195,-8.789,-59.57,408.691
1742473302.456,583.984,-8.301,-61.035,79.59
1742473302.46,-1000.0,-32.715,-73.73,-521.973
1742473302.463,-35.645,-28.32,-56.641,267.578
1742473302.467,663.086,-22.461,-48.34,63.965
1742473302.471,-1000.0,-40.039,-65.43,-626.953
1742473302.475,90.332,-32.715,-76.172,341.797
1742473302.479,351.074,-15.137,-79.102,-13.672
1742473302.483,-1000.0,-9.277,-76.66,-559.57
1742473302.487,666.504,-6.348,-71.777,424.805
1742473302.491,62.012,-35.156,-83.496,-366.699
1742473302.495,-380.371,-38.574,-85.449,-114.746
1742473302.499,910.645,-22.949,-83.496,487.305
1742473302.503,-814.453,-36.621,-83.008,-489.258
1742473302.507,-55.176,-21.973,-69.824,280.762
1742473302.51,160.645,-30.273,-70.801,-154.297
1742473302.514,-440.43,-37.109,-80.566,-249.512
1742473302.518,925.781,-29.297,-74.219,565.43
1742473302.522,-686.035,-44.922,-67.871,-502.93
1742473302.526,-319.336,-21.484,-58.105,22.461
1742473302.483,-1000.0,-9.277,-76.66,-559.57
1742473302.487,666.504,-6.348,-71.777,424.805
1742473302.491,62.012,-35.156,-83.496,-366.699
1742473302.495,-380.371,-38.574,-85.449,-114.746
1742473302.499,910.645,-22.949,-83.496,487.305
1742473302.503,-814.453,-36.621,-83.008,-489.258
1742473302.507,-55.176,-21.973,-69.824,280.762
1742473302.51,160.645,-30.273,-70.801,-154.297
1742473302.514,-440.43,-37.109,-80.566,-249.512
1742473302.518,925.781,-29.297,-74.219,565.43
1742473302.522,-686.035,-44.922,-67.871,-502.93
1742473302.526,-319.336,-21.484,-58.105,22.461
1742473302.527,993.652,5.371,-48.828,321.777
1742473302.531,-849.609,-29.297,-60.547,-531.25
1742473302.535,-118.164,-31.738,-67.383,235.84
1742473302.539,379.395,-10.742,-78.125,23.438
1742473302.543,-1000.0,-8.789,-83.984,-572.266
1742473302.547,592.773,12.695,-61.035,375.0
1742473302.551,306.152,9.766,-41.504,-226.562
1742473302.554,-1000.0,-1.953,-30.273,-472.656
1742473302.558,621.582,8.789,-25.879,438.965
1742473302.562,55.176,-23.926,-42.48,-425.293
1742473302.566,-776.367,-40.527,-71.777,-456.543
1742473302.57,999.512,-20.508,-83.008,456.055
1742473302.527,993.652,5.371,-48.828,321.777
1742473302.531,-849.609,-29.297,-60.547,-531.25
1742473302.535,-118.164,-31.738,-67.383,235.84
1742473302.539,379.395,-10.742,-78.125,23.438
1742473302.543,-1000.0,-8.789,-83.984,-572.266
1742473302.547,592.773,12.695,-61.035,375.0
1742473302.551,306.152,9.766,-41.504,-226.562
1742473302.554,-1000.0,-1.953,-30.273,-472.656
1742473302.558,621.582,8.789,-25.879,438.965
1742473302.562,55.176,-23.926,-42.48,-425.293
1742473302.566,-776.367,-40.527,-71.777,-456.543
1742473302.57,999.512,-20.508,-83.008,456.055
1742473302.571,-115.234,-22.949,-78.613,-391.113
1742473302.575,-474.121,-5.859,-68.848,-75.195
1742473302.579,975.586,2.441,-71.289,412.109
1742473302.583,-728.516,-12.695,-72.266,-617.676
1742473302.587,-242.676,1.465,-47.363,144.531
1742473302.591,875.488,11.719,-43.945,401.367
1742473302.595,-1000.0,-10.254,-73.242,-573.73
1742473302.598,-33.691,24.902,-50.781,299.316
1742473302.602,234.375,6.836,-50.293,-164.551
1742473302.606,-845.215,-51.758,-107.91,-584.961
1742473302.61,935.547,-30.762,-113.281,529.785
1742473302.614,-114.258,-30.273,-96.68,-369.141
1742473302.571,-115.234,-22.949,-78.613,-391.113
1742473302.575,-474.121,-5.859,-68.848,-75.195
1742473302.579,975.586,2.441,-71.289,412.109
1742473302.583,-728.516,-12.695,-72.266,-617.676
1742473302.587,-242.676,1.465,-47.363,144.531
1742473302.591,875.488,11.719,-43.945,401.367
1742473302.595,-1000.0,-10.254,-73.242,-573.73
1742473302.598,-33.691,24.902,-50.781,299.316
1742473302.602,234.375,6.836,-50.293,-164.551
1742473302.606,-845.215,-51.758,-107.91,-584.961
1742473302.61,935.547,-30.762,-113.281,529.785
1742473302.614,-114.258,-30.273,-96.68,-369.141
1742473302.617,-468.262,-10.254,-75.195,-155.273
1742473302.621,870.117,-4.395,-64.453,359.863
1742473302.625,-831.543,-41.016,-81.055,-550.293
1742473302.629,25.391,-25.391,-84.961,288.086
1742473302.633,371.094,-7.324,-72.754,57.617
1742473302.637,-967.773,-17.09,-73.73,-431.152
1742473302.641,647.461,-21.973,-79.59,312.5
1742473302.644,-162.598,-19.531,-53.711,-381.348
1742473302.648,-165.039,2.93,-60.059,227.539
1742473302.652,541.016,-9.277,-92.285,233.887
1742473302.656,-1000.0,-34.18,-83.008,-698.73
1742473302.66,187.5,-13.672,-62.988,250.0
1742473302.617,-468.262,-10.254,-75.195,-155.273
1742473302.621,870.117,-4.395,-64.453,359.863
1742473302.625,-831.543,-41.016,-81.055,-550.293
1742473302.629,25.391,-25.391,-84.961,288.086
1742473302.633,371.094,-7.324,-72.754,57.617
1742473302.637,-967.773,-17.09,-73.73,-431.152
1742473302.641,647.461,-21.973,-79.59,312.5
1742473302.644,-162.598,-19.531,-53.711,-381.348
1742473302.648,-165.039,2.93,-60.059,227.539
1742473302.652,541.016,-9.277,-92.285,233.887
1742473302.656,-1000.0,-34.18,-83.008,-698.73
1742473302.66,187.5,-13.672,-62.988,250.0
1742473302.617,-468.262,-10.254,-75.195,-155.273
1742473302.621,870.117,-4.395,-64.453,359.863
1742473302.625,-831.543,-41.016,-81.055,-550.293
1742473302.629,25.391,-25.391,-84.961,288.086
1742473302.633,371.094,-7.324,-72.754,57.617
1742473302.637,-967.773,-17.09,-73.73,-431.152
1742473302.641,647.461,-21.973,-79.59,312.5
1742473302.644,-162.598,-19.531,-53.711,-381.348
1742473302.648,-165.039,2.93,-60.059,227.539
1742473302.652,541.016,-9.277,-92.285,233.887
1742473302.656,-1000.0,-34.18,-83.008,-698.73
1742473302.66,187.5,-13.672,-62.988,250.0
1742473302.677,365.234,-4.883,-47.363,-81.055
1742473302.681,-1000.0,-5.371,-40.527,-370.605
1742473302.685,702.637,7.324,-56.152,444.824
1742473302.689,23.438,-1.953,-69.336,-317.383
1742473302.693,-649.414,-7.324,-58.105,-211.914
1742473302.697,999.512,5.371,-45.898,528.809
1742473302.701,-145.996,-8.789,-44.922,-410.645
1742473302.704,-462.402,-14.16,-43.457,-68.848
1742473302.708,999.512,4.883,-58.105,431.641
1742473302.712,-625.977,-5.371,-43.945,-532.227
1742473302.716,-397.461,-7.324,-2.93,20.508
1742473302.72,999.512,12.695,-13.672,444.336
1742473302.677,365.234,-4.883,-47.363,-81.055
1742473302.681,-1000.0,-5.371,-40.527,-370.605
1742473302.685,702.637,7.324,-56.152,444.824
1742473302.689,23.438,-1.953,-69.336,-317.383
1742473302.693,-649.414,-7.324,-58.105,-211.914
1742473302.697,999.512,5.371,-45.898,528.809
1742473302.701,-145.996,-8.789,-44.922,-410.645
1742473302.704,-462.402,-14.16,-43.457,-68.848
1742473302.708,999.512,4.883,-58.105,431.641
1742473302.712,-625.977,-5.371,-43.945,-532.227
1742473302.716,-397.461,-7.324,-2.93,20.508
1742473302.72,999.512,12.695,-13.672,444.336
1742473302.722,-357.422,24.902,-0.488,-388.184
1742473302.726,-709.473,-5.859,-10.254,-87.891
1742473302.73,988.77,-44.922,-68.359,277.344
1742473302.734,-463.867,-56.152,-78.125,-590.332
1742473302.738,-282.715,-27.832,-59.082,106.445
1742473302.742,843.262,-3.418,-55.176,391.113
1742473302.746,-1000.0,-13.184,-51.27,-638.672
1742473302.749,-159.18,2.441,-37.598,161.133
1742473302.753,751.953,0.977,-41.504,135.742
1742473302.757,-1000.0,-33.203,-53.711,-610.352
1742473302.761,67.871,-16.113,-56.152,343.262
1742473302.765,305.664,-13.672,-41.992,-57.617
1742473302.722,-357.422,24.902,-0.488,-388.184
1742473302.726,-709.473,-5.859,-10.254,-87.891
1742473302.73,988.77,-44.922,-68.359,277.344
1742473302.734,-463.867,-56.152,-78.125,-590.332
1742473302.738,-282.715,-27.832,-59.082,106.445
1742473302.742,843.262,-3.418,-55.176,391.113
1742473302.746,-1000.0,-13.184,-51.27,-638.672
1742473302.749,-159.18,2.441,-37.598,161.133
1742473302.753,751.953,0.977,-41.504,135.742
1742473302.757,-1000.0,-33.203,-53.711,-610.352
1742473302.761,67.871,-16.113,-56.152,343.262
1742473302.765,305.664,-13.672,-41.992,-57.617
1742473302.768,-1000.0,-34.18,-39.551,-558.594
1742473302.772,803.223,-11.23,-31.25,421.387
1742473302.776,117.188,-16.602,-38.086,-290.039
1742473302.78,-681.152,-23.926,-52.246,-235.352
1742473302.784,999.512,-7.324,-52.246,498.047
1742473302.788,-43.457,-0.488,-39.062,-257.812
1742473302.792,-1000.0,-11.719,-37.109,-350.098
1742473302.795,-33.203,-21.484,-56.152,172.363
1742473302.799,999.512,-10.742,-36.621,257.812
1742473302.803,-46.387,8.789,-18.555,-309.57
1742473302.807,-702.637,40.039,-11.23,-83.008
1742473302.811,797.852,24.902,-12.207,325.195
1742473302.768,-1000.0,-34.18,-39.551,-558.594
1742473302.772,803.223,-11.23,-31.25,421.387
1742473302.776,117.188,-16.602,-38.086,-290.039
1742473302.78,-681.152,-23.926,-52.246,-235.352
1742473302.784,999.512,-7.324,-52.246,498.047
1742473302.788,-43.457,-0.488,-39.062,-257.812
1742473302.792,-1000.0,-11.719,-37.109,-350.098
1742473302.795,-33.203,-21.484,-56.152,172.363
1742473302.799,999.512,-10.742,-36.621,257.812
1742473302.803,-46.387,8.789,-18.555,-309.57
1742473302.807,-702.637,40.039,-11.23,-83.008
1742473302.811,797.852,24.902,-12.207,325.195
1742473302.872,-277.832,-37.109,-91.797,52.734
1742473302.876,824.219,-15.137,-78.125,371.094
1742473302.88,-917.969,-42.969,-80.078,-645.996
1742473302.884,-352.051,-47.852,-92.285,-24.414
1742473302.888,999.512,-44.434,-100.098,325.195
1742473302.892,981.934,-54.199,-92.773,-38.086
1742473302.896,-619.141,-59.57,-97.168,-379.395
1742473302.899,-202.637,-45.41,-112.305,69.824
1742473302.903,611.816,-42.969,-118.652,52.246
1742473302.907,-903.32,-27.344,-95.703,-421.387
1742473302.911,563.477,-30.762,-75.684,416.016
1742473302.915,111.816,-60.059,-85.938,-275.391
1742473302.902,-424.316,-28.809,-62.012,-160.645
1742473302.906,826.66,-29.785,-49.316,332.52
1742473302.91,-839.355,-62.012,-72.754,-507.324
1742473302.914,83.496,-43.945,-77.148,310.059
1742473302.918,212.402,-37.109,-90.332,-42.969
1742473302.922,-666.992,-21.973,-79.59,-304.199
1742473302.926,790.039,-23.438,-73.73,314.453
1742473302.929,-619.629,-62.012,-87.402,-575.195
1742473302.933,-52.734,-34.668,-71.777,288.086
1742473302.937,319.336,-29.297,-57.617,57.129
1742473302.941,-1000.0,-49.316,-56.641,-639.648
1742473302.945,682.129,-24.414,-61.523,368.164
1742473302.902,-424.316,-28.809,-62.012,-160.645
1742473302.906,826.66,-29.785,-49.316,332.52
1742473302.91,-839.355,-62.012,-72.754,-507.324
1742473302.914,83.496,-43.945,-77.148,310.059
1742473302.918,212.402,-37.109,-90.332,-42.969
1742473302.922,-666.992,-21.973,-79.59,-304.199
1742473302.926,790.039,-23.438,-73.73,314.453
1742473302.929,-619.629,-62.012,-87.402,-575.195
1742473302.933,-52.734,-34.668,-71.777,288.086
1742473302.937,319.336,-29.297,-57.617,57.129
1742473302.941,-1000.0,-49.316,-56.641,-639.648
1742473302.945,682.129,-24.414,-61.523,368.164
1742473302.946,-79.59,-61.035,-89.844,-396.973
1742473302.95,-299.316,-53.223,-94.238,0.0
1742473302.954,761.23,-41.992,-95.703,383.301
1742473302.958,-1000.0,-98.145,-131.836,-685.059
1742473302.962,-315.43,-123.047,-152.832,5.371
1742473302.966,999.512,-106.445,-162.598,294.922
1742473302.97,-446.289,-114.258,-171.387,-544.922
1742473302.973,-416.016,-121.582,-164.551,-90.332
1742473302.977,999.512,-90.82,-154.785,311.035
1742473302.981,-565.918,-83.008,-164.062,-585.938
1742473302.985,-342.285,-105.957,-176.758,-23.926
1742473302.989,999.512,-104.492,-164.062,384.277
1742473302.946,-79.59,-61.035,-89.844,-396.973
1742473302.95,-299.316,-53.223,-94.238,0.0
1742473302.954,761.23,-41.992,-95.703,383.301
1742473302.958,-1000.0,-98.145,-131.836,-685.059
1742473302.962,-315.43,-123.047,-152.832,5.371
1742473302.966,999.512,-106.445,-162.598,294.922
1742473302.97,-446.289,-114.258,-171.387,-544.922
1742473302.973,-416.016,-121.582,-164.551,-90.332
1742473302.977,999.512,-90.82,-154.785,311.035
1742473302.981,-565.918,-83.008,-164.062,-585.938
1742473302.985,-342.285,-105.957,-176.758,-23.926
1742473302.989,999.512,-104.492,-164.062,384.277
1742473302.993,-764.648,-83.008,-162.109,-519.531
1742473302.997,-227.051,-78.613,-171.387,143.555
1742473303.001,696.777,-82.52,-156.738,180.664
1742473303.005,-1000.0,-97.168,-143.555,-676.27
1742473303.009,224.609,-92.773,-141.602,294.922
1742473303.013,376.465,-88.379,-149.902,-42.48
1742473303.017,-1000.0,-82.52,-143.555,-554.688
1742473303.02,653.32,-46.387,-110.84,379.883
1742473303.024,230.957,-55.176,-109.375,-306.641
1742473303.028,-925.293,-92.773,-144.043,-458.984
1742473303.032,925.781,-92.285,-136.719,464.355
1742473303.036,-30.762,-78.125,-110.352,-410.645
1742473302.993,-764.648,-83.008,-162.109,-519.531
1742473302.997,-227.051,-78.613,-171.387,143.555
1742473303.001,696.777,-82.52,-156.738,180.664
1742473303.005,-1000.0,-97.168,-143.555,-676.27
1742473303.009,224.609,-92.773,-141.602,294.922
1742473303.013,376.465,-88.379,-149.902,-42.48
1742473303.017,-1000.0,-82.52,-143.555,-554.688
1742473303.02,653.32,-46.387,-110.84,379.883
1742473303.024,230.957,-55.176,-109.375,-306.641
1742473303.028,-925.293,-92.773,-144.043,-458.984
1742473303.032,925.781,-92.285,-136.719,464.355
1742473303.036,-30.762,-78.125,-110.352,-410.645
1742473302.993,-764.648,-83.008,-162.109,-519.531
1742473302.997,-227.051,-78.613,-171.387,143.555
1742473303.001,696.777,-82.52,-156.738,180.664
1742473303.005,-1000.0,-97.168,-143.555,-676.27
1742473303.009,224.609,-92.773,-141.602,294.922
1742473303.013,376.465,-88.379,-149.902,-42.48
1742473303.017,-1000.0,-82.52,-143.555,-554.688
1742473303.02,653.32,-46.387,-110.84,379.883
1742473303.024,230.957,-55.176,-109.375,-306.641
1742473303.028,-925.293,-92.773,-144.043,-458.984
1742473303.032,925.781,-92.285,-136.719,464.355
1742473303.036,-30.762,-78.125,-110.352,-410.645
1742473303.052,-238.77,-52.246,-68.848,-62.5
1742473303.056,588.379,-59.082,-74.219,241.699
1742473303.06,-968.262,-54.688,-99.609,-474.121
1742473303.064,478.516,-27.832,-80.566,354.492
1742473303.068,198.242,-35.156,-57.129,-220.703
1742473303.072,-720.703,-50.293,-62.012,-296.387
1742473303.076,891.113,-59.082,-79.102,292.48
1742473303.079,-511.719,-56.641,-77.148,-474.121
1742473303.083,-195.312,-41.016,-68.359,235.352
1742473303.087,549.805,-39.551,-47.363,197.754
1742473303.091,-1000.0,-62.5,-54.688,-656.738
1742473303.095,88.379,-47.852,-67.383,210.449
1742473303.052,-238.77,-52.246,-68.848,-62.5
1742473303.056,588.379,-59.082,-74.219,241.699
1742473303.06,-968.262,-54.688,-99.609,-474.121
1742473303.064,478.516,-27.832,-80.566,354.492
1742473303.068,198.242,-35.156,-57.129,-220.703
1742473303.072,-720.703,-50.293,-62.012,-296.387
1742473303.076,891.113,-59.082,-79.102,292.48
1742473303.079,-511.719,-56.641,-77.148,-474.121
1742473303.083,-195.312,-41.016,-68.359,235.352
1742473303.087,549.805,-39.551,-47.363,197.754
1742473303.091,-1000.0,-62.5,-54.688,-656.738
1742473303.095,88.379,-47.852,-67.383,210.449
1742473303.097,606.445,-50.781,-71.289,35.645
1742473303.101,-1000.0,-68.848,-68.359,-475.098
1742473303.105,125.977,-59.082,-51.27,348.633
1742473303.109,324.219,-56.641,-50.781,-97.656
1742473303.113,-1000.0,-53.223,-60.059,-552.246
1742473303.117,714.844,-36.133,-60.547,441.895
1742473303.121,373.047,-36.621,-46.875,-126.465
1742473303.124,-1000.0,-44.434,-63.965,-565.918
1742473303.128,330.078,-39.062,-70.801,429.199
1742473303.132,153.32,-59.082,-58.105,-310.059
1742473303.136,-573.242,-64.941,-62.5,-393.066
1742473303.14,999.512,-30.273,-64.941,573.73
1742473303.097,606.445,-50.781,-71.289,35.645
1742473303.101,-1000.0,-68.848,-68.359,-475.098
1742473303.105,125.977,-59.082,-51.27,348.633
1742473303.109,324.219,-56.641,-50.781,-97.656
1742473303.113,-1000.0,-53.223,-60.059,-552.246
1742473303.117,714.844,-36.133,-60.547,441.895
1742473303.121,373.047,-36.621,-46.875,-126.465
1742473303.124,-1000.0,-44.434,-63.965,-565.918
1742473303.128,330.078,-39.062,-70.801,429.199
1742473303.132,153.32,-59.082,-58.105,-310.059
1742473303.136,-573.242,-64.941,-62.5,-393.066
1742473303.14,999.512,-30.273,-64.941,573.73
1742473303.142,-425.293,-26.367,-60.059,-420.41
1742473303.146,-221.191,-34.668,-51.758,113.281
1742473303.15,523.438,-39.062,-74.219,152.832
1742473303.154,-1000.0,-20.996,-50.293,-555.664
1742473303.158,561.035,-29.297,-45.898,421.387
1742473303.162,277.344,-63.965,-57.617,-165.527
1742473303.166,-955.566,-55.664,-37.109,-438.477
1742473303.169,762.207,-48.828,-36.133,312.5
1742473303.173,-293.457,-59.082,-43.457,-480.957
1742473303.177,-246.094,-41.992,-36.621,126.465
1742473303.181,612.305,-33.691,-24.902,282.715
1742473303.185,-1000.0,-30.273,-22.949,-557.617
1742473303.142,-425.293,-26.367,-60.059,-420.41
1742473303.146,-221.191,-34.668,-51.758,113.281
1742473303.15,523.438,-39.062,-74.219,152.832
1742473303.154,-1000.0,-20.996,-50.293,-555.664
1742473303.158,561.035,-29.297,-45.898,421.387
1742473303.162,277.344,-63.965,-57.617,-165.527
1742473303.166,-955.566,-55.664,-37.109,-438.477
1742473303.169,762.207,-48.828,-36.133,312.5
1742473303.173,-293.457,-59.082,-43.457,-480.957
1742473303.177,-246.094,-41.992,-36.621,126.465
1742473303.181,612.305,-33.691,-24.902,282.715
1742473303.185,-1000.0,-30.273,-22.949,-557.617
1742473303.187,285.645,-31.25,-23.926,310.059
1742473303.191,176.27,-53.711,-36.621,-253.418
1742473303.195,-555.664,-46.387,-52.734,-216.309
1742473303.199,969.238,-26.855,-36.621,491.699
1742473303.203,-580.566,-51.758,-37.109,-462.402
1742473303.207,-141.602,-46.875,-27.832,192.383
1742473303.211,407.715,-31.25,-8.789,63.477
1742473303.214,-1000.0,-27.344,-5.859,-500.0
1742473303.218,564.941,-30.273,-24.902,470.215
1742473303.222,38.086,-58.105,-34.18,-314.941
1742473303.226,-405.273,-53.223,-25.391,-169.922
1742473303.23,864.258,-51.27,-36.621,325.684
1742473303.187,285.645,-31.25,-23.926,310.059
1742473303.191,176.27,-53.711,-36.621,-253.418
1742473303.195,-555.664,-46.387,-52.734,-216.309
1742473303.199,969.238,-26.855,-36.621,491.699
1742473303.203,-580.566,-51.758,-37.109,-462.402
1742473303.207,-141.602,-46.875,-27.832,192.383
1742473303.211,407.715,-31.25,-8.789,63.477
1742473303.214,-1000.0,-27.344,-5.859,-500.0
1742473303.218,564.941,-30.273,-24.902,470.215
1742473303.222,38.086,-58.105,-34.18,-314.941
1742473303.226,-405.273,-53.223,-25.391,-169.922
1742473303.23,864.258,-51.27,-36.621,325.684
1742473303.232,-840.82,-71.289,-45.898,-499.023
1742473303.236,-8.789,-43.945,-30.762,329.102
1742473303.24,426.758,-39.062,-26.367,85.449
1742473303.244,-1000.0,-38.574,-21.484,-552.246
1742473303.248,476.562,-9.766,-0.977,374.512
1742473303.252,240.234,-48.34,-20.508,-155.762
1742473303.256,-824.707,-65.43,-29.297,-287.109
1742473303.259,913.574,-51.758,-27.344,399.414
1742473303.263,-226.562,-57.617,-40.039,-407.227
1742473303.267,-529.297,-60.059,-30.273,-93.75
1742473303.271,999.512,-53.711,-10.254,491.211
1742473303.275,-268.066,-55.176,-3.906,-381.348
1742473303.278,-233.887,-36.621,-1.953,155.273
1742473303.282,644.531,-24.414,3.418,245.117
1742473303.286,-1000.0,-41.504,-4.395,-673.828
1742473303.29,-96.191,-33.691,-17.09,245.605
1742473303.294,784.668,-37.598,-13.184,280.762
1742473303.298,-1000.0,-47.852,-11.23,-479.98
1742473303.302,-86.426,-30.273,-15.625,292.48
1742473303.305,127.441,-39.551,-19.043,-168.457
1742473303.309,-695.312,-33.203,8.789,-365.234
1742473303.313,999.512,22.949,58.105,675.781
1742473303.317,-31.738,13.672,55.664,-310.059
1742473303.321,-565.918,-13.184,27.344,-207.031
1742473303.278,-233.887,-36.621,-1.953,155.273
1742473303.282,644.531,-24.414,3.418,245.117
1742473303.286,-1000.0,-41.504,-4.395,-673.828
1742473303.29,-96.191,-33.691,-17.09,245.605
1742473303.294,784.668,-37.598,-13.184,280.762
1742473303.298,-1000.0,-47.852,-11.23,-479.98
1742473303.302,-86.426,-30.273,-15.625,292.48
1742473303.305,127.441,-39.551,-19.043,-168.457
1742473303.309,-695.312,-33.203,8.789,-365.234
1742473303.313,999.512,22.949,58.105,675.781
1742473303.317,-31.738,13.672,55.664,-310.059
1742473303.321,-565.918,-13.184,27.344,-207.031
1742473303.323,991.211,0.0,18.555,410.156
1742473303.327,-592.285,4.395,20.508,-496.094
1742473303.331,-85.449,30.273,40.527,358.887
1742473303.335,352.539,30.273,62.012,174.805
1742473303.339,-957.52,24.902,68.848,-538.574
1742473303.343,813.477,89.355,118.164,629.883
1742473303.347,153.32,89.355,128.906,-234.863
1742473303.35,-749.023,35.645,79.59,-373.047
1742473303.354,999.512,41.016,63.965,560.547
1742473303.358,-320.801,22.461,49.805,-397.461
1742473303.362,-261.719,22.461,53.223,79.102
1742473303.366,650.879,36.621,65.918,270.996
1742473303.367,-919.434,43.945,81.543,-427.246
1742473303.371,504.883,49.805,77.637,476.562
1742473303.375,271.973,41.016,65.918,-72.754
1742473303.379,-1000.0,42.48,77.148,-340.82
1742473303.383,798.34,60.059,92.773,483.398
1742473303.387,365.234,39.062,54.688,-70.801
1742473303.391,-1000.0,2.93,30.762,-276.367
1742473303.394,440.918,10.742,61.523,394.043
1742473303.398,731.934,14.648,81.543,31.25
1742473303.402,-1000.0,-3.418,69.336,-543.457
1742473303.406,-3.906,12.695,35.156,383.301
1742473303.41,448.73,26.367,37.109,187.5
1742473303.367,-919.434,43.945,81.543,-427.246
1742473303.371,504.883,49.805,77.637,476.562
1742473303.375,271.973,41.016,65.918,-72.754
1742473303.379,-1000.0,42.48,77.148,-340.82
1742473303.383,798.34,60.059,92.773,483.398
1742473303.387,365.234,39.062,54.688,-70.801
1742473303.391,-1000.0,2.93,30.762,-276.367
1742473303.394,440.918,10.742,61.523,394.043
1742473303.398,731.934,14.648,81.543,31.25
1742473303.402,-1000.0,-3.418,69.336,-543.457
1742473303.406,-3.906,12.695,35.156,383.301
1742473303.41,448.73,26.367,37.109,187.5
1742473303.426,-1000.0,8.301,46.875,-464.355
1742473303.43,479.004,20.02,52.246,463.379
1742473303.434,145.02,20.996,68.359,-230.469
1742473303.438,-524.414,5.859,59.082,-175.781
1742473303.442,999.512,3.418,42.969,572.754
1742473303.446,-407.227,-0.977,44.434,-377.441
1742473303.45,-213.379,0.0,44.434,147.461
1742473303.453,527.344,-6.348,44.434,177.246
1742473303.457,-1000.0,-23.438,27.344,-504.395
1742473303.461,559.57,10.742,24.902,481.934
1742473303.465,183.594,24.414,20.996,-203.125
1742473303.469,-654.785,32.715,29.297,-309.082
1742473303.426,-1000.0,8.301,46.875,-464.355
1742473303.43,479.004,20.02,52.246,463.379
1742473303.434,145.02,20.996,68.359,-230.469
1742473303.438,-524.414,5.859,59.082,-175.781
1742473303.442,999.512,3.418,42.969,572.754
1742473303.446,-407.227,-0.977,44.434,-377.441
1742473303.45,-213.379,0.0,44.434,147.461
1742473303.453,527.344,-6.348,44.434,177.246
1742473303.457,-1000.0,-23.438,27.344,-504.395
1742473303.461,559.57,10.742,24.902,481.934
1742473303.465,183.594,24.414,20.996,-203.125
1742473303.469,-654.785,32.715,29.297,-309.082
1742473303.472,999.512,49.316,38.574,480.469
1742473303.476,-366.211,47.852,21.973,-393.066
1742473303.48,-246.094,34.668,11.719,148.926
1742473303.484,660.645,20.996,5.371,234.863
1742473303.488,-1000.0,34.668,-14.648,-525.879
1742473303.492,259.277,48.34,-13.184,347.656
1742473303.496,229.98,26.367,16.113,-208.496
1742473303.499,-767.578,27.344,22.949,-367.676
1742473303.503,972.168,39.551,24.902,528.32
1742473303.507,-325.195,8.301,22.461,-438.477
1742473303.511,-217.285,20.508,14.16,29.785
1742473303.515,452.637,8.301,20.996,118.164
1742473303.472,999.512,49.316,38.574,480.469
1742473303.476,-366.211,47.852,21.973,-393.066
1742473303.48,-246.094,34.668,11.719,148.926
1742473303.484,660.645,20.996,5.371,234.863
1742473303.488,-1000.0,34.668,-14.648,-525.879
1742473303.492,259.277,48.34,-13.184,347.656
1742473303.496,229.98,26.367,16.113,-208.496
1742473303.499,-767.578,27.344,22.949,-367.676
1742473303.503,972.168,39.551,24.902,528.32
1742473303.507,-325.195,8.301,22.461,-438.477
1742473303.511,-217.285,20.508,14.16,29.785
1742473303.515,452.637,8.301,20.996,118.164
1742473303.517,-890.625,-13.184,18.066,-461.914
1742473303.521,715.332,8.301,6.348,458.984
1742473303.525,245.117,-1.465,8.789,-225.586
1742473303.529,-1000.0,-20.996,0.977,-458.496
1742473303.533,422.852,-3.418,11.719,343.75
1742473303.537,999.512,13.672,18.555,185.059
1742473303.541,-452.148,-17.09,3.418,-359.863
1742473303.544,-883.789,-14.16,18.555,-107.91
1742473303.548,924.316,3.906,26.855,424.805
1742473303.552,-146.973,-22.461,8.301,-428.223
1742473303.556,-365.234,-20.508,2.93,-21.973
1742473303.56,999.512,-0.977,13.184,517.09
1742473303.517,-890.625,-13.184,18.066,-461.914
1742473303.521,715.332,8.301,6.348,458.984
1742473303.525,245.117,-1.465,8.789,-225.586
1742473303.529,-1000.0,-20.996,0.977,-458.496
1742473303.533,422.852,-3.418,11.719,343.75
1742473303.537,999.512,13.672,18.555,185.059
1742473303.541,-452.148,-17.09,3.418,-359.863
1742473303.544,-883.789,-14.16,18.555,-107.91
1742473303.548,924.316,3.906,26.855,424.805
1742473303.552,-146.973,-22.461,8.301,-428.223
1742473303.556,-365.234,-20.508,2.93,-21.973
1742473303.56,999.512,-0.977,13.184,517.09
1742473303.562,-752.441,-6.348,25.879,-437.988
1742473303.566,-204.59,-8.301,24.414,168.945
1742473303.57,638.672,-27.344,12.207,146.973
1742473303.574,-1000.0,-43.457,14.648,-489.258
1742473303.578,332.031,-15.625,16.113,390.137
1742473303.582,476.074,-5.371,8.301,7.324
1742473303.586,-1000.0,-22.949,18.555,-544.434
1742473303.589,-195.312,-29.297,24.414,197.266
1742473303.593,999.512,-10.742,11.23,324.707
1742473303.597,-352.539,-17.578,-0.488,-375.977
1742473303.601,-382.812,-21.973,6.348,64.453
1742473303.605,945.312,-15.137,30.273,401.367
1742473303.562,-752.441,-6.348,25.879,-437.988
1742473303.566,-204.59,-8.301,24.414,168.945
1742473303.57,638.672,-27.344,12.207,146.973
1742473303.574,-1000.0,-43.457,14.648,-489.258
1742473303.578,332.031,-15.625,16.113,390.137
1742473303.582,476.074,-5.371,8.301,7.324
1742473303.586,-1000.0,-22.949,18.555,-544.434
1742473303.589,-195.312,-29.297,24.414,197.266
1742473303.593,999.512,-10.742,11.23,324.707
1742473303.597,-352.539,-17.578,-0.488,-375.977
1742473303.601,-382.812,-21.973,6.348,64.453
1742473303.605,945.312,-15.137,30.273,401.367
1742473303.607,-816.406,-32.715,26.367,-548.828
1742473303.611,-264.16,-22.461,-5.859,134.277
1742473303.615,846.68,-4.395,3.906,354.98
1742473303.619,-991.699,-20.996,14.648,-465.82
1742473303.623,-179.688,-19.531,10.742,285.156
1742473303.627,822.266,-22.949,13.184,265.137
1742473303.631,-1000.0,-34.18,24.902,-535.156
1742473303.634,-26.367,-23.926,19.043,329.59
1742473303.638,389.648,-41.992,2.93,61.035
1742473303.642,-911.621,-30.273,13.184,-382.812
1742473303.646,765.137,-14.648,18.555,461.426
1742473303.65,-71.777,-43.457,3.906,-336.426
1742473303.652,-304.688,-30.762,7.812,62.988
1742473303.656,829.102,-22.461,34.18,446.289
1742473303.66,-1000.0,-25.879,43.945,-540.527
1742473303.664,-74.707,-31.25,35.156,191.406
1742473303.668,450.195,-45.898,22.461,2.441
1742473303.672,-790.527,-24.902,27.832,-286.621
1742473303.676,805.664,-16.113,20.508,509.277
1742473303.679,-177.734,-47.852,-5.859,-371.094
1742473303.683,-236.328,-33.203,7.324,19.043
1742473303.687,490.234,-18.555,17.09,175.293
1742473303.691,-968.262,-17.09,13.672,-488.281
1742473303.695,610.84,-15.625,21.484,454.102
1742473303.652,-304.688,-30.762,7.812,62.988
1742473303.656,829.102,-22.461,34.18,446.289
1742473303.66,-1000.0,-25.879,43.945,-540.527
1742473303.664,-74.707,-31.25,35.156,191.406
1742473303.668,450.195,-45.898,22.461,2.441
1742473303.672,-790.527,-24.902,27.832,-286.621
1742473303.676,805.664,-16.113,20.508,509.277
1742473303.679,-177.734,-47.852,-5.859,-371.094
1742473303.683,-236.328,-33.203,7.324,19.043
1742473303.687,490.234,-18.555,17.09,175.293
1742473303.691,-968.262,-17.09,13.672,-488.281
1742473303.695,610.84,-15.625,21.484,454.102
1742473303.697,249.023,-35.645,23.926,-171.875
1742473303.701,-995.605,-39.551,15.625,-374.023
1742473303.705,875.0,-26.855,19.043,397.949
1742473303.709,99.121,-17.09,17.09,-337.891
1742473303.713,-578.613,0.977,21.484,-114.746
1742473303.717,999.512,20.996,30.762,553.711
1742473303.721,-233.887,-26.367,15.137,-424.316
1742473303.724,-1000.0,-58.594,0.0,-364.258
1742473303.728,878.906,-17.09,18.066,483.887
1742473303.732,204.102,-20.508,34.18,-212.402
1742473303.736,-1000.0,-46.875,24.414,-413.574
1742473303.74,751.953,-39.062,14.16,334.961
1742473303.697,249.023,-35.645,23.926,-171.875
1742473303.701,-995.605,-39.551,15.625,-374.023
1742473303.705,875.0,-26.855,19.043,397.949
1742473303.709,99.121,-17.09,17.09,-337.891
1742473303.713,-578.613,0.977,21.484,-114.746
1742473303.717,999.512,20.996,30.762,553.711
1742473303.721,-233.887,-26.367,15.137,-424.316
1742473303.724,-1000.0,-58.594,0.0,-364.258
1742473303.728,878.906,-17.09,18.066,483.887
1742473303.732,204.102,-20.508,34.18,-212.402
1742473303.736,-1000.0,-46.875,24.414,-413.574
1742473303.74,751.953,-39.062,14.16,334.961
1742473303.742,-134.766,-22.461,24.902,-421.387
1742473303.746,-345.215,-21.484,29.297,-1.953
1742473303.75,972.656,-46.387,6.836,421.387
1742473303.754,-844.238,-44.922,5.859,-520.996
1742473303.758,-116.211,-10.254,29.297,257.812
1742473303.762,482.422,-24.414,23.438,81.543
1742473303.766,-1000.0,-50.781,-9.277,-570.801
1742473303.769,523.438,-41.504,-9.766,389.648
1742473303.773,416.016,-40.527,10.742,-98.633
1742473303.777,-1000.0,-42.48,27.832,-539.062
1742473303.781,131.836,-38.086,14.648,289.062
1742473303.785,504.395,-39.062,8.789,-64.453
1742473303.742,-134.766,-22.461,24.902,-421.387
1742473303.746,-345.215,-21.484,29.297,-1.953
1742473303.75,972.656,-46.387,6.836,421.387
1742473303.754,-844.238,-44.922,5.859,-520.996
1742473303.758,-116.211,-10.254,29.297,257.812
1742473303.762,482.422,-24.414,23.438,81.543
1742473303.766,-1000.0,-50.781,-9.277,-570.801
1742473303.769,523.438,-41.504,-9.766,389.648
1742473303.773,416.016,-40.527,10.742,-98.633
1742473303.777,-1000.0,-42.48,27.832,-539.062
1742473303.781,131.836,-38.086,14.648,289.062
1742473303.785,504.395,-39.062,8.789,-64.453
1742473303.802,-1000.0,-53.711,-9.277,-479.004
1742473303.806,446.777,-28.32,-5.859,368.164
1742473303.81,264.16,-41.504,5.371,-218.75
1742473303.814,-988.77,-41.992,-0.488,-447.754
1742473303.818,526.855,-24.414,-15.137,330.078
1742473303.822,999.512,-21.484,-6.836,191.895
1742473303.826,67.383,-33.203,25.391,-323.73
1742473303.829,-1000.0,-55.664,9.277,-405.762
1742473303.833,375.488,-42.969,0.0,315.918
1742473303.837,269.531,-37.109,20.508,-208.008
1742473303.841,-863.77,-36.621,17.09,-384.766
1742473303.845,909.668,-31.738,0.488,435.059
1742473303.802,-1000.0,-53.711,-9.277,-479.004
1742473303.806,446.777,-28.32,-5.859,368.164
1742473303.81,264.16,-41.504,5.371,-218.75
1742473303.814,-988.77,-41.992,-0.488,-447.754
1742473303.818,526.855,-24.414,-15.137,330.078
1742473303.822,999.512,-21.484,-6.836,191.895
1742473303.826,67.383,-33.203,25.391,-323.73
1742473303.829,-1000.0,-55.664,9.277,-405.762
1742473303.833,375.488,-42.969,0.0,315.918
1742473303.837,269.531,-37.109,20.508,-208.008
1742473303.841,-863.77,-36.621,17.09,-384.766
1742473303.845,909.668,-31.738,0.488,435.059
1742473303.847,14.16,-44.434,-4.883,-291.016
1742473303.851,-991.211,-50.293,-10.742,-335.938
1742473303.855,910.645,-19.531,20.508,379.395
1742473303.859,330.078,-23.926,25.879,-213.867
1742473303.863,-1000.0,-62.012,-18.555,-432.129
1742473303.867,604.98,-45.41,-11.719,420.898
1742473303.871,306.152,-41.016,1.465,-227.051
1742473303.874,-1000.0,-60.059,-11.719,-562.988
1742473303.878,610.84,-51.758,-7.324,481.445
1742473303.882,238.281,-45.41,7.812,-167.969
1742473303.886,-948.73,-26.855,5.859,-404.785
1742473303.89,819.336,-23.438,-4.395,417.969
1742473303.847,14.16,-44.434,-4.883,-291.016
1742473303.851,-991.211,-50.293,-10.742,-335.938
1742473303.855,910.645,-19.531,20.508,379.395
1742473303.859,330.078,-23.926,25.879,-213.867
1742473303.863,-1000.0,-62.012,-18.555,-432.129
1742473303.867,604.98,-45.41,-11.719,420.898
1742473303.871,306.152,-41.016,1.465,-227.051
1742473303.874,-1000.0,-60.059,-11.719,-562.988
1742473303.878,610.84,-51.758,-7.324,481.445
1742473303.882,238.281,-45.41,7.812,-167.969
1742473303.886,-948.73,-26.855,5.859,-404.785
1742473303.89,819.336,-23.438,-4.395,417.969
1742473303.892,-221.68,-41.016,-9.277,-456.055
1742473303.896,-275.391,-30.762,1.953,61.523
1742473303.9,677.246,-56.641,0.977,317.871
1742473303.904,-1000.0,-69.336,-6.348,-612.305
1742473303.908,40.039,-43.945,-1.465,270.508
1742473303.912,534.668,-22.461,-0.977,15.137
1742473303.916,-1000.0,-24.414,-4.883,-535.156
1742473303.919,370.117,-62.988,-2.93,382.812
1742473303.923,347.168,-62.012,-3.418,-149.902
1742473303.927,-1000.0,-41.992,-15.625,-521.484
1742473303.931,543.945,-19.531,-16.113,350.586
1742473303.935,185.547,-11.719,-17.578,-286.621
1742473303.937,-544.434,-22.461,-26.367,-211.914
1742473303.941,949.219,-6.348,-27.344,415.039
1742473303.945,-632.812,0.977,-20.508,-476.074
1742473303.949,-180.664,20.02,-20.02,87.891
1742473303.953,560.547,19.531,-38.086,86.914
1742473303.957,-791.016,6.836,-31.25,-322.266
1742473303.961,772.461,13.672,-24.414,431.152
1742473303.964,28.32,8.301,-36.621,-375.977
1742473303.968,-407.227,20.508,-25.391,-199.219
1742473303.972,866.211,-1.953,-31.25,270.508
1742473303.976,-806.641,-32.715,-43.945,-495.117
1742473303.98,116.211,-19.531,-23.926,242.188
1742473303.937,-544.434,-22.461,-26.367,-211.914
1742473303.941,949.219,-6.348,-27.344,415.039
1742473303.945,-632.812,0.977,-20.508,-476.074
1742473303.949,-180.664,20.02,-20.02,87.891
1742473303.953,560.547,19.531,-38.086,86.914
1742473303.957,-791.016,6.836,-31.25,-322.266
1742473303.961,772.461,13.672,-24.414,431.152
1742473303.964,28.32,8.301,-36.621,-375.977
1742473303.968,-407.227,20.508,-25.391,-199.219
1742473303.972,866.211,-1.953,-31.25,270.508
1742473303.976,-806.641,-32.715,-43.945,-495.117
1742473303.98,116.211,-19.531,-23.926,242.188
1742473303.982,278.32,-36.133,-33.691,-114.746
1742473303.986,-862.305,-35.645,-22.461,-399.902
1742473303.99,973.145,-27.344,-0.488,425.293
1742473303.994,41.992,-43.457,-4.395,-371.582
1742473303.998,-452.148,-18.066,1.465,-82.52
1742473304.002,999.512,-0.488,0.0,508.789
1742473304.006,-479.492,-34.18,-11.719,-522.461
1742473304.009,-628.906,-41.016,-11.23,-152.832
1742473304.013,999.512,-23.438,-13.184,523.926
1742473304.017,-264.648,-30.762,-18.066,-387.207
1742473304.021,-282.715,-9.766,-1.465,63.965
1742473304.025,677.246,-3.906,8.301,305.664
1742473304.027,-1000.0,-55.176,-17.578,-660.645
1742473304.031,117.188,-56.152,-21.484,321.777
1742473304.035,433.594,-34.18,-6.836,98.145
1742473304.039,-1000.0,-23.438,-3.418,-447.754
1742473304.043,629.883,-35.156,-14.648,371.582
1742473304.047,16.113,-41.992,-21.484,-341.309
1742473304.051,-346.68,-28.809,-32.227,-80.566
1742473304.054,845.703,-19.043,-22.461,356.445
1742473304.058,-881.348,-27.832,1.465,-443.359
1742473304.062,-601.074,-44.434,-18.555,-34.668
1742473304.066,999.512,-38.574,-29.297,300.293
1742473304.07,-164.551,-44.434,-24.414,-439.453
1742473304.027,-1000.0,-55.176,-17.578,-660.645
1742473304.031,117.188,-56.152,-21.484,321.777
1742473304.035,433.594,-34.18,-6.836,98.145
1742473304.039,-1000.0,-23.438,-3.418,-447.754
1742473304.043,629.883,-35.156,-14.648,371.582
1742473304.047,16.113,-41.992,-21.484,-341.309
1742473304.051,-346.68,-28.809,-32.227,-80.566
1742473304.054,845.703,-19.043,-22.461,356.445
1742473304.058,-881.348,-27.832,1.465,-443.359
1742473304.062,-601.074,-44.434,-18.555,-34.668
1742473304.066,999.512,-38.574,-29.297,300.293
1742473304.07,-164.551,-44.434,-24.414,-439.453
1742473304.072,-271.484,-34.668,-15.625,67.871
1742473304.076,838.867,-18.555,0.0,378.418
1742473304.08,-996.582,-36.133,-2.93,-541.992
1742473304.084,-88.379,-32.227,-13.184,223.145
1742473304.088,496.582,-27.344,-20.508,83.008
1742473304.092,-831.055,-27.832,-4.883,-337.891
1742473304.096,694.824,-14.16,-0.488,393.066
1742473304.099,-168.457,-35.156,-22.949,-427.246
1742473304.103,-455.566,-28.809,-5.859,-125.0
1742473304.107,999.512,-14.16,8.301,471.68
1742473304.111,-508.789,-28.809,-1.953,-416.016
1742473304.115,-186.523,-11.719,6.836,220.215
1742473304.072,-271.484,-34.668,-15.625,67.871
1742473304.076,838.867,-18.555,0.0,378.418
1742473304.08,-996.582,-36.133,-2.93,-541.992
1742473304.084,-88.379,-32.227,-13.184,223.145
1742473304.088,496.582,-27.344,-20.508,83.008
1742473304.092,-831.055,-27.832,-4.883,-337.891
1742473304.096,694.824,-14.16,-0.488,393.066
1742473304.099,-168.457,-35.156,-22.949,-427.246
1742473304.103,-455.566,-28.809,-5.859,-125.0
1742473304.107,999.512,-14.16,8.301,471.68
1742473304.111,-508.789,-28.809,-1.953,-416.016
1742473304.115,-186.523,-11.719,6.836,220.215
1742473304.118,438.477,-15.625,-17.09,85.449
1742473304.122,-1000.0,-24.414,-13.184,-553.223
1742473304.126,500.0,-13.672,16.113,342.285
1742473304.13,186.523,-30.273,9.766,-213.867
1742473304.134,-638.672,-2.93,16.113,-204.59
1742473304.138,995.605,-1.465,1.465,443.848
1742473304.142,-441.406,-16.602,1.953,-497.559
1742473304.145,-439.453,30.273,33.691,-51.27
1742473304.149,999.512,25.391,24.414,427.734
1742473304.153,-410.645,33.203,20.02,-491.211
1742473304.157,-430.176,50.781,35.645,-33.691
1742473304.161,914.062,43.945,45.898,234.375
1742473304.118,438.477,-15.625,-17.09,85.449
1742473304.122,-1000.0,-24.414,-13.184,-553.223
1742473304.126,500.0,-13.672,16.113,342.285
1742473304.13,186.523,-30.273,9.766,-213.867
1742473304.134,-638.672,-2.93,16.113,-204.59
1742473304.138,995.605,-1.465,1.465,443.848
1742473304.142,-441.406,-16.602,1.953,-497.559
1742473304.145,-439.453,30.273,33.691,-51.27
1742473304.149,999.512,25.391,24.414,427.734
1742473304.153,-410.645,33.203,20.02,-491.211
1742473304.157,-430.176,50.781,35.645,-33.691
1742473304.161,914.062,43.945,45.898,234.375
1742473304.177,-836.426,56.641,57.129,-637.695
1742473304.181,-129.883,69.824,61.035,175.781
1742473304.185,568.848,68.848,62.988,80.078
1742473304.189,-1000.0,51.27,64.941,-694.824
1742473304.193,102.051,62.988,76.172,187.5
1742473304.197,366.211,58.594,61.523,-225.586
1742473304.201,-1000.0,48.828,82.031,-566.406
1742473304.204,687.5,54.199,110.352,251.465
1742473304.208,28.32,28.809,68.359,-459.961
1742473304.212,-670.898,-3.906,56.641,-347.168
1742473304.216,999.512,-7.324,97.656,311.523
1742473304.22,-261.23,-23.438,96.68,-542.969
1742473304.177,-836.426,56.641,57.129,-637.695
1742473304.181,-129.883,69.824,61.035,175.781
1742473304.185,568.848,68.848,62.988,80.078
1742473304.189,-1000.0,51.27,64.941,-694.824
1742473304.193,102.051,62.988,76.172,187.5
1742473304.197,366.211,58.594,61.523,-225.586
1742473304.201,-1000.0,48.828,82.031,-566.406
1742473304.204,687.5,54.199,110.352,251.465
1742473304.208,28.32,28.809,68.359,-459.961
1742473304.212,-670.898,-3.906,56.641,-347.168
1742473304.216,999.512,-7.324,97.656,311.523
1742473304.22,-261.23,-23.438,96.68,-542.969
1742473304.222,-278.809,-38.574,80.566,32.227
1742473304.226,767.09,-23.438,90.332,298.34
1742473304.23,-1000.0,-64.453,68.359,-674.316
1742473304.234,-355.957,-105.957,32.715,-15.625
1742473304.238,999.512,-98.145,32.715,267.578
1742473304.242,-170.898,-84.961,42.48,-407.715
1742473304.246,-643.066,-68.359,39.551,-104.98
1742473304.249,999.512,-70.801,20.996,268.066
1742473304.253,-487.793,-95.703,2.441,-532.715
1742473304.257,-287.598,-100.586,1.953,96.68
1742473304.261,850.098,-95.703,-3.906,341.797
1742473304.265,-1000.0,-95.703,-2.441,-497.07
1742473304.222,-278.809,-38.574,80.566,32.227
1742473304.226,767.09,-23.438,90.332,298.34
1742473304.23,-1000.0,-64.453,68.359,-674.316
1742473304.234,-355.957,-105.957,32.715,-15.625
1742473304.238,999.512,-98.145,32.715,267.578
1742473304.242,-170.898,-84.961,42.48,-407.715
1742473304.246,-643.066,-68.359,39.551,-104.98
1742473304.249,999.512,-70.801,20.996,268.066
1742473304.253,-487.793,-95.703,2.441,-532.715
1742473304.257,-287.598,-100.586,1.953,96.68
1742473304.261,850.098,-95.703,-3.906,341.797
1742473304.265,-1000.0,-95.703,-2.441,-497.07
1742473304.266,-23.438,-87.891,-3.906,299.805
1742473304.27,296.875,-102.051,-17.09,-62.988
1742473304.274,-840.82,-94.238,-17.578,-402.832
1742473304.278,906.25,-74.707,-19.531,492.188
1742473304.282,-89.844,-81.543,-24.902,-308.105
1742473304.286,-274.902,-77.148,-31.25,66.895
1742473304.29,669.434,-87.891,-39.062,260.254
1742473304.293,-1000.0,-103.027,-46.875,-608.398
1742473304.297,271.973,-91.309,-42.969,363.77
1742473304.301,291.992,-89.844,-39.062,-62.012
1742473304.305,-965.82,-84.473,-55.176,-415.039
1742473304.309,815.918,-69.336,-48.828,373.535
1742473304.266,-23.438,-87.891,-3.906,299.805
1742473304.27,296.875,-102.051,-17.09,-62.988
1742473304.274,-840.82,-94.238,-17.578,-402.832
1742473304.278,906.25,-74.707,-19.531,492.188
1742473304.282,-89.844,-81.543,-24.902,-308.105
1742473304.286,-274.902,-77.148,-31.25,66.895
1742473304.29,669.434,-87.891,-39.062,260.254
1742473304.293,-1000.0,-103.027,-46.875,-608.398
1742473304.297,271.973,-91.309,-42.969,363.77
1742473304.301,291.992,-89.844,-39.062,-62.012
1742473304.305,-965.82,-84.473,-55.176,-415.039
1742473304.309,815.918,-69.336,-48.828,373.535
1742473304.312,-125.488,-73.73,-34.668,-381.348
1742473304.316,-333.984,-69.824,-33.203,85.449
1742473304.32,935.059,-57.617,-19.531,476.562
1742473304.324,-847.168,-78.613,-34.18,-524.902
1742473304.328,-348.633,-82.52,-27.832,57.617
1742473304.332,999.512,-61.035,-1.465,371.582
1742473304.336,-497.07,-63.477,-19.043,-398.926
1742473304.339,-495.117,-66.895,-42.969,41.504
1742473304.343,999.512,-64.453,-50.781,427.734
1742473304.347,-462.891,-79.59,-55.664,-466.309
1742473304.351,-187.988,-61.523,-27.344,161.621
1742473304.355,807.129,-47.852,-2.93,362.305
1742473304.312,-125.488,-73.73,-34.668,-381.348
1742473304.316,-333.984,-69.824,-33.203,85.449
1742473304.32,935.059,-57.617,-19.531,476.562
1742473304.324,-847.168,-78.613,-34.18,-524.902
1742473304.328,-348.633,-82.52,-27.832,57.617
1742473304.332,999.512,-61.035,-1.465,371.582
1742473304.336,-497.07,-63.477,-19.043,-398.926
1742473304.339,-495.117,-66.895,-42.969,41.504
1742473304.343,999.512,-64.453,-50.781,427.734
1742473304.347,-462.891,-79.59,-55.664,-466.309
1742473304.351,-187.988,-61.523,-27.344,161.621
1742473304.355,807.129,-47.852,-2.93,362.305
1742473304.356,-1000.0,-79.102,-21.973,-482.422
1742473304.36,8.789,-63.477,-28.32,295.41
1742473304.364,302.734,-49.316,-21.484,-103.027
1742473304.368,-928.711,-39.551,-15.625,-460.449
1742473304.372,831.543,-30.762,-5.859,475.098
1742473304.376,299.316,-68.359,-16.602,-180.176
1742473304.38,-1000.0,-81.543,-28.809,-406.738
1742473304.383,518.066,-59.082,-38.574,307.617
1742473304.387,159.18,-43.945,-38.574,-331.543
1742473304.391,-502.93,-40.039,-28.32,-145.508
1742473304.395,999.512,-42.969,-43.945,492.676
1742473304.399,-472.168,-67.871,-53.711,-501.465
1742473304.403,-274.414,-60.059,-48.34,44.922
1742473304.407,805.176,-38.086,-39.551,263.184
1742473304.411,-1000.0,-48.828,-27.832,-551.758
1742473304.415,107.422,-41.016,-34.668,317.383
1742473304.419,371.094,-52.734,-51.27,20.508
1742473304.423,-935.547,-48.34,-48.828,-373.535
1742473304.427,798.34,-30.273,-41.992,342.285
1742473304.43,-36.621,-42.48,-22.949,-378.906
1742473304.434,-222.168,-33.203,-1.953,142.09
1742473304.438,446.289,-38.574,-6.836,200.195
1742473304.442,-1000.0,-63.965,-12.695,-601.074
1742473304.446,430.176,-44.434,-14.16,368.164
1742473304.462,224.609,-35.645,-14.16,-144.043
1742473304.466,-791.504,-31.25,-16.602,-278.809
1742473304.47,955.566,-42.48,-30.273,421.387
1742473304.474,-234.863,-48.828,-37.109,-335.938
1742473304.478,-619.629,-29.785,-20.508,-104.492
1742473304.482,999.512,-18.066,-6.348,441.406
1742473304.486,255.859,-29.785,-21.484,-277.832
1742473304.489,-1000.0,-50.781,-36.621,-462.891
1742473304.493,340.82,-53.711,-27.832,334.473
1742473304.497,204.59,-56.152,-26.855,-274.902
1742473304.501,-765.625,-46.875,-30.273,-393.066
1742473304.505,999.512,-34.668,-38.086,440.43
1742473304.492,-81.543,-41.016,-41.016,-390.625
1742473304.496,-500.977,-25.879,-18.066,-106.445
1742473304.5,902.344,-21.973,-14.16,305.176
1742473304.504,-754.883,-48.34,-31.738,-616.699
1742473304.508,-54.688,-22.949,-23.926,188.965
1742473304.512,770.996,-18.555,-29.297,231.445
1742473304.516,-1000.0,-42.48,-42.48,-544.922
1742473304.519,98.145,-29.785,-25.879,185.059
1742473304.523,490.723,-39.062,-32.227,-107.422
1742473304.527,-1000.0,-32.715,-35.156,-419.922
1742473304.531,564.453,-19.043,-16.602,380.859
1742473304.535,119.141,-54.199,-20.508,-350.586
1742473304.492,-81.543,-41.016,-41.016,-390.625
1742473304.496,-500.977,-25.879,-18.066,-106.445
1742473304.5,902.344,-21.973,-14.16,305.176
1742473304.504,-754.883,-48.34,-31.738,-616.699
1742473304.508,-54.688,-22.949,-23.926,188.965
1742473304.512,770.996,-18.555,-29.297,231.445
1742473304.516,-1000.0,-42.48,-42.48,-544.922
1742473304.519,98.145,-29.785,-25.879,185.059
1742473304.523,490.723,-39.062,-32.227,-107.422
1742473304.527,-1000.0,-32.715,-35.156,-419.922
1742473304.531,564.453,-19.043,-16.602,380.859
1742473304.535,119.141,-54.199,-20.508,-350.586
1742473304.551,-542.48,-47.852,-16.602,-262.207
1742473304.555,999.512,-22.461,-3.906,405.273
1742473304.559,-409.668,-24.902,-1.953,-424.316
1742473304.563,-226.562,-5.859,-6.348,201.172
1742473304.567,581.543,-12.207,-7.324,188.965
1742473304.571,-1000.0,-48.34,-24.902,-609.375
1742473304.575,137.695,-43.945,-29.785,249.512
1742473304.578,221.68,-38.086,-35.156,-179.199
1742473304.582,-703.613,-32.715,-36.133,-311.523
1742473304.586,949.707,-33.691,-15.137,424.805
1742473304.59,-329.102,-39.551,6.348,-416.016
1742473304.594,-639.16,-32.227,1.465,-171.387
1742473304.551,-542.48,-47.852,-16.602,-262.207
1742473304.555,999.512,-22.461,-3.906,405.273
1742473304.559,-409.668,-24.902,-1.953,-424.316
1742473304.563,-226.562,-5.859,-6.348,201.172
1742473304.567,581.543,-12.207,-7.324,188.965
1742473304.571,-1000.0,-48.34,-24.902,-609.375
1742473304.575,137.695,-43.945,-29.785,249.512
1742473304.578,221.68,-38.086,-35.156,-179.199
1742473304.582,-703.613,-32.715,-36.133,-311.523
1742473304.586,949.707,-33.691,-15.137,424.805
1742473304.59,-329.102,-39.551,6.348,-416.016
1742473304.594,-639.16,-32.227,1.465,-171.387
1742473304.597,999.512,-39.062,-23.438,376.953
1742473304.601,-58.105,-50.781,-28.32,-387.207
1742473304.605,-568.848,-43.945,-22.949,-110.84
1742473304.609,999.512,-41.504,-12.207,367.676
1742473304.613,-514.16,-62.5,-16.602,-438.477
1742473304.617,-191.406,-36.621,-33.691,166.992
1742473304.621,763.672,-27.344,-34.18,245.117
1742473304.624,-1000.0,-51.27,-35.645,-579.59
1742473304.628,71.289,-42.48,-36.133,332.031
1742473304.632,184.57,-42.969,-29.297,-158.203
1742473304.636,-580.566,-20.996,-17.09,-344.238
1742473304.64,999.512,-9.277,-4.883,554.688
1742473304.597,999.512,-39.062,-23.438,376.953
1742473304.601,-58.105,-50.781,-28.32,-387.207
1742473304.605,-568.848,-43.945,-22.949,-110.84
1742473304.609,999.512,-41.504,-12.207,367.676
1742473304.613,-514.16,-62.5,-16.602,-438.477
1742473304.617,-191.406,-36.621,-33.691,166.992
1742473304.621,763.672,-27.344,-34.18,245.117
1742473304.624,-1000.0,-51.27,-35.645,-579.59
1742473304.628,71.289,-42.48,-36.133,332.031
1742473304.632,184.57,-42.969,-29.297,-158.203
1742473304.636,-580.566,-20.996,-17.09,-344.238
1742473304.64,999.512,-9.277,-4.883,554.688
1742473304.643,-414.062,-45.41,-23.926,-465.82
1742473304.647,-241.211,-47.363,-32.715,46.875
1742473304.651,611.816,-41.016,-20.508,186.523
1742473304.655,-1000.0,-43.457,-14.648,-586.914
1742473304.659,325.684,-25.879,-8.789,321.289
1742473304.663,649.414,-29.297,-9.766,72.266
1742473304.667,-1000.0,-37.598,-12.695,-458.496
1742473304.67,-31.738,-31.738,-7.324,236.816
1742473304.674,669.922,-31.25,-14.16,10.742
1742473304.678,-1000.0,-30.273,-16.113,-474.121
1742473304.682,216.309,-23.926,-13.184,305.664
1742473304.686,423.34,-36.133,-7.812,-86.914
1742473304.643,-414.062,-45.41,-23.926,-465.82
1742473304.647,-241.211,-47.363,-32.715,46.875
1742473304.651,611.816,-41.016,-20.508,186.523
1742473304.655,-1000.0,-43.457,-14.648,-586.914
1742473304.659,325.684,-25.879,-8.789,321.289
1742473304.663,649.414,-29.297,-9.766,72.266
1742473304.667,-1000.0,-37.598,-12.695,-458.496
1742473304.67,-31.738,-31.738,-7.324,236.816
1742473304.674,669.922,-31.25,-14.16,10.742
1742473304.678,-1000.0,-30.273,-16.113,-474.121
1742473304.682,216.309,-23.926,-13.184,305.664
1742473304.686,423.34,-36.133,-7.812,-86.914
1742473304.688,-1000.0,-46.387,-7.324,-543.945
1742473304.692,445.801,-22.949,-9.766,337.891
1742473304.696,390.137,-22.461,-17.578,-69.336
1742473304.7,-1000.0,-47.852,-27.832,-416.016
1742473304.704,392.09,-28.32,-17.09,396.973
1742473304.708,581.055,-7.324,-7.812,5.371
1742473304.712,-1000.0,-24.414,-5.859,-535.156
1742473304.715,43.457,-38.086,-29.297,266.113
1742473304.719,835.938,-44.434,-33.203,154.297
1742473304.723,-1000.0,-45.41,-22.949,-519.531
1742473304.727,-35.645,-30.273,-30.273,266.113
1742473304.731,415.527,-27.344,-34.18,2.441
1742473304.732,-913.574,-35.156,-36.621,-438.477
1742473304.736,768.066,-28.32,-35.156,461.426
1742473304.74,230.957,-45.41,-29.785,-207.52
1742473304.744,-1000.0,-50.293,-25.391,-399.902
1742473304.748,750.977,-23.438,-29.785,368.164
1742473304.752,222.656,-28.809,-25.879,-228.027
1742473304.756,-866.211,-35.156,-16.113,-272.461
1742473304.759,886.23,-20.02,-18.066,325.684
1742473304.763,-187.988,-37.598,-39.062,-407.227
1742473304.767,-544.922,-39.062,-39.551,-103.027
1742473304.771,999.512,-26.855,-26.855,435.547
1742473304.775,-237.793,-37.109,-28.32,-390.137
1742473304.792,-287.598,-38.086,-36.621,115.234
1742473304.796,836.914,-19.043,-16.113,350.098
1742473304.8,-927.246,-16.113,-1.953,-581.543
1742473304.804,-362.793,-41.016,-26.367,59.082
1742473304.808,999.512,-40.039,-20.996,382.324
1742473304.812,-294.922,-44.922,-12.695,-437.012
1742473304.816,-372.559,-31.25,-17.578,25.879
1742473304.819,650.879,-27.832,-24.414,171.875
1742473304.823,-942.383,-41.504,-27.344,-532.227
1742473304.827,308.594,-17.09,-10.254,348.145
1742473304.831,304.688,-28.809,-2.441,-136.23
1742473304.835,-1000.0,-43.457,-11.719,-459.473
1742473304.792,-287.598,-38.086,-36.621,115.234
1742473304.796,836.914,-19.043,-16.113,350.098
1742473304.8,-927.246,-16.113,-1.953,-581.543
1742473304.804,-362.793,-41.016,-26.367,59.082
1742473304.808,999.512,-40.039,-20.996,382.324
1742473304.812,-294.922,-44.922,-12.695,-437.012
1742473304.816,-372.559,-31.25,-17.578,25.879
1742473304.819,650.879,-27.832,-24.414,171.875
1742473304.823,-942.383,-41.504,-27.344,-532.227
1742473304.827,308.594,-17.09,-10.254,348.145
1742473304.831,304.688,-28.809,-2.441,-136.23
1742473304.835,-1000.0,-43.457,-11.719,-459.473
1742473304.822,817.871,-22.461,-9.766,414.062
1742473304.826,-41.016,-33.691,-11.719,-367.188
1742473304.83,-259.766,-33.691,-16.602,45.898
1742473304.834,727.051,-25.879,-1.953,333.984
1742473304.838,-986.328,-39.551,6.836,-512.207
1742473304.842,253.906,-11.719,-3.906,338.379
1742473304.846,197.266,-28.32,-27.832,-229.492
1742473304.849,-577.637,-42.969,-18.066,-295.898
1742473304.853,999.512,-23.438,-6.348,531.738
1742473304.857,-334.961,-34.668,-7.812,-382.812
1742473304.861,-458.496,-33.203,-7.812,-37.598
1742473304.865,955.078,-23.926,-4.395,268.555
1742473304.822,817.871,-22.461,-9.766,414.062
1742473304.826,-41.016,-33.691,-11.719,-367.188
1742473304.83,-259.766,-33.691,-16.602,45.898
1742473304.834,727.051,-25.879,-1.953,333.984
1742473304.838,-986.328,-39.551,6.836,-512.207
1742473304.842,253.906,-11.719,-3.906,338.379
1742473304.846,197.266,-28.32,-27.832,-229.492
1742473304.849,-577.637,-42.969,-18.066,-295.898
1742473304.853,999.512,-23.438,-6.348,531.738
1742473304.857,-334.961,-34.668,-7.812,-382.812
1742473304.861,-458.496,-33.203,-7.812,-37.598
1742473304.865,955.078,-23.926,-4.395,268.555
1742473304.866,-763.184,-30.762,-9.766,-405.762
1742473304.87,-86.426,-16.602,-17.578,279.785
1742473304.874,409.18,-17.578,-11.23,-4.883
1742473304.878,-1000.0,-30.273,-22.461,-525.391
1742473304.882,187.5,-23.926,-22.461,254.395
1742473304.886,999.512,-27.832,-10.742,164.551
1742473304.89,-238.77,-39.062,-8.301,-343.262
1742473304.893,-1000.0,-39.062,-3.418,-178.711
1742473304.897,750.488,-24.414,0.488,415.527
1742473304.901,-36.133,-36.621,-18.066,-408.691
1742473304.905,-438.965,-32.715,-22.949,-133.789
1742473304.909,999.512,-22.461,-9.277,534.18
1742473304.866,-763.184,-30.762,-9.766,-405.762
1742473304.87,-86.426,-16.602,-17.578,279.785
1742473304.874,409.18,-17.578,-11.23,-4.883
1742473304.878,-1000.0,-30.273,-22.461,-525.391
1742473304.882,187.5,-23.926,-22.461,254.395
1742473304.886,999.512,-27.832,-10.742,164.551
1742473304.89,-238.77,-39.062,-8.301,-343.262
1742473304.893,-1000.0,-39.062,-3.418,-178.711
1742473304.897,750.488,-24.414,0.488,415.527
1742473304.901,-36.133,-36.621,-18.066,-408.691
1742473304.905,-438.965,-32.715,-22.949,-133.789
1742473304.909,999.512,-22.461,-9.277,534.18
1742473304.914,-653.809,-33.691,-23.926,-469.727
1742473304.918,-153.32,-15.625,-17.09,176.27
1742473304.922,482.91,-20.996,8.301,74.219
1742473304.926,-1000.0,-31.738,5.371,-540.039
1742473304.93,450.684,-17.578,2.441,373.535
1742473304.934,626.953,-3.418,17.09,41.016
1742473304.938,-944.824,-8.301,19.531,-398.926
1742473304.941,-1000.0,-37.109,-7.812,-235.84
1742473304.945,-187.5,-37.109,-11.719,165.527
1742473304.949,999.512,-27.344,-10.254,374.023
1742473304.953,-418.945,-31.25,-2.441,-412.109
1742473304.957,-199.707,-21.484,18.555,166.504
1742473304.914,-653.809,-33.691,-23.926,-469.727
1742473304.918,-153.32,-15.625,-17.09,176.27
1742473304.922,482.91,-20.996,8.301,74.219
1742473304.926,-1000.0,-31.738,5.371,-540.039
1742473304.93,450.684,-17.578,2.441,373.535
1742473304.934,626.953,-3.418,17.09,41.016
1742473304.938,-944.824,-8.301,19.531,-398.926
1742473304.941,-1000.0,-37.109,-7.812,-235.84
1742473304.945,-187.5,-37.109,-11.719,165.527
1742473304.949,999.512,-27.344,-10.254,374.023
1742473304.953,-418.945,-31.25,-2.441,-412.109
1742473304.957,-199.707,-21.484,18.555,166.504
1742473304.972,572.266,-19.531,5.859,147.949
1742473304.976,-1000.0,-24.414,-8.789,-533.203
1742473304.98,458.008,-20.996,-6.348,396.973
1742473304.984,158.203,-35.645,-7.324,-242.676
1742473304.988,-576.66,-27.832,-10.254,-251.953
1742473304.992,979.004,-16.602,-13.672,417.48
1742473304.996,-570.801,-26.367,-15.625,-461.914
1742473304.999,-309.57,-10.742,-10.254,98.633
1742473305.003,999.512,-7.324,-9.277,338.379
1742473305.007,-783.203,-32.227,-21.973,-534.18
1742473305.011,-227.051,-22.461,-31.738,105.957
1742473305.015,788.086,-18.066,-20.996,191.895
1742473304.972,572.266,-19.531,5.859,147.949
1742473304.976,-1000.0,-24.414,-8.789,-533.203
1742473304.98,458.008,-20.996,-6.348,396.973
1742473304.984,158.203,-35.645,-7.324,-242.676
1742473304.988,-576.66,-27.832,-10.254,-251.953
1742473304.992,979.004,-16.602,-13.672,417.48
1742473304.996,-570.801,-26.367,-15.625,-461.914
1742473304.999,-309.57,-10.742,-10.254,98.633
1742473305.003,999.512,-7.324,-9.277,338.379
1742473305.007,-783.203,-32.227,-21.973,-534.18
1742473305.011,-227.051,-22.461,-31.738,105.957
1742473305.015,788.086,-18.066,-20.996,191.895
1742473305.032,-984.375,-27.344,-14.648,-474.609
1742473305.036,194.824,-18.066,-19.043,324.219
1742473305.04,395.02,-25.879,-15.625,-64.941
1742473305.044,-1000.0,-32.715,-18.066,-525.879
1742473305.048,501.465,-20.508,-22.949,380.371
1742473305.052,480.957,-26.367,-19.043,-55.176
1742473305.056,-1000.0,-35.156,-18.066,-407.227
1742473305.059,400.391,-16.602,-19.531,336.914
1742473305.063,314.453,-26.855,-22.949,-224.121
1742473305.067,-1000.0,-33.691,-27.832,-482.422
1742473305.071,735.84,-11.23,-23.926,432.617
1742473305.075,292.969,-16.113,-18.066,-189.941
1742473305.032,-984.375,-27.344,-14.648,-474.609
1742473305.036,194.824,-18.066,-19.043,324.219
1742473305.04,395.02,-25.879,-15.625,-64.941
1742473305.044,-1000.0,-32.715,-18.066,-525.879
1742473305.048,501.465,-20.508,-22.949,380.371
1742473305.052,480.957,-26.367,-19.043,-55.176
1742473305.056,-1000.0,-35.156,-18.066,-407.227
1742473305.059,400.391,-16.602,-19.531,336.914
1742473305.063,314.453,-26.855,-22.949,-224.121
1742473305.067,-1000.0,-33.691,-27.832,-482.422
1742473305.071,735.84,-11.23,-23.926,432.617
1742473305.075,292.969,-16.113,-18.066,-189.941
1742473305.062,-1000.0,-25.879,-36.621,-470.215
1742473305.066,602.539,-22.461,-41.504,380.859
1742473305.07,164.551,-32.715,-26.855,-317.871
1742473305.074,-592.773,-21.973,-13.184,-230.957
1742473305.078,999.512,-4.883,-5.371,560.547
1742473305.082,-94.238,-20.996,-9.766,-319.336
1742473305.086,-665.039,-28.32,-12.695,-138.672
1742473305.089,993.652,-20.02,-17.09,287.598
1742473305.093,-487.793,-23.438,-18.555,-416.992
1742473305.097,-270.02,-23.438,-26.367,174.805
1742473305.101,776.367,-22.461,-26.855,252.93
1742473305.105,-1000.0,-30.273,-26.367,-528.32
1742473305.062,-1000.0,-25.879,-36.621,-470.215
1742473305.066,602.539,-22.461,-41.504,380.859
1742473305.07,164.551,-32.715,-26.855,-317.871
1742473305.074,-592.773,-21.973,-13.184,-230.957
1742473305.078,999.512,-4.883,-5.371,560.547
1742473305.082,-94.238,-20.996,-9.766,-319.336
1742473305.086,-665.039,-28.32,-12.695,-138.672
1742473305.089,993.652,-20.02,-17.09,287.598
1742473305.093,-487.793,-23.438,-18.555,-416.992
1742473305.097,-270.02,-23.438,-26.367,174.805
1742473305.101,776.367,-22.461,-26.855,252.93
1742473305.105,-1000.0,-30.273,-26.367,-528.32
1742473305.062,-1000.0,-25.879,-36.621,-470.215
1742473305.066,602.539,-22.461,-41.504,380.859
1742473305.07,164.551,-32.715,-26.855,-317.871
1742473305.074,-592.773,-21.973,-13.184,-230.957
1742473305.078,999.512,-4.883,-5.371,560.547
1742473305.082,-94.238,-20.996,-9.766,-319.336
1742473305.086,-665.039,-28.32,-12.695,-138.672
1742473305.089,993.652,-20.02,-17.09,287.598
1742473305.093,-487.793,-23.438,-18.555,-416.992
1742473305.097,-270.02,-23.438,-26.367,174.805
1742473305.101,776.367,-22.461,-26.855,252.93
1742473305.105,-1000.0,-30.273,-26.367,-528.32
1742473305.107,-80.078,-13.184,-21.973,224.121
1742473305.111,722.168,-6.836,-21.484,115.234
1742473305.115,-1000.0,-16.113,-5.371,-385.254
1742473305.119,326.66,-8.789,1.465,336.426
1742473305.123,251.465,-10.742,-8.301,-136.23
1742473305.127,-813.477,-18.555,-4.395,-259.766
1742473305.131,999.512,-21.484,-0.977,502.93
1742473305.134,0.0,-10.742,-7.812,-290.527
1742473305.138,-693.848,7.812,-15.137,-201.172
1742473305.142,999.512,7.812,-18.555,378.906
1742473305.146,-321.289,-13.672,-26.855,-496.582
1742473305.15,-424.805,-3.906,-24.902,-72.266
1742473305.152,999.512,8.301,-22.949,432.129
1742473305.156,-460.449,12.695,-27.344,-438.965
1742473305.16,-286.133,37.598,-35.645,88.379
1742473305.164,761.23,29.297,-34.668,215.332
1742473305.168,-966.797,8.301,-19.043,-561.035
1742473305.172,241.699,24.414,-18.066,341.309
1742473305.176,293.945,4.883,-26.367,-115.723
1742473305.179,-958.984,-11.23,-30.273,-520.996
1742473305.183,805.176,17.09,-22.461,414.062
1742473305.187,-163.086,6.348,-19.043,-425.293
1742473305.191,-377.441,-4.395,-19.043,-14.648
1742473305.195,999.512,3.906,-15.625,479.492
1742473305.152,999.512,8.301,-22.949,432.129
1742473305.156,-460.449,12.695,-27.344,-438.965
1742473305.16,-286.133,37.598,-35.645,88.379
1742473305.164,761.23,29.297,-34.668,215.332
1742473305.168,-966.797,8.301,-19.043,-561.035
1742473305.172,241.699,24.414,-18.066,341.309
1742473305.176,293.945,4.883,-26.367,-115.723
1742473305.179,-958.984,-11.23,-30.273,-520.996
1742473305.183,805.176,17.09,-22.461,414.062
1742473305.187,-163.086,6.348,-19.043,-425.293
1742473305.191,-377.441,-4.395,-19.043,-14.648
1742473305.195,999.512,3.906,-15.625,479.492
1742473305.197,-685.059,-18.066,-28.809,-506.348
1742473305.201,-289.062,-23.438,-20.02,73.242
1742473305.205,875.0,-11.23,-11.719,196.289
1742473305.209,-885.254,-26.855,-22.949,-493.164
1742473305.213,105.469,-14.16,-15.625,294.922
1742473305.217,597.168,-11.23,-3.418,60.059
1742473305.221,-1000.0,-28.32,-17.09,-569.336
1742473305.224,-480.469,-16.602,-18.066,96.191
1742473305.228,999.512,-11.23,-0.488,372.559
1742473305.232,-34.18,-37.598,-13.184,-325.684
1742473305.236,-784.18,-46.387,-29.297,-178.223
1742473305.24,999.512,-33.203,-29.297,389.16
1742473305.197,-685.059,-18.066,-28.809,-506.348
1742473305.201,-289.062,-23.438,-20.02,73.242
1742473305.205,875.0,-11.23,-11.719,196.289
1742473305.209,-885.254,-26.855,-22.949,-493.164
1742473305.213,105.469,-14.16,-15.625,294.922
1742473305.217,597.168,-11.23,-3.418,60.059
1742473305.221,-1000.0,-28.32,-17.09,-569.336
1742473305.224,-480.469,-16.602,-18.066,96.191
1742473305.228,999.512,-11.23,-0.488,372.559
1742473305.232,-34.18,-37.598,-13.184,-325.684
1742473305.236,-784.18,-46.387,-29.297,-178.223
1742473305.24,999.512,-33.203,-29.297,389.16
1742473305.242,-208.008,-31.738,-24.414,-413.574
1742473305.246,-334.473,-20.02,-19.043,92.773
1742473305.25,977.539,-22.949,-17.09,475.586
1742473305.254,-848.145,-34.668,-27.344,-543.945
1742473305.258,-186.523,-15.137,-19.043,151.367
1742473305.262,749.023,-11.719,-17.578,171.875
1742473305.266,-1000.0,-28.809,-28.32,-603.516
1742473305.269,-141.113,-24.902,-19.043,205.566
1742473305.273,999.512,-9.766,-7.812,270.996
1742473305.277,-792.48,-17.578,-15.625,-516.113
1742473305.281,-235.84,-17.09,-20.508,134.277
1742473305.285,804.688,-23.438,-24.902,219.238
1742473305.242,-208.008,-31.738,-24.414,-413.574
1742473305.246,-334.473,-20.02,-19.043,92.773
1742473305.25,977.539,-22.949,-17.09,475.586
1742473305.254,-848.145,-34.668,-27.344,-543.945
1742473305.258,-186.523,-15.137,-19.043,151.367
1742473305.262,749.023,-11.719,-17.578,171.875
1742473305.266,-1000.0,-28.809,-28.32,-603.516
1742473305.269,-141.113,-24.902,-19.043,205.566
1742473305.273,999.512,-9.766,-7.812,270.996
1742473305.277,-792.48,-17.578,-15.625,-516.113
1742473305.281,-235.84,-17.09,-20.508,134.277
1742473305.285,804.688,-23.438,-24.902,219.238
1742473305.302,-911.621,-42.48,-37.598,-420.41
1742473305.306,246.094,-14.648,-32.715,345.703
1742473305.31,399.902,-20.02,-32.227,-79.59
1742473305.314,-1000.0,-41.016,-37.598,-556.152
1742473305.318,129.883,-28.809,-44.922,263.184
1742473305.322,999.512,-15.137,-38.086,247.07
1742473305.326,-46.875,-27.344,-19.531,-302.734
1742473305.329,-1000.0,-45.898,-15.625,-341.309
1742473305.333,145.508,-26.367,-19.531,275.879
1742473305.337,424.805,-16.602,-23.438,-83.008
1742473305.341,-974.609,-28.809,-24.414,-387.207
1742473305.345,669.434,-39.551,-9.766,422.363
1742473305.302,-911.621,-42.48,-37.598,-420.41
1742473305.306,246.094,-14.648,-32.715,345.703
1742473305.31,399.902,-20.02,-32.227,-79.59
1742473305.314,-1000.0,-41.016,-37.598,-556.152
1742473305.318,129.883,-28.809,-44.922,263.184
1742473305.322,999.512,-15.137,-38.086,247.07
1742473305.326,-46.875,-27.344,-19.531,-302.734
1742473305.329,-1000.0,-45.898,-15.625,-341.309
1742473305.333,145.508,-26.367,-19.531,275.879
1742473305.337,424.805,-16.602,-23.438,-83.008
1742473305.341,-974.609,-28.809,-24.414,-387.207
1742473305.345,669.434,-39.551,-9.766,422.363
1742473305.347,153.809,-43.945,-14.16,-229.492
1742473305.351,-892.09,-20.02,-39.062,-334.961
1742473305.355,999.512,9.766,-31.738,385.742
1742473305.359,50.781,6.836,-24.902,-380.859
1742473305.363,-464.844,10.254,-34.668,-94.238
1742473305.367,985.352,20.02,-42.969,433.594
1742473305.371,-669.922,10.742,-47.852,-533.203
1742473305.374,-303.711,27.344,-34.18,37.109
1742473305.378,999.512,22.461,-38.086,291.992
1742473305.382,-865.234,15.625,-53.223,-571.289
1742473305.386,-172.852,40.527,-53.223,160.645
1742473305.39,560.059,38.086,-51.758,73.73
1742473305.392,-1000.0,19.043,-43.457,-627.441
1742473305.396,354.492,25.391,-35.645,312.5
1742473305.4,412.598,12.207,-36.133,-91.309
1742473305.404,-1000.0,-3.906,-46.875,-557.617
1742473305.408,370.605,14.16,-53.711,312.988
1742473305.412,553.223,16.113,-33.691,-104.98
1742473305.416,-1000.0,-2.441,-23.438,-519.531
1742473305.419,433.594,-1.465,-29.297,338.867
1742473305.423,178.711,-14.16,-36.621,-263.184
1742473305.427,-594.238,-12.695,-41.992,-270.508
1742473305.431,999.512,10.742,-40.039,406.25
1742473305.435,-378.906,5.859,-33.691,-405.762
1742473305.392,-1000.0,19.043,-43.457,-627.441
1742473305.396,354.492,25.391,-35.645,312.5
1742473305.4,412.598,12.207,-36.133,-91.309
1742473305.404,-1000.0,-3.906,-46.875,-557.617
1742473305.408,370.605,14.16,-53.711,312.988
1742473305.412,553.223,16.113,-33.691,-104.98
1742473305.416,-1000.0,-2.441,-23.438,-519.531
1742473305.419,433.594,-1.465,-29.297,338.867
1742473305.423,178.711,-14.16,-36.621,-263.184
1742473305.427,-594.238,-12.695,-41.992,-270.508
1742473305.431,999.512,10.742,-40.039,406.25
1742473305.435,-378.906,5.859,-33.691,-405.762
1742473305.437,-272.949,-9.277,-33.691,173.34
1742473305.441,765.625,-13.672,-35.645,298.34
1742473305.445,-1000.0,-34.668,-41.504,-567.383
1742473305.449,-220.703,-33.691,-47.363,151.855
1742473305.453,999.512,-23.438,-40.039,237.305
1742473305.457,-671.875,-30.273,-37.109,-397.461
1742473305.461,-208.984,-19.531,-46.387,207.52
1742473305.464,628.906,-14.648,-33.691,130.859
1742473305.468,-1000.0,-38.086,-33.203,-613.281
1742473305.472,-435.547,-37.598,-48.828,46.387
1742473305.476,999.512,-17.09,-45.898,425.293
1742473305.48,-74.219,-28.809,-39.062,-395.996
1742473305.437,-272.949,-9.277,-33.691,173.34
1742473305.441,765.625,-13.672,-35.645,298.34
1742473305.445,-1000.0,-34.668,-41.504,-567.383
1742473305.449,-220.703,-33.691,-47.363,151.855
1742473305.453,999.512,-23.438,-40.039,237.305
1742473305.457,-671.875,-30.273,-37.109,-397.461
1742473305.461,-208.984,-19.531,-46.387,207.52
1742473305.464,628.906,-14.648,-33.691,130.859
1742473305.468,-1000.0,-38.086,-33.203,-613.281
1742473305.472,-435.547,-37.598,-48.828,46.387
1742473305.476,999.512,-17.09,-45.898,425.293
1742473305.48,-74.219,-28.809,-39.062,-395.996
1742473305.482,-416.016,-26.855,-26.367,-57.617
1742473305.486,849.121,-29.297,-27.832,312.988
1742473305.49,-796.387,-48.34,-42.48,-500.488
1742473305.494,66.895,-31.738,-35.645,272.949
1742473305.498,387.207,-37.598,-44.922,27.344
1742473305.502,-900.879,-39.551,-49.805,-385.742
1742473305.506,716.797,-31.738,-45.898,315.918
1742473305.509,-296.875,-49.805,-56.152,-457.52
1742473305.513,-221.191,-32.227,-64.453,119.141
1742473305.517,531.25,-38.574,-62.988,209.473
1742473305.521,-1000.0,-46.387,-36.621,-517.578
1742473305.525,390.137,-38.086,-27.344,320.801
1742473305.528,197.754,-47.363,-37.598,-259.277
1742473305.532,-575.684,-27.832,-41.992,-166.016
1742473305.536,999.512,-5.859,-36.133,648.926
1742473305.54,-161.133,-27.344,-27.832,-385.742
1742473305.544,-477.539,-44.922,-39.062,-106.934
1742473305.548,999.512,-26.367,-45.41,403.809
1742473305.552,-552.734,-38.086,-47.363,-476.074
1742473305.555,-294.434,-44.922,-49.805,108.398
1742473305.559,987.793,-35.645,-44.434,317.383
1742473305.563,-871.094,-49.316,-46.875,-541.016
1742473305.567,-227.539,-44.434,-48.828,114.258
1742473305.571,866.211,-41.504,-47.363,221.191
1742473305.528,197.754,-47.363,-37.598,-259.277
1742473305.532,-575.684,-27.832,-41.992,-166.016
1742473305.536,999.512,-5.859,-36.133,648.926
1742473305.54,-161.133,-27.344,-27.832,-385.742
1742473305.544,-477.539,-44.922,-39.062,-106.934
1742473305.548,999.512,-26.367,-45.41,403.809
1742473305.552,-552.734,-38.086,-47.363,-476.074
1742473305.555,-294.434,-44.922,-49.805,108.398
1742473305.559,987.793,-35.645,-44.434,317.383
1742473305.563,-871.094,-49.316,-46.875,-541.016
1742473305.567,-227.539,-44.434,-48.828,114.258
1742473305.571,866.211,-41.504,-47.363,221.191
1742473305.572,-903.32,-53.711,-45.898,-393.555
1742473305.576,184.082,-46.875,-31.25,390.137
1742473305.58,357.91,-34.668,-16.602,-93.262
1742473305.584,-1000.0,-39.551,-37.109,-527.832
1742473305.588,585.938,-41.016,-44.922,400.391
1742473305.592,591.797,-46.387,-38.086,-40.527
1742473305.596,-1000.0,-61.035,-47.852,-466.797
1742473305.599,104.98,-47.363,-49.316,251.465
1742473305.603,367.676,-41.504,-33.691,-181.152
1742473305.607,-1000.0,-46.875,-34.18,-506.348
1742473305.611,747.559,-37.109,-45.41,445.801
1742473305.615,182.617,-45.41,-37.598,-207.52
1742473305.572,-903.32,-53.711,-45.898,-393.555
1742473305.576,184.082,-46.875,-31.25,390.137
1742473305.58,357.91,-34.668,-16.602,-93.262
1742473305.584,-1000.0,-39.551,-37.109,-527.832
1742473305.588,585.938,-41.016,-44.922,400.391
1742473305.592,591.797,-46.387,-38.086,-40.527
1742473305.596,-1000.0,-61.035,-47.852,-466.797
1742473305.599,104.98,-47.363,-49.316,251.465
1742473305.603,367.676,-41.504,-33.691,-181.152
1742473305.607,-1000.0,-46.875,-34.18,-506.348
1742473305.611,747.559,-37.109,-45.41,445.801
1742473305.615,182.617,-45.41,-37.598,-207.52
1742473305.617,-735.84,-56.152,-45.41,-290.039
1742473305.621,999.512,-48.828,-48.828,404.297
1742473305.625,-341.309,-56.152,-27.832,-421.875
1742473305.629,-311.035,-53.223,-27.344,109.863
1742473305.633,858.398,-46.387,-44.434,335.449
1742473305.637,-990.723,-41.992,-35.156,-526.855
1742473305.641,-11.719,-30.273,-27.344,192.383
1742473305.644,242.676,-35.645,-25.879,-210.449
1742473305.648,-546.387,-37.598,-16.113,-268.555
1742473305.652,917.48,-31.738,-4.883,451.66
1742473305.656,-584.473,-54.199,-1.465,-467.773
1742473305.66,-206.543,-51.27,-15.625,77.637
1742473305.617,-735.84,-56.152,-45.41,-290.039
1742473305.621,999.512,-48.828,-48.828,404.297
1742473305.625,-341.309,-56.152,-27.832,-421.875
1742473305.629,-311.035,-53.223,-27.344,109.863
1742473305.633,858.398,-46.387,-44.434,335.449
1742473305.637,-990.723,-41.992,-35.156,-526.855
1742473305.641,-11.719,-30.273,-27.344,192.383
1742473305.644,242.676,-35.645,-25.879,-210.449
1742473305.648,-546.387,-37.598,-16.113,-268.555
1742473305.652,917.48,-31.738,-4.883,451.66
1742473305.656,-584.473,-54.199,-1.465,-467.773
1742473305.66,-206.543,-51.27,-15.625,77.637
1742473305.677,554.199,-44.434,-5.859,72.266
1742473305.681,-1000.0,-58.594,6.836,-453.125
1742473305.685,500.488,-47.363,4.395,373.047
1742473305.689,161.621,-64.453,2.441,-311.523
1742473305.693,-602.051,-88.867,2.441,-288.574
1742473305.697,999.512,-75.195,24.902,465.82
1742473305.701,-208.008,-78.125,36.133,-413.086
1742473305.704,-534.18,-87.402,27.832,-91.797
1742473305.708,999.512,-85.449,26.855,375.0
1742473305.712,-491.211,-91.797,28.32,-454.59
1742473305.716,-445.801,-87.402,22.461,-32.227
1742473305.72,999.512,-84.961,11.719,301.27
1742473305.677,554.199,-44.434,-5.859,72.266
1742473305.681,-1000.0,-58.594,6.836,-453.125
1742473305.685,500.488,-47.363,4.395,373.047
1742473305.689,161.621,-64.453,2.441,-311.523
1742473305.693,-602.051,-88.867,2.441,-288.574
1742473305.697,999.512,-75.195,24.902,465.82
1742473305.701,-208.008,-78.125,36.133,-413.086
1742473305.704,-534.18,-87.402,27.832,-91.797
1742473305.708,999.512,-85.449,26.855,375.0
1742473305.712,-491.211,-91.797,28.32,-454.59
1742473305.716,-445.801,-87.402,22.461,-32.227
1742473305.72,999.512,-84.961,11.719,301.27
1742473305.722,-572.754,-83.984,21.973,-409.668
1742473305.726,-226.562,-64.941,14.648,177.734
1742473305.73,672.363,-67.383,-3.906,143.555
1742473305.734,-1000.0,-69.824,5.859,-645.996
1742473305.738,55.664,-56.152,6.348,239.746
1742473305.742,801.758,-60.059,-14.16,175.293
1742473305.746,-1000.0,-72.754,-17.578,-523.438
1742473305.749,-130.859,-67.383,-15.137,192.383
1742473305.753,779.785,-62.012,-22.461,89.844
1742473305.757,-1000.0,-83.008,-20.508,-534.18
1742473305.761,111.328,-77.637,-10.254,359.863
1742473305.765,309.082,-62.5,-16.113,-6.348
1742473305.722,-572.754,-83.984,21.973,-409.668
1742473305.726,-226.562,-64.941,14.648,177.734
1742473305.73,672.363,-67.383,-3.906,143.555
1742473305.734,-1000.0,-69.824,5.859,-645.996
1742473305.738,55.664,-56.152,6.348,239.746
1742473305.742,801.758,-60.059,-14.16,175.293
1742473305.746,-1000.0,-72.754,-17.578,-523.438
1742473305.749,-130.859,-67.383,-15.137,192.383
1742473305.753,779.785,-62.012,-22.461,89.844
1742473305.757,-1000.0,-83.008,-20.508,-534.18
1742473305.761,111.328,-77.637,-10.254,359.863
1742473305.765,309.082,-62.5,-16.113,-6.348
1742473305.767,-877.93,-59.082,-22.949,-431.152
1742473305.771,842.285,-51.27,-18.555,275.391
1742473305.775,-186.035,-56.641,-19.531,-392.09
1742473305.779,-291.504,-55.176,-20.996,99.609
1742473305.783,796.875,-48.34,-28.32,265.625
1742473305.787,-1000.0,-49.805,-36.133,-522.949
1742473305.791,-23.926,-41.016,-49.316,187.012
1742473305.794,354.98,-47.363,-53.711,-105.469
1742473305.798,-940.918,-55.176,-46.387,-384.766
1742473305.802,764.16,-46.387,-47.852,372.07
1742473305.806,72.266,-47.852,-41.504,-297.852
1742473305.81,-965.332,-44.922,-33.203,-355.469
1742473305.767,-877.93,-59.082,-22.949,-431.152
1742473305.771,842.285,-51.27,-18.555,275.391
1742473305.775,-186.035,-56.641,-19.531,-392.09
1742473305.779,-291.504,-55.176,-20.996,99.609
1742473305.783,796.875,-48.34,-28.32,265.625
1742473305.787,-1000.0,-49.805,-36.133,-522.949
1742473305.791,-23.926,-41.016,-49.316,187.012
1742473305.794,354.98,-47.363,-53.711,-105.469
1742473305.798,-940.918,-55.176,-46.387,-384.766
1742473305.802,764.16,-46.387,-47.852,372.07
1742473305.806,72.266,-47.852,-41.504,-297.852
1742473305.81,-965.332,-44.922,-33.203,-355.469
1742473305.812,946.777,-35.156,-25.879,404.785
1742473305.816,284.18,-39.062,-27.344,-169.434
1742473305.82,-1000.0,-40.039,-40.527,-306.641
1742473305.824,724.609,-33.203,-41.992,389.16
1742473305.828,93.262,-47.363,-30.273,-316.895
1742473305.832,-567.383,-42.969,-32.715,-151.367
1742473305.836,999.512,-26.855,-31.738,528.32
1742473305.839,-161.621,-42.48,-31.738,-392.09
1742473305.843,-287.109,-41.992,-33.203,15.137
1742473305.847,663.574,-37.598,-25.879,206.543
1742473305.851,-1000.0,-36.621,-21.973,-569.336
1742473305.855,171.387,-25.879,-25.391,264.16
1742473305.812,946.777,-35.156,-25.879,404.785
1742473305.816,284.18,-39.062,-27.344,-169.434
1742473305.82,-1000.0,-40.039,-40.527,-306.641
1742473305.824,724.609,-33.203,-41.992,389.16
1742473305.828,93.262,-47.363,-30.273,-316.895
1742473305.832,-567.383,-42.969,-32.715,-151.367
1742473305.836,999.512,-26.855,-31.738,528.32
1742473305.839,-161.621,-42.48,-31.738,-392.09
1742473305.843,-287.109,-41.992,-33.203,15.137
1742473305.847,663.574,-37.598,-25.879,206.543
1742473305.851,-1000.0,-36.621,-21.973,-569.336
1742473305.855,171.387,-25.879,-25.391,264.16
1742473305.857,645.996,-30.273,-21.484,82.031
1742473305.861,-1000.0,-29.297,-15.137,-470.703
1742473305.865,156.25,-17.09,-18.066,314.941
1742473305.869,208.008,-28.32,-10.742,-195.801
1742473305.873,-624.023,-33.203,0.488,-277.344
1742473305.877,999.512,-17.578,4.883,518.066
1742473305.881,82.52,-22.949,-4.883,-230.469
1742473305.884,-1000.0,-38.086,-9.277,-337.402
1742473305.888,-896.973,-45.41,-3.418,-51.27
1742473305.892,645.508,-27.344,-5.371,253.906
1742473305.896,435.059,-15.137,-9.766,-108.887
1742473305.9,-1000.0,-21.973,-11.719,-475.098
1742473305.857,645.996,-30.273,-21.484,82.031
1742473305.861,-1000.0,-29.297,-15.137,-470.703
1742473305.865,156.25,-17.09,-18.066,314.941
1742473305.869,208.008,-28.32,-10.742,-195.801
1742473305.873,-624.023,-33.203,0.488,-277.344
1742473305.877,999.512,-17.578,4.883,518.066
1742473305.881,82.52,-22.949,-4.883,-230.469
1742473305.884,-1000.0,-38.086,-9.277,-337.402
1742473305.888,-896.973,-45.41,-3.418,-51.27
1742473305.892,645.508,-27.344,-5.371,253.906
1742473305.896,435.059,-15.137,-9.766,-108.887
1742473305.9,-1000.0,-21.973,-11.719,-475.098
1742473305.902,224.121,-20.996,-14.16,354.004
1742473305.906,187.012,-29.785,-33.691,-207.52
1742473305.91,-630.859,-28.32,-36.621,-296.875
1742473305.914,999.512,-6.348,-16.113,520.996
1742473305.918,-276.367,-23.438,-10.742,-386.23
1742473305.922,-228.516,-28.809,-14.16,113.281
1742473305.926,564.453,-24.414,-16.113,169.434
1742473305.929,-1000.0,-34.18,-17.09,-586.426
1742473305.933,405.273,-27.344,-14.648,401.855
1742473305.937,219.727,-28.809,-16.602,-191.406
1742473305.941,-765.625,-30.762,-19.531,-386.23
1742473305.945,958.496,-26.855,-20.02,343.262
1742473305.902,224.121,-20.996,-14.16,354.004
1742473305.906,187.012,-29.785,-33.691,-207.52
1742473305.91,-630.859,-28.32,-36.621,-296.875
1742473305.914,999.512,-6.348,-16.113,520.996
1742473305.918,-276.367,-23.438,-10.742,-386.23
1742473305.922,-228.516,-28.809,-14.16,113.281
1742473305.926,564.453,-24.414,-16.113,169.434
1742473305.929,-1000.0,-34.18,-17.09,-586.426
1742473305.933,405.273,-27.344,-14.648,401.855
1742473305.937,219.727,-28.809,-16.602,-191.406
1742473305.941,-765.625,-30.762,-19.531,-386.23
1742473305.945,958.496,-26.855,-20.02,343.262
1742473305.947,-352.539,-27.832,-20.02,-422.852
1742473305.951,-249.023,-19.531,-19.531,150.879
1742473305.955,668.945,-28.32,-26.855,229.98
1742473305.959,-1000.0,-39.551,-23.438,-539.551
1742473305.963,26.855,-25.391,-15.625,254.395
1742473305.967,754.395,-26.855,-18.066,113.77
1742473305.971,-1000.0,-36.133,-18.555,-430.176
1742473305.974,-82.031,-29.297,-23.438,267.09
1742473305.978,532.227,-26.855,-24.414,5.371
1742473305.982,-1000.0,-28.32,-19.531,-510.254
1742473305.986,335.449,-19.531,-19.043,306.641
1742473305.99,344.727,-26.367,-15.137,-97.168
1742473305.947,-352.539,-27.832,-20.02,-422.852
1742473305.951,-249.023,-19.531,-19.531,150.879
1742473305.955,668.945,-28.32,-26.855,229.98
1742473305.959,-1000.0,-39.551,-23.438,-539.551
1742473305.963,26.855,-25.391,-15.625,254.395
1742473305.967,754.395,-26.855,-18.066,113.77
1742473305.971,-1000.0,-36.133,-18.555,-430.176
1742473305.974,-82.031,-29.297,-23.438,267.09
1742473305.978,532.227,-26.855,-24.414,5.371
1742473305.982,-1000.0,-28.32,-19.531,-510.254
1742473305.986,335.449,-19.531,-19.043,306.641
1742473305.99,344.727,-26.367,-15.137,-97.168
1742473305.992,-1000.0,-21.973,-14.648,-391.113
1742473305.996,652.832,-9.277,-23.438,348.633
1742473306.0,227.539,-29.297,-24.414,-284.18
1742473306.004,-932.129,-49.316,-11.719,-384.766
1742473306.008,868.652,-42.969,7.812,479.492
1742473306.012,404.785,-40.527,14.16,-129.883
1742473306.016,-1000.0,-47.363,4.883,-520.02
1742473306.019,-228.516,-43.457,-10.254,121.582
1742473306.023,999.512,-38.574,-7.812,169.434
1742473306.027,-461.914,-52.246,-15.625,-491.211
1742473306.031,-249.023,-49.805,-34.668,126.465
1742473306.035,771.484,-44.434,-33.691,255.371
1742473305.992,-1000.0,-21.973,-14.648,-391.113
1742473305.996,652.832,-9.277,-23.438,348.633
1742473306.0,227.539,-29.297,-24.414,-284.18
1742473306.004,-932.129,-49.316,-11.719,-384.766
1742473306.008,868.652,-42.969,7.812,479.492
1742473306.012,404.785,-40.527,14.16,-129.883
1742473306.016,-1000.0,-47.363,4.883,-520.02
1742473306.019,-228.516,-43.457,-10.254,121.582
1742473306.023,999.512,-38.574,-7.812,169.434
1742473306.027,-461.914,-52.246,-15.625,-491.211
1742473306.031,-249.023,-49.805,-34.668,126.465
1742473306.035,771.484,-44.434,-33.691,255.371
1742473306.052,-1000.0,-46.875,-51.27,-546.875
1742473306.056,92.773,-37.598,-53.711,182.617
1742473306.06,421.387,-41.504,-36.621,-96.191
1742473306.064,-1000.0,-45.898,-38.086,-414.551
1742473306.068,562.5,-32.715,-36.133,410.156
1742473306.072,330.566,-38.086,-30.762,-178.223
1742473306.076,-1000.0,-42.48,-32.227,-467.773
1742473306.079,507.324,-36.621,-35.645,294.434
1742473306.083,495.605,-44.434,-36.621,-96.191
1742473306.087,-1000.0,-45.898,-40.039,-447.266
1742473306.091,174.316,-28.809,-40.039,363.281
1742473306.095,214.844,-29.785,-32.227,-162.109
1742473306.052,-1000.0,-46.875,-51.27,-546.875
1742473306.056,92.773,-37.598,-53.711,182.617
1742473306.06,421.387,-41.504,-36.621,-96.191
1742473306.064,-1000.0,-45.898,-38.086,-414.551
1742473306.068,562.5,-32.715,-36.133,410.156
1742473306.072,330.566,-38.086,-30.762,-178.223
1742473306.076,-1000.0,-42.48,-32.227,-467.773
1742473306.079,507.324,-36.621,-35.645,294.434
1742473306.083,495.605,-44.434,-36.621,-96.191
1742473306.087,-1000.0,-45.898,-40.039,-447.266
1742473306.091,174.316,-28.809,-40.039,363.281
1742473306.095,214.844,-29.785,-32.227,-162.109
1742473306.097,-676.758,-30.273,-29.785,-335.938
1742473306.101,997.07,-25.879,-26.855,516.113
1742473306.105,-269.043,-42.48,-16.602,-301.27
1742473306.109,-253.418,-28.809,-13.672,43.945
1742473306.113,729.98,-27.344,-30.762,187.5
1742473306.117,-978.027,-35.156,-43.457,-427.734
1742473306.121,284.18,-22.461,-35.156,370.605
1742473306.124,147.949,-30.273,-38.574,-237.793
1742473306.128,-325.195,-26.367,-49.316,-164.551
1742473306.132,614.746,-28.32,-44.922,239.258
1742473306.136,-1000.0,-34.668,-43.457,-567.871
1742473306.14,245.117,-23.926,-44.434,284.668
1742473306.097,-676.758,-30.273,-29.785,-335.938
1742473306.101,997.07,-25.879,-26.855,516.113
1742473306.105,-269.043,-42.48,-16.602,-301.27
1742473306.109,-253.418,-28.809,-13.672,43.945
1742473306.113,729.98,-27.344,-30.762,187.5
1742473306.117,-978.027,-35.156,-43.457,-427.734
1742473306.121,284.18,-22.461,-35.156,370.605
1742473306.124,147.949,-30.273,-38.574,-237.793
1742473306.128,-325.195,-26.367,-49.316,-164.551
1742473306.132,614.746,-28.32,-44.922,239.258
1742473306.136,-1000.0,-34.668,-43.457,-567.871
1742473306.14,245.117,-23.926,-44.434,284.668
1742473306.142,379.883,-35.645,-34.18,-70.312
1742473306.146,-1000.0,-41.504,-18.066,-425.781
1742473306.15,728.027,-27.832,-20.508,372.07
1742473306.154,27.344,-38.574,-26.855,-359.375
1742473306.158,-382.812,-38.574,-27.832,-51.27
1742473306.162,999.512,-27.344,-34.668,452.148
1742473306.166,-668.457,-41.992,-35.156,-450.195
1742473306.169,-286.133,-33.691,-23.438,38.574
1742473306.173,999.512,-26.367,-13.184,184.57
1742473306.177,-833.496,-37.109,-26.367,-454.102
1742473306.181,-168.457,-33.203,-24.902,251.465
1742473306.185,603.516,-39.062,-20.996,126.953
1742473306.142,379.883,-35.645,-34.18,-70.312
1742473306.146,-1000.0,-41.504,-18.066,-425.781
1742473306.15,728.027,-27.832,-20.508,372.07
1742473306.154,27.344,-38.574,-26.855,-359.375
1742473306.158,-382.812,-38.574,-27.832,-51.27
1742473306.162,999.512,-27.344,-34.668,452.148
1742473306.166,-668.457,-41.992,-35.156,-450.195
1742473306.169,-286.133,-33.691,-23.438,38.574
1742473306.173,999.512,-26.367,-13.184,184.57
1742473306.177,-833.496,-37.109,-26.367,-454.102
1742473306.181,-168.457,-33.203,-24.902,251.465
1742473306.185,603.516,-39.062,-20.996,126.953
1742473306.187,-1000.0,-32.227,-33.691,-631.348
1742473306.191,0.977,-10.742,-36.133,194.824
1742473306.195,900.391,-16.113,-37.109,166.016
1742473306.199,-989.746,-33.691,-42.969,-422.363
1742473306.203,-99.121,-28.809,-55.176,267.09
1742473306.207,657.715,-30.762,-51.27,91.797
1742473306.211,-1000.0,-43.457,-42.48,-565.918
1742473306.214,11.23,-37.109,-39.062,196.777
1742473306.218,999.512,-38.574,-27.344,231.934
1742473306.222,-700.195,-35.645,-17.09,-462.402
1742473306.226,-497.559,-29.785,-22.461,-26.855
1742473306.23,863.281,-32.715,-37.109,173.34
1742473306.187,-1000.0,-32.227,-33.691,-631.348
1742473306.191,0.977,-10.742,-36.133,194.824
1742473306.195,900.391,-16.113,-37.109,166.016
1742473306.199,-989.746,-33.691,-42.969,-422.363
1742473306.203,-99.121,-28.809,-55.176,267.09
1742473306.207,657.715,-30.762,-51.27,91.797
1742473306.211,-1000.0,-43.457,-42.48,-565.918
1742473306.214,11.23,-37.109,-39.062,196.777
1742473306.218,999.512,-38.574,-27.344,231.934
1742473306.222,-700.195,-35.645,-17.09,-462.402
1742473306.226,-497.559,-29.785,-22.461,-26.855
1742473306.23,863.281,-32.715,-37.109,173.34
1742473306.232,-774.902,-48.828,-43.945,-472.168
1742473306.236,34.18,-34.18,-35.645,278.32
1742473306.24,400.391,-25.391,-37.109,-1.953
1742473306.244,-1000.0,-35.645,-49.805,-527.344
1742473306.248,534.668,-23.926,-43.945,321.777
1742473306.252,189.941,-32.227,-35.645,-270.996
1742473306.256,-689.453,-28.32,-37.598,-284.18
1742473306.259,799.805,-34.18,-41.016,269.531
1742473306.263,-583.496,-55.176,-45.898,-478.516
1742473306.267,-434.57,-30.273,-41.016,20.02
1742473306.271,999.512,-25.879,-49.316,339.355
1742473306.275,-155.762,-51.27,-58.594,-394.043
1742473306.276,-571.777,-41.504,-36.133,-38.574
1742473306.28,999.512,-12.207,-19.531,398.926
1742473306.284,-339.844,-22.461,-28.32,-458.496
1742473306.288,-480.469,-29.785,-34.668,-46.875
1742473306.292,999.512,-14.648,-17.578,504.883
1742473306.296,-168.945,-14.648,-13.184,-348.145
1742473306.3,-498.047,-15.625,-8.301,-93.262
1742473306.303,958.008,-22.949,-16.113,205.078
1742473306.307,-656.738,-37.109,-38.574,-450.684
1742473306.311,-112.793,-15.137,-40.527,224.609
1742473306.315,542.969,-17.578,-31.738,79.102
1742473306.319,-1000.0,-39.551,-41.016,-533.691
1742473306.276,-571.777,-41.504,-36.133,-38.574
1742473306.28,999.512,-12.207,-19.531,398.926
1742473306.284,-339.844,-22.461,-28.32,-458.496
1742473306.288,-480.469,-29.785,-34.668,-46.875
1742473306.292,999.512,-14.648,-17.578,504.883
1742473306.296,-168.945,-14.648,-13.184,-348.145
1742473306.3,-498.047,-15.625,-8.301,-93.262
1742473306.303,958.008,-22.949,-16.113,205.078
1742473306.307,-656.738,-37.109,-38.574,-450.684
1742473306.311,-112.793,-15.137,-40.527,224.609
1742473306.315,542.969,-17.578,-31.738,79.102
1742473306.319,-1000.0,-39.551,-41.016,-533.691
1742473306.338,408.203,-23.926,-35.645,390.137
1742473306.342,249.023,-28.809,-14.648,-199.707
1742473306.346,-867.676,-34.668,-21.484,-405.273
1742473306.35,930.664,-23.438,-30.273,373.535
1742473306.354,-174.316,-24.414,-30.273,-375.488
1742473306.358,-228.516,-11.23,-20.508,53.711
1742473306.362,516.113,-24.414,-25.391,46.387
1742473306.365,-1000.0,-43.945,-36.621,-598.633
1742473306.369,394.043,-26.367,-37.109,342.773
1742473306.373,318.848,-30.762,-46.875,-176.27
1742473306.377,-1000.0,-34.18,-55.176,-484.375
1742473306.381,693.359,-13.672,-49.316,274.902
1742473306.338,408.203,-23.926,-35.645,390.137
1742473306.342,249.023,-28.809,-14.648,-199.707
1742473306.346,-867.676,-34.668,-21.484,-405.273
1742473306.35,930.664,-23.438,-30.273,373.535
1742473306.354,-174.316,-24.414,-30.273,-375.488
1742473306.358,-228.516,-11.23,-20.508,53.711
1742473306.362,516.113,-24.414,-25.391,46.387
1742473306.365,-1000.0,-43.945,-36.621,-598.633
1742473306.369,394.043,-26.367,-37.109,342.773
1742473306.373,318.848,-30.762,-46.875,-176.27
1742473306.377,-1000.0,-34.18,-55.176,-484.375
1742473306.381,693.359,-13.672,-49.316,274.902
1742473306.367,430.664,-23.438,-35.156,-176.27
1742473306.371,-1000.0,-41.016,-57.617,-286.621
1742473306.375,610.84,-26.367,-74.707,369.629
1742473306.379,219.238,-30.273,-61.035,-336.914
1742473306.383,-888.184,-25.391,-62.988,-437.988
1742473306.387,954.102,-0.977,-63.965,462.891
1742473306.391,337.891,-14.16,-40.039,-157.227
1742473306.394,-1000.0,-34.668,-24.414,-384.277
1742473306.398,401.855,-33.691,-42.48,311.035
1742473306.402,105.469,-27.832,-46.875,-388.184
1742473306.406,-443.848,-25.879,-48.828,-233.398
1742473306.41,999.512,-14.648,-44.922,436.035
1742473306.367,430.664,-23.438,-35.156,-176.27
1742473306.371,-1000.0,-41.016,-57.617,-286.621
1742473306.375,610.84,-26.367,-74.707,369.629
1742473306.379,219.238,-30.273,-61.035,-336.914
1742473306.383,-888.184,-25.391,-62.988,-437.988
1742473306.387,954.102,-0.977,-63.965,462.891
1742473306.391,337.891,-14.16,-40.039,-157.227
1742473306.394,-1000.0,-34.668,-24.414,-384.277
1742473306.398,401.855,-33.691,-42.48,311.035
1742473306.402,105.469,-27.832,-46.875,-388.184
1742473306.406,-443.848,-25.879,-48.828,-233.398
1742473306.41,999.512,-14.648,-44.922,436.035
1742473306.427,-528.32,-22.461,-1.465,-367.188
1742473306.431,-243.164,-41.504,10.254,136.719
1742473306.435,728.027,-44.434,-11.719,108.398
1742473306.439,-1000.0,-48.828,-15.625,-565.918
1742473306.443,170.898,-41.992,-17.09,313.965
1742473306.447,611.328,-56.641,-20.996,80.566
1742473306.451,-1000.0,-62.988,-26.855,-510.742
1742473306.454,170.41,-46.387,-22.461,261.23
1742473306.458,250.488,-76.66,-18.555,-166.016
1742473306.462,-825.684,-103.516,-26.855,-310.059
1742473306.466,920.41,-88.379,-13.672,364.746
1742473306.47,-179.199,-85.938,7.324,-414.551
1742473306.427,-528.32,-22.461,-1.465,-367.188
1742473306.431,-243.164,-41.504,10.254,136.719
1742473306.435,728.027,-44.434,-11.719,108.398
1742473306.439,-1000.0,-48.828,-15.625,-565.918
1742473306.443,170.898,-41.992,-17.09,313.965
1742473306.447,611.328,-56.641,-20.996,80.566
1742473306.451,-1000.0,-62.988,-26.855,-510.742
1742473306.454,170.41,-46.387,-22.461,261.23
1742473306.458,250.488,-76.66,-18.555,-166.016
