timestamps,TP9,AF7,AF8,TP10
1742547939.07,-838.379,-1000.0,-959.473,-828.125
1742547939.074,-1000.0,-666.504,-1000.0,-1000.0
1742547939.078,-617.676,326.172,-324.219,-624.512
1742547939.082,895.508,999.512,939.941,888.672
1742547939.086,797.852,277.832,-148.438,757.324
1742547939.09,-734.375,-1000.0,-1000.0,-751.953
1742547939.094,-1000.0,-512.695,-952.637,-1000.0
1742547939.097,-1000.0,31.738,-990.234,-993.164
1742547939.101,-137.695,386.23,-1000.0,79.59
1742547939.105,999.512,603.516,-1000.0,999.512
1742547939.109,148.438,-535.156,-1000.0,137.207
1742547939.113,-1000.0,-905.762,-1000.0,-1000.0
1742547938.765,999.512,651.367,-969.727,999.512
1742547938.768,171.387,-563.477,-999.512,158.203
1742547938.772,-1000.0,-1000.0,-1000.0,-1000.0
1742547938.776,-973.633,-282.227,-979.004,-918.457
1742547938.78,262.695,840.82,-630.371,344.238
1742547938.784,999.512,700.195,-823.242,999.512
1742547938.765,999.512,651.367,-969.727,999.512
1742547938.768,171.387,-563.477,-999.512,158.203
1742547938.772,-1000.0,-1000.0,-1000.0,-1000.0
1742547938.776,-973.633,-282.227,-979.004,-918.457
1742547938.78,262.695,840.82,-630.371,344.238
1742547938.784,999.512,700.195,-823.242,999.512
1742547938.785,486.816,-400.879,-1000.0,415.039
1742547938.789,-895.02,-993.164,-981.934,-948.73
1742547938.793,-1000.0,-287.598,-1000.0,-1000.0
1742547938.797,168.457,812.5,-315.43,249.512
1742547938.801,999.512,602.539,-436.035,999.512
1742547938.805,451.66,-330.078,-1000.0,344.238
1742547938.809,-859.375,-842.773,-966.309,-912.598
1742547938.812,-1000.0,-486.328,-1000.0,-1000.0
1742547938.816,-238.281,470.703,-853.027,-226.562
1742547938.82,999.512,831.055,-804.688,999.512
1742547938.824,613.77,-159.668,-987.793,525.879
1742547938.828,-839.355,-1000.0,-998.047,-905.273
1742547938.785,486.816,-400.879,-1000.0,415.039
1742547938.789,-895.02,-993.164,-981.934,-948.73
1742547938.793,-1000.0,-287.598,-1000.0,-1000.0
1742547938.797,168.457,812.5,-315.43,249.512
1742547938.801,999.512,602.539,-436.035,999.512
1742547938.805,451.66,-330.078,-1000.0,344.238
1742547938.809,-859.375,-842.773,-966.309,-912.598
1742547938.812,-1000.0,-486.328,-1000.0,-1000.0
1742547938.816,-238.281,470.703,-853.027,-226.562
1742547938.82,999.512,831.055,-804.688,999.512
1742547938.824,613.77,-159.668,-987.793,525.879
1742547938.828,-839.355,-1000.0,-998.047,-905.273
1742547938.86,-1000.0,-446.777,-1000.0,-1000.0
1742547938.864,103.516,723.633,290.527,130.859
1742547938.868,999.512,774.414,712.402,999.512
1742547938.872,244.141,-414.551,-653.32,241.211
1742547938.876,-1000.0,-1000.0,-1000.0,-1000.0
1742547938.88,-1000.0,-159.18,-934.57,-1000.0
1742547938.884,143.555,987.793,276.367,213.867
1742547938.887,999.512,697.754,895.996,999.512
1742547938.891,228.027,-529.785,-453.613,225.586
1742547938.895,-958.496,-1000.0,-1000.0,-955.566
1742547938.899,-1000.0,-422.363,-1000.0,-1000.0
1742547938.903,-444.336,473.633,-431.641,-456.543
1742547938.86,-1000.0,-446.777,-1000.0,-1000.0
1742547938.864,103.516,723.633,290.527,130.859
1742547938.868,999.512,774.414,712.402,999.512
1742547938.872,244.141,-414.551,-653.32,241.211
1742547938.876,-1000.0,-1000.0,-1000.0,-1000.0
1742547938.88,-1000.0,-159.18,-934.57,-1000.0
1742547938.884,143.555,987.793,276.367,213.867
1742547938.887,999.512,697.754,895.996,999.512
1742547938.891,228.027,-529.785,-453.613,225.586
1742547938.895,-958.496,-1000.0,-1000.0,-955.566
1742547938.899,-1000.0,-422.363,-1000.0,-1000.0
1742547938.903,-444.336,473.633,-431.641,-456.543
1742547938.86,-1000.0,-446.777,-1000.0,-1000.0
1742547938.864,103.516,723.633,290.527,130.859
1742547938.868,999.512,774.414,712.402,999.512
1742547938.872,244.141,-414.551,-653.32,241.211
1742547938.876,-1000.0,-1000.0,-1000.0,-1000.0
1742547938.88,-1000.0,-159.18,-934.57,-1000.0
1742547938.884,143.555,987.793,276.367,213.867
1742547938.887,999.512,697.754,895.996,999.512
1742547938.891,228.027,-529.785,-453.613,225.586
1742547938.895,-958.496,-1000.0,-1000.0,-955.566
1742547938.899,-1000.0,-422.363,-1000.0,-1000.0
1742547938.903,-444.336,473.633,-431.641,-456.543
1742547938.89,999.512,999.512,555.664,999.512
1742547938.894,336.426,-35.156,-463.867,276.855
1742547938.898,-986.328,-1000.0,-1000.0,-1000.0
1742547938.902,-1000.0,-438.965,-1000.0,-1000.0
1742547938.906,-593.262,316.895,-790.039,-537.109
1742547938.91,742.188,901.855,-197.754,788.086
1742547938.914,999.512,597.656,-758.789,999.512
1742547938.917,162.598,-513.672,-1000.0,157.227
1742547938.921,-1000.0,-1000.0,-996.582,-1000.0
1742547938.925,-1000.0,-497.559,-926.27,-924.316
1742547938.929,259.277,723.145,-621.094,393.555
1742547938.933,999.512,663.086,-887.695,999.512
1742547938.89,999.512,999.512,555.664,999.512
1742547938.894,336.426,-35.156,-463.867,276.855
1742547938.898,-986.328,-1000.0,-1000.0,-1000.0
1742547938.902,-1000.0,-438.965,-1000.0,-1000.0
1742547938.906,-593.262,316.895,-790.039,-537.109
1742547938.91,742.188,901.855,-197.754,788.086
1742547938.914,999.512,597.656,-758.789,999.512
1742547938.917,162.598,-513.672,-1000.0,157.227
1742547938.921,-1000.0,-1000.0,-996.582,-1000.0
1742547938.925,-1000.0,-497.559,-926.27,-924.316
1742547938.929,259.277,723.145,-621.094,393.555
1742547938.933,999.512,663.086,-887.695,999.512
1742547938.89,999.512,999.512,555.664,999.512
1742547938.894,336.426,-35.156,-463.867,276.855
1742547938.898,-986.328,-1000.0,-1000.0,-1000.0
1742547938.902,-1000.0,-438.965,-1000.0,-1000.0
1742547938.906,-593.262,316.895,-790.039,-537.109
1742547938.91,742.188,901.855,-197.754,788.086
1742547938.914,999.512,597.656,-758.789,999.512
1742547938.917,162.598,-513.672,-1000.0,157.227
1742547938.921,-1000.0,-1000.0,-996.582,-1000.0
1742547938.925,-1000.0,-497.559,-926.27,-924.316
1742547938.929,259.277,723.145,-621.094,393.555
1742547938.933,999.512,663.086,-887.695,999.512
1742547938.935,89.844,-611.328,-1000.0,-3.906
1742547938.939,-1000.0,-852.051,-1000.0,-1000.0
1742547938.943,-911.621,78.613,-808.594,-890.625
1742547938.947,380.859,922.852,-386.23,378.418
1742547938.951,999.512,566.895,-882.812,999.512
1742547938.955,181.152,-587.891,-996.094,184.57
1742547938.959,-1000.0,-922.363,-1000.0,-1000.0
1742547938.962,-769.043,-241.699,-719.727,-739.746
1742547938.966,617.676,851.562,782.715,653.809
1742547938.97,999.512,558.594,565.43,999.512
1742547938.974,90.332,-693.848,-799.316,47.363
1742547938.978,-1000.0,-921.387,-1000.0,-1000.0
1742547938.935,89.844,-611.328,-1000.0,-3.906
1742547938.939,-1000.0,-852.051,-1000.0,-1000.0
1742547938.943,-911.621,78.613,-808.594,-890.625
1742547938.947,380.859,922.852,-386.23,378.418
1742547938.951,999.512,566.895,-882.812,999.512
1742547938.955,181.152,-587.891,-996.094,184.57
1742547938.959,-1000.0,-922.363,-1000.0,-1000.0
1742547938.962,-769.043,-241.699,-719.727,-739.746
1742547938.966,617.676,851.562,782.715,653.809
1742547938.97,999.512,558.594,565.43,999.512
1742547938.974,90.332,-693.848,-799.316,47.363
1742547938.978,-1000.0,-921.387,-1000.0,-1000.0
1742547938.935,89.844,-611.328,-1000.0,-3.906
1742547938.939,-1000.0,-852.051,-1000.0,-1000.0
1742547938.943,-911.621,78.613,-808.594,-890.625
1742547938.947,380.859,922.852,-386.23,378.418
1742547938.951,999.512,566.895,-882.812,999.512
1742547938.955,181.152,-587.891,-996.094,184.57
1742547938.959,-1000.0,-922.363,-1000.0,-1000.0
1742547938.962,-769.043,-241.699,-719.727,-739.746
1742547938.966,617.676,851.562,782.715,653.809
1742547938.97,999.512,558.594,565.43,999.512
1742547938.974,90.332,-693.848,-799.316,47.363
1742547938.978,-1000.0,-921.387,-1000.0,-1000.0
1742547938.98,-910.156,-352.539,-448.242,-930.176
1742547938.984,351.562,653.809,743.652,301.758
1742547938.988,999.512,764.648,999.512,999.512
1742547938.992,504.883,-337.891,309.57,458.008
1742547938.996,-1000.0,-1000.0,-888.672,-1000.0
1742547939.0,-513.672,-166.992,193.359,-492.188
1742547939.004,921.387,999.512,999.512,921.387
1742547939.007,999.512,509.766,999.512,999.512
1742547939.011,138.184,-722.168,203.613,140.137
1742547939.015,-995.117,-999.512,-1000.0,-996.094
1742547939.019,-1000.0,-378.906,-618.652,-1000.0
1742547939.023,-268.066,570.312,621.094,-260.254
1742547938.98,-910.156,-352.539,-448.242,-930.176
1742547938.984,351.562,653.809,743.652,301.758
1742547938.988,999.512,764.648,999.512,999.512
1742547938.992,504.883,-337.891,309.57,458.008
1742547938.996,-1000.0,-1000.0,-888.672,-1000.0
1742547939.0,-513.672,-166.992,193.359,-492.188
1742547939.004,921.387,999.512,999.512,921.387
1742547939.007,999.512,509.766,999.512,999.512
1742547939.011,138.184,-722.168,203.613,140.137
1742547939.015,-995.117,-999.512,-1000.0,-996.094
1742547939.019,-1000.0,-378.906,-618.652,-1000.0
1742547939.023,-268.066,570.312,621.094,-260.254
1742547939.028,999.512,745.117,990.234,999.512
1742547939.032,477.051,-191.406,48.828,439.453
1742547939.036,-902.344,-991.211,-1000.0,-922.852
1742547939.04,-1000.0,-558.105,-553.711,-1000.0
1742547939.044,-172.363,539.551,684.082,-156.25
1742547939.048,999.512,931.641,999.512,999.512
1742547939.052,999.512,314.453,776.855,981.934
1742547939.055,-202.148,-727.051,-530.762,-225.098
1742547939.059,-1000.0,-1000.0,-905.273,-1000.0
1742547939.063,-231.934,178.711,365.723,-230.957
1742547939.067,999.512,999.512,999.512,999.512
1742547939.071,533.203,1.953,183.105,533.203
1742547939.115,-1000.0,-120.117,-1000.0,-1000.0
1742547939.119,-251.953,698.73,-999.512,-169.434
1742547939.123,999.512,812.5,-1000.0,999.512
1742547939.127,185.059,-312.5,-990.723,177.734
1742547939.131,-1000.0,-1000.0,-987.305,-1000.0
1742547939.135,-1000.0,-171.387,-1000.0,-1000.0
1742547939.139,-11.719,999.512,-391.602,26.855
1742547939.142,999.512,531.738,-396.484,999.512
1742547939.146,163.086,-730.957,-1000.0,175.293
1742547939.15,-1000.0,-918.457,-952.148,-1000.0
1742547939.154,-1000.0,-181.152,-1000.0,-1000.0
1742547939.158,56.641,724.121,-421.875,178.711
1742547939.115,-1000.0,-120.117,-1000.0,-1000.0
1742547939.119,-251.953,698.73,-999.512,-169.434
1742547939.123,999.512,812.5,-1000.0,999.512
1742547939.127,185.059,-312.5,-990.723,177.734
1742547939.131,-1000.0,-1000.0,-987.305,-1000.0
1742547939.135,-1000.0,-171.387,-1000.0,-1000.0
1742547939.139,-11.719,999.512,-391.602,26.855
1742547939.142,999.512,531.738,-396.484,999.512
1742547939.146,163.086,-730.957,-1000.0,175.293
1742547939.15,-1000.0,-918.457,-952.148,-1000.0
1742547939.154,-1000.0,-181.152,-1000.0,-1000.0
1742547939.158,56.641,724.121,-421.875,178.711
1742547939.16,999.512,719.727,-199.707,999.512
1742547939.164,917.969,-258.301,-1000.0,910.645
1742547939.168,957.52,-386.23,-982.91,964.355
1742547939.172,968.75,151.855,-1000.0,967.773
1742547939.176,903.32,219.238,-348.633,905.762
1742547939.18,999.512,369.629,135.742,999.512
1742547939.184,186.035,-221.68,-759.766,169.922
1742547939.187,-1000.0,-1000.0,-1000.0,-1000.0
1742547939.191,-1000.0,-577.148,-996.582,-1000.0
1742547939.195,-253.906,354.004,22.461,-256.836
1742547939.199,999.512,885.742,999.512,999.512
1742547939.203,758.301,6.836,338.379,732.91
1742547939.16,999.512,719.727,-199.707,999.512
1742547939.164,917.969,-258.301,-1000.0,910.645
1742547939.168,957.52,-386.23,-982.91,964.355
1742547939.172,968.75,151.855,-1000.0,967.773
1742547939.176,903.32,219.238,-348.633,905.762
1742547939.18,999.512,369.629,135.742,999.512
1742547939.184,186.035,-221.68,-759.766,169.922
1742547939.187,-1000.0,-1000.0,-1000.0,-1000.0
1742547939.191,-1000.0,-577.148,-996.582,-1000.0
1742547939.195,-253.906,354.004,22.461,-256.836
1742547939.199,999.512,885.742,999.512,999.512
1742547939.203,758.301,6.836,338.379,732.91
1742547939.22,-651.367,-992.676,-1000.0,-687.988
1742547939.224,-1000.0,-635.254,-551.27,-1000.0
1742547939.228,48.828,621.094,715.332,95.215
1742547939.232,999.512,832.52,999.512,999.512
1742547939.236,985.84,-80.078,584.473,969.727
1742547939.24,-133.301,-861.816,-786.621,-146.484
1742547939.244,-1000.0,-625.977,-650.391,-1000.0
1742547939.247,-369.629,375.488,606.445,-374.023
1742547939.251,999.512,897.949,999.512,999.512
1742547939.255,787.109,130.371,384.766,744.141
1742547939.259,-585.938,-887.207,-867.676,-636.719
1742547939.263,-1000.0,-584.473,-1000.0,-1000.0
1742547939.22,-651.367,-992.676,-1000.0,-687.988
1742547939.224,-1000.0,-635.254,-551.27,-1000.0
1742547939.228,48.828,621.094,715.332,95.215
1742547939.232,999.512,832.52,999.512,999.512
1742547939.236,985.84,-80.078,584.473,969.727
1742547939.24,-133.301,-861.816,-786.621,-146.484
1742547939.244,-1000.0,-625.977,-650.391,-1000.0
1742547939.247,-369.629,375.488,606.445,-374.023
1742547939.251,999.512,897.949,999.512,999.512
1742547939.255,787.109,130.371,384.766,744.141
1742547939.259,-585.938,-887.207,-867.676,-636.719
1742547939.263,-1000.0,-584.473,-1000.0,-1000.0
1742547939.22,-651.367,-992.676,-1000.0,-687.988
1742547939.224,-1000.0,-635.254,-551.27,-1000.0
1742547939.228,48.828,621.094,715.332,95.215
1742547939.232,999.512,832.52,999.512,999.512
1742547939.236,985.84,-80.078,584.473,969.727
1742547939.24,-133.301,-861.816,-786.621,-146.484
1742547939.244,-1000.0,-625.977,-650.391,-1000.0
1742547939.247,-369.629,375.488,606.445,-374.023
1742547939.251,999.512,897.949,999.512,999.512
1742547939.255,787.109,130.371,384.766,744.141
1742547939.259,-585.938,-887.207,-867.676,-636.719
1742547939.263,-1000.0,-584.473,-1000.0,-1000.0
1742547939.265,-517.09,205.078,-41.992,-505.371
1742547939.269,802.734,894.043,999.512,807.129
1742547939.273,999.512,654.785,841.309,999.512
1742547939.277,97.168,-585.449,-387.695,76.172
1742547939.281,-1000.0,-944.336,-1000.0,-1000.0
1742547939.285,-280.762,277.832,145.508,-289.551
1742547939.289,964.844,999.512,999.512,958.496
1742547939.292,999.512,300.293,834.961,999.512
1742547939.296,204.102,-759.277,-316.406,198.242
1742547939.3,-1000.0,-1000.0,-1000.0,-1000.0
1742547939.304,-594.238,-76.172,-143.555,-581.055
1742547939.308,798.34,999.512,999.512,802.734
1742547939.313,999.512,381.836,625.488,999.512
1742547939.317,138.672,-768.555,-562.012,111.328
1742547939.321,-1000.0,-900.879,-1000.0,-1000.0
1742547939.325,-1000.0,-213.867,-794.922,-1000.0
1742547939.329,-87.402,640.625,412.109,-59.082
1742547939.333,999.512,997.07,911.133,999.512
1742547939.337,207.031,-27.344,-349.609,229.004
1742547939.34,-1000.0,-1000.0,-1000.0,-990.234
1742547939.344,-1000.0,-781.25,-1000.0,-1000.0
1742547939.348,-253.418,280.762,-54.199,-248.535
1742547939.352,999.512,959.473,672.363,999.512
1742547939.356,201.172,-189.941,-665.527,198.73
1742547939.313,999.512,381.836,625.488,999.512
1742547939.317,138.672,-768.555,-562.012,111.328
1742547939.321,-1000.0,-900.879,-1000.0,-1000.0
1742547939.325,-1000.0,-213.867,-794.922,-1000.0
1742547939.329,-87.402,640.625,412.109,-59.082
1742547939.333,999.512,997.07,911.133,999.512
1742547939.337,207.031,-27.344,-349.609,229.004
1742547939.34,-1000.0,-1000.0,-1000.0,-990.234
1742547939.344,-1000.0,-781.25,-1000.0,-1000.0
1742547939.348,-253.418,280.762,-54.199,-248.535
1742547939.352,999.512,959.473,672.363,999.512
1742547939.356,201.172,-189.941,-665.527,198.73
1742547939.355,-1000.0,-1000.0,-1000.0,-1000.0
1742547939.359,-1000.0,-407.227,-944.336,-1000.0
1742547939.363,-247.559,620.605,107.422,-248.047
1742547939.367,999.512,999.512,999.512,999.512
1742547939.371,461.426,270.02,56.641,433.105
1742547939.375,-845.215,-993.164,-1000.0,-864.258
1742547939.379,-1000.0,-555.176,-807.129,-1000.0
1742547939.382,-204.102,698.73,387.207,-186.035
1742547939.386,999.512,460.449,999.512,999.512
1742547939.39,812.5,-490.234,165.527,774.902
1742547939.394,-530.273,-888.184,-1000.0,-562.988
1742547939.398,-1000.0,-589.844,-615.234,-1000.0
1742547939.355,-1000.0,-1000.0,-1000.0,-1000.0
1742547939.359,-1000.0,-407.227,-944.336,-1000.0
1742547939.363,-247.559,620.605,107.422,-248.047
1742547939.367,999.512,999.512,999.512,999.512
1742547939.371,461.426,270.02,56.641,433.105
1742547939.375,-845.215,-993.164,-1000.0,-864.258
1742547939.379,-1000.0,-555.176,-807.129,-1000.0
1742547939.382,-204.102,698.73,387.207,-186.035
1742547939.386,999.512,460.449,999.512,999.512
1742547939.39,812.5,-490.234,165.527,774.902
1742547939.394,-530.273,-888.184,-1000.0,-562.988
1742547939.398,-1000.0,-589.844,-615.234,-1000.0
1742547939.355,-1000.0,-1000.0,-1000.0,-1000.0
1742547939.359,-1000.0,-407.227,-944.336,-1000.0
1742547939.363,-247.559,620.605,107.422,-248.047
1742547939.367,999.512,999.512,999.512,999.512
1742547939.371,461.426,270.02,56.641,433.105
1742547939.375,-845.215,-993.164,-1000.0,-864.258
1742547939.379,-1000.0,-555.176,-807.129,-1000.0
1742547939.382,-204.102,698.73,387.207,-186.035
1742547939.386,999.512,460.449,999.512,999.512
1742547939.39,812.5,-490.234,165.527,774.902
1742547939.394,-530.273,-888.184,-1000.0,-562.988
1742547939.398,-1000.0,-589.844,-615.234,-1000.0
1742547939.415,-171.387,548.34,659.668,-217.285
1742547939.419,990.723,972.656,989.258,994.141
1742547939.423,999.512,402.344,996.094,999.512
1742547939.427,-47.852,-701.172,-231.445,-150.879
1742547939.431,-1000.0,-797.363,-726.074,-1000.0
1742547939.435,-285.156,423.34,615.723,-298.828
1742547939.439,999.512,999.512,999.512,999.512
1742547939.442,754.395,103.027,254.883,793.945
1742547939.446,-600.586,-1000.0,-929.688,-549.805
1742547939.45,-1000.0,-721.191,-1000.0,-1000.0
1742547939.454,-571.777,267.578,-360.84,-549.805
1742547939.458,762.207,990.234,999.512,776.855
1742547939.415,-171.387,548.34,659.668,-217.285
1742547939.419,990.723,972.656,989.258,994.141
1742547939.423,999.512,402.344,996.094,999.512
1742547939.427,-47.852,-701.172,-231.445,-150.879
1742547939.431,-1000.0,-797.363,-726.074,-1000.0
1742547939.435,-285.156,423.34,615.723,-298.828
1742547939.439,999.512,999.512,999.512,999.512
1742547939.442,754.395,103.027,254.883,793.945
1742547939.446,-600.586,-1000.0,-929.688,-549.805
1742547939.45,-1000.0,-721.191,-1000.0,-1000.0
1742547939.454,-571.777,267.578,-360.84,-549.805
1742547939.458,762.207,990.234,999.512,776.855
1742547939.445,999.512,466.309,548.828,999.512
1742547939.449,-47.852,-735.352,-750.977,-56.641
1742547939.453,-1000.0,-846.68,-1000.0,-1000.0
1742547939.457,-1000.0,-108.887,-1000.0,-1000.0
1742547939.461,-255.371,574.219,-75.195,-213.867
1742547939.465,999.512,999.512,553.223,999.512
1742547939.469,168.457,91.309,-581.055,167.48
1742547939.472,-1000.0,-1000.0,-1000.0,-1000.0
1742547939.476,-1000.0,-625.977,-1000.0,-1000.0
1742547939.48,-253.418,590.82,-498.535,-190.43
1742547939.484,999.512,746.094,-493.652,999.512
1742547939.488,508.301,-283.203,-1000.0,438.965
1742547939.445,999.512,466.309,548.828,999.512
1742547939.449,-47.852,-735.352,-750.977,-56.641
1742547939.453,-1000.0,-846.68,-1000.0,-1000.0
1742547939.457,-1000.0,-108.887,-1000.0,-1000.0
1742547939.461,-255.371,574.219,-75.195,-213.867
1742547939.465,999.512,999.512,553.223,999.512
1742547939.469,168.457,91.309,-581.055,167.48
1742547939.472,-1000.0,-1000.0,-1000.0,-1000.0
1742547939.476,-1000.0,-625.977,-1000.0,-1000.0
1742547939.48,-253.418,590.82,-498.535,-190.43
1742547939.484,999.512,746.094,-493.652,999.512
1742547939.488,508.301,-283.203,-1000.0,438.965
1742547939.49,-877.93,-961.426,-948.73,-907.227
1742547939.494,-1000.0,-506.348,-1000.0,-1000.0
1742547939.498,-226.074,534.668,-443.848,-210.938
1742547939.502,999.512,902.344,-174.805,999.512
1742547939.506,744.141,-213.867,-1000.0,705.566
1742547939.51,-625.977,-958.008,-971.68,-653.32
1742547939.514,-1000.0,-284.668,-1000.0,-1000.0
1742547939.517,-188.477,589.844,-475.098,-196.777
1742547939.521,999.512,737.793,-70.801,999.512
1742547939.525,966.797,-142.09,-960.449,885.254
1742547939.529,-247.07,-886.719,-996.582,-376.465
1742547939.533,-1000.0,-554.199,-1000.0,-1000.0
1742547939.49,-877.93,-961.426,-948.73,-907.227
1742547939.494,-1000.0,-506.348,-1000.0,-1000.0
1742547939.498,-226.074,534.668,-443.848,-210.938
1742547939.502,999.512,902.344,-174.805,999.512
1742547939.506,744.141,-213.867,-1000.0,705.566
1742547939.51,-625.977,-958.008,-971.68,-653.32
1742547939.514,-1000.0,-284.668,-1000.0,-1000.0
1742547939.517,-188.477,589.844,-475.098,-196.777
1742547939.521,999.512,737.793,-70.801,999.512
1742547939.525,966.797,-142.09,-960.449,885.254
1742547939.529,-247.07,-886.719,-996.582,-376.465
1742547939.533,-1000.0,-554.199,-1000.0,-1000.0
1742547939.535,-520.02,181.152,-726.562,-464.844
1742547939.539,851.074,855.957,12.207,905.762
1742547939.543,999.512,492.188,-597.656,999.512
1742547939.547,-148.926,-788.574,-1000.0,-270.508
1742547939.551,-1000.0,-916.016,-1000.0,-1000.0
1742547939.555,-209.961,297.363,-482.91,-208.984
1742547939.559,981.445,999.512,770.508,981.445
1742547939.562,999.512,139.648,-233.887,999.512
1742547939.566,44.434,-938.965,-1000.0,15.137
1742547939.57,-1000.0,-875.977,-1000.0,-1000.0
1742547939.574,-206.543,308.594,-398.438,-209.961
1742547939.578,999.512,996.094,890.137,999.512
1742547939.535,-520.02,181.152,-726.562,-464.844
1742547939.539,851.074,855.957,12.207,905.762
1742547939.543,999.512,492.188,-597.656,999.512
1742547939.547,-148.926,-788.574,-1000.0,-270.508
1742547939.551,-1000.0,-916.016,-1000.0,-1000.0
1742547939.555,-209.961,297.363,-482.91,-208.984
1742547939.559,981.445,999.512,770.508,981.445
1742547939.562,999.512,139.648,-233.887,999.512
1742547939.566,44.434,-938.965,-1000.0,15.137
1742547939.57,-1000.0,-875.977,-1000.0,-1000.0
1742547939.574,-206.543,308.594,-398.438,-209.961
1742547939.578,999.512,996.094,890.137,999.512
1742547939.535,-520.02,181.152,-726.562,-464.844
1742547939.539,851.074,855.957,12.207,905.762
1742547939.543,999.512,492.188,-597.656,999.512
1742547939.547,-148.926,-788.574,-1000.0,-270.508
1742547939.551,-1000.0,-916.016,-1000.0,-1000.0
1742547939.555,-209.961,297.363,-482.91,-208.984
1742547939.559,981.445,999.512,770.508,981.445
1742547939.562,999.512,139.648,-233.887,999.512
1742547939.566,44.434,-938.965,-1000.0,15.137
1742547939.57,-1000.0,-875.977,-1000.0,-1000.0
1742547939.574,-206.543,308.594,-398.438,-209.961
1742547939.578,999.512,996.094,890.137,999.512
1742547939.595,999.512,-66.895,-203.125,960.938
1742547939.599,-165.039,-1000.0,-1000.0,-239.746
1742547939.603,-1000.0,-770.996,-1000.0,-1000.0
1742547939.607,-753.906,29.785,-755.371,-720.703
1742547939.611,542.969,825.684,586.426,576.66
1742547939.615,999.512,817.383,494.141,999.512
1742547939.619,190.918,-276.855,-712.891,191.406
1742547939.622,-1000.0,-1000.0,-1000.0,-1000.0
1742547939.626,-651.367,-359.863,-558.105,-583.008
1742547939.63,744.629,880.371,774.902,797.363
1742547939.634,999.512,667.969,973.145,999.512
1742547939.638,184.082,-510.254,-248.047,212.402
1742547939.595,999.512,-66.895,-203.125,960.938
1742547939.599,-165.039,-1000.0,-1000.0,-239.746
1742547939.603,-1000.0,-770.996,-1000.0,-1000.0
1742547939.607,-753.906,29.785,-755.371,-720.703
1742547939.611,542.969,825.684,586.426,576.66
1742547939.615,999.512,817.383,494.141,999.512
1742547939.619,190.918,-276.855,-712.891,191.406
1742547939.622,-1000.0,-1000.0,-1000.0,-1000.0
1742547939.626,-651.367,-359.863,-558.105,-583.008
1742547939.63,744.629,880.371,774.902,797.363
1742547939.634,999.512,667.969,973.145,999.512
1742547939.638,184.082,-510.254,-248.047,212.402
1742547939.64,-1000.0,-1000.0,-1000.0,-1000.0
1742547939.644,-797.852,-294.922,-84.473,-842.773
1742547939.648,558.105,898.438,962.891,500.0
1742547939.652,999.512,732.91,999.512,999.512
1742547939.656,221.68,-367.676,95.215,206.055
1742547939.66,-1000.0,-872.559,-1000.0,-1000.0
1742547939.664,-1000.0,-113.281,-637.207,-1000.0
1742547939.667,98.633,867.676,678.223,204.59
1742547939.671,999.512,326.172,537.109,999.512
1742547939.675,439.453,-882.812,-852.539,548.828
1742547939.679,-857.422,-973.145,-1000.0,-744.629
1742547939.683,-1000.0,-412.109,-985.84,-1000.0
1742547939.64,-1000.0,-1000.0,-1000.0,-1000.0
1742547939.644,-797.852,-294.922,-84.473,-842.773
1742547939.648,558.105,898.438,962.891,500.0
1742547939.652,999.512,732.91,999.512,999.512
1742547939.656,221.68,-367.676,95.215,206.055
1742547939.66,-1000.0,-872.559,-1000.0,-1000.0
1742547939.664,-1000.0,-113.281,-637.207,-1000.0
1742547939.667,98.633,867.676,678.223,204.59
1742547939.671,999.512,326.172,537.109,999.512
1742547939.675,439.453,-882.812,-852.539,548.828
1742547939.679,-857.422,-973.145,-1000.0,-744.629
1742547939.683,-1000.0,-412.109,-985.84,-1000.0
1742547939.64,-1000.0,-1000.0,-1000.0,-1000.0
1742547939.644,-797.852,-294.922,-84.473,-842.773
1742547939.648,558.105,898.438,962.891,500.0
1742547939.652,999.512,732.91,999.512,999.512
1742547939.656,221.68,-367.676,95.215,206.055
1742547939.66,-1000.0,-872.559,-1000.0,-1000.0
1742547939.664,-1000.0,-113.281,-637.207,-1000.0
1742547939.667,98.633,867.676,678.223,204.59
1742547939.671,999.512,326.172,537.109,999.512
1742547939.675,439.453,-882.812,-852.539,548.828
1742547939.679,-857.422,-973.145,-1000.0,-744.629
1742547939.683,-1000.0,-412.109,-985.84,-1000.0
1742547939.685,-735.352,254.883,-904.785,-575.684
1742547939.689,811.035,917.48,-736.328,950.195
1742547939.693,709.473,337.891,-957.52,569.336
1742547939.697,-817.871,-999.512,-959.473,-892.578
1742547939.701,-1000.0,-499.512,-1000.0,-1000.0
1742547939.705,-184.082,689.453,-281.738,-196.289
1742547939.709,999.512,941.406,443.848,999.512
1742547939.712,999.512,21.973,-710.938,995.117
1742547939.716,-145.02,-979.492,-1000.0,-206.543
1742547939.72,-1000.0,-743.164,-985.352,-1000.0
1742547939.724,-236.328,450.195,117.188,-231.445
1742547939.728,999.512,987.793,943.359,999.512
1742547939.685,-735.352,254.883,-904.785,-575.684
1742547939.689,811.035,917.48,-736.328,950.195
1742547939.693,709.473,337.891,-957.52,569.336
1742547939.697,-817.871,-999.512,-959.473,-892.578
1742547939.701,-1000.0,-499.512,-1000.0,-1000.0
1742547939.705,-184.082,689.453,-281.738,-196.289
1742547939.709,999.512,941.406,443.848,999.512
1742547939.712,999.512,21.973,-710.938,995.117
1742547939.716,-145.02,-979.492,-1000.0,-206.543
1742547939.72,-1000.0,-743.164,-985.352,-1000.0
1742547939.724,-236.328,450.195,117.188,-231.445
1742547939.728,999.512,987.793,943.359,999.512
1742547939.73,399.414,-110.352,-370.117,340.332
1742547939.734,-925.293,-1000.0,-1000.0,-955.078
1742547939.738,-1000.0,-475.586,-1000.0,-1000.0
1742547939.742,-578.613,472.168,-478.516,-639.16
1742547939.746,749.512,867.188,717.285,696.289
1742547939.75,999.512,645.508,-70.312,999.512
1742547939.754,166.016,-346.191,-936.035,113.77
1742547939.757,-1000.0,-1000.0,-1000.0,-1000.0
1742547939.761,-386.719,-125.0,-458.008,-319.336
1742547939.765,934.57,985.84,933.105,960.938
1742547939.769,999.512,380.859,-29.785,999.512
1742547939.773,115.234,-816.406,-1000.0,85.938
1742547939.73,399.414,-110.352,-370.117,340.332
1742547939.734,-925.293,-1000.0,-1000.0,-955.078
1742547939.738,-1000.0,-475.586,-1000.0,-1000.0
1742547939.742,-578.613,472.168,-478.516,-639.16
1742547939.746,749.512,867.188,717.285,696.289
1742547939.75,999.512,645.508,-70.312,999.512
1742547939.754,166.016,-346.191,-936.035,113.77
1742547939.757,-1000.0,-1000.0,-1000.0,-1000.0
1742547939.761,-386.719,-125.0,-458.008,-319.336
1742547939.765,934.57,985.84,933.105,960.938
1742547939.769,999.512,380.859,-29.785,999.512
1742547939.773,115.234,-816.406,-1000.0,85.938
1742547939.776,-1000.0,-799.316,-1000.0,-1000.0
1742547939.78,-968.75,39.551,-699.707,-985.84
1742547939.784,286.621,830.078,745.605,249.023
1742547939.788,999.512,718.75,607.91,999.512
1742547939.792,166.016,-471.68,-727.539,134.766
1742547939.796,-1000.0,-751.465,-1000.0,-1000.0
1742547939.8,-891.113,123.535,-521.484,-845.703
1742547939.803,407.715,796.875,708.496,458.008
1742547939.807,999.512,370.605,999.512,999.512
1742547939.811,359.375,-616.211,-64.453,354.492
1742547939.815,-929.199,-984.863,-1000.0,-933.594
1742547939.819,-1000.0,-226.074,-657.227,-1000.0
1742547939.82,-14.648,833.008,471.191,0.488
1742547939.824,999.512,765.137,999.512,999.512
1742547939.828,209.473,-366.211,33.203,179.688
1742547939.832,-1000.0,-987.793,-1000.0,-1000.0
1742547939.836,-1000.0,-421.387,-243.652,-1000.0
1742547939.84,-62.988,543.945,715.332,-66.895
1742547939.844,999.512,967.773,999.512,999.512
1742547939.847,864.258,-36.133,708.008,860.84
1742547939.851,-409.668,-1000.0,-741.699,-408.203
1742547939.855,-1000.0,-701.66,-244.629,-1000.0
1742547939.859,-223.145,450.684,999.512,-224.609
1742547939.863,999.512,964.844,921.387,999.512
1742547939.82,-14.648,833.008,471.191,0.488
1742547939.824,999.512,765.137,999.512,999.512
1742547939.828,209.473,-366.211,33.203,179.688
1742547939.832,-1000.0,-987.793,-1000.0,-1000.0
1742547939.836,-1000.0,-421.387,-243.652,-1000.0
1742547939.84,-62.988,543.945,715.332,-66.895
1742547939.844,999.512,967.773,999.512,999.512
1742547939.847,864.258,-36.133,708.008,860.84
1742547939.851,-409.668,-1000.0,-741.699,-408.203
1742547939.855,-1000.0,-701.66,-244.629,-1000.0
1742547939.859,-223.145,450.684,999.512,-224.609
1742547939.863,999.512,964.844,921.387,999.512
1742547939.866,277.344,-213.867,-213.867,294.922
1742547939.87,-996.094,-960.938,-1000.0,-987.793
1742547939.874,-1000.0,-207.52,-1000.0,-1000.0
1742547939.878,-202.637,555.664,-185.547,-208.008
1742547939.882,962.891,771.973,999.512,963.379
1742547939.886,999.512,458.984,807.617,999.512
1742547939.89,175.293,-365.234,-543.945,157.227
1742547939.893,-1000.0,-1000.0,-836.426,-1000.0
1742547939.897,-211.426,150.391,461.426,-204.102
1742547939.901,999.512,928.711,999.512,999.512
1742547939.905,999.512,89.844,760.254,999.512
1742547939.909,8.789,-752.93,-460.938,3.418
1742547939.866,277.344,-213.867,-213.867,294.922
1742547939.87,-996.094,-960.938,-1000.0,-987.793
1742547939.874,-1000.0,-207.52,-1000.0,-1000.0
1742547939.878,-202.637,555.664,-185.547,-208.008
1742547939.882,962.891,771.973,999.512,963.379
1742547939.886,999.512,458.984,807.617,999.512
1742547939.89,175.293,-365.234,-543.945,157.227
1742547939.893,-1000.0,-1000.0,-836.426,-1000.0
1742547939.897,-211.426,150.391,461.426,-204.102
1742547939.901,999.512,928.711,999.512,999.512
1742547939.905,999.512,89.844,760.254,999.512
1742547939.909,8.789,-752.93,-460.938,3.418
1742547939.91,-1000.0,-969.727,-1000.0,-1000.0
1742547939.914,-473.633,52.246,170.41,-485.84
1742547939.918,854.004,999.512,985.84,854.492
1742547939.922,999.512,547.363,999.512,999.512
1742547939.926,149.414,-578.125,-55.664,78.125
1742547939.93,-1000.0,-735.352,-468.262,-1000.0
1742547939.934,-1000.0,94.238,924.316,-1000.0
1742547939.937,36.621,792.48,957.031,45.898
1742547939.941,999.512,254.395,999.512,999.512
1742547939.945,258.301,-868.164,391.602,252.441
1742547939.949,-1000.0,-926.758,-41.504,-1000.0
1742547939.953,-824.219,-79.102,928.711,-742.676
1742547939.91,-1000.0,-969.727,-1000.0,-1000.0
1742547939.914,-473.633,52.246,170.41,-485.84
1742547939.918,854.004,999.512,985.84,854.492
1742547939.922,999.512,547.363,999.512,999.512
1742547939.926,149.414,-578.125,-55.664,78.125
1742547939.93,-1000.0,-735.352,-468.262,-1000.0
1742547939.934,-1000.0,94.238,924.316,-1000.0
1742547939.937,36.621,792.48,957.031,45.898
1742547939.941,999.512,254.395,999.512,999.512
1742547939.945,258.301,-868.164,391.602,252.441
1742547939.949,-1000.0,-926.758,-41.504,-1000.0
1742547939.953,-824.219,-79.102,928.711,-742.676
1742547939.972,527.832,851.074,978.516,615.723
1742547939.976,999.512,599.609,998.535,999.512
1742547939.98,625.0,-256.348,754.883,597.168
1742547939.984,-693.848,-925.781,464.355,-724.609
1742547939.988,-1000.0,-422.363,926.758,-1000.0
1742547939.992,-93.75,708.984,933.594,-39.551
1742547939.996,999.512,872.07,999.512,999.512
1742547939.999,189.453,-238.77,266.602,187.5
1742547940.003,-1000.0,-1000.0,-1000.0,-1000.0
1742547940.007,-1000.0,-418.945,-971.68,-1000.0
1742547940.011,-265.137,741.211,72.266,-264.16
1742547940.015,999.512,920.898,999.512,999.512
1742547939.972,527.832,851.074,978.516,615.723
1742547939.976,999.512,599.609,998.535,999.512
1742547939.98,625.0,-256.348,754.883,597.168
1742547939.984,-693.848,-925.781,464.355,-724.609
1742547939.988,-1000.0,-422.363,926.758,-1000.0
1742547939.992,-93.75,708.984,933.594,-39.551
1742547939.996,999.512,872.07,999.512,999.512
1742547939.999,189.453,-238.77,266.602,187.5
1742547940.003,-1000.0,-1000.0,-1000.0,-1000.0
1742547940.007,-1000.0,-418.945,-971.68,-1000.0
1742547940.011,-265.137,741.211,72.266,-264.16
1742547940.015,999.512,920.898,999.512,999.512
1742547940.015,460.938,-109.863,190.918,466.309
1742547940.019,-909.18,-1000.0,-1000.0,-901.855
1742547940.023,-1000.0,-479.492,142.09,-1000.0
1742547940.027,-192.383,582.52,999.512,-223.633
1742547940.031,997.559,812.5,912.598,999.512
1742547940.035,999.512,310.059,999.512,952.148
1742547940.039,-113.77,-602.051,222.656,-266.602
1742547940.042,-1000.0,-837.891,173.828,-1000.0
1742547940.046,-594.238,-52.734,943.848,-513.672
1742547940.05,821.289,870.117,999.512,867.676
1742547940.054,999.512,389.648,823.73,999.512
1742547940.058,-286.133,-912.598,-557.617,-303.223
1742547940.015,460.938,-109.863,190.918,466.309
1742547940.019,-909.18,-1000.0,-1000.0,-901.855
1742547940.023,-1000.0,-479.492,142.09,-1000.0
1742547940.027,-192.383,582.52,999.512,-223.633
1742547940.031,997.559,812.5,912.598,999.512
1742547940.035,999.512,310.059,999.512,952.148
1742547940.039,-113.77,-602.051,222.656,-266.602
1742547940.042,-1000.0,-837.891,173.828,-1000.0
1742547940.046,-594.238,-52.734,943.848,-513.672
1742547940.05,821.289,870.117,999.512,867.676
1742547940.054,999.512,389.648,823.73,999.512
1742547940.058,-286.133,-912.598,-557.617,-303.223
1742547940.06,-1000.0,-785.645,-497.07,-1000.0
1742547940.064,-1000.0,88.379,858.398,-1000.0
1742547940.068,315.43,900.879,995.117,330.566
1742547940.072,999.512,563.965,911.621,852.539
1742547940.076,-512.207,-855.469,-309.082,-720.215
1742547940.08,-1000.0,-474.609,-929.199,-1000.0
1742547940.084,-968.75,522.949,295.41,-996.094
1742547940.087,216.797,837.402,999.512,136.719
1742547940.091,999.512,416.016,683.594,999.512
1742547940.095,5.859,-774.902,-509.277,4.883
1742547940.099,-1000.0,-840.332,-1000.0,-1000.0
1742547940.103,-422.363,267.09,-208.984,-358.887
1742547940.06,-1000.0,-785.645,-497.07,-1000.0
1742547940.064,-1000.0,88.379,858.398,-1000.0
1742547940.068,315.43,900.879,995.117,330.566
1742547940.072,999.512,563.965,911.621,852.539
1742547940.076,-512.207,-855.469,-309.082,-720.215
1742547940.08,-1000.0,-474.609,-929.199,-1000.0
1742547940.084,-968.75,522.949,295.41,-996.094
1742547940.087,216.797,837.402,999.512,136.719
1742547940.091,999.512,416.016,683.594,999.512
1742547940.095,5.859,-774.902,-509.277,4.883
1742547940.099,-1000.0,-840.332,-1000.0,-1000.0
1742547940.103,-422.363,267.09,-208.984,-358.887
1742547940.105,887.207,993.164,999.512,916.504
1742547940.109,999.512,349.609,717.773,999.512
1742547940.113,201.172,-684.57,-494.629,202.148
1742547940.117,-1000.0,-907.227,-1000.0,-1000.0
1742547940.121,-766.602,-97.656,-334.961,-712.402
1742547940.125,606.445,870.605,922.852,659.18
1742547940.129,999.512,766.602,905.273,999.512
1742547940.132,171.387,-334.961,-216.797,206.543
1742547940.136,-1000.0,-1000.0,-1000.0,-1000.0
1742547940.14,-1000.0,-540.039,-602.051,-998.047
1742547940.144,192.871,730.469,637.695,250.0
1742547940.148,999.512,830.078,999.512,999.512
1742547940.105,887.207,993.164,999.512,916.504
1742547940.109,999.512,349.609,717.773,999.512
1742547940.113,201.172,-684.57,-494.629,202.148
1742547940.117,-1000.0,-907.227,-1000.0,-1000.0
1742547940.121,-766.602,-97.656,-334.961,-712.402
1742547940.125,606.445,870.605,922.852,659.18
1742547940.129,999.512,766.602,905.273,999.512
1742547940.132,171.387,-334.961,-216.797,206.543
1742547940.136,-1000.0,-1000.0,-1000.0,-1000.0
1742547940.14,-1000.0,-540.039,-602.051,-998.047
1742547940.144,192.871,730.469,637.695,250.0
1742547940.148,999.512,830.078,999.512,999.512
1742547940.151,290.039,-328.613,307.129,229.98
1742547940.155,-944.336,-1000.0,-1000.0,-967.285
1742547940.159,-1000.0,-300.781,-65.43,-1000.0
1742547940.163,-242.676,733.398,999.512,-237.305
1742547940.167,999.512,697.754,947.754,999.512
1742547940.171,483.398,-131.836,-28.809,470.703
1742547940.175,-893.555,-939.941,-1000.0,-897.461
1742547940.178,-1000.0,-756.348,-968.262,-1000.0
1742547940.182,-189.941,434.57,78.125,-186.035
1742547940.186,991.699,903.809,999.512,986.816
1742547940.19,999.512,75.684,350.098,999.512
1742547940.194,-150.879,-853.027,-998.535,-118.652
1742547940.151,290.039,-328.613,307.129,229.98
1742547940.155,-944.336,-1000.0,-1000.0,-967.285
1742547940.159,-1000.0,-300.781,-65.43,-1000.0
1742547940.163,-242.676,733.398,999.512,-237.305
1742547940.167,999.512,697.754,947.754,999.512
1742547940.171,483.398,-131.836,-28.809,470.703
1742547940.175,-893.555,-939.941,-1000.0,-897.461
1742547940.178,-1000.0,-756.348,-968.262,-1000.0
1742547940.182,-189.941,434.57,78.125,-186.035
1742547940.186,991.699,903.809,999.512,986.816
1742547940.19,999.512,75.684,350.098,999.512
1742547940.194,-150.879,-853.027,-998.535,-118.652
1742547940.195,-1000.0,-824.219,-548.34,-1000.0
1742547940.199,117.676,439.453,693.848,182.129
1742547940.203,999.512,918.457,999.512,999.512
1742547940.207,900.879,99.121,467.285,900.391
1742547940.211,-356.934,-884.277,-973.633,-347.168
1742547940.215,-1000.0,-599.121,-614.258,-1000.0
1742547940.219,55.664,725.098,695.801,79.102
1742547940.222,999.512,997.559,999.512,999.512
1742547940.226,999.512,-114.746,601.074,999.512
1742547940.23,-57.129,-1000.0,-668.457,-4.395
1742547940.234,-1000.0,-848.633,-1000.0,-1000.0
1742547940.238,-235.352,241.211,67.871,-233.398
1742547940.195,-1000.0,-824.219,-548.34,-1000.0
1742547940.199,117.676,439.453,693.848,182.129
1742547940.203,999.512,918.457,999.512,999.512
1742547940.207,900.879,99.121,467.285,900.391
1742547940.211,-356.934,-884.277,-973.633,-347.168
1742547940.215,-1000.0,-599.121,-614.258,-1000.0
1742547940.219,55.664,725.098,695.801,79.102
1742547940.222,999.512,997.559,999.512,999.512
1742547940.226,999.512,-114.746,601.074,999.512
1742547940.23,-57.129,-1000.0,-668.457,-4.395
1742547940.234,-1000.0,-848.633,-1000.0,-1000.0
1742547940.238,-235.352,241.211,67.871,-233.398
1742547940.195,-1000.0,-824.219,-548.34,-1000.0
1742547940.199,117.676,439.453,693.848,182.129
1742547940.203,999.512,918.457,999.512,999.512
1742547940.207,900.879,99.121,467.285,900.391
1742547940.211,-356.934,-884.277,-973.633,-347.168
1742547940.215,-1000.0,-599.121,-614.258,-1000.0
1742547940.219,55.664,725.098,695.801,79.102
1742547940.222,999.512,997.559,999.512,999.512
1742547940.226,999.512,-114.746,601.074,999.512
1742547940.23,-57.129,-1000.0,-668.457,-4.395
1742547940.234,-1000.0,-848.633,-1000.0,-1000.0
1742547940.238,-235.352,241.211,67.871,-233.398
1742547940.242,960.938,872.07,999.512,973.633
1742547940.246,999.512,255.859,939.941,999.512
1742547940.25,190.918,-593.262,-355.469,139.648
1742547940.254,-1000.0,-854.98,-690.43,-1000.0
1742547940.258,-544.434,98.633,745.605,-550.781
1742547940.262,838.379,957.52,962.891,808.105
1742547940.266,999.512,769.043,999.512,999.512
1742547940.269,199.707,-340.82,202.148,198.73
1742547940.273,-1000.0,-1000.0,-1000.0,-1000.0
1742547940.277,-676.27,-305.664,-40.039,-678.711
1742547940.281,711.426,960.938,997.559,696.289
1742547940.285,999.512,604.98,999.512,999.512
1742547940.242,960.938,872.07,999.512,973.633
1742547940.246,999.512,255.859,939.941,999.512
1742547940.25,190.918,-593.262,-355.469,139.648
1742547940.254,-1000.0,-854.98,-690.43,-1000.0
1742547940.258,-544.434,98.633,745.605,-550.781
1742547940.262,838.379,957.52,962.891,808.105
1742547940.266,999.512,769.043,999.512,999.512
1742547940.269,199.707,-340.82,202.148,198.73
1742547940.273,-1000.0,-1000.0,-1000.0,-1000.0
1742547940.277,-676.27,-305.664,-40.039,-678.711
1742547940.281,711.426,960.938,997.559,696.289
1742547940.285,999.512,604.98,999.512,999.512
1742547940.242,960.938,872.07,999.512,973.633
1742547940.246,999.512,255.859,939.941,999.512
1742547940.25,190.918,-593.262,-355.469,139.648
1742547940.254,-1000.0,-854.98,-690.43,-1000.0
1742547940.258,-544.434,98.633,745.605,-550.781
1742547940.262,838.379,957.52,962.891,808.105
1742547940.266,999.512,769.043,999.512,999.512
1742547940.269,199.707,-340.82,202.148,198.73
1742547940.273,-1000.0,-1000.0,-1000.0,-1000.0
1742547940.277,-676.27,-305.664,-40.039,-678.711
1742547940.281,711.426,960.938,997.559,696.289
1742547940.285,999.512,604.98,999.512,999.512
1742547940.285,244.141,-511.23,200.684,245.605
1742547940.289,-1000.0,-1000.0,-1000.0,-1000.0
1742547940.293,-712.402,-139.16,52.734,-688.965
1742547940.297,676.758,954.59,999.512,685.059
1742547940.301,999.512,602.051,979.98,999.512
1742547940.305,709.961,-150.879,819.336,594.727
1742547940.309,-568.848,-770.996,477.539,-696.289
1742547940.312,-1000.0,-770.996,833.496,-1000.0
1742547940.316,-197.266,142.578,966.309,-196.289
1742547940.32,999.512,999.512,999.512,999.512
1742547940.324,928.711,265.137,732.422,974.609
1742547940.328,-402.832,-1000.0,-266.113,-349.121
1742547940.285,244.141,-511.23,200.684,245.605
1742547940.289,-1000.0,-1000.0,-1000.0,-1000.0
1742547940.293,-712.402,-139.16,52.734,-688.965
1742547940.297,676.758,954.59,999.512,685.059
1742547940.301,999.512,602.051,979.98,999.512
1742547940.305,709.961,-150.879,819.336,594.727
1742547940.309,-568.848,-770.996,477.539,-696.289
1742547940.312,-1000.0,-770.996,833.496,-1000.0
1742547940.316,-197.266,142.578,966.309,-196.289
1742547940.32,999.512,999.512,999.512,999.512
1742547940.324,928.711,265.137,732.422,974.609
1742547940.328,-402.832,-1000.0,-266.113,-349.121
1742547940.345,-1000.0,-679.688,361.816,-1000.0
1742547940.349,13.672,564.941,999.512,130.371
1742547940.353,999.512,849.609,999.512,999.512
1742547940.357,473.145,-229.98,471.191,437.012
1742547940.361,-860.352,-1000.0,-899.414,-869.141
1742547940.365,-1000.0,-343.75,-999.023,-1000.0
1742547940.369,-286.133,740.234,191.895,-290.527
1742547940.372,999.512,867.676,999.512,999.512
1742547940.376,437.988,-211.426,-145.508,474.121
1742547940.38,-993.652,-1000.0,-1000.0,-961.914
1742547940.384,-952.148,-405.762,-965.82,-969.727
1742547940.388,-1000.0,267.578,-986.328,-1000.0
1742547940.345,-1000.0,-679.688,361.816,-1000.0
1742547940.349,13.672,564.941,999.512,130.371
1742547940.353,999.512,849.609,999.512,999.512
1742547940.357,473.145,-229.98,471.191,437.012
1742547940.361,-860.352,-1000.0,-899.414,-869.141
1742547940.365,-1000.0,-343.75,-999.023,-1000.0
1742547940.369,-286.133,740.234,191.895,-290.527
1742547940.372,999.512,867.676,999.512,999.512
1742547940.376,437.988,-211.426,-145.508,474.121
1742547940.38,-993.652,-1000.0,-1000.0,-961.914
1742547940.384,-952.148,-405.762,-965.82,-969.727
1742547940.388,-1000.0,267.578,-986.328,-1000.0
1742547940.39,-236.816,797.852,-1000.0,-80.566
1742547940.394,999.512,662.598,-1000.0,979.492
1742547940.398,-276.367,-715.332,-1000.0,-474.609
1742547940.402,-1000.0,-755.371,-1000.0,-1000.0
1742547940.406,-1000.0,83.984,-1000.0,-1000.0
1742547940.41,-77.637,719.727,-1000.0,-17.578
1742547940.414,999.512,815.918,-1000.0,999.512
1742547940.417,204.102,-346.68,-951.66,197.266
1742547940.421,-1000.0,-1000.0,-1000.0,-1000.0
1742547940.425,-768.555,-344.727,-830.566,-733.887
1742547940.429,603.516,931.152,575.684,639.16
1742547940.433,999.512,572.266,752.93,999.512
1742547940.39,-236.816,797.852,-1000.0,-80.566
1742547940.394,999.512,662.598,-1000.0,979.492
1742547940.398,-276.367,-715.332,-1000.0,-474.609
1742547940.402,-1000.0,-755.371,-1000.0,-1000.0
1742547940.406,-1000.0,83.984,-1000.0,-1000.0
1742547940.41,-77.637,719.727,-1000.0,-17.578
1742547940.414,999.512,815.918,-1000.0,999.512
1742547940.417,204.102,-346.68,-951.66,197.266
1742547940.421,-1000.0,-1000.0,-1000.0,-1000.0
1742547940.425,-768.555,-344.727,-830.566,-733.887
1742547940.429,603.516,931.152,575.684,639.16
1742547940.433,999.512,572.266,752.93,999.512
1742547940.9,896.484,-24.414,-1000.0,895.996
1742547940.904,999.512,188.965,-1000.0,999.512
1742547940.908,615.723,-172.363,-1000.0,504.883
1742547940.912,-757.812,-978.027,-968.75,-836.914
1742547940.916,-1000.0,-732.91,-1000.0,-1000.0
1742547940.92,-741.699,297.363,-708.008,-723.145
1742547940.924,540.527,999.512,585.938,567.383
1742547940.927,999.512,355.957,635.742,999.512
1742547940.931,134.766,-799.805,-691.895,145.996
1742547940.935,-1000.0,-832.52,-1000.0,-1000.0
1742547940.939,-1000.0,-121.094,-947.266,-1000.0
1742547940.943,31.25,710.449,-1000.0,157.227
1742547940.946,999.512,837.402,-601.562,999.512
1742547940.95,920.41,-203.613,-604.004,912.598
1742547940.954,955.566,-443.359,-867.188,962.891
1742547940.958,968.262,258.301,395.508,967.773
1742547940.962,966.309,426.758,999.512,966.797
1742547940.966,966.309,245.117,920.898,966.797
1742547940.97,966.309,-93.262,964.844,966.797
1742547940.973,966.309,-473.633,966.797,966.797
1742547940.977,966.797,-569.336,966.797,967.285
1742547940.981,903.809,-39.062,966.797,904.297
1742547940.985,999.512,320.801,966.797,999.512
1742547940.989,187.012,-453.613,966.797,182.617
1742547940.946,999.512,837.402,-601.562,999.512
1742547940.95,920.41,-203.613,-604.004,912.598
1742547940.954,955.566,-443.359,-867.188,962.891
1742547940.958,968.262,258.301,395.508,967.773
1742547940.962,966.309,426.758,999.512,966.797
1742547940.966,966.309,245.117,920.898,966.797
1742547940.97,966.309,-93.262,964.844,966.797
1742547940.973,966.309,-473.633,966.797,966.797
1742547940.977,966.797,-569.336,966.797,967.285
1742547940.981,903.809,-39.062,966.797,904.297
1742547940.985,999.512,320.801,966.797,999.512
1742547940.989,187.012,-453.613,966.797,182.617
1742547940.946,999.512,837.402,-601.562,999.512
1742547940.95,920.41,-203.613,-604.004,912.598
1742547940.954,955.566,-443.359,-867.188,962.891
1742547940.958,968.262,258.301,395.508,967.773
1742547940.962,966.309,426.758,999.512,966.797
1742547940.966,966.309,245.117,920.898,966.797
1742547940.97,966.309,-93.262,964.844,966.797
1742547940.973,966.309,-473.633,966.797,966.797
1742547940.977,966.797,-569.336,966.797,967.285
1742547940.981,903.809,-39.062,966.797,904.297
1742547940.985,999.512,320.801,966.797,999.512
1742547940.989,187.012,-453.613,966.797,182.617
1742547940.99,-1000.0,-1000.0,967.285,-1000.0
1742547940.994,-983.887,-399.902,967.285,-983.398
1742547940.998,-973.145,567.383,967.285,-973.633
1742547941.002,-1000.0,534.668,967.285,-1000.0
1742547941.006,-1000.0,-535.156,967.285,-998.047
1742547941.01,-937.5,-208.496,967.285,-941.895
1742547941.014,-1000.0,194.336,970.215,-1000.0
1742547941.017,-220.703,246.094,952.637,-173.828
1742547941.021,999.512,787.109,977.539,999.512
1742547941.025,950.195,-33.691,970.215,944.336
1742547941.029,938.965,-434.082,484.375,943.359
1742547941.033,977.539,-45.41,625.977,978.027
1742547940.99,-1000.0,-1000.0,967.285,-1000.0
1742547940.994,-983.887,-399.902,967.285,-983.398
1742547940.998,-973.145,567.383,967.285,-973.633
1742547941.002,-1000.0,534.668,967.285,-1000.0
1742547941.006,-1000.0,-535.156,967.285,-998.047
1742547941.01,-937.5,-208.496,967.285,-941.895
1742547941.014,-1000.0,194.336,970.215,-1000.0
1742547941.017,-220.703,246.094,952.637,-173.828
1742547941.021,999.512,787.109,977.539,999.512
1742547941.025,950.195,-33.691,970.215,944.336
1742547941.029,938.965,-434.082,484.375,943.359
1742547941.033,977.539,-45.41,625.977,978.027
1742547941.035,946.289,333.984,999.512,944.336
1742547941.039,937.012,277.344,932.617,943.359
1742547941.043,999.512,-138.184,999.512,999.512
1742547941.047,-57.617,-781.25,360.352,-84.961
1742547941.051,-1000.0,-815.918,369.629,-1000.0
1742547941.055,-634.277,256.348,990.723,-546.387
1742547941.059,838.379,999.512,999.512,908.203
1742547941.062,967.285,496.094,580.566,929.199
1742547941.066,-518.066,-760.254,-700.195,-538.086
1742547941.07,-1000.0,-917.969,-1000.0,-1000.0
1742547941.074,-1000.0,-259.766,-698.242,-1000.0
1742547941.078,-174.316,691.406,745.117,-179.199
1742547941.035,946.289,333.984,999.512,944.336
1742547941.039,937.012,277.344,932.617,943.359
1742547941.043,999.512,-138.184,999.512,999.512
1742547941.047,-57.617,-781.25,360.352,-84.961
1742547941.051,-1000.0,-815.918,369.629,-1000.0
1742547941.055,-634.277,256.348,990.723,-546.387
1742547941.059,838.379,999.512,999.512,908.203
1742547941.062,967.285,496.094,580.566,929.199
1742547941.066,-518.066,-760.254,-700.195,-538.086
1742547941.07,-1000.0,-917.969,-1000.0,-1000.0
1742547941.074,-1000.0,-259.766,-698.242,-1000.0
1742547941.078,-174.316,691.406,745.117,-179.199
1742547941.095,887.207,660.645,384.766,793.945
1742547941.099,-607.422,-797.852,-1000.0,-696.289
1742547941.103,-1000.0,-704.102,-1000.0,-1000.0
1742547941.107,-1000.0,193.359,-962.891,-1000.0
1742547941.111,-255.371,636.23,-1000.0,-179.199
1742547941.115,999.512,988.281,-1000.0,999.512
1742547941.119,999.512,290.039,-1000.0,956.055
1742547941.122,-109.375,-813.477,-1000.0,-209.473
1742547941.126,-1000.0,-710.449,-1000.0,-1000.0
1742547941.13,-490.723,270.02,-1000.0,-379.883
1742547941.134,999.512,948.242,-1000.0,999.512
1742547941.138,373.047,-25.391,-1000.0,276.855
1742547941.095,887.207,660.645,384.766,793.945
1742547941.099,-607.422,-797.852,-1000.0,-696.289
1742547941.103,-1000.0,-704.102,-1000.0,-1000.0
1742547941.107,-1000.0,193.359,-962.891,-1000.0
1742547941.111,-255.371,636.23,-1000.0,-179.199
1742547941.115,999.512,988.281,-1000.0,999.512
1742547941.119,999.512,290.039,-1000.0,956.055
1742547941.122,-109.375,-813.477,-1000.0,-209.473
1742547941.126,-1000.0,-710.449,-1000.0,-1000.0
1742547941.13,-490.723,270.02,-1000.0,-379.883
1742547941.134,999.512,948.242,-1000.0,999.512
1742547941.138,373.047,-25.391,-1000.0,276.855
1742547941.095,887.207,660.645,384.766,793.945
1742547941.099,-607.422,-797.852,-1000.0,-696.289
1742547941.103,-1000.0,-704.102,-1000.0,-1000.0
1742547941.107,-1000.0,193.359,-962.891,-1000.0
1742547941.111,-255.371,636.23,-1000.0,-179.199
1742547941.115,999.512,988.281,-1000.0,999.512
1742547941.119,999.512,290.039,-1000.0,956.055
1742547941.122,-109.375,-813.477,-1000.0,-209.473
1742547941.126,-1000.0,-710.449,-1000.0,-1000.0
1742547941.13,-490.723,270.02,-1000.0,-379.883
1742547941.134,999.512,948.242,-1000.0,999.512
1742547941.138,373.047,-25.391,-1000.0,276.855
1742547941.14,-1000.0,-1000.0,-1000.0,-1000.0
1742547941.144,-997.07,-407.227,-1000.0,-986.816
1742547941.148,-960.449,529.297,-996.582,-966.797
1742547941.152,-1000.0,245.117,-999.023,-1000.0
1742547941.156,-1000.0,-449.707,-1000.0,-1000.0
1742547941.16,-1000.0,-342.773,-1000.0,-1000.0
1742547941.164,-1000.0,219.238,-1000.0,-1000.0
1742547941.167,-1000.0,312.988,-1000.0,-1000.0
1742547941.171,-1000.0,-147.461,-1000.0,-1000.0
1742547941.175,-1000.0,-642.09,-1000.0,-1000.0
1742547941.179,-930.176,-306.641,-1000.0,-929.688
1742547941.183,-1000.0,-85.938,-1000.0,-1000.0
1742547941.14,-1000.0,-1000.0,-1000.0,-1000.0
1742547941.144,-997.07,-407.227,-1000.0,-986.816
1742547941.148,-960.449,529.297,-996.582,-966.797
1742547941.152,-1000.0,245.117,-999.023,-1000.0
1742547941.156,-1000.0,-449.707,-1000.0,-1000.0
1742547941.16,-1000.0,-342.773,-1000.0,-1000.0
1742547941.164,-1000.0,219.238,-1000.0,-1000.0
1742547941.167,-1000.0,312.988,-1000.0,-1000.0
1742547941.171,-1000.0,-147.461,-1000.0,-1000.0
1742547941.175,-1000.0,-642.09,-1000.0,-1000.0
1742547941.179,-930.176,-306.641,-1000.0,-929.688
1742547941.183,-1000.0,-85.938,-1000.0,-1000.0
1742547941.187,-697.266,-30.273,-1000.0,-630.371
1742547941.191,796.387,837.402,-1000.0,899.414
1742547941.195,999.512,514.16,-1000.0,863.281
1742547941.199,-415.527,-836.914,-1000.0,-633.789
1742547941.203,-1000.0,-817.871,-1000.0,-1000.0
1742547941.207,-934.57,468.75,-1000.0,-935.059
1742547941.211,-1000.0,721.68,-1000.0,-1000.0
1742547941.214,-949.707,-301.27,-1000.0,-945.312
1742547941.218,-1000.0,-818.848,-1000.0,-1000.0
1742547941.222,-891.602,-220.703,-1000.0,-830.566
1742547941.226,493.652,878.906,-1000.0,564.941
1742547941.23,999.512,844.727,-1000.0,999.512
1742547941.187,-697.266,-30.273,-1000.0,-630.371
1742547941.191,796.387,837.402,-1000.0,899.414
1742547941.195,999.512,514.16,-1000.0,863.281
1742547941.199,-415.527,-836.914,-1000.0,-633.789
1742547941.203,-1000.0,-817.871,-1000.0,-1000.0
1742547941.207,-934.57,468.75,-1000.0,-935.059
1742547941.211,-1000.0,721.68,-1000.0,-1000.0
1742547941.214,-949.707,-301.27,-1000.0,-945.312
1742547941.218,-1000.0,-818.848,-1000.0,-1000.0
1742547941.222,-891.602,-220.703,-1000.0,-830.566
1742547941.226,493.652,878.906,-1000.0,564.941
1742547941.23,999.512,844.727,-1000.0,999.512
1742547941.23,899.902,216.797,-1000.0,902.832
1742547941.234,977.051,-243.164,-972.656,978.516
1742547941.238,966.309,-289.062,-1000.0,966.797
1742547941.242,981.445,159.18,-868.164,980.957
1742547941.246,892.09,384.277,-166.016,896.973
1742547941.25,999.512,233.398,-484.863,999.512
1742547941.254,541.016,-350.586,-1000.0,584.473
1742547941.257,-860.84,-968.75,-987.793,-816.406
1742547941.261,-1000.0,-906.25,-1000.0,-1000.0
1742547941.265,-68.359,314.453,-139.648,7.812
1742547941.269,999.512,824.219,-279.785,999.512
1742547941.273,151.367,-473.633,-1000.0,112.793
1742547941.23,899.902,216.797,-1000.0,902.832
1742547941.234,977.051,-243.164,-972.656,978.516
1742547941.238,966.309,-289.062,-1000.0,966.797
1742547941.242,981.445,159.18,-868.164,980.957
1742547941.246,892.09,384.277,-166.016,896.973
1742547941.25,999.512,233.398,-484.863,999.512
1742547941.254,541.016,-350.586,-1000.0,584.473
1742547941.257,-860.84,-968.75,-987.793,-816.406
1742547941.261,-1000.0,-906.25,-1000.0,-1000.0
1742547941.265,-68.359,314.453,-139.648,7.812
1742547941.269,999.512,824.219,-279.785,999.512
1742547941.273,151.367,-473.633,-1000.0,112.793
1742547941.275,-1000.0,-1000.0,-1000.0,-1000.0
1742547941.279,-1000.0,-182.129,-848.145,-1000.0
1742547941.283,-199.219,739.258,144.531,-228.027
1742547941.287,999.512,878.906,-301.758,999.512
1742547941.291,155.273,-389.648,-1000.0,164.062
1742547941.295,-1000.0,-778.32,-964.844,-1000.0
1742547941.299,-1000.0,-33.203,-993.652,-1000.0
1742547941.302,-320.801,369.629,-1000.0,-230.957
1742547941.306,984.375,757.812,-1000.0,999.512
1742547941.31,971.191,37.598,-1000.0,957.031
1742547941.314,928.711,-352.539,-959.961,937.012
1742547941.318,982.91,45.898,-1000.0,981.445
1742547941.32,897.461,199.219,-735.352,897.461
1742547941.324,999.512,234.375,-2.93,999.512
1742547941.328,291.992,-345.703,-542.48,310.059
1742547941.332,-973.145,-1000.0,-1000.0,-968.262
1742547941.336,-1000.0,-583.984,-829.102,-1000.0
1742547941.34,-176.27,458.496,321.289,-151.367
1742547941.344,998.047,999.512,999.512,999.512
1742547941.347,999.512,304.199,788.574,999.512
1742547941.351,-39.062,-810.059,-430.664,-60.547
1742547941.355,-1000.0,-904.785,-1000.0,-1000.0
1742547941.359,-214.355,267.09,66.895,-214.844
1742547941.363,999.512,999.512,999.512,999.512
1742547941.32,897.461,199.219,-735.352,897.461
1742547941.324,999.512,234.375,-2.93,999.512
1742547941.328,291.992,-345.703,-542.48,310.059
1742547941.332,-973.145,-1000.0,-1000.0,-968.262
1742547941.336,-1000.0,-583.984,-829.102,-1000.0
1742547941.34,-176.27,458.496,321.289,-151.367
1742547941.344,998.047,999.512,999.512,999.512
1742547941.347,999.512,304.199,788.574,999.512
1742547941.351,-39.062,-810.059,-430.664,-60.547
1742547941.355,-1000.0,-904.785,-1000.0,-1000.0
1742547941.359,-214.355,267.09,66.895,-214.844
1742547941.363,999.512,999.512,999.512,999.512
1742547941.32,897.461,199.219,-735.352,897.461
1742547941.324,999.512,234.375,-2.93,999.512
1742547941.328,291.992,-345.703,-542.48,310.059
1742547941.332,-973.145,-1000.0,-1000.0,-968.262
1742547941.336,-1000.0,-583.984,-829.102,-1000.0
1742547941.34,-176.27,458.496,321.289,-151.367
1742547941.344,998.047,999.512,999.512,999.512
1742547941.347,999.512,304.199,788.574,999.512
1742547941.351,-39.062,-810.059,-430.664,-60.547
1742547941.355,-1000.0,-904.785,-1000.0,-1000.0
1742547941.359,-214.355,267.09,66.895,-214.844
1742547941.363,999.512,999.512,999.512,999.512
1742547941.365,904.297,188.477,474.121,883.789
1742547941.369,-458.496,-905.762,-839.844,-481.445
1742547941.373,-1000.0,-783.203,-1000.0,-1000.0
1742547941.377,-933.105,205.078,219.727,-934.57
1742547941.381,-1000.0,184.082,993.652,-1000.0
1742547941.385,-1000.0,-18.555,-169.434,-1000.0
1742547941.389,-979.004,-282.715,-1000.0,-969.238
1742547941.392,-973.145,-681.152,-975.098,-996.094
1742547941.396,-1000.0,88.379,-990.234,-1000.0
1742547941.4,53.711,842.285,-892.578,174.316
1742547941.404,999.512,643.555,-940.918,999.512
1742547941.408,742.676,-234.863,-1000.0,605.469
1742547941.365,904.297,188.477,474.121,883.789
1742547941.369,-458.496,-905.762,-839.844,-481.445
1742547941.373,-1000.0,-783.203,-1000.0,-1000.0
1742547941.377,-933.105,205.078,219.727,-934.57
1742547941.381,-1000.0,184.082,993.652,-1000.0
1742547941.385,-1000.0,-18.555,-169.434,-1000.0
1742547941.389,-979.004,-282.715,-1000.0,-969.238
1742547941.392,-973.145,-681.152,-975.098,-996.094
1742547941.396,-1000.0,88.379,-990.234,-1000.0
1742547941.4,53.711,842.285,-892.578,174.316
1742547941.404,999.512,643.555,-940.918,999.512
1742547941.408,742.676,-234.863,-1000.0,605.469
1742547941.41,-554.199,-944.336,-979.004,-687.5
1742547941.414,-1000.0,-510.742,-1000.0,-1000.0
1742547941.418,-212.402,678.223,-293.457,-212.402
1742547941.422,999.512,904.785,181.152,999.512
1742547941.426,243.164,-337.402,-710.938,127.441
1742547941.43,-1000.0,-757.812,-848.633,-1000.0
1742547941.434,-551.758,371.094,320.801,-740.723
1742547941.437,889.648,999.512,929.199,666.992
1742547941.441,999.512,455.566,999.512,999.512
1742547941.445,911.133,-597.656,614.746,902.344
1742547941.449,981.934,-313.965,-339.844,979.98
1742547941.453,966.797,243.164,-279.297,964.844
1742547941.41,-554.199,-944.336,-979.004,-687.5
1742547941.414,-1000.0,-510.742,-1000.0,-1000.0
1742547941.418,-212.402,678.223,-293.457,-212.402
1742547941.422,999.512,904.785,181.152,999.512
1742547941.426,243.164,-337.402,-710.938,127.441
1742547941.43,-1000.0,-757.812,-848.633,-1000.0
1742547941.434,-551.758,371.094,320.801,-740.723
1742547941.437,889.648,999.512,929.199,666.992
1742547941.441,999.512,455.566,999.512,999.512
1742547941.445,911.133,-597.656,614.746,902.344
1742547941.449,981.934,-313.965,-339.844,979.98
1742547941.453,966.797,243.164,-279.297,964.844
1742547941.471,903.32,38.086,543.945,908.203
1742547941.475,999.512,30.762,959.961,999.512
1742547941.479,185.547,-499.023,-169.922,142.09
1742547941.483,-1000.0,-935.059,-1000.0,-1000.0
1742547941.487,-1000.0,-257.812,-1000.0,-1000.0
1742547941.491,-257.812,629.395,166.992,-262.207
1742547941.495,999.512,875.488,923.828,999.512
1742547941.498,194.336,-287.109,-374.023,216.797
1742547941.502,-1000.0,-1000.0,-1000.0,-1000.0
1742547941.506,-1000.0,-596.191,-959.961,-1000.0
1742547941.51,-185.059,518.066,125.0,-125.977
1742547941.514,975.098,895.508,999.512,985.84
1742547941.471,903.32,38.086,543.945,908.203
1742547941.475,999.512,30.762,959.961,999.512
1742547941.479,185.547,-499.023,-169.922,142.09
1742547941.483,-1000.0,-935.059,-1000.0,-1000.0
1742547941.487,-1000.0,-257.812,-1000.0,-1000.0
1742547941.491,-257.812,629.395,166.992,-262.207
1742547941.495,999.512,875.488,923.828,999.512
1742547941.498,194.336,-287.109,-374.023,216.797
1742547941.502,-1000.0,-1000.0,-1000.0,-1000.0
1742547941.506,-1000.0,-596.191,-959.961,-1000.0
1742547941.51,-185.059,518.066,125.0,-125.977
1742547941.514,975.098,895.508,999.512,985.84
1742547941.471,903.32,38.086,543.945,908.203
1742547941.475,999.512,30.762,959.961,999.512
1742547941.479,185.547,-499.023,-169.922,142.09
1742547941.483,-1000.0,-935.059,-1000.0,-1000.0
1742547941.487,-1000.0,-257.812,-1000.0,-1000.0
1742547941.491,-257.812,629.395,166.992,-262.207
1742547941.495,999.512,875.488,923.828,999.512
1742547941.498,194.336,-287.109,-374.023,216.797
1742547941.502,-1000.0,-1000.0,-1000.0,-1000.0
1742547941.506,-1000.0,-596.191,-959.961,-1000.0
1742547941.51,-185.059,518.066,125.0,-125.977
1742547941.514,975.098,895.508,999.512,985.84
1742547941.515,999.512,13.184,-181.152,999.512
1742547941.519,162.598,-810.059,-1000.0,192.383
1742547941.523,-1000.0,-870.605,-719.238,-1000.0
1742547941.527,-203.613,229.004,147.949,-194.824
1742547941.531,999.512,999.512,976.562,999.512
1742547941.535,999.512,443.359,584.961,999.512
1742547941.539,25.391,-634.766,-633.301,48.828
1742547941.542,-1000.0,-867.188,-1000.0,-1000.0
1742547941.546,-965.332,-410.156,-922.852,-968.75
1742547941.55,-983.398,-81.055,-852.539,-981.445
1742547941.554,-1000.0,38.086,-942.383,-1000.0
1742547941.558,-937.5,-226.562,-1000.0,-937.988
1742547941.515,999.512,13.184,-181.152,999.512
1742547941.519,162.598,-810.059,-1000.0,192.383
1742547941.523,-1000.0,-870.605,-719.238,-1000.0
1742547941.527,-203.613,229.004,147.949,-194.824
1742547941.531,999.512,999.512,976.562,999.512
1742547941.535,999.512,443.359,584.961,999.512
1742547941.539,25.391,-634.766,-633.301,48.828
1742547941.542,-1000.0,-867.188,-1000.0,-1000.0
1742547941.546,-965.332,-410.156,-922.852,-968.75
1742547941.55,-983.398,-81.055,-852.539,-981.445
1742547941.554,-1000.0,38.086,-942.383,-1000.0
1742547941.558,-937.5,-226.562,-1000.0,-937.988
1742547941.515,999.512,13.184,-181.152,999.512
1742547941.519,162.598,-810.059,-1000.0,192.383
1742547941.523,-1000.0,-870.605,-719.238,-1000.0
1742547941.527,-203.613,229.004,147.949,-194.824
1742547941.531,999.512,999.512,976.562,999.512
1742547941.535,999.512,443.359,584.961,999.512
1742547941.539,25.391,-634.766,-633.301,48.828
1742547941.542,-1000.0,-867.188,-1000.0,-1000.0
1742547941.546,-965.332,-410.156,-922.852,-968.75
1742547941.55,-983.398,-81.055,-852.539,-981.445
1742547941.554,-1000.0,38.086,-942.383,-1000.0
1742547941.558,-937.5,-226.562,-1000.0,-937.988
1742547941.56,-1000.0,-239.258,-970.703,-1000.0
1742547941.564,-220.703,415.527,110.352,-216.309
1742547941.568,999.512,974.121,999.512,999.512
1742547941.572,950.195,600.586,999.512,950.195
1742547941.576,938.965,-410.156,457.52,939.941
1742547941.58,973.145,-302.246,380.371,973.633
1742547941.584,975.586,533.691,999.512,977.539
1742547941.587,894.043,141.602,909.668,894.531
1742547941.591,999.512,-380.859,999.512,999.512
1742547941.595,361.328,-781.738,467.285,393.066
1742547941.599,-941.895,-882.812,39.551,-924.805
1742547941.603,-1000.0,-228.516,937.5,-1000.0
1742547942.071,430.176,-637.207,931.152,437.012
1742547942.075,-970.703,-870.117,923.828,-962.891
1742547942.079,-1000.0,-97.656,977.051,-1000.0
1742547942.083,-953.125,241.699,926.758,-952.637
1742547942.087,-1000.0,-174.316,999.512,-1000.0
1742547942.091,-1000.0,-279.297,600.586,-1000.0
1742547942.095,-1000.0,130.859,207.52,-1000.0
1742547942.098,-1000.0,231.445,898.926,-1000.0
1742547942.102,-1000.0,-20.508,963.379,-1000.0
1742547942.106,-1000.0,-186.035,999.512,-1000.0
1742547942.11,-931.641,-342.773,720.215,-933.594
1742547942.114,-1000.0,-467.773,-415.527,-1000.0
1742547941.56,-1000.0,-239.258,-970.703,-1000.0
1742547941.564,-220.703,415.527,110.352,-216.309
1742547941.568,999.512,974.121,999.512,999.512
1742547941.572,950.195,600.586,999.512,950.195
1742547941.576,938.965,-410.156,457.52,939.941
1742547941.58,973.145,-302.246,380.371,973.633
1742547941.584,975.586,533.691,999.512,977.539
1742547941.587,894.043,141.602,909.668,894.531
1742547941.591,999.512,-380.859,999.512,999.512
1742547941.595,361.328,-781.738,467.285,393.066
1742547941.599,-941.895,-882.812,39.551,-924.805
1742547941.603,-1000.0,-228.516,937.5,-1000.0
1742547941.56,-1000.0,-239.258,-970.703,-1000.0
1742547941.564,-220.703,415.527,110.352,-216.309
1742547941.568,999.512,974.121,999.512,999.512
1742547941.572,950.195,600.586,999.512,950.195
1742547941.576,938.965,-410.156,457.52,939.941
1742547941.58,973.145,-302.246,380.371,973.633
1742547941.584,975.586,533.691,999.512,977.539
1742547941.587,894.043,141.602,909.668,894.531
1742547941.591,999.512,-380.859,999.512,999.512
1742547941.595,361.328,-781.738,467.285,393.066
1742547941.599,-941.895,-882.812,39.551,-924.805
1742547941.603,-1000.0,-228.516,937.5,-1000.0
1742547941.605,-242.188,606.934,977.051,-233.887
1742547941.609,999.512,886.719,997.07,999.512
1742547941.613,156.25,-227.539,780.762,157.227
1742547941.617,-1000.0,-1000.0,388.672,-1000.0
1742547941.621,-1000.0,-371.582,852.051,-1000.0
1742547941.625,-814.941,505.371,999.512,-787.598
1742547941.629,626.953,999.512,939.453,676.27
1742547941.632,999.512,491.211,975.098,902.344
1742547941.636,-392.578,-770.02,937.5,-568.359
1742547941.64,-1000.0,-857.422,958.496,-1000.0
1742547941.644,-229.492,364.258,910.645,-225.586
1742547941.648,999.512,952.148,999.512,999.512
1742547941.65,510.254,-43.945,605.957,491.699
1742547941.654,-864.746,-1000.0,-716.797,-869.141
1742547941.658,-1000.0,-665.039,-1000.0,-1000.0
1742547941.662,-723.145,271.484,-135.254,-683.594
1742547941.666,811.523,856.934,838.379,819.824
1742547941.67,744.629,454.59,-314.453,795.41
1742547941.674,-776.855,-702.148,-1000.0,-700.684
1742547941.677,-1000.0,-968.75,-705.566,-1000.0
1742547941.681,-157.715,281.738,462.891,-126.953
1742547941.685,959.473,907.227,999.512,970.703
1742547941.689,999.512,254.395,976.562,999.512
1742547941.693,159.668,-600.098,645.02,142.09
1742547941.695,-1000.0,-1000.0,655.273,-1000.0
1742547941.699,-983.887,-119.629,957.52,-980.957
1742547941.703,-973.145,493.652,999.512,-974.609
1742547941.707,-1000.0,-7.324,622.559,-1000.0
1742547941.711,-933.105,-595.703,-828.125,-931.152
1742547941.715,-1000.0,-37.109,-663.086,-1000.0
1742547941.719,-308.105,950.195,714.355,-357.91
1742547941.722,980.957,871.094,865.234,967.285
1742547941.726,999.512,-54.199,-445.801,999.512
1742547941.73,-114.746,-983.887,-1000.0,-138.184
1742547941.734,-1000.0,-661.621,-946.289,-1000.0
1742547941.738,-1000.0,231.934,-1000.0,-984.375
1742547941.695,-1000.0,-1000.0,655.273,-1000.0
1742547941.699,-983.887,-119.629,957.52,-980.957
1742547941.703,-973.145,493.652,999.512,-974.609
1742547941.707,-1000.0,-7.324,622.559,-1000.0
1742547941.711,-933.105,-595.703,-828.125,-931.152
1742547941.715,-1000.0,-37.109,-663.086,-1000.0
1742547941.719,-308.105,950.195,714.355,-357.91
1742547941.722,980.957,871.094,865.234,967.285
1742547941.726,999.512,-54.199,-445.801,999.512
1742547941.73,-114.746,-983.887,-1000.0,-138.184
1742547941.734,-1000.0,-661.621,-946.289,-1000.0
1742547941.738,-1000.0,231.934,-1000.0,-984.375
1742547941.695,-1000.0,-1000.0,655.273,-1000.0
1742547941.699,-983.887,-119.629,957.52,-980.957
1742547941.703,-973.145,493.652,999.512,-974.609
1742547941.707,-1000.0,-7.324,622.559,-1000.0
1742547941.711,-933.105,-595.703,-828.125,-931.152
1742547941.715,-1000.0,-37.109,-663.086,-1000.0
1742547941.719,-308.105,950.195,714.355,-357.91
1742547941.722,980.957,871.094,865.234,967.285
1742547941.726,999.512,-54.199,-445.801,999.512
1742547941.73,-114.746,-983.887,-1000.0,-138.184
1742547941.734,-1000.0,-661.621,-946.289,-1000.0
1742547941.738,-1000.0,231.934,-1000.0,-984.375
1742547941.74,-23.438,752.441,-1000.0,132.812
1742547941.744,999.512,730.957,-1000.0,999.512
1742547941.748,319.824,-299.316,-1000.0,255.859
1742547941.752,-949.707,-973.633,-961.426,-971.191
1742547941.756,-1000.0,-404.785,-1000.0,-1000.0
1742547941.76,-149.902,657.715,-473.145,-97.168
1742547941.764,999.512,762.695,-213.379,999.512
1742547941.767,945.801,-482.91,-1000.0,938.965
1742547941.771,941.406,-538.086,-1000.0,946.289
1742547941.775,972.168,286.621,169.434,971.68
1742547941.779,966.309,372.559,999.512,966.797
1742547941.783,966.309,37.598,926.758,966.797
1742547941.74,-23.438,752.441,-1000.0,132.812
1742547941.744,999.512,730.957,-1000.0,999.512
1742547941.748,319.824,-299.316,-1000.0,255.859
1742547941.752,-949.707,-973.633,-961.426,-971.191
1742547941.756,-1000.0,-404.785,-1000.0,-1000.0
1742547941.76,-149.902,657.715,-473.145,-97.168
1742547941.764,999.512,762.695,-213.379,999.512
1742547941.767,945.801,-482.91,-1000.0,938.965
1742547941.771,941.406,-538.086,-1000.0,946.289
1742547941.775,972.168,286.621,169.434,971.68
1742547941.779,966.309,372.559,999.512,966.797
1742547941.783,966.309,37.598,926.758,966.797
1742547941.74,-23.438,752.441,-1000.0,132.812
1742547941.744,999.512,730.957,-1000.0,999.512
1742547941.748,319.824,-299.316,-1000.0,255.859
1742547941.752,-949.707,-973.633,-961.426,-971.191
1742547941.756,-1000.0,-404.785,-1000.0,-1000.0
1742547941.76,-149.902,657.715,-473.145,-97.168
1742547941.764,999.512,762.695,-213.379,999.512
1742547941.767,945.801,-482.91,-1000.0,938.965
1742547941.771,941.406,-538.086,-1000.0,946.289
1742547941.775,972.168,286.621,169.434,971.68
1742547941.779,966.309,372.559,999.512,966.797
1742547941.783,966.309,37.598,926.758,966.797
1742547941.786,966.309,-534.668,958.496,966.797
1742547941.79,966.309,-297.363,969.727,966.797
1742547941.794,981.445,230.957,977.051,980.957
1742547941.798,891.602,163.574,914.551,893.555
1742547941.802,999.512,82.52,999.512,999.512
1742547941.806,545.898,-332.52,808.594,517.09
1742547941.81,-902.344,-908.203,-600.098,-913.574
1742547941.813,-1000.0,-477.051,-97.168,-1000.0
1742547941.817,-943.848,-37.109,999.512,-946.777
1742547941.821,-1000.0,-143.555,950.684,-1000.0
1742547941.825,-1000.0,-209.473,930.664,-1000.0
1742547941.829,-925.781,-351.562,631.836,-927.246
1742547941.786,966.309,-534.668,958.496,966.797
1742547941.79,966.309,-297.363,969.727,966.797
1742547941.794,981.445,230.957,977.051,980.957
1742547941.798,891.602,163.574,914.551,893.555
1742547941.802,999.512,82.52,999.512,999.512
1742547941.806,545.898,-332.52,808.594,517.09
1742547941.81,-902.344,-908.203,-600.098,-913.574
1742547941.813,-1000.0,-477.051,-97.168,-1000.0
1742547941.817,-943.848,-37.109,999.512,-946.777
1742547941.821,-1000.0,-143.555,950.684,-1000.0
1742547941.825,-1000.0,-209.473,930.664,-1000.0
1742547941.829,-925.781,-351.562,631.836,-927.246
1742547941.846,-1000.0,-164.551,805.664,-1000.0
1742547941.85,-581.055,282.715,982.422,-580.566
1742547941.854,849.121,908.691,955.078,853.516
1742547941.858,999.512,503.418,919.922,999.512
1742547941.862,-172.852,-648.438,-262.207,-244.141
1742547941.866,-1000.0,-729.004,-1000.0,-1000.0
1742547941.87,-946.289,-70.312,-657.715,-942.871
1742547941.873,-997.07,-84.473,-368.164,-1000.0
1742547941.877,-988.281,-435.547,-895.996,-979.492
1742547941.881,-958.496,-507.324,-998.535,-975.098
1742547941.885,-1000.0,-54.688,-1000.0,-1000.0
1742547941.889,-16.602,685.547,-83.496,96.191
1742547941.846,-1000.0,-164.551,805.664,-1000.0
1742547941.85,-581.055,282.715,982.422,-580.566
1742547941.854,849.121,908.691,955.078,853.516
1742547941.858,999.512,503.418,919.922,999.512
1742547941.862,-172.852,-648.438,-262.207,-244.141
1742547941.866,-1000.0,-729.004,-1000.0,-1000.0
1742547941.87,-946.289,-70.312,-657.715,-942.871
1742547941.873,-997.07,-84.473,-368.164,-1000.0
1742547941.877,-988.281,-435.547,-895.996,-979.492
1742547941.881,-958.496,-507.324,-998.535,-975.098
1742547941.885,-1000.0,-54.688,-1000.0,-1000.0
1742547941.889,-16.602,685.547,-83.496,96.191
1742547941.89,999.512,779.785,999.512,999.512
1742547941.894,999.512,27.832,209.961,999.512
1742547941.898,-7.812,-727.051,-840.82,-13.672
1742547941.902,-1000.0,-796.387,-1000.0,-1000.0
1742547941.906,-1000.0,-145.996,-601.074,-1000.0
1742547941.91,177.246,705.566,768.555,181.641
1742547941.914,999.512,754.395,76.172,888.184
1742547941.917,-543.945,-607.91,-1000.0,-681.641
1742547941.921,-1000.0,-1000.0,-993.652,-1000.0
1742547941.925,-1000.0,-640.625,-951.66,-1000.0
1742547941.929,-2.441,467.773,329.102,42.969
1742547941.933,999.512,794.434,78.125,999.512
1742547941.89,999.512,779.785,999.512,999.512
1742547941.894,999.512,27.832,209.961,999.512
1742547941.898,-7.812,-727.051,-840.82,-13.672
1742547941.902,-1000.0,-796.387,-1000.0,-1000.0
1742547941.906,-1000.0,-145.996,-601.074,-1000.0
1742547941.91,177.246,705.566,768.555,181.641
1742547941.914,999.512,754.395,76.172,888.184
1742547941.917,-543.945,-607.91,-1000.0,-681.641
1742547941.921,-1000.0,-1000.0,-993.652,-1000.0
1742547941.925,-1000.0,-640.625,-951.66,-1000.0
1742547941.929,-2.441,467.773,329.102,42.969
1742547941.933,999.512,794.434,78.125,999.512
1742547941.935,920.41,-200.195,-1000.0,916.504
1742547941.939,956.055,-291.504,-956.543,959.473
1742547941.943,972.656,220.215,-1000.0,972.168
1742547941.947,898.926,377.93,-734.863,899.902
1742547941.951,999.512,26.367,-647.949,999.512
1742547941.955,253.418,-502.93,-1000.0,247.07
1742547941.959,-980.469,-920.898,-946.777,-979.492
1742547941.962,-1000.0,-643.066,-1000.0,-1000.0
1742547941.966,-319.336,349.121,-179.199,-355.469
1742547941.97,999.512,982.91,900.391,999.512
1742547941.974,232.422,-94.238,-292.969,223.145
1742547941.978,-1000.0,-1000.0,-1000.0,-1000.0
1742547941.935,920.41,-200.195,-1000.0,916.504
1742547941.939,956.055,-291.504,-956.543,959.473
1742547941.943,972.656,220.215,-1000.0,972.168
1742547941.947,898.926,377.93,-734.863,899.902
1742547941.951,999.512,26.367,-647.949,999.512
1742547941.955,253.418,-502.93,-1000.0,247.07
1742547941.959,-980.469,-920.898,-946.777,-979.492
1742547941.962,-1000.0,-643.066,-1000.0,-1000.0
1742547941.966,-319.336,349.121,-179.199,-355.469
1742547941.97,999.512,982.91,900.391,999.512
1742547941.974,232.422,-94.238,-292.969,223.145
1742547941.978,-1000.0,-1000.0,-1000.0,-1000.0
1742547941.935,920.41,-200.195,-1000.0,916.504
1742547941.939,956.055,-291.504,-956.543,959.473
1742547941.943,972.656,220.215,-1000.0,972.168
1742547941.947,898.926,377.93,-734.863,899.902
1742547941.951,999.512,26.367,-647.949,999.512
1742547941.955,253.418,-502.93,-1000.0,247.07
1742547941.959,-980.469,-920.898,-946.777,-979.492
1742547941.962,-1000.0,-643.066,-1000.0,-1000.0
1742547941.966,-319.336,349.121,-179.199,-355.469
1742547941.97,999.512,982.91,900.391,999.512
1742547941.974,232.422,-94.238,-292.969,223.145
1742547941.978,-1000.0,-1000.0,-1000.0,-1000.0
1742547941.98,-1000.0,-484.375,-1000.0,-1000.0
1742547941.984,-237.793,484.863,-126.953,-247.559
1742547941.988,999.512,984.375,999.512,999.512
1742547941.992,865.234,216.309,608.887,775.391
1742547941.996,-463.379,-923.828,-868.164,-587.402
1742547942.0,-1000.0,-426.758,-101.562,-1000.0
1742547942.004,-176.27,778.32,999.512,-143.066
1742547942.007,999.512,813.965,936.523,999.512
1742547942.011,709.473,-371.582,-77.148,902.832
1742547942.015,-653.809,-1000.0,-1000.0,-371.094
1742547942.019,-1000.0,-621.582,-885.742,-1000.0
1742547942.023,-166.992,529.785,192.383,-171.875
1742547941.98,-1000.0,-484.375,-1000.0,-1000.0
1742547941.984,-237.793,484.863,-126.953,-247.559
1742547941.988,999.512,984.375,999.512,999.512
1742547941.992,865.234,216.309,608.887,775.391
1742547941.996,-463.379,-923.828,-868.164,-587.402
1742547942.0,-1000.0,-426.758,-101.562,-1000.0
1742547942.004,-176.27,778.32,999.512,-143.066
1742547942.007,999.512,813.965,936.523,999.512
1742547942.011,709.473,-371.582,-77.148,902.832
1742547942.015,-653.809,-1000.0,-1000.0,-371.094
1742547942.019,-1000.0,-621.582,-885.742,-1000.0
1742547942.023,-166.992,529.785,192.383,-171.875
1742547942.025,976.562,746.582,999.512,995.605
1742547942.029,999.512,29.785,985.84,999.512
1742547942.033,50.781,-676.758,-308.105,-35.645
1742547942.037,-1000.0,-787.598,-436.523,-1000.0
1742547942.041,-203.613,326.66,948.73,-202.637
1742547942.045,999.512,999.512,985.84,999.512
1742547942.049,950.684,481.445,929.688,954.102
1742547942.052,937.5,-543.945,974.121,937.5
1742547942.056,973.633,-495.605,967.285,974.609
1742547942.06,978.027,195.801,967.285,978.516
1742547942.064,892.578,458.984,964.355,894.043
1742547942.068,999.512,73.242,975.586,999.512
1742547942.117,-312.5,235.84,35.156,-280.762
1742547942.121,953.125,999.512,985.84,972.656
1742547942.125,990.723,665.039,999.512,970.215
1742547942.129,891.602,-183.594,141.602,939.941
1742547942.133,-480.469,-970.703,-1000.0,-379.883
1742547942.137,-1000.0,-457.031,-87.402,-1000.0
1742547942.141,329.59,891.113,999.512,266.113
1742547942.144,999.512,586.426,995.117,999.512
1742547942.148,119.141,-598.145,-42.48,122.07
1742547942.152,-1000.0,-980.469,-1000.0,-1000.0
1742547942.156,-1000.0,-416.504,-1000.0,-1000.0
1742547942.16,-220.703,515.137,-39.062,-239.746
1742547942.117,-312.5,235.84,35.156,-280.762
1742547942.121,953.125,999.512,985.84,972.656
1742547942.125,990.723,665.039,999.512,970.215
1742547942.129,891.602,-183.594,141.602,939.941
1742547942.133,-480.469,-970.703,-1000.0,-379.883
1742547942.137,-1000.0,-457.031,-87.402,-1000.0
1742547942.141,329.59,891.113,999.512,266.113
1742547942.144,999.512,586.426,995.117,999.512
1742547942.148,119.141,-598.145,-42.48,122.07
1742547942.152,-1000.0,-980.469,-1000.0,-1000.0
1742547942.156,-1000.0,-416.504,-1000.0,-1000.0
1742547942.16,-220.703,515.137,-39.062,-239.746
1742547942.117,-312.5,235.84,35.156,-280.762
1742547942.121,953.125,999.512,985.84,972.656
1742547942.125,990.723,665.039,999.512,970.215
1742547942.129,891.602,-183.594,141.602,939.941
1742547942.133,-480.469,-970.703,-1000.0,-379.883
1742547942.137,-1000.0,-457.031,-87.402,-1000.0
1742547942.141,329.59,891.113,999.512,266.113
1742547942.144,999.512,586.426,995.117,999.512
1742547942.148,119.141,-598.145,-42.48,122.07
1742547942.152,-1000.0,-980.469,-1000.0,-1000.0
1742547942.156,-1000.0,-416.504,-1000.0,-1000.0
1742547942.16,-220.703,515.137,-39.062,-239.746
1742547942.16,999.512,901.855,999.512,999.512
1742547942.164,954.59,202.637,366.699,958.008
1742547942.168,937.012,-349.121,-975.586,936.035
1742547942.172,974.121,55.176,-409.668,976.562
1742547942.176,965.82,405.762,885.742,959.961
1742547942.18,905.273,577.637,956.543,916.016
1742547942.184,999.512,331.055,999.512,999.512
1742547942.187,172.852,-601.074,617.188,74.707
1742547942.191,-1000.0,-1000.0,507.324,-1000.0
1742547942.195,-1000.0,-550.293,998.047,-1000.0
1742547942.199,-144.043,571.289,939.453,-127.93
1742547942.203,999.512,779.785,999.512,999.512
1742547942.16,999.512,901.855,999.512,999.512
1742547942.164,954.59,202.637,366.699,958.008
1742547942.168,937.012,-349.121,-975.586,936.035
1742547942.172,974.121,55.176,-409.668,976.562
1742547942.176,965.82,405.762,885.742,959.961
1742547942.18,905.273,577.637,956.543,916.016
1742547942.184,999.512,331.055,999.512,999.512
1742547942.187,172.852,-601.074,617.188,74.707
1742547942.191,-1000.0,-1000.0,507.324,-1000.0
1742547942.195,-1000.0,-550.293,998.047,-1000.0
1742547942.199,-144.043,571.289,939.453,-127.93
1742547942.203,999.512,779.785,999.512,999.512
1742547942.687,959.961,274.902,974.121,956.543
1742547942.691,913.574,144.043,923.34,920.898
1742547942.695,999.512,79.59,999.512,999.512
1742547942.699,115.234,-696.777,86.914,59.57
1742547942.703,-1000.0,-676.758,-102.051,-1000.0
1742547942.707,-895.02,356.934,999.512,-861.816
1742547942.711,368.652,926.27,919.434,391.602
1742547942.714,999.512,325.684,999.512,999.512
1742547942.718,411.133,-768.066,513.184,428.711
1742547942.722,-1000.0,-1000.0,-827.637,-1000.0
1742547942.726,-405.762,-102.539,-153.809,-333.496
1742547942.73,941.406,999.512,999.512,994.141
1742547942.22,479.98,-404.297,613.77,416.016
1742547942.224,-1000.0,-986.816,410.156,-1000.0
1742547942.228,-247.559,220.215,989.746,-172.363
1742547942.232,999.512,999.512,941.895,999.512
1742547942.236,936.035,51.27,999.512,929.688
1742547942.24,938.965,-237.793,658.203,944.824
1742547942.244,979.98,126.953,-56.641,979.004
1742547942.247,937.988,-102.051,412.598,939.941
1742547942.251,953.613,121.582,999.512,952.637
1742547942.255,999.512,96.68,756.348,999.512
1742547942.259,-234.375,-805.176,-415.527,-216.309
1742547942.263,-1000.0,-894.531,-1000.0,-1000.0
1742547942.22,479.98,-404.297,613.77,416.016
1742547942.224,-1000.0,-986.816,410.156,-1000.0
1742547942.228,-247.559,220.215,989.746,-172.363
1742547942.232,999.512,999.512,941.895,999.512
1742547942.236,936.035,51.27,999.512,929.688
1742547942.24,938.965,-237.793,658.203,944.824
1742547942.244,979.98,126.953,-56.641,979.004
1742547942.247,937.988,-102.051,412.598,939.941
1742547942.251,953.613,121.582,999.512,952.637
1742547942.255,999.512,96.68,756.348,999.512
1742547942.259,-234.375,-805.176,-415.527,-216.309
1742547942.263,-1000.0,-894.531,-1000.0,-1000.0
1742547942.22,479.98,-404.297,613.77,416.016
1742547942.224,-1000.0,-986.816,410.156,-1000.0
1742547942.228,-247.559,220.215,989.746,-172.363
1742547942.232,999.512,999.512,941.895,999.512
1742547942.236,936.035,51.27,999.512,929.688
1742547942.24,938.965,-237.793,658.203,944.824
1742547942.244,979.98,126.953,-56.641,979.004
1742547942.247,937.988,-102.051,412.598,939.941
1742547942.251,953.613,121.582,999.512,952.637
1742547942.255,999.512,96.68,756.348,999.512
1742547942.259,-234.375,-805.176,-415.527,-216.309
1742547942.263,-1000.0,-894.531,-1000.0,-1000.0
1742547942.266,-1000.0,-104.98,-614.258,-1000.0
1742547942.27,-250.0,703.613,664.551,-215.82
1742547942.274,999.512,813.477,909.668,999.512
1742547942.278,183.594,-341.309,-284.668,182.617
1742547942.282,-1000.0,-1000.0,-1000.0,-1000.0
1742547942.286,-1000.0,-141.113,-666.504,-1000.0
1742547942.29,17.09,940.918,537.598,55.176
1742547942.293,999.512,756.836,999.512,999.512
1742547942.297,323.73,-381.836,128.418,348.145
1742547942.301,-976.074,-1000.0,-1000.0,-976.562
1742547942.305,-1000.0,-549.805,-841.797,-1000.0
1742547942.309,53.711,643.066,439.941,173.828
1742547942.266,-1000.0,-104.98,-614.258,-1000.0
1742547942.27,-250.0,703.613,664.551,-215.82
1742547942.274,999.512,813.477,909.668,999.512
1742547942.278,183.594,-341.309,-284.668,182.617
1742547942.282,-1000.0,-1000.0,-1000.0,-1000.0
1742547942.286,-1000.0,-141.113,-666.504,-1000.0
1742547942.29,17.09,940.918,537.598,55.176
1742547942.293,999.512,756.836,999.512,999.512
1742547942.297,323.73,-381.836,128.418,348.145
1742547942.301,-976.074,-1000.0,-1000.0,-976.562
1742547942.305,-1000.0,-549.805,-841.797,-1000.0
1742547942.309,53.711,643.066,439.941,173.828
1742547942.266,-1000.0,-104.98,-614.258,-1000.0
1742547942.27,-250.0,703.613,664.551,-215.82
1742547942.274,999.512,813.477,909.668,999.512
1742547942.278,183.594,-341.309,-284.668,182.617
1742547942.282,-1000.0,-1000.0,-1000.0,-1000.0
1742547942.286,-1000.0,-141.113,-666.504,-1000.0
1742547942.29,17.09,940.918,537.598,55.176
1742547942.293,999.512,756.836,999.512,999.512
1742547942.297,323.73,-381.836,128.418,348.145
1742547942.301,-976.074,-1000.0,-1000.0,-976.562
1742547942.305,-1000.0,-549.805,-841.797,-1000.0
1742547942.309,53.711,643.066,439.941,173.828
1742547942.31,999.512,789.062,999.512,999.512
1742547942.314,998.047,-247.07,-187.5,999.512
1742547942.318,-186.035,-988.281,-1000.0,234.375
1742547942.322,-1000.0,-748.535,-783.691,-1000.0
1742547942.326,130.859,517.09,398.926,206.055
1742547942.33,999.512,999.512,999.512,999.512
1742547942.334,819.336,127.93,769.043,731.934
1742547942.337,-422.363,-929.688,-623.535,-530.762
1742547942.341,-1000.0,-875.0,-728.516,-1000.0
1742547942.345,-754.395,38.574,631.348,-837.891
1742547942.349,569.336,924.316,999.512,454.59
1742547942.353,999.512,602.539,719.727,999.512
1742547942.31,999.512,789.062,999.512,999.512
1742547942.314,998.047,-247.07,-187.5,999.512
1742547942.318,-186.035,-988.281,-1000.0,234.375
1742547942.322,-1000.0,-748.535,-783.691,-1000.0
1742547942.326,130.859,517.09,398.926,206.055
1742547942.33,999.512,999.512,999.512,999.512
1742547942.334,819.336,127.93,769.043,731.934
1742547942.337,-422.363,-929.688,-623.535,-530.762
1742547942.341,-1000.0,-875.0,-728.516,-1000.0
1742547942.345,-754.395,38.574,631.348,-837.891
1742547942.349,569.336,924.316,999.512,454.59
1742547942.353,999.512,602.539,719.727,999.512
1742547942.356,-75.195,-708.984,-558.594,-120.117
1742547942.36,-1000.0,-701.66,-858.887,-1000.0
1742547942.364,-357.91,589.355,383.301,-411.621
1742547942.368,999.512,996.582,999.512,999.512
1742547942.372,559.57,-23.438,371.094,503.418
1742547942.376,-862.793,-1000.0,-899.414,-908.203
1742547942.38,-1000.0,-579.59,-1000.0,-1000.0
1742547942.383,-168.457,544.434,46.875,-182.129
1742547942.387,946.289,819.336,998.047,948.73
1742547942.391,999.512,134.766,999.512,999.512
1742547942.395,345.215,-583.984,395.02,305.664
1742547942.399,-1000.0,-948.73,-144.043,-1000.0
1742547942.356,-75.195,-708.984,-558.594,-120.117
1742547942.36,-1000.0,-701.66,-858.887,-1000.0
1742547942.364,-357.91,589.355,383.301,-411.621
1742547942.368,999.512,996.582,999.512,999.512
1742547942.372,559.57,-23.438,371.094,503.418
1742547942.376,-862.793,-1000.0,-899.414,-908.203
1742547942.38,-1000.0,-579.59,-1000.0,-1000.0
1742547942.383,-168.457,544.434,46.875,-182.129
1742547942.387,946.289,819.336,998.047,948.73
1742547942.391,999.512,134.766,999.512,999.512
1742547942.395,345.215,-583.984,395.02,305.664
1742547942.399,-1000.0,-948.73,-144.043,-1000.0
1742547942.417,-956.543,-362.793,713.867,-897.949
1742547942.421,351.562,718.262,993.164,415.039
1742547942.425,999.512,768.066,986.328,999.512
1742547942.429,640.625,-286.621,787.109,573.242
1742547942.433,-821.289,-1000.0,686.035,-912.109
1742547942.437,-963.379,-192.871,985.84,-841.797
1742547942.441,490.723,985.84,943.848,624.512
1742547942.444,999.512,337.402,999.512,999.512
1742547942.448,812.5,-764.16,717.285,845.215
1742547942.452,-460.449,-984.863,487.305,-427.246
1742547942.456,-1000.0,-421.387,929.199,-1000.0
1742547942.46,-5.859,658.691,999.512,97.168
1742547942.417,-956.543,-362.793,713.867,-897.949
1742547942.421,351.562,718.262,993.164,415.039
1742547942.425,999.512,768.066,986.328,999.512
1742547942.429,640.625,-286.621,787.109,573.242
1742547942.433,-821.289,-1000.0,686.035,-912.109
1742547942.437,-963.379,-192.871,985.84,-841.797
1742547942.441,490.723,985.84,943.848,624.512
1742547942.444,999.512,337.402,999.512,999.512
1742547942.448,812.5,-764.16,717.285,845.215
1742547942.452,-460.449,-984.863,487.305,-427.246
1742547942.456,-1000.0,-421.387,929.199,-1000.0
1742547942.46,-5.859,658.691,999.512,97.168
1742547942.417,-956.543,-362.793,713.867,-897.949
1742547942.421,351.562,718.262,993.164,415.039
1742547942.425,999.512,768.066,986.328,999.512
1742547942.429,640.625,-286.621,787.109,573.242
1742547942.433,-821.289,-1000.0,686.035,-912.109
1742547942.437,-963.379,-192.871,985.84,-841.797
1742547942.441,490.723,985.84,943.848,624.512
1742547942.444,999.512,337.402,999.512,999.512
1742547942.448,812.5,-764.16,717.285,845.215
1742547942.452,-460.449,-984.863,487.305,-427.246
1742547942.456,-1000.0,-421.387,929.199,-1000.0
1742547942.46,-5.859,658.691,999.512,97.168
1742547942.46,999.512,755.371,823.73,999.512
1742547942.464,143.066,-472.656,-262.695,123.535
1742547942.468,-1000.0,-982.422,-1000.0,-1000.0
1742547942.472,-986.816,-243.164,-990.234,-991.211
1742547942.476,-406.738,495.605,-55.664,-474.609
1742547942.48,968.75,999.512,999.512,940.43
1742547942.484,670.41,384.766,199.707,602.051
1742547942.487,-799.316,-895.996,-1000.0,-861.816
1742547942.491,-1000.0,-882.812,-543.457,-1000.0
1742547942.495,-221.191,164.551,646.973,-276.855
1742547942.499,983.398,929.199,999.512,978.516
1742547942.503,999.512,184.082,758.789,999.512
1742547942.46,999.512,755.371,823.73,999.512
1742547942.464,143.066,-472.656,-262.695,123.535
1742547942.468,-1000.0,-982.422,-1000.0,-1000.0
1742547942.472,-986.816,-243.164,-990.234,-991.211
1742547942.476,-406.738,495.605,-55.664,-474.609
1742547942.48,968.75,999.512,999.512,940.43
1742547942.484,670.41,384.766,199.707,602.051
1742547942.487,-799.316,-895.996,-1000.0,-861.816
1742547942.491,-1000.0,-882.812,-543.457,-1000.0
1742547942.495,-221.191,164.551,646.973,-276.855
1742547942.499,983.398,929.199,999.512,978.516
1742547942.503,999.512,184.082,758.789,999.512
1742547942.46,999.512,755.371,823.73,999.512
1742547942.464,143.066,-472.656,-262.695,123.535
1742547942.468,-1000.0,-982.422,-1000.0,-1000.0
1742547942.472,-986.816,-243.164,-990.234,-991.211
1742547942.476,-406.738,495.605,-55.664,-474.609
1742547942.48,968.75,999.512,999.512,940.43
1742547942.484,670.41,384.766,199.707,602.051
1742547942.487,-799.316,-895.996,-1000.0,-861.816
1742547942.491,-1000.0,-882.812,-543.457,-1000.0
1742547942.495,-221.191,164.551,646.973,-276.855
1742547942.499,983.398,929.199,999.512,978.516
1742547942.503,999.512,184.082,758.789,999.512
1742547942.49,-128.418,-835.449,-640.137,-193.848
1742547942.494,-1000.0,-760.742,-639.16,-1000.0
1742547942.498,-184.57,431.641,791.992,-203.613
1742547942.502,999.512,958.008,999.512,999.512
1742547942.506,999.512,209.473,921.875,936.523
1742547942.51,-172.852,-765.137,971.191,-383.301
1742547942.514,-1000.0,-703.125,970.703,-1000.0
1742547942.517,-943.848,-74.219,949.707,-937.012
1742547942.521,-996.582,-146.973,935.547,-1000.0
1742547942.525,-1000.0,-106.934,999.512,-1000.0
1742547942.529,-961.914,-280.762,-134.766,-970.703
1742547942.533,-1000.0,-590.332,-837.402,-991.699
1742547942.49,-128.418,-835.449,-640.137,-193.848
1742547942.494,-1000.0,-760.742,-639.16,-1000.0
1742547942.498,-184.57,431.641,791.992,-203.613
1742547942.502,999.512,958.008,999.512,999.512
1742547942.506,999.512,209.473,921.875,936.523
1742547942.51,-172.852,-765.137,971.191,-383.301
1742547942.514,-1000.0,-703.125,970.703,-1000.0
1742547942.517,-943.848,-74.219,949.707,-937.012
1742547942.521,-996.582,-146.973,935.547,-1000.0
1742547942.525,-1000.0,-106.934,999.512,-1000.0
1742547942.529,-961.914,-280.762,-134.766,-970.703
1742547942.533,-1000.0,-590.332,-837.402,-991.699
1742547942.536,-988.281,149.414,554.688,-1000.0
1742547942.54,265.137,867.188,999.512,155.762
1742547942.544,999.512,690.43,999.512,999.512
1742547942.548,181.641,-443.359,596.68,162.598
1742547942.552,-1000.0,-1000.0,400.879,-1000.0
1742547942.556,-1000.0,-121.582,991.699,-1000.0
1742547942.56,94.238,999.023,958.496,125.0
1742547942.563,999.512,601.562,999.512,999.512
1742547942.567,408.203,-561.523,770.996,357.91
1742547942.571,-943.359,-1000.0,642.578,-994.141
1742547942.575,-1000.0,-368.164,983.887,-1000.0
1742547942.579,141.113,755.371,968.75,256.836
1742547942.536,-988.281,149.414,554.688,-1000.0
1742547942.54,265.137,867.188,999.512,155.762
1742547942.544,999.512,690.43,999.512,999.512
1742547942.548,181.641,-443.359,596.68,162.598
1742547942.552,-1000.0,-1000.0,400.879,-1000.0
1742547942.556,-1000.0,-121.582,991.699,-1000.0
1742547942.56,94.238,999.023,958.496,125.0
1742547942.563,999.512,601.562,999.512,999.512
1742547942.567,408.203,-561.523,770.996,357.91
1742547942.571,-943.359,-1000.0,642.578,-994.141
1742547942.575,-1000.0,-368.164,983.887,-1000.0
1742547942.579,141.113,755.371,968.75,256.836
1742547942.536,-988.281,149.414,554.688,-1000.0
1742547942.54,265.137,867.188,999.512,155.762
1742547942.544,999.512,690.43,999.512,999.512
1742547942.548,181.641,-443.359,596.68,162.598
1742547942.552,-1000.0,-1000.0,400.879,-1000.0
1742547942.556,-1000.0,-121.582,991.699,-1000.0
1742547942.56,94.238,999.023,958.496,125.0
1742547942.563,999.512,601.562,999.512,999.512
1742547942.567,408.203,-561.523,770.996,357.91
1742547942.571,-943.359,-1000.0,642.578,-994.141
1742547942.575,-1000.0,-368.164,983.887,-1000.0
1742547942.579,141.113,755.371,968.75,256.836
1742547942.581,999.512,761.719,966.797,999.512
1742547942.585,858.398,-358.398,946.289,757.324
1742547942.589,-376.465,-1000.0,885.254,-508.789
1742547942.593,-1000.0,-594.727,960.449,-1000.0
1742547942.597,-153.809,478.516,958.008,-95.215
1742547942.601,999.512,999.512,990.234,999.512
1742547942.605,949.707,236.328,910.156,942.383
1742547942.608,938.965,-643.555,661.133,944.336
1742547942.612,987.305,-274.902,880.371,986.816
1742547942.616,906.738,147.949,970.703,903.809
1742547942.62,999.512,138.672,974.609,999.512
1742547942.624,754.883,-207.031,942.383,697.754
1742547942.581,999.512,761.719,966.797,999.512
1742547942.585,858.398,-358.398,946.289,757.324
1742547942.589,-376.465,-1000.0,885.254,-508.789
1742547942.593,-1000.0,-594.727,960.449,-1000.0
1742547942.597,-153.809,478.516,958.008,-95.215
1742547942.601,999.512,999.512,990.234,999.512
1742547942.605,949.707,236.328,910.156,942.383
1742547942.608,938.965,-643.555,661.133,944.336
1742547942.612,987.305,-274.902,880.371,986.816
1742547942.616,906.738,147.949,970.703,903.809
1742547942.62,999.512,138.672,974.609,999.512
1742547942.624,754.883,-207.031,942.383,697.754
1742547942.641,-582.52,-957.031,-107.422,-651.367
1742547942.645,-1000.0,-536.133,156.738,-1000.0
1742547942.649,-688.477,652.344,999.512,-710.938
1742547942.653,849.121,999.512,999.512,820.801
1742547942.657,715.82,53.711,748.047,620.117
1742547942.661,-860.352,-1000.0,-676.27,-947.754
1742547942.665,-1000.0,-294.922,-282.715,-1000.0
1742547942.668,166.504,852.051,999.512,206.055
1742547942.672,999.512,678.223,962.891,999.512
1742547942.676,910.156,-506.348,931.641,910.156
1742547942.68,961.914,-571.777,862.793,964.355
1742547942.684,967.773,205.078,930.664,969.727
1742547942.641,-582.52,-957.031,-107.422,-651.367
1742547942.645,-1000.0,-536.133,156.738,-1000.0
1742547942.649,-688.477,652.344,999.512,-710.938
1742547942.653,849.121,999.512,999.512,820.801
1742547942.657,715.82,53.711,748.047,620.117
1742547942.661,-860.352,-1000.0,-676.27,-947.754
1742547942.665,-1000.0,-294.922,-282.715,-1000.0
1742547942.668,166.504,852.051,999.512,206.055
1742547942.672,999.512,678.223,962.891,999.512
1742547942.676,910.156,-506.348,931.641,910.156
1742547942.68,961.914,-571.777,862.793,964.355
1742547942.684,967.773,205.078,930.664,969.727
1742547942.731,999.512,474.121,944.824,999.512
1742547942.735,557.617,-466.309,-95.703,852.539
1742547942.739,-1000.0,-1000.0,-1000.0,-702.637
1742547942.743,-467.773,-230.957,-86.426,-437.988
1742547942.747,937.5,999.512,980.957,987.793
1742547942.751,999.512,749.512,999.512,999.512
1742547942.755,292.969,-378.906,-2.441,287.598
1742547942.758,-940.43,-913.086,-1000.0,-947.266
1742547942.762,-1000.0,-937.5,-735.84,-1000.0
1742547942.766,-240.723,-37.109,446.289,-232.422
1742547942.77,999.512,933.105,999.512,999.512
1742547942.774,186.035,-243.164,323.242,168.457
1742547942.731,999.512,474.121,944.824,999.512
1742547942.735,557.617,-466.309,-95.703,852.539
1742547942.739,-1000.0,-1000.0,-1000.0,-702.637
1742547942.743,-467.773,-230.957,-86.426,-437.988
1742547942.747,937.5,999.512,980.957,987.793
1742547942.751,999.512,749.512,999.512,999.512
1742547942.755,292.969,-378.906,-2.441,287.598
1742547942.758,-940.43,-913.086,-1000.0,-947.266
1742547942.762,-1000.0,-937.5,-735.84,-1000.0
1742547942.766,-240.723,-37.109,446.289,-232.422
1742547942.77,999.512,933.105,999.512,999.512
1742547942.774,186.035,-243.164,323.242,168.457
1742547942.731,999.512,474.121,944.824,999.512
1742547942.735,557.617,-466.309,-95.703,852.539
1742547942.739,-1000.0,-1000.0,-1000.0,-702.637
1742547942.743,-467.773,-230.957,-86.426,-437.988
1742547942.747,937.5,999.512,980.957,987.793
1742547942.751,999.512,749.512,999.512,999.512
1742547942.755,292.969,-378.906,-2.441,287.598
1742547942.758,-940.43,-913.086,-1000.0,-947.266
1742547942.762,-1000.0,-937.5,-735.84,-1000.0
1742547942.766,-240.723,-37.109,446.289,-232.422
1742547942.77,999.512,933.105,999.512,999.512
1742547942.774,186.035,-243.164,323.242,168.457
1742547942.775,-1000.0,-1000.0,-1000.0,-1000.0
1742547942.779,-1000.0,-475.098,-891.602,-1000.0
1742547942.783,-257.324,581.543,304.688,-258.301
1742547942.787,999.512,967.773,999.512,999.512
1742547942.791,675.293,-5.859,101.562,690.918
1742547942.795,-690.43,-956.055,-981.445,-664.551
1742547942.799,-1000.0,-504.395,-1000.0,-1000.0
1742547942.802,-423.34,288.086,-108.398,-426.27
1742547942.806,999.512,742.676,912.109,999.512
1742547942.81,205.566,-261.719,-209.473,203.613
1742547942.814,-1000.0,-1000.0,-1000.0,-1000.0
1742547942.818,-971.68,-516.113,-967.773,-971.191
1742547942.82,-973.145,70.312,-986.328,-973.145
1742547942.824,-1000.0,187.5,-1000.0,-1000.0
1742547942.828,-1000.0,-112.305,-1000.0,-1000.0
1742547942.832,-931.152,-363.281,-992.676,-934.082
1742547942.836,-1000.0,-263.672,-1000.0,-1000.0
1742547942.84,-680.664,389.16,-988.281,-702.148
1742547942.844,706.055,999.512,-854.492,685.059
1742547942.847,999.512,231.445,-951.66,999.512
1742547942.851,167.48,-877.93,-955.566,75.195
1742547942.855,-1000.0,-882.324,-1000.0,-1000.0
1742547942.859,-256.836,194.824,-289.062,-236.328
1742547942.863,980.469,999.512,999.512,978.027
1742547942.82,-973.145,70.312,-986.328,-973.145
1742547942.824,-1000.0,187.5,-1000.0,-1000.0
1742547942.828,-1000.0,-112.305,-1000.0,-1000.0
1742547942.832,-931.152,-363.281,-992.676,-934.082
1742547942.836,-1000.0,-263.672,-1000.0,-1000.0
1742547942.84,-680.664,389.16,-988.281,-702.148
1742547942.844,706.055,999.512,-854.492,685.059
1742547942.847,999.512,231.445,-951.66,999.512
1742547942.851,167.48,-877.93,-955.566,75.195
1742547942.855,-1000.0,-882.324,-1000.0,-1000.0
1742547942.859,-256.836,194.824,-289.062,-236.328
1742547942.863,980.469,999.512,999.512,978.027
1742547942.866,999.512,586.426,9.277,999.512
1742547942.87,155.273,-563.965,-1000.0,152.832
1742547942.874,-1000.0,-1000.0,-980.469,-1000.0
1742547942.878,-983.887,-59.57,-978.516,-983.398
1742547942.882,-973.145,405.762,-1000.0,-973.145
1742547942.886,-1000.0,406.25,-999.512,-1000.0
1742547942.89,-929.688,-111.816,-940.918,-927.246
1742547942.893,-1000.0,-869.629,-1000.0,-1000.0
1742547942.897,-367.676,156.25,-212.891,-434.57
1742547942.901,982.422,999.512,999.512,951.172
1742547942.905,974.609,661.621,952.148,988.281
1742547942.909,927.246,-236.816,939.941,922.363
1742547942.866,999.512,586.426,9.277,999.512
1742547942.87,155.273,-563.965,-1000.0,152.832
1742547942.874,-1000.0,-1000.0,-980.469,-1000.0
1742547942.878,-983.887,-59.57,-978.516,-983.398
1742547942.882,-973.145,405.762,-1000.0,-973.145
1742547942.886,-1000.0,406.25,-999.512,-1000.0
1742547942.89,-929.688,-111.816,-940.918,-927.246
1742547942.893,-1000.0,-869.629,-1000.0,-1000.0
1742547942.897,-367.676,156.25,-212.891,-434.57
1742547942.901,982.422,999.512,999.512,951.172
1742547942.905,974.609,661.621,952.148,988.281
1742547942.909,927.246,-236.816,939.941,922.363
1742547942.926,977.539,-249.512,974.121,980.957
1742547942.93,965.82,250.977,966.797,960.938
1742547942.934,905.273,529.785,966.797,914.551
1742547942.938,999.512,366.211,966.797,999.512
1742547942.942,151.855,-684.082,967.285,67.871
1742547942.946,-1000.0,-632.324,967.285,-1000.0
1742547942.95,-1000.0,332.031,967.285,-1000.0
1742547942.953,-738.281,526.855,967.285,-627.93
1742547942.957,814.453,725.586,966.797,916.992
1742547942.961,819.336,92.773,966.797,669.922
1742547942.965,-745.605,-953.125,966.797,-901.367
1742547942.969,-1000.0,-590.332,967.285,-1000.0
1742547942.926,977.539,-249.512,974.121,980.957
1742547942.93,965.82,250.977,966.797,960.938
1742547942.934,905.273,529.785,966.797,914.551
1742547942.938,999.512,366.211,966.797,999.512
1742547942.942,151.855,-684.082,967.285,67.871
1742547942.946,-1000.0,-632.324,967.285,-1000.0
1742547942.95,-1000.0,332.031,967.285,-1000.0
1742547942.953,-738.281,526.855,967.285,-627.93
1742547942.957,814.453,725.586,966.797,916.992
1742547942.961,819.336,92.773,966.797,669.922
1742547942.965,-745.605,-953.125,966.797,-901.367
1742547942.969,-1000.0,-590.332,967.285,-1000.0
1742547942.97,174.316,658.203,966.797,345.703
1742547942.974,999.512,864.746,966.797,999.512
1742547942.978,910.156,18.066,966.797,904.785
1742547942.982,962.402,-311.035,966.797,970.215
1742547942.986,980.469,82.031,967.285,980.469
1742547942.99,913.574,605.957,966.797,912.598
1742547942.994,999.512,546.875,966.797,999.512
1742547942.997,835.449,-284.668,967.285,810.547
1742547943.001,-560.059,-978.516,967.285,-585.449
1742547943.005,-1000.0,-876.953,967.285,-1000.0
1742547943.009,-933.594,-109.375,967.285,-935.059
1742547943.013,-1000.0,394.531,967.285,-1000.0
1742547942.97,174.316,658.203,966.797,345.703
1742547942.974,999.512,864.746,966.797,999.512
1742547942.978,910.156,18.066,966.797,904.785
1742547942.982,962.402,-311.035,966.797,970.215
1742547942.986,980.469,82.031,967.285,980.469
1742547942.99,913.574,605.957,966.797,912.598
1742547942.994,999.512,546.875,966.797,999.512
1742547942.997,835.449,-284.668,967.285,810.547
1742547943.001,-560.059,-978.516,967.285,-585.449
1742547943.005,-1000.0,-876.953,967.285,-1000.0
1742547943.009,-933.594,-109.375,967.285,-935.059
1742547943.013,-1000.0,394.531,967.285,-1000.0
1742547943.015,-1000.0,-163.574,966.797,-1000.0
1742547943.019,-997.559,-475.586,967.285,-995.117
1742547943.023,-942.871,86.914,967.285,-946.289
1742547943.027,-1000.0,393.555,967.285,-1000.0
1742547943.031,-232.422,680.176,967.285,-197.266
1742547943.035,999.512,999.512,966.797,999.512
1742547943.039,366.211,-13.184,967.285,278.809
1742547943.042,-1000.0,-957.52,967.285,-1000.0
1742547943.046,-900.391,-365.723,967.285,-717.773
1742547943.05,528.32,631.836,967.285,728.027
1742547943.054,999.512,533.691,966.797,999.512
1742547943.058,899.414,-287.598,966.797,905.273
1742547943.015,-1000.0,-163.574,966.797,-1000.0
1742547943.019,-997.559,-475.586,967.285,-995.117
1742547943.023,-942.871,86.914,967.285,-946.289
1742547943.027,-1000.0,393.555,967.285,-1000.0
1742547943.031,-232.422,680.176,967.285,-197.266
1742547943.035,999.512,999.512,966.797,999.512
1742547943.039,366.211,-13.184,967.285,278.809
1742547943.042,-1000.0,-957.52,967.285,-1000.0
1742547943.046,-900.391,-365.723,967.285,-717.773
1742547943.05,528.32,631.836,967.285,728.027
1742547943.054,999.512,533.691,966.797,999.512
1742547943.058,899.414,-287.598,966.797,905.273
1742547943.076,977.539,-356.445,967.285,981.934
1742547943.08,903.32,85.938,967.773,904.297
1742547943.084,999.512,501.465,952.148,999.512
1742547943.088,187.012,-259.277,999.512,187.5
1742547943.092,-1000.0,-1000.0,777.344,-1000.0
1742547943.096,-983.887,-451.66,702.637,-983.887
1742547943.1,-973.145,243.164,994.629,-973.145
1742547943.103,-1000.0,-8.789,921.387,-1000.0
1742547943.107,-1000.0,-255.371,999.512,-1000.0
1742547943.111,-988.281,-351.074,604.492,-979.98
1742547943.115,-956.543,-201.172,-285.156,-972.168
1742547943.119,-1000.0,-77.637,411.621,-1000.0
1742547943.076,977.539,-356.445,967.285,981.934
1742547943.08,903.32,85.938,967.773,904.297
1742547943.084,999.512,501.465,952.148,999.512
1742547943.088,187.012,-259.277,999.512,187.5
1742547943.092,-1000.0,-1000.0,777.344,-1000.0
1742547943.096,-983.887,-451.66,702.637,-983.887
1742547943.1,-973.145,243.164,994.629,-973.145
1742547943.103,-1000.0,-8.789,921.387,-1000.0
1742547943.107,-1000.0,-255.371,999.512,-1000.0
1742547943.111,-988.281,-351.074,604.492,-979.98
1742547943.115,-956.543,-201.172,-285.156,-972.168
1742547943.119,-1000.0,-77.637,411.621,-1000.0
1742547943.105,-70.801,559.57,999.512,51.758
1742547943.109,999.512,787.109,990.723,999.512
1742547943.113,840.82,-131.348,766.602,896.484
1742547943.117,-437.988,-935.547,-638.672,-319.336
1742547943.121,-1000.0,-701.172,-443.359,-1000.0
1742547943.125,-223.145,508.301,829.102,-222.656
1742547943.129,999.512,999.512,999.512,999.512
1742547943.132,624.023,107.422,588.867,662.598
1742547943.136,-804.199,-1000.0,-832.031,-747.07
1742547943.14,-1000.0,-699.219,-775.879,-1000.0
1742547943.144,-1000.0,232.422,539.551,-1000.0
1742547943.148,274.414,847.656,999.512,358.887
1742547943.105,-70.801,559.57,999.512,51.758
1742547943.109,999.512,787.109,990.723,999.512
1742547943.113,840.82,-131.348,766.602,896.484
1742547943.117,-437.988,-935.547,-638.672,-319.336
1742547943.121,-1000.0,-701.172,-443.359,-1000.0
1742547943.125,-223.145,508.301,829.102,-222.656
1742547943.129,999.512,999.512,999.512,999.512
1742547943.132,624.023,107.422,588.867,662.598
1742547943.136,-804.199,-1000.0,-832.031,-747.07
1742547943.14,-1000.0,-699.219,-775.879,-1000.0
1742547943.144,-1000.0,232.422,539.551,-1000.0
1742547943.148,274.414,847.656,999.512,358.887
1742547943.105,-70.801,559.57,999.512,51.758
1742547943.109,999.512,787.109,990.723,999.512
1742547943.113,840.82,-131.348,766.602,896.484
1742547943.117,-437.988,-935.547,-638.672,-319.336
1742547943.121,-1000.0,-701.172,-443.359,-1000.0
1742547943.125,-223.145,508.301,829.102,-222.656
1742547943.129,999.512,999.512,999.512,999.512
1742547943.132,624.023,107.422,588.867,662.598
1742547943.136,-804.199,-1000.0,-832.031,-747.07
1742547943.14,-1000.0,-699.219,-775.879,-1000.0
1742547943.144,-1000.0,232.422,539.551,-1000.0
1742547943.148,274.414,847.656,999.512,358.887
1742547943.151,540.039,122.559,836.914,380.371
1742547943.155,-962.891,-1000.0,-543.457,-1000.0
1742547943.159,-1000.0,-557.129,-488.281,-1000.0
1742547943.163,-398.438,576.66,927.246,-380.371
1742547943.167,933.105,786.133,971.191,949.219
1742547943.171,989.258,518.066,981.445,984.863
1742547943.175,920.898,137.207,694.336,923.828
1742547943.178,979.004,-333.984,620.605,979.492
1742547943.182,966.797,-67.383,999.512,964.355
1742547943.186,903.32,245.605,937.988,908.691
1742547943.19,999.512,154.785,999.512,999.512
1742547943.194,175.293,-572.754,581.055,128.906
1742547943.151,540.039,122.559,836.914,380.371
1742547943.155,-962.891,-1000.0,-543.457,-1000.0
1742547943.159,-1000.0,-557.129,-488.281,-1000.0
1742547943.163,-398.438,576.66,927.246,-380.371
1742547943.167,933.105,786.133,971.191,949.219
1742547943.171,989.258,518.066,981.445,984.863
1742547943.175,920.898,137.207,694.336,923.828
1742547943.178,979.004,-333.984,620.605,979.492
1742547943.182,966.797,-67.383,999.512,964.355
1742547943.186,903.32,245.605,937.988,908.691
1742547943.19,999.512,154.785,999.512,999.512
1742547943.194,175.293,-572.754,581.055,128.906
1742547943.195,-997.559,-784.668,427.734,-1000.0
1742547943.199,-1000.0,7.812,999.512,-1000.0
1742547943.203,-431.641,583.984,961.914,-362.305
1742547943.207,932.617,924.316,990.723,965.332
1742547943.211,991.699,-58.105,781.25,979.492
1742547943.215,919.922,-240.723,753.418,926.27
1742547943.219,979.492,633.301,997.07,978.027
1742547943.222,966.309,418.945,961.914,966.797
1742547943.226,965.82,-303.223,963.867,966.797
1742547943.23,966.309,-524.902,967.285,966.797
1742547943.234,966.309,-12.695,966.797,966.797
1742547943.238,966.309,448.73,966.797,966.797
1742547943.195,-997.559,-784.668,427.734,-1000.0
1742547943.199,-1000.0,7.812,999.512,-1000.0
1742547943.203,-431.641,583.984,961.914,-362.305
1742547943.207,932.617,924.316,990.723,965.332
1742547943.211,991.699,-58.105,781.25,979.492
1742547943.215,919.922,-240.723,753.418,926.27
1742547943.219,979.492,633.301,997.07,978.027
1742547943.222,966.309,418.945,961.914,966.797
1742547943.226,965.82,-303.223,963.867,966.797
1742547943.23,966.309,-524.902,967.285,966.797
1742547943.234,966.309,-12.695,966.797,966.797
1742547943.238,966.309,448.73,966.797,966.797
1742547943.706,350.586,-285.156,-243.652,467.773
1742547943.71,-1000.0,-1000.0,-1000.0,-1000.0
1742547943.714,-214.355,49.805,-97.656,-236.328
1742547943.718,999.512,999.512,949.707,999.512
1742547943.722,999.512,311.035,999.512,999.512
1742547943.726,469.238,-372.559,311.035,423.828
1742547943.73,-926.27,-941.406,-1000.0,-950.195
1742547943.733,-1000.0,-586.914,-536.621,-1000.0
1742547943.737,-947.754,86.914,708.008,-951.66
1742547943.741,-1000.0,29.785,999.512,-1000.0
1742547943.745,-960.449,-213.867,72.754,-956.055
1742547943.749,-1000.0,-377.441,-1000.0,-1000.0
1742547943.241,966.309,406.738,966.797,966.797
1742547943.245,966.309,241.699,966.797,966.797
1742547943.249,966.309,145.996,966.797,966.797
1742547943.253,966.309,10.254,966.797,966.797
1742547943.257,966.309,105.469,966.797,966.797
1742547943.261,966.309,581.055,966.797,966.797
1742547943.265,966.309,923.828,966.797,966.797
1742547943.268,966.309,-41.016,966.797,966.797
1742547943.272,966.309,-817.383,966.797,966.797
1742547943.276,966.309,-112.305,966.797,967.285
1742547943.28,966.309,400.391,967.285,967.285
1742547943.284,966.309,198.242,967.285,967.285
1742547943.241,966.309,406.738,966.797,966.797
1742547943.245,966.309,241.699,966.797,966.797
1742547943.249,966.309,145.996,966.797,966.797
1742547943.253,966.309,10.254,966.797,966.797
1742547943.257,966.309,105.469,966.797,966.797
1742547943.261,966.309,581.055,966.797,966.797
1742547943.265,966.309,923.828,966.797,966.797
1742547943.268,966.309,-41.016,966.797,966.797
1742547943.272,966.309,-817.383,966.797,966.797
1742547943.276,966.309,-112.305,966.797,967.285
1742547943.28,966.309,400.391,967.285,967.285
1742547943.284,966.309,198.242,967.285,967.285
1742547943.285,966.309,-329.102,966.797,966.797
1742547943.289,981.445,-487.793,966.797,980.469
1742547943.293,900.391,-54.199,967.773,895.02
1742547943.297,999.512,310.547,961.426,999.512
1742547943.301,695.312,-2.93,966.309,520.996
1742547943.305,-745.117,-874.023,988.77,-899.902
1742547943.309,-1000.0,-603.027,734.375,-1000.0
1742547943.312,-937.012,-58.105,778.809,-947.266
1742547943.316,-1000.0,-26.367,991.211,-1000.0
1742547943.32,-1000.0,-111.816,938.477,-1000.0
1742547943.324,-972.656,-152.344,999.512,-972.168
1742547943.328,-986.328,-408.691,230.957,-987.793
1742547943.285,966.309,-329.102,966.797,966.797
1742547943.289,981.445,-487.793,966.797,980.469
1742547943.293,900.391,-54.199,967.773,895.02
1742547943.297,999.512,310.547,961.426,999.512
1742547943.301,695.312,-2.93,966.309,520.996
1742547943.305,-745.117,-874.023,988.77,-899.902
1742547943.309,-1000.0,-603.027,734.375,-1000.0
1742547943.312,-937.012,-58.105,778.809,-947.266
1742547943.316,-1000.0,-26.367,991.211,-1000.0
1742547943.32,-1000.0,-111.816,938.477,-1000.0
1742547943.324,-972.656,-152.344,999.512,-972.168
1742547943.328,-986.328,-408.691,230.957,-987.793
1742547943.285,966.309,-329.102,966.797,966.797
1742547943.289,981.445,-487.793,966.797,980.469
1742547943.293,900.391,-54.199,967.773,895.02
1742547943.297,999.512,310.547,961.426,999.512
1742547943.301,695.312,-2.93,966.309,520.996
1742547943.305,-745.117,-874.023,988.77,-899.902
1742547943.309,-1000.0,-603.027,734.375,-1000.0
1742547943.312,-937.012,-58.105,778.809,-947.266
1742547943.316,-1000.0,-26.367,991.211,-1000.0
1742547943.32,-1000.0,-111.816,938.477,-1000.0
1742547943.324,-972.656,-152.344,999.512,-972.168
1742547943.328,-986.328,-408.691,230.957,-987.793
1742547943.347,-1000.0,-307.129,131.836,-1000.0
1742547943.351,196.289,604.98,999.512,198.73
1742547943.355,999.512,897.461,916.016,999.512
1742547943.359,999.512,190.43,999.512,999.512
1742547943.363,263.184,-722.168,173.828,250.977
1742547943.367,-1000.0,-616.211,-283.691,-1000.0
1742547943.371,-1000.0,177.246,915.527,-1000.0
1742547943.374,93.262,685.547,954.59,102.051
1742547943.378,999.512,474.121,999.512,999.512
1742547943.382,300.293,-637.207,68.359,294.434
1742547943.386,-1000.0,-839.844,-701.172,-1000.0
1742547943.39,-210.938,318.359,612.305,-195.801
1742547943.347,-1000.0,-307.129,131.836,-1000.0
1742547943.351,196.289,604.98,999.512,198.73
1742547943.355,999.512,897.461,916.016,999.512
1742547943.359,999.512,190.43,999.512,999.512
1742547943.363,263.184,-722.168,173.828,250.977
1742547943.367,-1000.0,-616.211,-283.691,-1000.0
1742547943.371,-1000.0,177.246,915.527,-1000.0
1742547943.374,93.262,685.547,954.59,102.051
1742547943.378,999.512,474.121,999.512,999.512
1742547943.382,300.293,-637.207,68.359,294.434
1742547943.386,-1000.0,-839.844,-701.172,-1000.0
1742547943.39,-210.938,318.359,612.305,-195.801
1742547943.39,999.512,844.238,970.703,999.512
1742547943.394,999.512,296.387,999.512,999.512
1742547943.398,432.129,-368.652,344.238,427.246
1742547943.402,-1000.0,-1000.0,-957.52,-1000.0
1742547943.406,-954.59,-317.383,92.773,-923.34
1742547943.41,409.18,885.254,999.512,446.289
1742547943.414,999.512,728.027,999.512,999.512
1742547943.417,180.176,-412.109,311.523,163.574
1742547943.421,-994.629,-1000.0,-1000.0,-1000.0
1742547943.425,-1000.0,-198.73,-625.488,-1000.0
1742547943.429,-121.094,870.605,684.57,-107.422
1742547943.433,999.512,714.844,999.512,999.512
1742547943.39,999.512,844.238,970.703,999.512
1742547943.394,999.512,296.387,999.512,999.512
1742547943.398,432.129,-368.652,344.238,427.246
1742547943.402,-1000.0,-1000.0,-957.52,-1000.0
1742547943.406,-954.59,-317.383,92.773,-923.34
1742547943.41,409.18,885.254,999.512,446.289
1742547943.414,999.512,728.027,999.512,999.512
1742547943.417,180.176,-412.109,311.523,163.574
1742547943.421,-994.629,-1000.0,-1000.0,-1000.0
1742547943.425,-1000.0,-198.73,-625.488,-1000.0
1742547943.429,-121.094,870.605,684.57,-107.422
1742547943.433,999.512,714.844,999.512,999.512
1742547943.435,338.867,-370.117,5.859,355.469
1742547943.439,-961.426,-1000.0,-1000.0,-956.543
1742547943.443,-1000.0,-531.738,-734.375,-1000.0
1742547943.447,-172.852,584.961,435.059,-124.512
1742547943.451,999.512,755.371,999.512,999.512
1742547943.455,473.633,-104.98,235.352,378.418
1742547943.459,-907.227,-907.715,-899.902,-959.961
1742547943.462,-1000.0,-744.629,-1000.0,-1000.0
1742547943.466,-990.723,-48.828,-165.527,-1000.0
1742547943.47,367.676,813.965,999.512,294.434
1742547943.474,958.008,555.664,344.238,912.598
1742547943.478,-571.289,-854.492,-937.012,-623.535
1742547943.435,338.867,-370.117,5.859,355.469
1742547943.439,-961.426,-1000.0,-1000.0,-956.543
1742547943.443,-1000.0,-531.738,-734.375,-1000.0
1742547943.447,-172.852,584.961,435.059,-124.512
1742547943.451,999.512,755.371,999.512,999.512
1742547943.455,473.633,-104.98,235.352,378.418
1742547943.459,-907.227,-907.715,-899.902,-959.961
1742547943.462,-1000.0,-744.629,-1000.0,-1000.0
1742547943.466,-990.723,-48.828,-165.527,-1000.0
1742547943.47,367.676,813.965,999.512,294.434
1742547943.474,958.008,555.664,344.238,912.598
1742547943.478,-571.289,-854.492,-937.012,-623.535
1742547943.48,-1000.0,-741.699,-1000.0,-1000.0
1742547943.484,-175.781,439.941,18.555,-178.711
1742547943.488,999.023,986.816,999.512,999.512
1742547943.492,999.512,456.543,673.34,999.512
1742547943.496,-183.594,-716.797,-575.684,-221.191
1742547943.5,-1000.0,-671.387,-1000.0,-1000.0
1742547943.504,-1000.0,254.883,-379.395,-941.406
1742547943.507,-245.605,578.125,880.371,-998.535
1742547943.511,179.688,-229.492,-9.766,-1000.0
1742547943.515,-1000.0,-983.887,-1000.0,-985.352
1742547943.519,-996.582,-243.652,-1000.0,-961.426
1742547943.523,-1000.0,224.121,-675.781,-1000.0
1742547943.48,-1000.0,-741.699,-1000.0,-1000.0
1742547943.484,-175.781,439.941,18.555,-178.711
1742547943.488,999.023,986.816,999.512,999.512
1742547943.492,999.512,456.543,673.34,999.512
1742547943.496,-183.594,-716.797,-575.684,-221.191
1742547943.5,-1000.0,-671.387,-1000.0,-1000.0
1742547943.504,-1000.0,254.883,-379.395,-941.406
1742547943.507,-245.605,578.125,880.371,-998.535
1742547943.511,179.688,-229.492,-9.766,-1000.0
1742547943.515,-1000.0,-983.887,-1000.0,-985.352
1742547943.519,-996.582,-243.652,-1000.0,-961.426
1742547943.523,-1000.0,224.121,-675.781,-1000.0
1742547943.48,-1000.0,-741.699,-1000.0,-1000.0
1742547943.484,-175.781,439.941,18.555,-178.711
1742547943.488,999.023,986.816,999.512,999.512
1742547943.492,999.512,456.543,673.34,999.512
1742547943.496,-183.594,-716.797,-575.684,-221.191
1742547943.5,-1000.0,-671.387,-1000.0,-1000.0
1742547943.504,-1000.0,254.883,-379.395,-941.406
1742547943.507,-245.605,578.125,880.371,-998.535
1742547943.511,179.688,-229.492,-9.766,-1000.0
1742547943.515,-1000.0,-983.887,-1000.0,-985.352
1742547943.519,-996.582,-243.652,-1000.0,-961.426
1742547943.523,-1000.0,224.121,-675.781,-1000.0
1742547943.525,35.156,698.242,677.246,-41.992
1742547943.529,999.512,799.316,664.551,999.512
1742547943.533,152.344,-406.738,-624.023,161.133
1742547943.537,-1000.0,-946.289,-1000.0,-1000.0
1742547943.541,-1000.0,-324.707,-722.168,-1000.0
1742547943.545,73.242,623.535,588.379,65.918
1742547943.549,999.512,882.812,901.367,999.512
1742547943.552,137.207,-285.156,-358.887,130.371
1742547943.556,-1000.0,-1000.0,-1000.0,-1000.0
1742547943.56,-1000.0,-481.445,-875.0,-1000.0
1742547943.564,-135.254,647.949,347.168,-125.0
1742547943.568,999.512,845.703,937.012,999.512
1742547943.525,35.156,698.242,677.246,-41.992
1742547943.529,999.512,799.316,664.551,999.512
1742547943.533,152.344,-406.738,-624.023,161.133
1742547943.537,-1000.0,-946.289,-1000.0,-1000.0
1742547943.541,-1000.0,-324.707,-722.168,-1000.0
1742547943.545,73.242,623.535,588.379,65.918
1742547943.549,999.512,882.812,901.367,999.512
1742547943.552,137.207,-285.156,-358.887,130.371
1742547943.556,-1000.0,-1000.0,-1000.0,-1000.0
1742547943.56,-1000.0,-481.445,-875.0,-1000.0
1742547943.564,-135.254,647.949,347.168,-125.0
1742547943.568,999.512,845.703,937.012,999.512
1742547944.035,-1000.0,-77.637,679.199,-1000.0
1742547944.039,-257.812,552.734,987.793,-257.812
1742547944.043,999.512,862.793,999.512,999.512
1742547944.047,999.512,187.012,598.145,999.512
1742547944.051,-473.145,-874.023,-460.938,-416.504
1742547944.055,-331.543,-175.781,265.625,-337.891
1742547944.059,999.512,999.512,999.512,999.512
1742547944.062,999.512,311.523,999.512,876.465
1742547944.066,709.961,-709.473,359.863,999.512
1742547944.07,-761.23,-1000.0,-1000.0,100.586
1742547944.074,-1000.0,-691.406,-588.379,-854.492
1742547944.078,419.434,665.527,692.383,587.402
1742547943.57,188.477,-365.234,-281.738,199.219
1742547943.574,-1000.0,-955.078,-1000.0,-1000.0
1742547943.578,-992.188,-110.352,-692.871,-902.344
1742547943.582,293.457,843.75,514.16,446.289
1742547943.586,999.512,706.543,999.512,999.512
1742547943.59,985.84,67.871,202.637,999.512
1742547943.594,-84.961,-604.004,-969.727,23.926
1742547943.597,-1000.0,-705.078,-748.047,-1000.0
1742547943.601,-231.445,471.191,464.844,-205.566
1742547943.605,999.512,737.305,999.512,999.512
1742547943.609,225.586,-464.355,-80.078,203.125
1742547943.613,-1000.0,-1000.0,-1000.0,-1000.0
1742547943.57,188.477,-365.234,-281.738,199.219
1742547943.574,-1000.0,-955.078,-1000.0,-1000.0
1742547943.578,-992.188,-110.352,-692.871,-902.344
1742547943.582,293.457,843.75,514.16,446.289
1742547943.586,999.512,706.543,999.512,999.512
1742547943.59,985.84,67.871,202.637,999.512
1742547943.594,-84.961,-604.004,-969.727,23.926
1742547943.597,-1000.0,-705.078,-748.047,-1000.0
1742547943.601,-231.445,471.191,464.844,-205.566
1742547943.605,999.512,737.305,999.512,999.512
1742547943.609,225.586,-464.355,-80.078,203.125
1742547943.613,-1000.0,-1000.0,-1000.0,-1000.0
1742547943.57,188.477,-365.234,-281.738,199.219
1742547943.574,-1000.0,-955.078,-1000.0,-1000.0
1742547943.578,-992.188,-110.352,-692.871,-902.344
1742547943.582,293.457,843.75,514.16,446.289
1742547943.586,999.512,706.543,999.512,999.512
1742547943.59,985.84,67.871,202.637,999.512
1742547943.594,-84.961,-604.004,-969.727,23.926
1742547943.597,-1000.0,-705.078,-748.047,-1000.0
1742547943.601,-231.445,471.191,464.844,-205.566
1742547943.605,999.512,737.305,999.512,999.512
1742547943.609,225.586,-464.355,-80.078,203.125
1742547943.613,-1000.0,-1000.0,-1000.0,-1000.0
1742547943.63,-1000.0,-586.914,-997.559,-1000.0
1742547943.634,-255.859,366.699,36.133,-259.277
1742547943.638,937.012,928.711,999.512,921.875
1742547943.642,999.512,288.574,346.191,999.512
1742547943.646,-24.414,-804.199,-969.238,127.441
1742547943.65,-770.508,-528.809,-677.246,-545.898
1742547943.654,716.797,934.082,619.629,833.496
1742547943.657,999.512,582.031,999.512,999.512
1742547943.661,750.488,-534.668,455.566,750.488
1742547943.665,-529.297,-1000.0,-831.543,-539.551
1742547943.669,-1000.0,-434.57,-921.387,-1000.0
1742547943.673,-987.793,254.395,193.848,-1000.0
1742547943.63,-1000.0,-586.914,-997.559,-1000.0
1742547943.634,-255.859,366.699,36.133,-259.277
1742547943.638,937.012,928.711,999.512,921.875
1742547943.642,999.512,288.574,346.191,999.512
1742547943.646,-24.414,-804.199,-969.238,127.441
1742547943.65,-770.508,-528.809,-677.246,-545.898
1742547943.654,716.797,934.082,619.629,833.496
1742547943.657,999.512,582.031,999.512,999.512
1742547943.661,750.488,-534.668,455.566,750.488
1742547943.665,-529.297,-1000.0,-831.543,-539.551
1742547943.669,-1000.0,-434.57,-921.387,-1000.0
1742547943.673,-987.793,254.395,193.848,-1000.0
1742547943.661,185.059,681.641,999.512,104.98
1742547943.665,999.512,562.988,766.113,999.512
1742547943.669,-64.453,-664.062,-468.262,-130.371
1742547943.673,-1000.0,-853.516,-1000.0,-1000.0
1742547943.677,-417.969,237.305,98.633,-392.578
1742547943.681,822.754,999.512,991.699,838.379
1742547943.685,999.512,638.672,964.844,999.512
1742547943.688,132.812,-463.379,-79.102,59.082
1742547943.692,-1000.0,-1000.0,-1000.0,-1000.0
1742547943.696,-1000.0,-366.699,-469.727,-1000.0
1742547943.7,-5.859,806.152,833.496,-69.824
1742547943.704,999.512,796.875,928.711,999.512
1742547943.661,185.059,681.641,999.512,104.98
1742547943.665,999.512,562.988,766.113,999.512
1742547943.669,-64.453,-664.062,-468.262,-130.371
1742547943.673,-1000.0,-853.516,-1000.0,-1000.0
1742547943.677,-417.969,237.305,98.633,-392.578
1742547943.681,822.754,999.512,991.699,838.379
1742547943.685,999.512,638.672,964.844,999.512
1742547943.688,132.812,-463.379,-79.102,59.082
1742547943.692,-1000.0,-1000.0,-1000.0,-1000.0
1742547943.696,-1000.0,-366.699,-469.727,-1000.0
1742547943.7,-5.859,806.152,833.496,-69.824
