timestamps,TP9,AF7,AF8,TP10
1742548790.334,999.512,605.469,30.762,999.512
1742548790.338,129.395,-765.625,77.148,24.902
1742548790.342,-1000.0,-1000.0,72.754,-1000.0
1742548790.346,-1000.0,-174.805,51.27,-922.363
1742548790.35,94.727,949.707,34.668,282.227
1742548790.354,999.512,999.512,42.48,999.512
1742548790.358,719.238,659.668,79.102,610.352
1742548790.361,-554.688,-657.227,88.379,-674.805
1742548790.365,-1000.0,-1000.0,49.805,-1000.0
1742548790.369,-462.402,-395.02,5.371,-389.648
1742548790.373,924.805,999.512,-9.277,983.398
1742548790.377,981.934,771.973,15.625,900.391
1742548791.504,-1000.0,-1000.0,125.488,-1000.0
1742548791.508,-184.082,-143.555,102.539,-195.312
1742548791.512,999.512,999.512,131.836,999.512
1742548791.516,999.512,635.254,175.293,962.891
1742548791.52,-189.941,-960.449,189.941,-310.059
1742548791.524,-1000.0,-628.418,178.711,-1000.0
1742548791.528,-201.172,855.469,135.254,-82.52
1742548791.531,999.512,999.512,137.695,999.512
1742548791.535,767.578,83.984,192.383,622.559
1742548791.539,-573.242,-1000.0,235.84,-697.754
1742548791.543,-1000.0,-1000.0,243.652,-1000.0
1742548791.547,-325.684,-207.031,225.586,-276.367
1742548792.677,790.039,157.715,1.953,624.512
1742548792.681,-551.27,-1000.0,26.855,-731.445
1742548792.685,-1000.0,-1000.0,16.113,-1000.0
1742548792.689,-335.449,-167.48,-35.156,-280.762
1742548792.693,892.578,974.609,-53.223,916.016
1742548792.697,999.512,999.512,-42.48,999.512
1742548792.701,148.926,170.41,-26.855,161.133
1742548792.704,-1000.0,-1000.0,-26.855,-1000.0
1742548792.708,-1000.0,-1000.0,-59.082,-1000.0
1742548792.712,-179.199,-104.492,-82.52,-75.195
1742548792.716,999.512,999.512,-77.148,999.512
1742548792.72,217.285,173.34,-42.969,212.891
1742548792.722,-1000.0,-1000.0,-45.898,-1000.0
1742548792.726,-797.363,-165.527,-71.777,-634.277
1742548792.73,562.5,999.512,-71.777,726.562
1742548792.734,999.512,956.543,-35.645,999.512
1742548792.738,154.785,-221.68,18.066,163.574
1742548792.742,-1000.0,-1000.0,18.066,-1000.0
1742548792.746,-997.07,-215.82,-1.465,-814.941
1742548792.749,233.887,999.512,0.977,484.375
1742548792.753,999.512,303.223,14.16,999.512
1742548792.757,297.852,-966.797,33.691,234.375
1742548792.761,-969.238,-1000.0,29.785,-1000.0
1742548792.765,-1000.0,-445.312,0.0,-1000.0
1742548793.154,-1000.0,-1000.0,-54.688,-1000.0
1742548793.158,-467.773,-187.5,-74.219,-397.949
1742548793.162,881.348,989.746,-71.777,907.715
1742548793.166,999.512,999.512,-34.668,999.512
1742548793.17,203.125,56.152,9.277,192.871
1742548793.174,-1000.0,-1000.0,41.992,-1000.0
1742548793.178,-263.672,-3.906,107.91,-253.418
1742548793.181,999.023,999.512,204.59,999.512
1742548793.185,999.512,123.047,208.984,959.961
1742548793.189,68.848,-1000.0,406.25,-165.039
1742548793.193,-1000.0,-1000.0,830.566,-1000.0
1742548793.197,-649.414,-416.992,976.562,-584.473
1742548793.364,966.797,999.512,203.125,969.727
1742548793.368,999.512,975.586,208.496,999.512
1742548793.372,226.562,-108.398,228.516,149.414
1742548793.376,-1000.0,-1000.0,217.773,-1000.0
1742548793.38,-479.004,-101.074,168.457,-274.414
1742548793.384,883.301,996.582,151.367,918.945
1742548793.388,999.512,999.512,158.691,999.512
1742548793.391,145.508,189.941,178.711,162.109
1742548793.395,-1000.0,-1000.0,172.852,-1000.0
1742548793.399,-1000.0,-977.051,129.395,-1000.0
1742548793.403,-121.094,251.953,101.562,-47.363
1742548793.407,999.512,999.512,103.516,999.512
1742548793.382,397.949,214.355,146.484,349.121
1742548793.386,-930.664,-1000.0,161.133,-955.078
1742548793.39,-1000.0,-937.012,129.395,-1000.0
1742548793.394,-145.508,329.102,88.867,-82.031
1742548793.398,999.512,999.512,88.379,999.512
1742548793.402,870.117,775.879,125.0,752.93
1742548793.406,-401.367,-460.449,132.324,-555.664
1742548793.409,-1000.0,-1000.0,111.816,-1000.0
1742548793.413,-394.043,-438.965,67.871,-288.086
1742548793.417,923.828,950.195,61.035,993.652
1742548793.421,999.512,945.801,94.238,977.539
1742548793.425,-183.594,-412.109,104.98,-296.875
1742548794.369,-428.711,-684.082,38.086,-546.387
1742548794.373,-1000.0,-1000.0,27.832,-1000.0
1742548794.377,-228.516,154.785,4.395,-182.129
1742548794.381,999.512,999.512,4.883,999.512
1742548794.385,543.945,220.215,27.344,478.027
1742548794.389,-897.949,-1000.0,45.898,-965.332
1742548794.393,-1000.0,-344.727,35.156,-1000.0
1742548794.396,69.336,999.512,12.695,228.516
1742548794.4,999.512,498.047,10.254,999.512
1742548794.404,858.398,-881.348,28.32,715.82
1742548794.408,-393.555,-1000.0,46.875,-567.871
1742548794.412,-1000.0,-832.031,23.926,-1000.0
1742548795.074,-1000.0,-1000.0,-24.902,-1000.0
1742548795.078,-598.633,-319.336,-65.918,-535.156
1742548795.082,798.828,969.727,-64.453,840.332
1742548795.086,999.512,999.512,-35.645,999.512
1742548795.09,201.66,-49.805,-9.766,179.199
1742548795.094,-1000.0,-1000.0,-7.812,-1000.0
1742548795.098,-410.156,-21.484,-41.504,-306.152
1742548795.101,919.922,999.512,-47.852,960.449
1742548795.105,999.512,999.512,-18.555,999.512
1742548795.109,169.922,113.281,25.879,186.523
1742548795.113,-1000.0,-1000.0,28.32,-1000.0
1742548795.117,-1000.0,-778.809,0.0,-987.793
1742548796.994,-1000.0,-1000.0,-53.711,-1000.0
1742548796.998,-614.258,-341.309,-93.75,-556.641
1742548797.002,782.227,947.754,-106.934,822.266
1742548797.006,999.512,999.512,-88.867,999.512
1742548797.01,197.266,-186.035,-68.359,185.547
1742548797.014,-1000.0,-854.004,-71.777,-1000.0
1742548797.018,-346.191,624.512,-96.191,-309.082
1742548797.021,995.117,999.512,-86.914,999.512
1742548797.025,999.512,231.445,-60.547,921.387
1742548797.029,-117.676,-954.59,-41.016,-315.43
1742548797.033,-1000.0,-1000.0,-67.871,-1000.0
1742548797.037,-429.199,-208.984,-101.562,-370.605
1742548797.13,-1000.0,-1000.0,-45.898,-1000.0
1742548797.134,-237.305,-107.422,-55.176,-249.512
1742548797.138,999.512,999.512,-39.551,999.512
1742548797.142,975.098,326.66,-17.09,850.098
1742548797.146,-257.324,-1000.0,5.859,-450.684
1742548797.15,-1000.0,-421.875,-9.277,-1000.0
1742548797.154,-205.566,930.664,-54.688,-179.199
1742548797.157,999.512,999.512,-75.195,999.512
1742548797.161,852.539,116.699,-53.223,694.824
1742548797.165,-474.121,-1000.0,-33.203,-642.578
1742548797.169,-1000.0,-1000.0,-37.598,-1000.0
1742548797.173,-159.18,-71.777,-62.012,-174.805
1742548797.504,162.598,128.906,-71.777,170.41
1742548797.508,-1000.0,-1000.0,-54.199,-1000.0
1742548797.512,-1000.0,-568.848,-85.938,-936.523
1742548797.516,197.754,999.512,-109.863,330.078
1742548797.52,999.512,630.859,-87.891,999.512
1742548797.524,367.188,-864.746,-49.805,270.508
1742548797.528,-904.785,-984.375,-30.762,-943.848
1742548797.531,-1000.0,-1000.0,-51.27,-1000.0
1742548797.535,-218.75,-296.387,-99.121,-228.027
1742548797.539,999.512,999.512,-88.379,999.512
1742548797.543,894.531,655.762,-38.086,804.688
1742548797.547,-412.109,-718.75,-31.738,-535.156
1742548798.584,805.664,211.426,21.973,687.012
1742548798.588,-538.574,-1000.0,46.875,-663.086
1742548798.592,-1000.0,-1000.0,32.227,-1000.0
1742548798.596,-186.035,91.309,9.766,-173.34
1742548798.6,951.66,999.512,0.0,957.031
1742548798.604,999.512,999.512,5.371,999.512
1742548798.608,156.25,169.922,26.855,163.086
1742548798.611,-1000.0,-1000.0,26.367,-1000.0
1742548798.615,-1000.0,-1000.0,-0.488,-1000.0
1742548798.619,-268.066,-224.121,-19.531,-184.082
1742548798.623,999.512,999.512,-12.207,999.512
1742548798.627,463.867,384.766,56.152,398.926
1742548800.19,-943.848,-862.305,59.57,-861.816
1742548800.194,354.004,480.957,58.594,467.773
1742548800.198,999.512,999.512,47.363,999.512
1742548800.202,191.406,68.848,62.5,188.965
1742548800.206,-1000.0,-1000.0,73.73,-1000.0
1742548800.21,-393.555,-72.754,44.434,-329.102
1742548800.214,981.445,999.512,33.691,999.512
1742548800.217,999.512,404.785,17.09,943.359
1742548800.221,-158.691,-895.996,19.043,-290.527
1742548800.225,-1000.0,-1000.0,25.391,-1000.0
1742548800.229,-696.777,-371.582,-20.02,-607.91
1742548800.233,616.211,999.512,-57.617,708.496
1742548800.549,-885.742,-1000.0,33.691,-916.504
1742548800.553,-1000.0,-1000.0,2.441,-1000.0
1742548800.557,-123.047,175.781,-28.809,-73.73
1742548800.561,999.512,999.512,-40.527,999.512
1742548800.565,370.117,196.289,-2.93,329.59
1742548800.569,-1000.0,-1000.0,-7.324,-1000.0
1742548800.573,-994.141,-320.801,-53.711,-858.398
1742548800.576,291.016,999.512,-80.078,475.586
1742548800.58,999.512,346.68,-65.43,999.512
1742548800.584,372.559,-1000.0,-28.809,283.691
1742548800.588,-898.438,-974.609,-20.02,-936.035
1742548800.592,-1000.0,-1000.0,-38.574,-1000.0
1742548802.291,999.512,826.172,-272.461,999.512
1742548802.295,160.156,-685.547,-214.844,145.508
1742548802.299,-1000.0,-1000.0,-170.898,-1000.0
1742548802.303,-1000.0,-590.332,-168.945,-986.816
1742548802.307,155.762,669.922,-188.965,220.215
1742548802.311,999.512,999.512,-182.129,999.512
1742548802.315,503.418,392.09,-138.184,432.129
1742548802.318,-821.289,-878.418,-120.117,-866.211
1742548802.322,-1000.0,-1000.0,-127.93,-1000.0
1742548802.326,-209.473,-223.145,-165.527,-219.727
1742548802.33,999.512,999.512,-208.496,999.512
1742548802.334,881.348,755.859,-186.523,784.18
1742548802.799,281.738,933.594,107.91,410.156
1742548802.803,999.512,999.512,119.629,999.512
1742548802.807,620.117,504.883,150.391,555.176
1742548802.811,-689.453,-824.707,165.039,-750.977
1742548802.815,-1000.0,-1000.0,145.02,-1000.0
1742548802.819,-191.406,-183.594,116.211,-202.148
1742548802.823,999.512,999.512,111.328,999.512
1742548802.826,964.355,793.945,163.086,910.156
1742548802.83,-264.16,-531.738,202.637,-360.352
1742548802.834,-1000.0,-1000.0,202.148,-1000.0
1742548802.838,-383.789,-307.129,181.152,-327.637
1742548802.842,994.141,999.512,162.598,999.512
1742548805.425,974.121,999.512,-107.91,998.535
1742548805.429,999.512,886.719,-99.609,999.512
1742548805.433,98.633,-209.961,-80.078,54.199
1742548805.437,-1000.0,-1000.0,-84.961,-1000.0
1742548805.441,-757.324,-604.004,-121.094,-659.18
1742548805.445,589.355,755.371,-132.324,689.941
1742548805.449,999.512,999.512,-121.582,999.512
1742548805.452,157.227,-17.09,-114.746,156.738
1742548805.456,-1000.0,-1000.0,-117.676,-1000.0
1742548805.46,-994.629,-815.43,-142.09,-915.039
1742548805.464,263.672,489.746,-151.367,386.23
1742548805.468,999.512,999.512,-133.789,999.512
1742548805.889,-104.98,-452.148,21.973,-160.156
1742548805.893,-1000.0,-1000.0,8.301,-1000.0
1742548805.897,-353.027,-220.215,-28.809,-315.918
1742548805.901,965.82,999.512,-42.969,999.512
1742548805.905,999.512,398.438,-9.277,926.27
1742548805.909,-188.477,-941.406,14.16,-358.398
1742548805.913,-1000.0,-1000.0,2.441,-1000.0
1742548805.916,-302.246,-182.129,-20.996,-259.766
1742548805.92,935.547,999.512,-37.109,954.59
1742548805.924,999.512,851.074,-28.32,999.512
1742548805.928,97.656,-438.965,12.207,32.715
1742548805.932,-1000.0,-1000.0,30.762,-1000.0
1742548806.324,-736.816,-854.004,34.668,-815.918
1742548806.328,-1000.0,-1000.0,-9.277,-1000.0
1742548806.332,-210.449,76.172,-58.594,-176.27
1742548806.336,999.512,999.512,-61.523,999.512
1742548806.34,764.16,540.527,-34.18,693.359
1742548806.344,-607.91,-989.258,-12.695,-701.66
1742548806.348,-1000.0,-731.934,-33.691,-1000.0
1742548806.351,-174.316,935.059,-76.66,-63.477
1742548806.355,999.512,684.57,-91.309,999.512
1742548806.359,621.094,-780.762,-56.641,497.07
1742548806.363,-763.184,-1000.0,-31.738,-843.262
1742548806.367,-1000.0,-932.129,-46.875,-1000.0
1742548806.881,-1000.0,-1000.0,40.527,-1000.0
1742548806.885,-616.211,-344.727,-1.953,-553.711
1742548806.889,762.695,909.668,-11.23,802.246
1742548806.893,999.512,999.512,26.367,999.512
1742548806.897,200.684,152.832,42.48,199.707
1742548806.901,-1000.0,-1000.0,22.949,-1000.0
1742548806.905,-472.656,-174.805,-2.93,-395.996
1742548806.908,942.383,999.512,-15.137,999.512
1742548806.912,999.512,154.297,-7.812,909.18
1742548806.916,-154.785,-1000.0,14.16,-350.586
1742548806.92,-1000.0,-1000.0,9.277,-1000.0
1742548806.924,-476.074,-190.918,-32.227,-404.297
1742548807.719,-1000.0,-1000.0,-195.801,-1000.0
1742548807.723,-94.238,2.441,-214.355,-10.742
1742548807.727,999.512,999.512,-195.312,999.512
1742548807.731,450.195,276.855,-146.973,388.672
1742548807.735,-1000.0,-1000.0,-135.742,-1000.0
1742548807.739,-759.277,-291.016,-158.203,-644.531
1742548807.743,683.105,999.512,-164.551,777.344
1742548807.746,999.512,413.574,-131.348,999.512
1742548807.75,136.719,-939.453,-72.266,122.07
1742548807.754,-1000.0,-1000.0,-36.133,-1000.0
1742548807.758,-1000.0,-869.141,-42.969,-1000.0
1742548807.762,-33.691,319.824,-34.18,22.949
1742548808.514,-991.699,-1000.0,84.961,-1000.0
1742548808.518,-1000.0,-1000.0,59.082,-1000.0
1742548808.522,-9.766,216.309,44.434,57.129
1742548808.526,999.512,999.512,40.527,999.512
1742548808.53,368.164,228.027,65.43,328.125
1742548808.534,-1000.0,-1000.0,85.938,-1000.0
1742548808.538,-910.645,-265.137,62.5,-741.211
1742548808.541,462.402,999.512,40.039,649.414
1742548808.545,999.512,280.762,47.363,999.512
1742548808.549,140.137,-987.793,60.547,114.746
1742548808.553,-1000.0,-1000.0,62.988,-1000.0
1742548808.557,-1000.0,-731.934,62.012,-1000.0
1742548820.949,0.0,0.0,0.0,0.0
1742548820.953,0.0,0.0,-0.488,0.0
1742548820.957,-32.227,-45.41,-2.441,-32.227
1742548820.961,59.082,144.043,5.371,62.5
1742548820.965,-323.242,-524.414,-32.715,-326.66
1742548820.969,-1000.0,-547.852,-67.383,-1000.0
1742548820.973,-431.152,859.863,-70.801,-354.98
1742548820.976,894.531,999.512,-98.145,927.734
1742548820.98,999.512,104.492,-72.266,999.512
1742548820.984,274.414,-1000.0,-34.668,264.648
1742548820.988,-1000.0,-1000.0,-41.016,-1000.0
1742548820.992,-549.805,53.223,-70.312,-441.406
1742548821.009,875.488,999.512,-74.219,917.48
1742548821.013,999.512,298.34,-54.688,999.512
1742548821.017,948.73,-65.918,-46.875,875.488
1742548821.021,-250.488,-333.984,-38.086,-401.855
1742548821.025,-1000.0,-980.957,-35.156,-1000.0
1742548821.029,-0.977,741.211,-73.73,82.52
1742548821.033,999.512,438.477,-62.5,999.512
1742548821.036,745.117,-1000.0,-15.625,708.496
1742548821.04,-750.977,-1000.0,-21.484,-820.312
1742548821.044,-949.707,-212.402,-46.875,-772.461
1742548821.048,536.133,999.512,-63.965,722.656
1742548821.052,999.512,510.742,-93.75,999.512
1742548821.009,875.488,999.512,-74.219,917.48
1742548821.013,999.512,298.34,-54.688,999.512
1742548821.017,948.73,-65.918,-46.875,875.488
1742548821.021,-250.488,-333.984,-38.086,-401.855
1742548821.025,-1000.0,-980.957,-35.156,-1000.0
1742548821.029,-0.977,741.211,-73.73,82.52
1742548821.033,999.512,438.477,-62.5,999.512
1742548821.036,745.117,-1000.0,-15.625,708.496
1742548821.04,-750.977,-1000.0,-21.484,-820.312
1742548821.044,-949.707,-212.402,-46.875,-772.461
1742548821.048,536.133,999.512,-63.965,722.656
1742548821.052,999.512,510.742,-93.75,999.512
1742548821.04,837.402,-838.379,-92.773,834.473
1742548821.044,-440.918,-1000.0,-84.961,-493.652
1742548821.048,-1000.0,-239.258,-125.0,-1000.0
1742548821.052,134.277,999.512,-146.973,337.402
1742548821.056,999.512,-96.68,-136.719,999.512
1742548821.06,999.512,-280.762,-153.32,999.512
1742548821.064,237.305,295.898,-101.562,251.953
1742548821.067,-1000.0,-1000.0,-97.656,-1000.0
1742548821.071,-815.43,-854.98,-165.039,-666.016
1742548821.075,544.922,798.34,-145.02,711.914
1742548821.079,999.512,401.855,-104.004,999.512
1742548821.083,182.129,-1000.0,-92.285,166.992
1742548821.04,837.402,-838.379,-92.773,834.473
1742548821.044,-440.918,-1000.0,-84.961,-493.652
1742548821.048,-1000.0,-239.258,-125.0,-1000.0
1742548821.052,134.277,999.512,-146.973,337.402
1742548821.056,999.512,-96.68,-136.719,999.512
1742548821.06,999.512,-280.762,-153.32,999.512
1742548821.064,237.305,295.898,-101.562,251.953
1742548821.067,-1000.0,-1000.0,-97.656,-1000.0
1742548821.071,-815.43,-854.98,-165.039,-666.016
1742548821.075,544.922,798.34,-145.02,711.914
1742548821.079,999.512,401.855,-104.004,999.512
1742548821.083,182.129,-1000.0,-92.285,166.992
1742548821.101,-1000.0,-887.207,-118.652,-1000.0
1742548821.105,-191.406,552.246,-130.371,-89.844
1742548821.109,999.512,999.512,-134.277,999.512
1742548821.113,999.512,-341.797,-126.465,999.512
1742548821.117,224.609,-1000.0,-87.891,217.285
1742548821.121,-1000.0,-202.637,-100.586,-1000.0
1742548821.125,-225.586,999.512,-156.25,-202.637
1742548821.128,994.141,894.531,-170.41,999.512
1742548821.132,999.512,-410.645,-157.227,999.512
1742548821.136,223.633,-1000.0,-158.691,224.121
1742548821.14,-1000.0,-989.746,-166.504,-1000.0
1742548821.144,-249.512,92.285,-163.086,-223.633
1742548821.101,-1000.0,-887.207,-118.652,-1000.0
1742548821.105,-191.406,552.246,-130.371,-89.844
1742548821.109,999.512,999.512,-134.277,999.512
1742548821.113,999.512,-341.797,-126.465,999.512
1742548821.117,224.609,-1000.0,-87.891,217.285
1742548821.121,-1000.0,-202.637,-100.586,-1000.0
1742548821.125,-225.586,999.512,-156.25,-202.637
1742548821.128,994.141,894.531,-170.41,999.512
1742548821.132,999.512,-410.645,-157.227,999.512
1742548821.136,223.633,-1000.0,-158.691,224.121
1742548821.14,-1000.0,-989.746,-166.504,-1000.0
1742548821.144,-249.512,92.285,-163.086,-223.633
1742548821.101,-1000.0,-887.207,-118.652,-1000.0
1742548821.105,-191.406,552.246,-130.371,-89.844
1742548821.109,999.512,999.512,-134.277,999.512
1742548821.113,999.512,-341.797,-126.465,999.512
1742548821.117,224.609,-1000.0,-87.891,217.285
1742548821.121,-1000.0,-202.637,-100.586,-1000.0
1742548821.125,-225.586,999.512,-156.25,-202.637
1742548821.128,994.141,894.531,-170.41,999.512
1742548821.132,999.512,-410.645,-157.227,999.512
1742548821.136,223.633,-1000.0,-158.691,224.121
1742548821.14,-1000.0,-989.746,-166.504,-1000.0
1742548821.144,-249.512,92.285,-163.086,-223.633
1742548821.144,986.328,999.512,-164.551,996.582
1742548821.148,999.512,157.715,-157.715,999.512
1742548821.152,222.656,-1000.0,-133.789,222.168
1742548821.156,-1000.0,-1000.0,-125.488,-1000.0
1742548821.16,-699.707,-166.504,-151.367,-618.652
1742548821.164,686.035,999.512,-157.227,756.836
1742548821.168,999.512,587.891,-145.02,999.512
1742548821.171,230.957,-767.09,-125.488,222.168
1742548821.175,-1000.0,-1000.0,-110.352,-1000.0
1742548821.179,-447.754,-224.121,-128.906,-376.953
1742548821.183,889.648,999.512,-140.625,922.852
1742548821.187,999.512,160.156,-129.395,999.512
1742548821.144,986.328,999.512,-164.551,996.582
1742548821.148,999.512,157.715,-157.715,999.512
1742548821.152,222.656,-1000.0,-133.789,222.168
1742548821.156,-1000.0,-1000.0,-125.488,-1000.0
1742548821.16,-699.707,-166.504,-151.367,-618.652
1742548821.164,686.035,999.512,-157.227,756.836
1742548821.168,999.512,587.891,-145.02,999.512
1742548821.171,230.957,-767.09,-125.488,222.168
1742548821.175,-1000.0,-1000.0,-110.352,-1000.0
1742548821.179,-447.754,-224.121,-128.906,-376.953
1742548821.183,889.648,999.512,-140.625,922.852
1742548821.187,999.512,160.156,-129.395,999.512
1742548821.191,460.938,-1000.0,-122.559,426.27
1742548821.195,-1000.0,-1000.0,-132.324,-1000.0
1742548821.199,-589.844,-157.715,-144.043,-472.168
1742548821.203,927.246,999.512,-144.531,979.98
1742548821.207,936.523,-63.477,-153.32,919.922
1742548821.211,999.512,-171.875,-139.648,999.512
1742548821.215,276.367,349.609,-93.262,240.723
1742548821.218,-1000.0,-1000.0,-77.148,-1000.0
1742548821.222,-469.727,-441.895,-78.613,-370.117
1742548821.226,894.531,999.512,-62.988,939.941
1742548821.23,999.512,253.906,-42.969,999.512
1742548821.234,144.043,-1000.0,-18.066,89.355
1742548821.191,460.938,-1000.0,-122.559,426.27
1742548821.195,-1000.0,-1000.0,-132.324,-1000.0
1742548821.199,-589.844,-157.715,-144.043,-472.168
1742548821.203,927.246,999.512,-144.531,979.98
1742548821.207,936.523,-63.477,-153.32,919.922
1742548821.211,999.512,-171.875,-139.648,999.512
1742548821.215,276.367,349.609,-93.262,240.723
1742548821.218,-1000.0,-1000.0,-77.148,-1000.0
1742548821.222,-469.727,-441.895,-78.613,-370.117
1742548821.226,894.531,999.512,-62.988,939.941
1742548821.23,999.512,253.906,-42.969,999.512
1742548821.234,144.043,-1000.0,-18.066,89.355
1742548821.191,460.938,-1000.0,-122.559,426.27
1742548821.195,-1000.0,-1000.0,-132.324,-1000.0
1742548821.199,-589.844,-157.715,-144.043,-472.168
1742548821.203,927.246,999.512,-144.531,979.98
1742548821.207,936.523,-63.477,-153.32,919.922
1742548821.211,999.512,-171.875,-139.648,999.512
1742548821.215,276.367,349.609,-93.262,240.723
1742548821.218,-1000.0,-1000.0,-77.148,-1000.0
1742548821.222,-469.727,-441.895,-78.613,-370.117
1742548821.226,894.531,999.512,-62.988,939.941
1742548821.23,999.512,253.906,-42.969,999.512
1742548821.234,144.043,-1000.0,-18.066,89.355
1742548821.235,-1000.0,-242.676,-23.926,-1000.0
1742548821.239,-93.262,999.512,-10.254,52.246
1742548821.243,999.512,803.711,25.879,999.512
1742548821.247,999.512,-509.766,42.969,999.512
1742548821.251,203.613,-1000.0,65.918,162.598
1742548821.255,-1000.0,-215.82,71.289,-1000.0
1742548821.259,-197.266,999.512,58.594,-62.988
1742548821.262,999.512,366.211,44.434,999.512
1742548821.266,999.512,-938.477,36.133,939.941
1742548821.27,-173.34,-1000.0,54.199,-243.164
1742548821.274,-1000.0,-459.961,31.25,-1000.0
1742548821.278,-152.832,999.512,-29.785,-103.516
1742548821.235,-1000.0,-242.676,-23.926,-1000.0
1742548821.239,-93.262,999.512,-10.254,52.246
1742548821.243,999.512,803.711,25.879,999.512
1742548821.247,999.512,-509.766,42.969,999.512
1742548821.251,203.613,-1000.0,65.918,162.598
1742548821.255,-1000.0,-215.82,71.289,-1000.0
1742548821.259,-197.266,999.512,58.594,-62.988
1742548821.262,999.512,366.211,44.434,999.512
1742548821.266,999.512,-938.477,36.133,939.941
1742548821.27,-173.34,-1000.0,54.199,-243.164
1742548821.274,-1000.0,-459.961,31.25,-1000.0
1742548821.278,-152.832,999.512,-29.785,-103.516
1742548821.281,999.512,387.207,-44.434,999.512
1742548821.285,938.477,-1000.0,-39.062,965.332
1742548821.289,999.512,-109.863,-51.27,888.672
1742548821.293,-256.348,-151.367,-62.988,-454.102
1742548821.297,-1000.0,-947.266,-78.613,-1000.0
1742548821.301,198.73,859.863,-77.637,330.566
1742548821.305,999.512,500.488,-63.477,999.512
1742548821.308,-54.688,-1000.0,-66.406,-134.277
1742548821.312,-1000.0,-1000.0,-73.242,-1000.0
1742548821.316,-306.152,203.613,-76.172,-247.07
1742548821.32,934.082,999.512,-82.52,954.59
1742548821.324,999.512,156.25,-64.453,999.512
1742548821.281,999.512,387.207,-44.434,999.512
1742548821.285,938.477,-1000.0,-39.062,965.332
1742548821.289,999.512,-109.863,-51.27,888.672
1742548821.293,-256.348,-151.367,-62.988,-454.102
1742548821.297,-1000.0,-947.266,-78.613,-1000.0
1742548821.301,198.73,859.863,-77.637,330.566
1742548821.305,999.512,500.488,-63.477,999.512
1742548821.308,-54.688,-1000.0,-66.406,-134.277
1742548821.312,-1000.0,-1000.0,-73.242,-1000.0
1742548821.316,-306.152,203.613,-76.172,-247.07
1742548821.32,934.082,999.512,-82.52,954.59
1742548821.324,999.512,156.25,-64.453,999.512
1742548821.325,213.867,-1000.0,-37.598,204.102
1742548821.329,-1000.0,-918.945,-43.945,-1000.0
1742548821.333,-716.797,358.398,-63.477,-582.52
1742548821.337,726.562,999.512,-89.844,825.195
1742548821.341,986.328,-121.582,-83.984,972.168
1742548821.345,999.512,-180.664,-54.199,999.512
1742548821.349,175.781,94.238,-37.598,69.336
1742548821.352,-1000.0,-541.016,-50.781,-1000.0
1742548821.356,-267.578,906.25,-83.008,-198.242
1742548821.36,999.512,993.652,-79.59,999.512
1742548821.364,197.266,-352.539,-93.75,197.754
1742548821.368,-1000.0,-1000.0,-137.695,-1000.0
1742548821.325,213.867,-1000.0,-37.598,204.102
1742548821.329,-1000.0,-918.945,-43.945,-1000.0
1742548821.333,-716.797,358.398,-63.477,-582.52
1742548821.337,726.562,999.512,-89.844,825.195
1742548821.341,986.328,-121.582,-83.984,972.168
1742548821.345,999.512,-180.664,-54.199,999.512
1742548821.349,175.781,94.238,-37.598,69.336
1742548821.352,-1000.0,-541.016,-50.781,-1000.0
1742548821.356,-267.578,906.25,-83.008,-198.242
1742548821.36,999.512,993.652,-79.59,999.512
1742548821.364,197.266,-352.539,-93.75,197.754
1742548821.368,-1000.0,-1000.0,-137.695,-1000.0
1742548821.384,-1000.0,-198.73,-192.871,-911.133
1742548821.388,171.875,999.512,-200.195,351.074
1742548821.392,999.512,790.039,-154.297,999.512
1742548821.396,177.734,-614.258,-159.18,182.129
1742548821.4,-1000.0,-1000.0,-186.523,-1000.0
1742548821.404,-1000.0,138.672,-214.355,-1000.0
1742548821.408,-22.949,999.512,-231.445,95.703
1742548821.411,999.512,720.703,-202.637,999.512
1742548821.415,253.906,-536.621,-166.992,241.699
1742548821.419,-1000.0,-1000.0,-176.27,-1000.0
1742548821.423,-1000.0,-271.484,-199.219,-1000.0
1742548821.427,86.426,999.512,-201.66,197.754
1742548821.384,-1000.0,-198.73,-192.871,-911.133
1742548821.388,171.875,999.512,-200.195,351.074
1742548821.392,999.512,790.039,-154.297,999.512
1742548821.396,177.734,-614.258,-159.18,182.129
1742548821.4,-1000.0,-1000.0,-186.523,-1000.0
1742548821.404,-1000.0,138.672,-214.355,-1000.0
1742548821.408,-22.949,999.512,-231.445,95.703
1742548821.411,999.512,720.703,-202.637,999.512
1742548821.415,253.906,-536.621,-166.992,241.699
1742548821.419,-1000.0,-1000.0,-176.27,-1000.0
1742548821.423,-1000.0,-271.484,-199.219,-1000.0
1742548821.427,86.426,999.512,-201.66,197.754
1742548821.414,999.512,445.801,-169.434,999.512
1742548821.418,958.496,-878.418,-155.273,869.141
1742548821.422,-170.41,-1000.0,-165.527,-300.293
1742548821.426,-1000.0,-336.914,-174.805,-1000.0
1742548821.43,-414.551,889.648,-199.219,-350.098
1742548821.434,918.457,999.512,-175.781,973.145
1742548821.438,999.512,220.215,-144.531,977.051
1742548821.441,-154.785,-997.07,-133.789,-285.156
1742548821.445,-1000.0,-1000.0,-152.832,-1000.0
1742548821.449,-178.711,37.109,-187.5,-190.43
1742548821.453,999.512,999.512,-197.266,999.512
1742548821.457,999.512,-169.922,-196.289,999.023
1742548821.414,999.512,445.801,-169.434,999.512
1742548821.418,958.496,-878.418,-155.273,869.141
1742548821.422,-170.41,-1000.0,-165.527,-300.293
1742548821.426,-1000.0,-336.914,-174.805,-1000.0
1742548821.43,-414.551,889.648,-199.219,-350.098
1742548821.434,918.457,999.512,-175.781,973.145
1742548821.438,999.512,220.215,-144.531,977.051
1742548821.441,-154.785,-997.07,-133.789,-285.156
1742548821.445,-1000.0,-1000.0,-152.832,-1000.0
1742548821.449,-178.711,37.109,-187.5,-190.43
1742548821.453,999.512,999.512,-197.266,999.512
1742548821.457,999.512,-169.922,-196.289,999.023
1742548821.476,-25.879,-1000.0,-203.613,-147.949
1742548821.48,-1000.0,-562.012,-209.961,-1000.0
1742548821.484,-273.438,764.648,-211.914,-229.492
1742548821.488,973.633,999.512,-244.141,970.215
1742548821.492,963.867,-74.219,-289.062,989.746
1742548821.496,963.867,-104.004,-286.621,868.652
1742548821.5,-223.633,-162.598,-257.324,-391.602
1742548821.503,-1000.0,-1000.0,-228.027,-1000.0
1742548821.507,-188.477,342.285,-205.078,-109.375
1742548821.511,999.512,999.512,-194.336,999.512
1742548821.515,265.625,-432.617,-220.215,252.441
1742548821.519,-1000.0,-1000.0,-252.441,-1000.0
1742548821.476,-25.879,-1000.0,-203.613,-147.949
1742548821.48,-1000.0,-562.012,-209.961,-1000.0
1742548821.484,-273.438,764.648,-211.914,-229.492
1742548821.488,973.633,999.512,-244.141,970.215
1742548821.492,963.867,-74.219,-289.062,989.746
1742548821.496,963.867,-104.004,-286.621,868.652
1742548821.5,-223.633,-162.598,-257.324,-391.602
1742548821.503,-1000.0,-1000.0,-228.027,-1000.0
1742548821.507,-188.477,342.285,-205.078,-109.375
1742548821.511,999.512,999.512,-194.336,999.512
1742548821.515,265.625,-432.617,-220.215,252.441
1742548821.519,-1000.0,-1000.0,-252.441,-1000.0
1742548821.519,-454.59,-96.68,-242.676,-382.324
1742548821.523,888.672,999.512,-242.188,923.828
1742548821.527,999.512,200.195,-248.047,999.512
1742548821.531,283.691,-1000.0,-200.684,270.02
1742548821.535,-993.652,-876.465,-172.363,-1000.0
1742548821.539,-1000.0,403.32,-202.637,-977.539
1742548821.543,128.906,999.512,-220.703,285.156
1742548821.546,999.512,513.184,-229.004,999.512
1742548821.55,187.012,-787.598,-230.957,189.941
1742548821.554,-1000.0,-1000.0,-198.242,-1000.0
1742548821.558,-1000.0,-173.34,-177.246,-945.312
1742548821.562,259.766,999.512,-180.176,375.977
1742548821.519,-454.59,-96.68,-242.676,-382.324
1742548821.523,888.672,999.512,-242.188,923.828
1742548821.527,999.512,200.195,-248.047,999.512
1742548821.531,283.691,-1000.0,-200.684,270.02
1742548821.535,-993.652,-876.465,-172.363,-1000.0
1742548821.539,-1000.0,403.32,-202.637,-977.539
1742548821.543,128.906,999.512,-220.703,285.156
1742548821.546,999.512,513.184,-229.004,999.512
1742548821.55,187.012,-787.598,-230.957,189.941
1742548821.554,-1000.0,-1000.0,-198.242,-1000.0
1742548821.558,-1000.0,-173.34,-177.246,-945.312
1742548821.562,259.766,999.512,-180.176,375.977
1742548821.519,-454.59,-96.68,-242.676,-382.324
1742548821.523,888.672,999.512,-242.188,923.828
1742548821.527,999.512,200.195,-248.047,999.512
1742548821.531,283.691,-1000.0,-200.684,270.02
1742548821.535,-993.652,-876.465,-172.363,-1000.0
1742548821.539,-1000.0,403.32,-202.637,-977.539
1742548821.543,128.906,999.512,-220.703,285.156
1742548821.546,999.512,513.184,-229.004,999.512
1742548821.55,187.012,-787.598,-230.957,189.941
1742548821.554,-1000.0,-1000.0,-198.242,-1000.0
1742548821.558,-1000.0,-173.34,-177.246,-945.312
1742548821.562,259.766,999.512,-180.176,375.977
1742548821.566,999.512,147.949,-173.828,999.512
1742548821.57,999.512,-981.934,-147.461,999.512
1742548821.574,224.609,-950.684,-128.906,95.703
1742548821.578,-1000.0,-136.23,-114.746,-1000.0
1742548821.582,-234.863,997.07,-85.938,-214.844
1742548821.586,999.512,999.512,-38.574,999.512
1742548821.59,965.82,15.137,-6.348,865.723
1742548821.593,-275.879,-1000.0,-27.344,-428.711
1742548821.597,-1000.0,-704.102,-41.016,-1000.0
1742548821.601,-176.27,622.559,-54.199,-104.98
1742548821.605,999.512,999.512,-72.266,999.512
1742548821.609,999.512,108.887,-70.801,906.25
1742548821.566,999.512,147.949,-173.828,999.512
1742548821.57,999.512,-981.934,-147.461,999.512
1742548821.574,224.609,-950.684,-128.906,95.703
1742548821.578,-1000.0,-136.23,-114.746,-1000.0
1742548821.582,-234.863,997.07,-85.938,-214.844
1742548821.586,999.512,999.512,-38.574,999.512
1742548821.59,965.82,15.137,-6.348,865.723
1742548821.593,-275.879,-1000.0,-27.344,-428.711
1742548821.597,-1000.0,-704.102,-41.016,-1000.0
1742548821.601,-176.27,622.559,-54.199,-104.98
1742548821.605,999.512,999.512,-72.266,999.512
1742548821.609,999.512,108.887,-70.801,906.25
1742548821.566,999.512,147.949,-173.828,999.512
1742548821.57,999.512,-981.934,-147.461,999.512
1742548821.574,224.609,-950.684,-128.906,95.703
1742548821.578,-1000.0,-136.23,-114.746,-1000.0
1742548821.582,-234.863,997.07,-85.938,-214.844
1742548821.586,999.512,999.512,-38.574,999.512
1742548821.59,965.82,15.137,-6.348,865.723
1742548821.593,-275.879,-1000.0,-27.344,-428.711
1742548821.597,-1000.0,-704.102,-41.016,-1000.0
1742548821.601,-176.27,622.559,-54.199,-104.98
1742548821.605,999.512,999.512,-72.266,999.512
1742548821.609,999.512,108.887,-70.801,906.25
1742548821.61,-190.918,-1000.0,-63.965,-317.871
1742548821.614,-1000.0,-340.82,-73.73,-1000.0
1742548821.618,-159.18,947.266,-81.543,-157.227
1742548821.622,974.121,999.512,-73.242,978.027
1742548821.626,999.512,116.699,-61.035,999.512
1742548821.63,232.422,-1000.0,-38.086,182.617
1742548821.634,-1000.0,-795.898,-35.645,-1000.0
1742548821.637,-593.262,714.355,-53.711,-485.84
1742548821.641,800.781,752.441,-51.758,854.492
1742548821.645,999.512,-725.586,-25.879,999.512
1742548821.649,185.059,-1000.0,-7.812,214.355
1742548821.653,-1000.0,-1000.0,-14.648,-1000.0
1742548821.61,-190.918,-1000.0,-63.965,-317.871
1742548821.614,-1000.0,-340.82,-73.73,-1000.0
1742548821.618,-159.18,947.266,-81.543,-157.227
1742548821.622,974.121,999.512,-73.242,978.027
1742548821.626,999.512,116.699,-61.035,999.512
1742548821.63,232.422,-1000.0,-38.086,182.617
1742548821.634,-1000.0,-795.898,-35.645,-1000.0
1742548821.637,-593.262,714.355,-53.711,-485.84
1742548821.641,800.781,752.441,-51.758,854.492
1742548821.645,999.512,-725.586,-25.879,999.512
1742548821.649,185.059,-1000.0,-7.812,214.355
1742548821.653,-1000.0,-1000.0,-14.648,-1000.0
1742548821.656,-893.555,-115.234,-16.602,-773.438
1742548821.66,435.059,999.512,-8.789,593.262
1742548821.664,999.512,592.285,-20.508,999.512
1742548821.668,173.828,-845.215,-21.484,105.469
1742548821.672,-1000.0,-1000.0,14.16,-1000.0
1742548821.676,-637.207,305.664,17.09,-542.48
1742548821.68,750.488,999.512,-4.395,802.246
1742548821.683,999.512,92.285,41.992,999.512
1742548821.687,171.387,-1000.0,78.125,189.941
1742548821.691,-1000.0,-1000.0,86.914,-1000.0
1742548821.695,-1000.0,-115.723,101.562,-997.07
1742548821.699,78.613,999.512,93.75,217.773
1742548821.715,999.512,670.898,103.027,999.512
1742548821.719,160.156,-656.25,116.699,164.551
1742548821.723,-1000.0,-1000.0,126.465,-1000.0
1742548821.727,-1000.0,-126.465,126.465,-1000.0
1742548821.731,-88.379,971.191,115.723,14.16
1742548821.735,999.512,999.512,135.254,999.512
1742548821.739,493.652,203.613,155.762,435.059
1742548821.742,-862.305,-1000.0,145.996,-887.695
1742548821.746,-1000.0,-940.918,143.066,-1000.0
1742548821.75,-225.098,375.488,130.371,-163.574
1742548821.754,999.512,999.512,110.84,999.512
1742548821.758,632.812,1.465,99.609,537.598
1742548821.715,999.512,670.898,103.027,999.512
1742548821.719,160.156,-656.25,116.699,164.551
1742548821.723,-1000.0,-1000.0,126.465,-1000.0
1742548821.727,-1000.0,-126.465,126.465,-1000.0
1742548821.731,-88.379,971.191,115.723,14.16
1742548821.735,999.512,999.512,135.254,999.512
1742548821.739,493.652,203.613,155.762,435.059
1742548821.742,-862.305,-1000.0,145.996,-887.695
1742548821.746,-1000.0,-940.918,143.066,-1000.0
1742548821.75,-225.098,375.488,130.371,-163.574
1742548821.754,999.512,999.512,110.84,999.512
1742548821.758,632.812,1.465,99.609,537.598
1742548821.774,-759.766,-1000.0,78.125,-816.895
1742548821.778,-1000.0,-183.105,85.449,-1000.0
1742548821.782,-184.082,999.512,101.562,-158.691
1742548821.786,999.512,999.512,103.516,999.512
1742548821.79,999.512,129.883,89.844,907.715
1742548821.794,-146.484,-1000.0,95.215,-310.547
1742548821.798,-1000.0,-190.43,90.332,-1000.0
1742548821.801,-322.754,999.512,46.387,-270.02
1742548821.805,922.852,999.512,41.992,953.613
1742548821.809,999.512,154.785,47.852,999.512
1742548821.813,156.25,-1000.0,41.992,58.105
1742548821.817,-1000.0,-601.562,32.715,-1000.0
1742548821.774,-759.766,-1000.0,78.125,-816.895
1742548821.778,-1000.0,-183.105,85.449,-1000.0
1742548821.782,-184.082,999.512,101.562,-158.691
1742548821.786,999.512,999.512,103.516,999.512
1742548821.79,999.512,129.883,89.844,907.715
1742548821.794,-146.484,-1000.0,95.215,-310.547
1742548821.798,-1000.0,-190.43,90.332,-1000.0
1742548821.801,-322.754,999.512,46.387,-270.02
1742548821.805,922.852,999.512,41.992,953.613
1742548821.809,999.512,154.785,47.852,999.512
1742548821.813,156.25,-1000.0,41.992,58.105
1742548821.817,-1000.0,-601.562,32.715,-1000.0
1742548821.79,-541.504,732.422,16.602,-452.637
1742548821.794,845.215,999.512,2.93,895.996
1742548821.798,999.512,454.102,8.301,999.512
1742548821.802,129.883,-989.746,20.996,28.32
1742548821.806,-1000.0,-734.863,18.555,-1000.0
1742548821.81,-342.285,677.246,10.254,-293.457
1742548821.814,944.824,999.512,0.0,966.309
1742548821.817,999.512,200.195,-9.766,999.512
1742548821.821,184.082,-1000.0,-4.883,89.844
1742548821.825,-1000.0,-1000.0,14.16,-1000.0
1742548821.829,-490.723,112.793,9.277,-405.762
1742548821.833,854.492,999.512,4.395,884.277
1742548821.79,-541.504,732.422,16.602,-452.637
1742548821.794,845.215,999.512,2.93,895.996
1742548821.798,999.512,454.102,8.301,999.512
1742548821.802,129.883,-989.746,20.996,28.32
1742548821.806,-1000.0,-734.863,18.555,-1000.0
1742548821.81,-342.285,677.246,10.254,-293.457
1742548821.814,944.824,999.512,0.0,966.309
1742548821.817,999.512,200.195,-9.766,999.512
1742548821.821,184.082,-1000.0,-4.883,89.844
1742548821.825,-1000.0,-1000.0,14.16,-1000.0
1742548821.829,-490.723,112.793,9.277,-405.762
1742548821.833,854.492,999.512,4.395,884.277
1742548821.85,999.512,139.16,3.418,999.512
1742548821.854,615.234,-1000.0,5.371,543.457
1742548821.858,-818.359,-1000.0,37.109,-911.133
1742548821.862,-1000.0,73.73,58.105,-899.902
1742548821.866,337.402,999.512,63.965,493.164
1742548821.87,999.512,999.512,63.965,999.512
1742548821.874,357.91,224.609,91.309,326.172
1742548821.877,-953.125,-1000.0,86.914,-988.77
1742548821.881,-1000.0,-619.629,48.34,-1000.0
1742548821.885,97.168,808.105,17.578,212.891
1742548821.889,999.512,999.512,-2.441,999.512
1742548821.893,552.246,-132.812,35.645,482.91
1742548821.85,999.512,139.16,3.418,999.512
1742548821.854,615.234,-1000.0,5.371,543.457
1742548821.858,-818.359,-1000.0,37.109,-911.133
1742548821.862,-1000.0,73.73,58.105,-899.902
1742548821.866,337.402,999.512,63.965,493.164
1742548821.87,999.512,999.512,63.965,999.512
1742548821.874,357.91,224.609,91.309,326.172
1742548821.877,-953.125,-1000.0,86.914,-988.77
1742548821.881,-1000.0,-619.629,48.34,-1000.0
1742548821.885,97.168,808.105,17.578,212.891
1742548821.889,999.512,999.512,-2.441,999.512
1742548821.893,552.246,-132.812,35.645,482.91
1742548821.894,-795.41,-1000.0,49.316,-850.098
1742548821.898,-1000.0,-184.082,-19.043,-1000.0
1742548821.902,-47.363,999.512,-2.93,58.594
1742548821.906,999.512,999.512,75.195,999.512
1742548821.91,999.512,-115.234,48.34,972.168
1742548821.914,-30.762,-1000.0,-18.066,-152.832
1742548821.918,-1000.0,-375.0,20.996,-1000.0
1742548821.921,-170.41,999.512,13.184,-78.125
1742548821.925,982.91,182.129,-18.555,999.512
1742548821.929,999.512,-1000.0,47.852,999.512
1742548821.933,226.074,-1000.0,102.051,198.73
1742548821.937,-1000.0,-802.734,87.891,-1000.0
1742548821.894,-795.41,-1000.0,49.316,-850.098
1742548821.898,-1000.0,-184.082,-19.043,-1000.0
1742548821.902,-47.363,999.512,-2.93,58.594
1742548821.906,999.512,999.512,75.195,999.512
1742548821.91,999.512,-115.234,48.34,972.168
1742548821.914,-30.762,-1000.0,-18.066,-152.832
1742548821.918,-1000.0,-375.0,20.996,-1000.0
1742548821.921,-170.41,999.512,13.184,-78.125
1742548821.925,982.91,182.129,-18.555,999.512
1742548821.929,999.512,-1000.0,47.852,999.512
1742548821.933,226.074,-1000.0,102.051,198.73
1742548821.937,-1000.0,-802.734,87.891,-1000.0
1742548821.941,-293.457,472.168,41.992,-255.859
1742548821.945,999.512,999.512,24.414,999.512
1742548821.949,999.512,275.391,38.574,947.754
1742548821.953,-174.316,-1000.0,51.758,-281.738
1742548821.957,-1000.0,-786.621,18.066,-1000.0
1742548821.961,-145.508,709.961,-26.367,-142.578
1742548821.965,963.379,999.512,-34.668,967.773
1742548821.968,999.512,-336.426,-13.672,999.512
1742548821.972,551.27,-546.875,17.578,414.062
1742548821.976,-911.133,-831.543,29.297,-1000.0
1742548821.98,-1000.0,-390.137,1.953,-875.977
1742548821.984,332.031,999.512,-11.23,521.484
1742548821.941,-293.457,472.168,41.992,-255.859
1742548821.945,999.512,999.512,24.414,999.512
1742548821.949,999.512,275.391,38.574,947.754
1742548821.953,-174.316,-1000.0,51.758,-281.738
1742548821.957,-1000.0,-786.621,18.066,-1000.0
1742548821.961,-145.508,709.961,-26.367,-142.578
1742548821.965,963.379,999.512,-34.668,967.773
1742548821.968,999.512,-336.426,-13.672,999.512
1742548821.972,551.27,-546.875,17.578,414.062
1742548821.976,-911.133,-831.543,29.297,-1000.0
1742548821.98,-1000.0,-390.137,1.953,-875.977
1742548821.984,332.031,999.512,-11.23,521.484
1742548821.985,999.512,499.023,5.371,999.512
1742548821.989,140.137,-916.504,6.836,64.941
1742548821.993,-1000.0,-1000.0,-10.254,-1000.0
1742548821.997,-741.211,187.988,-30.762,-611.328
1742548822.001,623.535,999.512,-42.969,725.586
1742548822.005,999.512,999.512,-32.715,999.512
1742548822.009,174.316,160.645,8.301,194.336
1742548822.012,-1000.0,-1000.0,20.02,-1000.0
1742548822.016,-1000.0,-596.191,-3.906,-1000.0
1742548822.02,84.473,775.391,-3.418,197.754
1742548822.024,999.512,999.512,13.672,999.512
1742548822.028,194.336,32.227,-1.953,198.73
1742548822.045,-1000.0,-1000.0,-38.086,-1000.0
1742548822.049,-1000.0,-139.648,-55.176,-1000.0
1742548822.053,-86.426,999.512,-69.336,50.293
1742548822.057,999.512,861.816,-55.664,999.512
1742548822.061,373.535,-540.527,-5.859,299.316
1742548822.065,-957.52,-1000.0,21.484,-961.426
1742548822.069,-1000.0,505.859,16.602,-1000.0
1742548822.072,-993.164,77.148,41.992,-883.301
1742548822.076,169.922,113.281,58.594,361.816
1742548822.08,999.512,999.512,62.5,999.512
1742548822.084,185.547,-653.809,75.195,123.535
1742548822.088,-1000.0,-724.121,64.941,-1000.0
1742548822.045,-1000.0,-1000.0,-38.086,-1000.0
1742548822.049,-1000.0,-139.648,-55.176,-1000.0
1742548822.053,-86.426,999.512,-69.336,50.293
1742548822.057,999.512,861.816,-55.664,999.512
1742548822.061,373.535,-540.527,-5.859,299.316
1742548822.065,-957.52,-1000.0,21.484,-961.426
1742548822.069,-1000.0,505.859,16.602,-1000.0
1742548822.072,-993.164,77.148,41.992,-883.301
1742548822.076,169.922,113.281,58.594,361.816
1742548822.08,999.512,999.512,62.5,999.512
1742548822.084,185.547,-653.809,75.195,123.535
1742548822.088,-1000.0,-724.121,64.941,-1000.0
1742548822.075,-245.605,845.703,34.668,-218.75
1742548822.079,999.512,999.512,23.438,999.512
1742548822.083,912.109,-76.66,19.531,822.754
1742548822.087,-367.676,-1000.0,14.16,-477.051
1742548822.091,-1000.0,-543.457,2.441,-1000.0
1742548822.095,-209.961,743.164,-9.766,-187.012
1742548822.099,999.512,999.512,-26.367,999.512
1742548822.102,785.156,181.152,-20.996,702.637
1742548822.106,-546.387,-1000.0,4.395,-629.883
1742548822.11,-1000.0,-579.59,-7.812,-1000.0
1742548822.114,-386.23,783.691,-29.785,-325.195
1742548822.118,867.188,999.512,-36.621,900.391
1742548822.075,-245.605,845.703,34.668,-218.75
1742548822.079,999.512,999.512,23.438,999.512
1742548822.083,912.109,-76.66,19.531,822.754
1742548822.087,-367.676,-1000.0,14.16,-477.051
1742548822.091,-1000.0,-543.457,2.441,-1000.0
1742548822.095,-209.961,743.164,-9.766,-187.012
1742548822.099,999.512,999.512,-26.367,999.512
1742548822.102,785.156,181.152,-20.996,702.637
1742548822.106,-546.387,-1000.0,4.395,-629.883
1742548822.11,-1000.0,-579.59,-7.812,-1000.0
1742548822.114,-386.23,783.691,-29.785,-325.195
1742548822.118,867.188,999.512,-36.621,900.391
1742548822.135,999.512,124.512,-21.973,999.512
1742548822.139,213.379,-1000.0,-2.441,168.945
1742548822.143,-1000.0,-831.543,-11.23,-1000.0
1742548822.147,-598.145,520.508,-24.414,-515.137
1742548822.151,795.898,999.512,-36.621,834.961
1742548822.155,999.512,998.047,-43.945,999.512
1742548822.159,161.621,110.352,-23.926,179.199
1742548822.162,-1000.0,-1000.0,-18.555,-1000.0
1742548822.166,-1000.0,-461.914,-45.898,-918.945
1742548822.17,225.586,999.512,-60.547,376.953
1742548822.174,999.512,645.508,-48.828,999.512
1742548822.178,136.719,-845.703,-54.199,119.141
1742548822.135,999.512,124.512,-21.973,999.512
1742548822.139,213.379,-1000.0,-2.441,168.945
1742548822.143,-1000.0,-831.543,-11.23,-1000.0
1742548822.147,-598.145,520.508,-24.414,-515.137
1742548822.151,795.898,999.512,-36.621,834.961
1742548822.155,999.512,998.047,-43.945,999.512
1742548822.159,161.621,110.352,-23.926,179.199
1742548822.162,-1000.0,-1000.0,-18.555,-1000.0
1742548822.166,-1000.0,-461.914,-45.898,-918.945
1742548822.17,225.586,999.512,-60.547,376.953
1742548822.174,999.512,645.508,-48.828,999.512
1742548822.178,136.719,-845.703,-54.199,119.141
1742548822.165,-1000.0,-1000.0,-59.57,-1000.0
1742548822.169,-1000.0,168.945,-55.664,-1000.0
1742548822.173,-23.926,999.512,-60.059,86.426
1742548822.177,999.512,609.375,-53.223,999.512
1742548822.181,145.508,-699.219,-49.805,139.16
1742548822.185,-1000.0,-1000.0,-57.617,-1000.0
1742548822.189,-1000.0,-127.93,-68.848,-1000.0
1742548822.192,-162.109,999.512,-88.379,-95.703
1742548822.196,999.512,122.07,-85.449,999.512
1742548822.2,590.332,-1000.0,-72.266,482.91
1742548822.204,-781.738,-1000.0,-84.961,-847.656
1742548822.208,-1000.0,-218.75,-80.566,-1000.0
1742548822.165,-1000.0,-1000.0,-59.57,-1000.0
1742548822.169,-1000.0,168.945,-55.664,-1000.0
1742548822.173,-23.926,999.512,-60.059,86.426
1742548822.177,999.512,609.375,-53.223,999.512
1742548822.181,145.508,-699.219,-49.805,139.16
1742548822.185,-1000.0,-1000.0,-57.617,-1000.0
1742548822.189,-1000.0,-127.93,-68.848,-1000.0
1742548822.192,-162.109,999.512,-88.379,-95.703
1742548822.196,999.512,122.07,-85.449,999.512
1742548822.2,590.332,-1000.0,-72.266,482.91
1742548822.204,-781.738,-1000.0,-84.961,-847.656
1742548822.208,-1000.0,-218.75,-80.566,-1000.0
1742548822.226,-216.309,977.051,-77.637,-215.82
1742548822.23,999.512,999.512,-79.102,999.512
1742548822.234,797.363,109.863,-63.477,678.223
1742548822.238,-558.594,-1000.0,-42.48,-685.059
1742548822.242,-1000.0,-551.758,-43.457,-1000.0
1742548822.246,-203.125,999.512,-52.734,-141.602
1742548822.25,999.512,457.52,-61.523,999.512
1742548822.253,682.617,-973.633,-82.031,586.914
1742548822.257,-687.5,-1000.0,-103.516,-757.324
1742548822.261,-1000.0,-914.551,-133.301,-1000.0
1742548822.265,-298.34,290.039,-151.367,-296.875
1742548822.269,999.512,999.512,-148.926,999.512
1742548822.269,862.305,62.5,-134.766,727.051
1742548822.273,-464.844,-1000.0,-147.461,-619.629
1742548822.277,-1000.0,-620.117,-168.457,-1000.0
1742548822.281,-656.738,729.004,-192.871,-604.004
1742548822.285,649.902,999.512,-195.801,696.289
1742548822.289,999.512,828.125,-174.805,999.512
1742548822.293,96.68,-339.355,-159.18,27.344
1742548822.296,-1000.0,-1000.0,-156.738,-1000.0
1742548822.3,-1000.0,-848.633,-167.48,-1000.0
1742548822.304,2.93,387.207,-186.035,39.062
1742548822.308,999.512,999.512,-190.43,999.512
1742548822.312,212.891,130.371,-178.223,196.777
1742548822.269,862.305,62.5,-134.766,727.051
1742548822.273,-464.844,-1000.0,-147.461,-619.629
1742548822.277,-1000.0,-620.117,-168.457,-1000.0
1742548822.281,-656.738,729.004,-192.871,-604.004
1742548822.285,649.902,999.512,-195.801,696.289
1742548822.289,999.512,828.125,-174.805,999.512
1742548822.293,96.68,-339.355,-159.18,27.344
1742548822.296,-1000.0,-1000.0,-156.738,-1000.0
1742548822.3,-1000.0,-848.633,-167.48,-1000.0
1742548822.304,2.93,387.207,-186.035,39.062
1742548822.308,999.512,999.512,-190.43,999.512
1742548822.312,212.891,130.371,-178.223,196.777
1742548822.317,-1000.0,-1000.0,-172.363,-1000.0
1742548822.321,-1000.0,-178.223,-158.691,-1000.0
1742548822.325,39.062,999.512,-138.672,138.184
1742548822.329,999.512,524.414,-144.531,999.512
1742548822.333,119.629,-1000.0,-173.828,69.336
1742548822.337,-1000.0,-454.59,-177.734,-1000.0
1742548822.341,-1000.0,868.164,-170.41,-1000.0
1742548822.344,-804.688,-214.355,-184.57,-707.52
1742548822.348,623.535,562.012,-193.848,777.344
1742548822.352,999.512,590.332,-157.227,935.547
1742548822.356,-330.566,-1000.0,-138.672,-521.484
1742548822.36,-1000.0,-323.73,-171.387,-1000.0
1742548822.317,-1000.0,-1000.0,-172.363,-1000.0
1742548822.321,-1000.0,-178.223,-158.691,-1000.0
1742548822.325,39.062,999.512,-138.672,138.184
1742548822.329,999.512,524.414,-144.531,999.512
1742548822.333,119.629,-1000.0,-173.828,69.336
1742548822.337,-1000.0,-454.59,-177.734,-1000.0
1742548822.341,-1000.0,868.164,-170.41,-1000.0
1742548822.344,-804.688,-214.355,-184.57,-707.52
1742548822.348,623.535,562.012,-193.848,777.344
1742548822.352,999.512,590.332,-157.227,935.547
1742548822.356,-330.566,-1000.0,-138.672,-521.484
1742548822.36,-1000.0,-323.73,-171.387,-1000.0
1742548822.36,-168.945,999.512,-192.871,-90.332
1742548822.364,999.512,999.512,-182.129,999.512
1742548822.368,251.465,-66.406,-172.852,218.75
1742548822.372,-1000.0,-1000.0,-163.086,-1000.0
1742548822.376,-1000.0,-500.977,-163.574,-1000.0
1742548822.38,117.188,871.582,-177.246,183.594
1742548822.384,999.512,999.512,-176.758,999.512
1742548822.387,228.516,-85.449,-177.246,188.477
1742548822.391,-974.121,-1000.0,-180.176,-990.723
1742548822.395,-1000.0,-351.074,-164.062,-1000.0
1742548822.399,-254.883,966.797,-172.363,-221.191
1742548822.403,999.512,999.512,-173.828,999.512
1742548822.36,-168.945,999.512,-192.871,-90.332
1742548822.364,999.512,999.512,-182.129,999.512
1742548822.368,251.465,-66.406,-172.852,218.75
1742548822.372,-1000.0,-1000.0,-163.086,-1000.0
1742548822.376,-1000.0,-500.977,-163.574,-1000.0
1742548822.38,117.188,871.582,-177.246,183.594
1742548822.384,999.512,999.512,-176.758,999.512
1742548822.387,228.516,-85.449,-177.246,188.477
1742548822.391,-974.121,-1000.0,-180.176,-990.723
1742548822.395,-1000.0,-351.074,-164.062,-1000.0
1742548822.399,-254.883,966.797,-172.363,-221.191
1742548822.403,999.512,999.512,-173.828,999.512
1742548822.871,-1000.0,-891.113,-56.152,-1000.0
1742548822.875,-208.008,417.48,-42.48,-165.039
1742548822.879,999.512,999.512,-40.039,999.512
1742548822.883,768.555,40.527,-41.992,630.371
1742548822.887,-592.285,-1000.0,-40.039,-714.844
1742548822.891,-1000.0,-36.621,-41.504,-1000.0
1742548822.895,-182.129,999.512,-45.898,-209.961
1742548822.898,979.98,912.109,-49.805,999.512
1742548822.902,999.512,-236.816,-44.434,983.398
1742548822.906,-1.953,-1000.0,-33.691,-166.504
1742548822.91,-1000.0,-466.797,-61.523,-1000.0
1742548822.914,-425.293,816.406,-80.566,-372.07
1742548822.406,622.559,-167.48,-146.484,490.723
1742548822.41,-766.113,-1000.0,-126.465,-853.516
1742548822.414,-1000.0,-264.648,-127.441,-1000.0
1742548822.418,-202.637,999.512,-148.438,-212.402
1742548822.422,928.711,52.734,-136.23,935.059
1742548822.426,999.512,-275.879,-130.859,999.512
1742548822.43,433.594,477.539,-121.094,360.352
1742548822.433,-937.5,-1000.0,-104.492,-991.211
1742548822.437,-1000.0,-707.031,-118.164,-1000.0
1742548822.441,143.555,999.512,-128.418,247.07
1742548822.445,999.512,539.062,-120.605,999.512
1742548822.449,191.895,-1000.0,-115.234,92.773
1742548822.406,622.559,-167.48,-146.484,490.723
1742548822.41,-766.113,-1000.0,-126.465,-853.516
1742548822.414,-1000.0,-264.648,-127.441,-1000.0
1742548822.418,-202.637,999.512,-148.438,-212.402
1742548822.422,928.711,52.734,-136.23,935.059
1742548822.426,999.512,-275.879,-130.859,999.512
1742548822.43,433.594,477.539,-121.094,360.352
1742548822.433,-937.5,-1000.0,-104.492,-991.211
1742548822.437,-1000.0,-707.031,-118.164,-1000.0
1742548822.441,143.555,999.512,-128.418,247.07
1742548822.445,999.512,539.062,-120.605,999.512
1742548822.449,191.895,-1000.0,-115.234,92.773
1742548822.449,-1000.0,-967.773,-125.977,-1000.0
1742548822.453,-539.062,354.004,-142.09,-458.008
1742548822.457,891.113,999.512,-135.254,924.805
1742548822.461,999.512,215.82,-123.047,999.512
1742548822.465,11.23,-1000.0,-128.906,-25.879
1742548822.469,-1000.0,-312.012,-138.184,-1000.0
1742548822.473,-790.039,967.773,-162.598,-686.035
1742548822.476,569.336,999.512,-194.336,661.133
1742548822.48,999.512,125.488,-191.406,999.512
1742548822.484,169.922,-1000.0,-150.879,173.34
1742548822.488,-1000.0,-1000.0,-140.137,-1000.0
1742548822.492,-887.695,-184.082,-163.574,-775.391
1742548822.449,-1000.0,-967.773,-125.977,-1000.0
1742548822.453,-539.062,354.004,-142.09,-458.008
1742548822.457,891.113,999.512,-135.254,924.805
1742548822.461,999.512,215.82,-123.047,999.512
1742548822.465,11.23,-1000.0,-128.906,-25.879
1742548822.469,-1000.0,-312.012,-138.184,-1000.0
1742548822.473,-790.039,967.773,-162.598,-686.035
1742548822.476,569.336,999.512,-194.336,661.133
1742548822.48,999.512,125.488,-191.406,999.512
1742548822.484,169.922,-1000.0,-150.879,173.34
1742548822.488,-1000.0,-1000.0,-140.137,-1000.0
1742548822.492,-887.695,-184.082,-163.574,-775.391
1742548822.976,153.809,-747.07,-62.5,136.23
1742548822.98,-1000.0,-1000.0,-63.477,-1000.0
1742548822.984,-1000.0,116.699,-87.402,-935.059
1742548822.988,156.25,999.512,-104.492,292.48
1742548822.992,999.512,999.512,-105.957,999.512
1742548822.996,427.734,236.328,-112.793,388.672
1742548823.0,-888.184,-1000.0,-88.379,-914.551
1742548823.003,-1000.0,-773.438,-80.566,-1000.0
1742548823.007,-121.582,666.992,-96.68,-46.387
1742548823.011,999.512,999.512,-116.699,999.512
1742548823.015,377.441,-251.465,-148.926,331.543
1742548823.019,-982.91,-1000.0,-159.18,-1000.0
1742548822.496,429.199,999.512,-159.18,560.059
1742548822.5,999.512,694.824,-145.996,999.512
1742548822.504,218.75,-644.043,-125.977,219.727
1742548822.508,-1000.0,-1000.0,-109.863,-1000.0
1742548822.512,-1000.0,-208.496,-135.742,-922.852
1742548822.516,210.938,999.512,-151.855,354.004
1742548822.52,999.512,306.152,-142.578,999.512
1742548822.523,454.102,-1000.0,-126.953,370.117
1742548822.527,-853.516,-1000.0,-121.094,-892.09
1742548822.531,-1000.0,75.684,-145.508,-1000.0
1742548822.535,-235.352,999.512,-154.785,-234.863
1742548822.539,999.512,909.668,-148.926,999.512
1742548822.496,429.199,999.512,-159.18,560.059
1742548822.5,999.512,694.824,-145.996,999.512
1742548822.504,218.75,-644.043,-125.977,219.727
1742548822.508,-1000.0,-1000.0,-109.863,-1000.0
1742548822.512,-1000.0,-208.496,-135.742,-922.852
1742548822.516,210.938,999.512,-151.855,354.004
1742548822.52,999.512,306.152,-142.578,999.512
1742548822.523,454.102,-1000.0,-126.953,370.117
1742548822.527,-853.516,-1000.0,-121.094,-892.09
1742548822.531,-1000.0,75.684,-145.508,-1000.0
1742548822.535,-235.352,999.512,-154.785,-234.863
1742548822.539,999.512,909.668,-148.926,999.512
1742548822.554,638.672,-237.305,-142.578,528.809
1742548822.558,-755.371,-1000.0,-131.836,-834.473
1742548822.562,-1000.0,-256.348,-139.648,-1000.0
1742548822.566,-176.758,944.336,-156.738,-145.996
1742548822.57,988.77,947.754,-161.621,999.512
1742548822.574,999.512,692.871,-149.414,999.512
1742548822.578,-85.938,-517.09,-108.887,-144.043
1742548822.581,-1000.0,-1000.0,-99.121,-1000.0
1742548822.585,-937.988,-728.027,-113.77,-899.902
1742548822.589,285.645,815.918,-131.348,368.164
1742548822.593,999.512,421.387,-126.465,999.512
1742548822.597,166.992,-1000.0,-103.516,8.789
1742548822.554,638.672,-237.305,-142.578,528.809
1742548822.558,-755.371,-1000.0,-131.836,-834.473
1742548822.562,-1000.0,-256.348,-139.648,-1000.0
1742548822.566,-176.758,944.336,-156.738,-145.996
1742548822.57,988.77,947.754,-161.621,999.512
1742548822.574,999.512,692.871,-149.414,999.512
1742548822.578,-85.938,-517.09,-108.887,-144.043
1742548822.581,-1000.0,-1000.0,-99.121,-1000.0
1742548822.585,-937.988,-728.027,-113.77,-899.902
1742548822.589,285.645,815.918,-131.348,368.164
1742548822.593,999.512,421.387,-126.465,999.512
1742548822.597,166.992,-1000.0,-103.516,8.789
1742548822.6,-1000.0,-940.43,-117.188,-1000.0
1742548822.604,-455.078,343.75,-125.977,-389.648
1742548822.608,932.129,999.512,-119.141,974.609
1742548822.612,999.512,182.617,-108.887,999.512
1742548822.616,-154.785,-1000.0,-95.703,-293.945
1742548822.62,-1000.0,67.871,-93.262,-1000.0
1742548822.624,-1000.0,508.301,-85.449,-1000.0
1742548822.627,-437.012,-348.145,-78.125,-373.047
1742548822.631,999.512,999.512,-83.496,999.512
1742548822.635,465.82,183.105,-69.824,363.281
1742548822.639,-1000.0,-1000.0,-72.754,-1000.0
1742548822.643,-952.148,-29.297,-101.074,-856.934
1742548822.6,-1000.0,-940.43,-117.188,-1000.0
1742548822.604,-455.078,343.75,-125.977,-389.648
1742548822.608,932.129,999.512,-119.141,974.609
1742548822.612,999.512,182.617,-108.887,999.512
1742548822.616,-154.785,-1000.0,-95.703,-293.945
1742548822.62,-1000.0,67.871,-93.262,-1000.0
1742548822.624,-1000.0,508.301,-85.449,-1000.0
1742548822.627,-437.012,-348.145,-78.125,-373.047
1742548822.631,999.512,999.512,-83.496,999.512
1742548822.635,465.82,183.105,-69.824,363.281
1742548822.639,-1000.0,-1000.0,-72.754,-1000.0
1742548822.643,-952.148,-29.297,-101.074,-856.934
1742548822.645,403.32,999.512,-104.492,484.863
1742548822.649,999.512,999.512,-92.773,999.512
1742548822.653,167.48,-59.57,-83.008,157.715
1742548822.657,-1000.0,-1000.0,-74.707,-1000.0
1742548822.661,-901.367,-437.5,-71.289,-841.309
1742548822.665,418.457,999.512,-85.449,490.234
1742548822.669,999.512,545.898,-96.68,999.512
1742548822.672,119.141,-891.602,-97.168,118.164
1742548822.676,-999.023,-1000.0,-118.164,-1000.0
1742548822.68,-1000.0,-37.109,-133.789,-1000.0
1742548822.684,-258.789,999.512,-138.672,-214.844
1742548822.688,999.512,834.473,-145.996,999.512
1742548822.645,403.32,999.512,-104.492,484.863
1742548822.649,999.512,999.512,-92.773,999.512
1742548822.653,167.48,-59.57,-83.008,157.715
1742548822.657,-1000.0,-1000.0,-74.707,-1000.0
1742548822.661,-901.367,-437.5,-71.289,-841.309
1742548822.665,418.457,999.512,-85.449,490.234
1742548822.669,999.512,545.898,-96.68,999.512
1742548822.672,119.141,-891.602,-97.168,118.164
1742548822.676,-999.023,-1000.0,-118.164,-1000.0
1742548822.68,-1000.0,-37.109,-133.789,-1000.0
1742548822.684,-258.789,999.512,-138.672,-214.844
1742548822.688,999.512,834.473,-145.996,999.512
1742548822.691,204.102,-426.27,-126.953,187.012
1742548822.695,-1000.0,-1000.0,-118.652,-1000.0
1742548822.699,-1000.0,-168.945,-133.301,-1000.0
1742548822.703,-239.258,999.512,-145.508,-208.984
1742548822.707,999.512,843.75,-133.301,999.512
1742548822.711,861.816,-432.129,-118.652,727.539
1742548822.715,-460.449,-1000.0,-118.652,-613.77
1742548822.718,-1000.0,-848.145,-111.328,-1000.0
1742548822.722,-216.797,380.859,-126.953,-196.777
1742548822.726,999.512,999.512,-151.367,999.512
1742548822.73,714.355,147.949,-133.789,606.934
1742548822.734,-663.086,-1000.0,-108.398,-755.371
1742548822.691,204.102,-426.27,-126.953,187.012
1742548822.695,-1000.0,-1000.0,-118.652,-1000.0
1742548822.699,-1000.0,-168.945,-133.301,-1000.0
1742548822.703,-239.258,999.512,-145.508,-208.984
1742548822.707,999.512,843.75,-133.301,999.512
1742548822.711,861.816,-432.129,-118.652,727.539
1742548822.715,-460.449,-1000.0,-118.652,-613.77
1742548822.718,-1000.0,-848.145,-111.328,-1000.0
1742548822.722,-216.797,380.859,-126.953,-196.777
1742548822.726,999.512,999.512,-151.367,999.512
1742548822.73,714.355,147.949,-133.789,606.934
1742548822.734,-663.086,-1000.0,-108.398,-755.371
1742548822.735,-1000.0,-610.352,-102.539,-1000.0
1742548822.739,-197.754,758.301,-99.609,-203.125
1742548822.743,999.512,999.512,-74.219,999.512
1742548822.747,901.855,116.211,-41.504,797.852
1742548822.751,-361.816,-1000.0,-32.715,-505.371
1742548822.755,-1000.0,-11.23,-55.664,-1000.0
1742548822.759,-715.82,999.512,-79.59,-633.301
1742548822.762,625.488,999.512,-72.754,731.445
1742548822.766,999.512,201.66,-32.227,999.512
1742548822.77,-110.352,-1000.0,9.766,-259.277
1742548822.774,-1000.0,-747.559,0.0,-1000.0
1742548822.778,-960.449,575.684,-45.41,-875.977
1742548822.735,-1000.0,-610.352,-102.539,-1000.0
1742548822.739,-197.754,758.301,-99.609,-203.125
1742548822.743,999.512,999.512,-74.219,999.512
1742548822.747,901.855,116.211,-41.504,797.852
1742548822.751,-361.816,-1000.0,-32.715,-505.371
1742548822.755,-1000.0,-11.23,-55.664,-1000.0
1742548822.759,-715.82,999.512,-79.59,-633.301
1742548822.762,625.488,999.512,-72.754,731.445
1742548822.766,999.512,201.66,-32.227,999.512
1742548822.77,-110.352,-1000.0,9.766,-259.277
1742548822.774,-1000.0,-747.559,0.0,-1000.0
1742548822.778,-960.449,575.684,-45.41,-875.977
1742548822.781,255.371,999.512,-51.27,377.93
1742548822.785,999.512,490.723,-47.363,999.512
1742548822.789,77.148,-882.324,-50.293,-20.996
1742548822.793,-1000.0,-1000.0,-61.523,-1000.0
1742548822.797,-1000.0,295.41,-76.172,-958.008
1742548822.801,135.254,999.512,-62.988,262.695
1742548822.805,999.512,773.926,-43.945,999.512
1742548822.808,116.211,-662.598,-39.551,29.297
1742548822.812,-1000.0,-948.242,-31.738,-1000.0
1742548822.816,-1000.0,511.23,-36.621,-1000.0
1742548822.82,-12.695,999.512,-40.039,62.012
1742548822.824,999.512,367.676,-23.438,999.512
1742548822.839,143.066,-925.293,-5.371,143.066
1742548822.843,-1000.0,-1000.0,-6.348,-1000.0
1742548822.847,-1000.0,90.82,-5.371,-1000.0
1742548822.851,-169.922,998.535,-7.812,-101.074
1742548822.855,999.512,999.512,-21.973,999.512
1742548822.859,786.621,395.996,-22.949,701.66
1742548822.863,-546.387,-878.906,-21.484,-625.0
1742548822.866,-1000.0,-928.711,-36.621,-1000.0
1742548822.87,-873.047,-666.504,-35.645,-822.266
1742548822.874,451.66,786.621,-50.781,579.102
1742548822.878,999.512,321.777,-61.523,974.121
1742548822.882,-277.344,-1000.0,-59.57,-483.887
1742548822.839,143.066,-925.293,-5.371,143.066
1742548822.843,-1000.0,-1000.0,-6.348,-1000.0
1742548822.847,-1000.0,90.82,-5.371,-1000.0
1742548822.851,-169.922,998.535,-7.812,-101.074
1742548822.855,999.512,999.512,-21.973,999.512
1742548822.859,786.621,395.996,-22.949,701.66
1742548822.863,-546.387,-878.906,-21.484,-625.0
1742548822.866,-1000.0,-928.711,-36.621,-1000.0
1742548822.87,-873.047,-666.504,-35.645,-822.266
1742548822.874,451.66,786.621,-50.781,579.102
1742548822.878,999.512,321.777,-61.523,974.121
1742548822.882,-277.344,-1000.0,-59.57,-483.887
1742548822.915,879.395,999.512,-70.312,902.344
1742548822.919,999.512,169.922,-63.965,999.512
1742548822.923,209.961,-1000.0,-55.664,125.977
1742548822.927,-1000.0,-1000.0,-68.359,-1000.0
1742548822.931,-636.719,137.695,-83.984,-559.57
1742548822.935,757.812,999.512,-89.844,805.176
1742548822.939,999.512,240.723,-97.656,999.512
1742548822.942,154.785,-1000.0,-90.82,108.887
1742548822.946,-1000.0,-1000.0,-86.426,-1000.0
1742548822.95,-1000.0,15.625,-89.355,-938.965
1742548822.954,162.109,999.512,-96.191,307.129
1742548822.958,999.512,619.141,-81.543,999.512
1742548822.915,879.395,999.512,-70.312,902.344
1742548822.919,999.512,169.922,-63.965,999.512
1742548822.923,209.961,-1000.0,-55.664,125.977
1742548822.927,-1000.0,-1000.0,-68.359,-1000.0
1742548822.931,-636.719,137.695,-83.984,-559.57
1742548822.935,757.812,999.512,-89.844,805.176
1742548822.939,999.512,240.723,-97.656,999.512
1742548822.942,154.785,-1000.0,-90.82,108.887
1742548822.946,-1000.0,-1000.0,-86.426,-1000.0
1742548822.95,-1000.0,15.625,-89.355,-938.965
1742548822.954,162.109,999.512,-96.191,307.129
1742548822.958,999.512,619.141,-81.543,999.512
1742548822.915,879.395,999.512,-70.312,902.344
1742548822.919,999.512,169.922,-63.965,999.512
1742548822.923,209.961,-1000.0,-55.664,125.977
1742548822.927,-1000.0,-1000.0,-68.359,-1000.0
1742548822.931,-636.719,137.695,-83.984,-559.57
1742548822.935,757.812,999.512,-89.844,805.176
1742548822.939,999.512,240.723,-97.656,999.512
1742548822.942,154.785,-1000.0,-90.82,108.887
1742548822.946,-1000.0,-1000.0,-86.426,-1000.0
1742548822.95,-1000.0,15.625,-89.355,-938.965
1742548822.954,162.109,999.512,-96.191,307.129
1742548822.958,999.512,619.141,-81.543,999.512
1742548823.019,-1000.0,-347.168,-176.27,-1000.0
1742548823.023,85.938,895.508,-193.359,219.238
1742548823.027,999.512,999.512,-207.031,999.512
1742548823.031,442.383,83.008,-227.539,395.02
1742548823.035,-871.094,-1000.0,-245.605,-892.09
1742548823.039,-1000.0,338.379,-276.855,-1000.0
1742548823.043,-237.793,999.512,-291.992,-189.941
1742548823.046,999.512,999.512,-296.875,999.512
1742548823.05,621.094,250.977,-306.152,575.195
1742548823.054,-771.484,-1000.0,-248.535,-787.598
1742548823.058,-1000.0,-269.043,-208.984,-1000.0
1742548823.062,-160.156,999.512,-234.375,-143.555
1742548823.019,-1000.0,-347.168,-176.27,-1000.0
1742548823.023,85.938,895.508,-193.359,219.238
1742548823.027,999.512,999.512,-207.031,999.512
1742548823.031,442.383,83.008,-227.539,395.02
1742548823.035,-871.094,-1000.0,-245.605,-892.09
1742548823.039,-1000.0,338.379,-276.855,-1000.0
1742548823.043,-237.793,999.512,-291.992,-189.941
1742548823.046,999.512,999.512,-296.875,999.512
1742548823.05,621.094,250.977,-306.152,575.195
1742548823.054,-771.484,-1000.0,-248.535,-787.598
1742548823.058,-1000.0,-269.043,-208.984,-1000.0
1742548823.062,-160.156,999.512,-234.375,-143.555
1742548823.066,960.449,931.152,-221.68,971.191
1742548823.07,999.512,999.512,-215.332,999.512
1742548823.074,216.797,-264.648,-234.863,181.641
1742548823.078,-1000.0,-886.23,-256.348,-1000.0
1742548823.082,-636.719,650.879,-257.324,-513.184
1742548823.086,757.324,999.512,-273.438,839.844
1742548823.09,999.512,999.512,-291.504,999.512
1742548823.093,183.594,-256.836,-265.137,147.461
1742548823.097,-1000.0,-944.336,-279.297,-1000.0
1742548823.101,-434.082,549.805,-313.477,-341.797
1742548823.105,905.273,999.512,-314.941,940.43
1742548823.109,999.512,399.414,-326.66,999.512
1742548823.066,960.449,931.152,-221.68,971.191
1742548823.07,999.512,999.512,-215.332,999.512
1742548823.074,216.797,-264.648,-234.863,181.641
1742548823.078,-1000.0,-886.23,-256.348,-1000.0
1742548823.082,-636.719,650.879,-257.324,-513.184
1742548823.086,757.324,999.512,-273.438,839.844
1742548823.09,999.512,999.512,-291.504,999.512
1742548823.093,183.594,-256.836,-265.137,147.461
1742548823.097,-1000.0,-944.336,-279.297,-1000.0
1742548823.101,-434.082,549.805,-313.477,-341.797
1742548823.105,905.273,999.512,-314.941,940.43
1742548823.109,999.512,399.414,-326.66,999.512
1742548823.109,201.66,-1000.0,-328.613,203.613
1742548823.113,-1000.0,-699.707,-341.309,-1000.0
1742548823.117,-762.207,805.664,-362.305,-634.277
1742548823.121,616.211,990.234,-371.582,722.656
1742548823.125,999.512,911.133,-380.371,999.512
1742548823.129,820.312,999.512,-360.84,699.707
1742548823.133,-371.582,-452.148,-333.008,-552.734
1742548823.136,-1000.0,-337.402,-305.664,-1000.0
1742548823.14,-625.488,999.512,-303.223,-574.707
1742548823.144,706.055,881.836,-298.828,772.461
1742548823.148,999.512,999.512,-270.996,999.512
1742548823.152,49.316,90.82,-250.488,-113.281
1742548823.156,-1000.0,-1000.0,-250.488,-1000.0
1742548823.16,-258.789,358.887,-270.02,-250.0
1742548823.164,999.512,999.512,-272.949,999.512
1742548823.168,999.512,999.512,-267.09,907.715
1742548823.172,-103.027,-246.094,-267.578,-334.961
1742548823.176,-1000.0,-356.934,-264.648,-1000.0
1742548823.18,-713.867,999.512,-272.949,-662.109
1742548823.183,879.395,999.512,-289.062,894.043
1742548823.187,590.332,220.215,-295.898,486.328
1742548823.191,-927.734,-1000.0,-279.785,-977.051
1742548823.195,-1000.0,-691.406,-272.949,-1000.0
1742548823.199,-117.188,658.203,-285.645,-95.215
1742548823.201,999.512,999.512,-264.648,999.512
1742548823.205,999.512,683.105,-239.746,994.141
1742548823.209,-51.758,-544.434,-245.605,-132.812
1742548823.213,-1000.0,-1000.0,-231.445,-1000.0
1742548823.217,-782.227,-508.301,-219.727,-770.508
1742548823.221,523.926,840.82,-265.137,525.391
1742548823.225,999.512,999.512,-294.434,999.512
1742548823.228,172.363,-104.492,-310.059,144.043
1742548823.232,-1000.0,-1000.0,-327.637,-1000.0
1742548823.236,-859.863,-338.867,-336.426,-824.707
1742548823.24,479.004,932.617,-372.559,511.23
1742548823.244,999.512,999.512,-403.809,999.512
1742548823.201,999.512,999.512,-264.648,999.512
1742548823.205,999.512,683.105,-239.746,994.141
1742548823.209,-51.758,-544.434,-245.605,-132.812
1742548823.213,-1000.0,-1000.0,-231.445,-1000.0
1742548823.217,-782.227,-508.301,-219.727,-770.508
1742548823.221,523.926,840.82,-265.137,525.391
1742548823.225,999.512,999.512,-294.434,999.512
1742548823.228,172.363,-104.492,-310.059,144.043
1742548823.232,-1000.0,-1000.0,-327.637,-1000.0
1742548823.236,-859.863,-338.867,-336.426,-824.707
1742548823.24,479.004,932.617,-372.559,511.23
1742548823.244,999.512,999.512,-403.809,999.512
1742548823.26,135.742,56.641,-441.406,135.742
1742548823.264,-1000.0,-1000.0,-494.141,-1000.0
1742548823.268,-1000.0,-860.352,-558.105,-1000.0
1742548823.272,10.742,592.285,-596.191,50.293
1742548823.276,999.512,873.535,-622.559,999.512
1742548823.28,843.262,-614.746,-636.23,751.953
1742548823.284,-422.363,-1000.0,-631.836,-531.738
1742548823.287,-1000.0,-1000.0,-577.637,-1000.0
1742548823.291,-159.18,-304.199,-470.703,-150.391
1742548823.295,973.633,999.512,-431.152,979.98
1742548823.299,999.512,393.066,-372.07,999.512
1742548823.303,123.047,-947.754,-314.941,76.66
1742548823.26,135.742,56.641,-441.406,135.742
1742548823.264,-1000.0,-1000.0,-494.141,-1000.0
1742548823.268,-1000.0,-860.352,-558.105,-1000.0
1742548823.272,10.742,592.285,-596.191,50.293
1742548823.276,999.512,873.535,-622.559,999.512
1742548823.28,843.262,-614.746,-636.23,751.953
1742548823.284,-422.363,-1000.0,-631.836,-531.738
1742548823.287,-1000.0,-1000.0,-577.637,-1000.0
1742548823.291,-159.18,-304.199,-470.703,-150.391
1742548823.295,973.633,999.512,-431.152,979.98
1742548823.299,999.512,393.066,-372.07,999.512
1742548823.303,123.047,-947.754,-314.941,76.66
1742548823.26,135.742,56.641,-441.406,135.742
1742548823.264,-1000.0,-1000.0,-494.141,-1000.0
1742548823.268,-1000.0,-860.352,-558.105,-1000.0
1742548823.272,10.742,592.285,-596.191,50.293
1742548823.276,999.512,873.535,-622.559,999.512
1742548823.28,843.262,-614.746,-636.23,751.953
1742548823.284,-422.363,-1000.0,-631.836,-531.738
1742548823.287,-1000.0,-1000.0,-577.637,-1000.0
1742548823.291,-159.18,-304.199,-470.703,-150.391
1742548823.295,973.633,999.512,-431.152,979.98
1742548823.299,999.512,393.066,-372.07,999.512
1742548823.303,123.047,-947.754,-314.941,76.66
1742548823.289,-1000.0,-1000.0,-304.199,-1000.0
1742548823.293,-196.777,-162.598,-297.852,-99.609
1742548823.297,999.512,999.512,-296.875,999.512
1742548823.301,999.512,228.027,-281.25,999.512
1742548823.305,82.031,-1000.0,-266.602,52.734
1742548823.309,-1000.0,-476.562,-248.535,-996.094
1742548823.313,233.398,871.094,-230.469,426.758
1742548823.316,999.512,999.512,-145.996,999.512
1742548823.32,999.512,130.371,-62.988,999.512
1742548823.324,250.977,-997.07,-34.18,371.094
1742548823.328,-1000.0,-1000.0,-34.668,-1000.0
1742548823.332,-194.336,-192.871,-28.809,-207.031
1742548823.289,-1000.0,-1000.0,-304.199,-1000.0
1742548823.293,-196.777,-162.598,-297.852,-99.609
1742548823.297,999.512,999.512,-296.875,999.512
1742548823.301,999.512,228.027,-281.25,999.512
1742548823.305,82.031,-1000.0,-266.602,52.734
1742548823.309,-1000.0,-476.562,-248.535,-996.094
1742548823.313,233.398,871.094,-230.469,426.758
1742548823.316,999.512,999.512,-145.996,999.512
1742548823.32,999.512,130.371,-62.988,999.512
1742548823.324,250.977,-997.07,-34.18,371.094
1742548823.328,-1000.0,-1000.0,-34.668,-1000.0
1742548823.332,-194.336,-192.871,-28.809,-207.031
1742548823.366,992.188,968.262,-3.418,999.512
1742548823.37,999.512,999.512,1.953,999.512
1742548823.374,435.059,243.652,-8.301,598.633
1742548823.378,-1000.0,-1000.0,-27.832,-1000.0
1742548823.382,-662.598,-528.809,-60.547,-521.973
1742548823.386,777.832,876.465,-72.266,904.785
1742548823.39,999.512,999.512,-68.848,999.512
1742548823.393,278.32,49.316,-58.594,584.961
1742548823.397,-1000.0,-1000.0,-33.203,-988.281
1742548823.401,-269.043,-205.078,-34.668,-270.02
1742548823.405,991.211,999.512,-46.387,999.512
1742548823.409,999.512,999.512,-40.039,999.512
1742548823.366,992.188,968.262,-3.418,999.512
1742548823.37,999.512,999.512,1.953,999.512
1742548823.374,435.059,243.652,-8.301,598.633
1742548823.378,-1000.0,-1000.0,-27.832,-1000.0
1742548823.382,-662.598,-528.809,-60.547,-521.973
1742548823.386,777.832,876.465,-72.266,904.785
1742548823.39,999.512,999.512,-68.848,999.512
1742548823.393,278.32,49.316,-58.594,584.961
1742548823.397,-1000.0,-1000.0,-33.203,-988.281
1742548823.401,-269.043,-205.078,-34.668,-270.02
1742548823.405,991.211,999.512,-46.387,999.512
1742548823.409,999.512,999.512,-40.039,999.512
1742548823.395,221.68,-58.105,-28.809,500.488
1742548823.399,-1000.0,-1000.0,-43.945,-1000.0
1742548823.403,-700.195,-340.332,-52.734,-624.023
1742548823.407,708.496,924.316,-39.551,854.004
1742548823.411,999.512,999.512,-41.504,998.535
1742548823.415,902.344,803.711,-36.133,942.383
1742548823.419,-237.305,-417.969,-48.34,-164.551
1742548823.422,-1000.0,-1000.0,-76.172,-1000.0
1742548823.426,-607.91,-504.883,-87.402,-479.004
1742548823.43,772.461,862.793,-115.723,889.648
1742548823.434,999.512,999.512,-125.488,999.512
1742548823.438,-116.211,-148.926,-88.867,-163.086
1742548823.395,221.68,-58.105,-28.809,500.488
1742548823.399,-1000.0,-1000.0,-43.945,-1000.0
1742548823.403,-700.195,-340.332,-52.734,-624.023
1742548823.407,708.496,924.316,-39.551,854.004
1742548823.411,999.512,999.512,-41.504,998.535
1742548823.415,902.344,803.711,-36.133,942.383
1742548823.419,-237.305,-417.969,-48.34,-164.551
1742548823.422,-1000.0,-1000.0,-76.172,-1000.0
1742548823.426,-607.91,-504.883,-87.402,-479.004
1742548823.43,772.461,862.793,-115.723,889.648
1742548823.434,999.512,999.512,-125.488,999.512
1742548823.438,-116.211,-148.926,-88.867,-163.086
1742548823.395,221.68,-58.105,-28.809,500.488
1742548823.399,-1000.0,-1000.0,-43.945,-1000.0
1742548823.403,-700.195,-340.332,-52.734,-624.023
1742548823.407,708.496,924.316,-39.551,854.004
1742548823.411,999.512,999.512,-41.504,998.535
1742548823.415,902.344,803.711,-36.133,942.383
1742548823.419,-237.305,-417.969,-48.34,-164.551
1742548823.422,-1000.0,-1000.0,-76.172,-1000.0
1742548823.426,-607.91,-504.883,-87.402,-479.004
1742548823.43,772.461,862.793,-115.723,889.648
1742548823.434,999.512,999.512,-125.488,999.512
1742548823.438,-116.211,-148.926,-88.867,-163.086
1742548823.441,-1000.0,-1000.0,-55.176,-1000.0
1742548823.445,-484.375,-282.715,-64.453,-442.871
1742548823.449,868.164,970.703,-83.984,890.625
1742548823.453,999.512,999.512,-92.773,999.512
1742548823.457,26.367,-283.203,-92.773,-11.23
1742548823.461,-1000.0,-682.129,-107.422,-1000.0
1742548823.465,-618.652,842.285,-109.863,-555.664
1742548823.468,848.633,999.512,-91.309,908.203
1742548823.472,999.512,146.484,-83.984,915.039
1742548823.476,-350.098,-1000.0,-85.938,-457.52
1742548823.48,-1000.0,-1000.0,-102.539,-1000.0
1742548823.484,-163.574,163.574,-125.0,-183.105
1742548823.441,-1000.0,-1000.0,-55.176,-1000.0
1742548823.445,-484.375,-282.715,-64.453,-442.871
1742548823.449,868.164,970.703,-83.984,890.625
1742548823.453,999.512,999.512,-92.773,999.512
1742548823.457,26.367,-283.203,-92.773,-11.23
1742548823.461,-1000.0,-682.129,-107.422,-1000.0
1742548823.465,-618.652,842.285,-109.863,-555.664
1742548823.468,848.633,999.512,-91.309,908.203
1742548823.472,999.512,146.484,-83.984,915.039
1742548823.476,-350.098,-1000.0,-85.938,-457.52
1742548823.48,-1000.0,-1000.0,-102.539,-1000.0
1742548823.484,-163.574,163.574,-125.0,-183.105
1742548823.485,966.309,999.512,-124.512,960.938
1742548823.489,999.512,995.605,-136.719,999.512
1742548823.493,226.074,43.945,-131.348,207.031
1742548823.497,-1000.0,-1000.0,-129.395,-1000.0
1742548823.501,-687.988,-511.719,-172.852,-652.344
1742548823.505,697.754,938.477,-188.477,726.074
1742548823.509,999.512,936.035,-162.598,999.512
1742548823.512,248.047,-352.539,-174.316,245.605
1742548823.516,-1000.0,-1000.0,-204.59,-1000.0
1742548823.52,-750.0,-434.57,-231.445,-696.777
1742548823.524,642.09,893.555,-261.23,693.359
1742548823.528,999.512,999.512,-243.164,999.512
1742548823.485,966.309,999.512,-124.512,960.938
1742548823.489,999.512,995.605,-136.719,999.512
1742548823.493,226.074,43.945,-131.348,207.031
1742548823.497,-1000.0,-1000.0,-129.395,-1000.0
1742548823.501,-687.988,-511.719,-172.852,-652.344
1742548823.505,697.754,938.477,-188.477,726.074
1742548823.509,999.512,936.035,-162.598,999.512
1742548823.512,248.047,-352.539,-174.316,245.605
1742548823.516,-1000.0,-1000.0,-204.59,-1000.0
1742548823.52,-750.0,-434.57,-231.445,-696.777
1742548823.524,642.09,893.555,-261.23,693.359
1742548823.528,999.512,999.512,-243.164,999.512
1742548823.531,164.551,-126.465,-232.422,167.969
1742548823.535,-993.164,-1000.0,-268.066,-999.512
1742548823.539,-1000.0,-1000.0,-297.363,-1000.0
1742548823.543,-96.68,5.859,-294.922,-64.941
1742548823.547,999.512,943.359,-276.855,999.512
1742548823.551,958.008,787.109,-264.16,844.727
1742548823.555,-233.887,-297.363,-263.672,-408.691
1742548823.558,-1000.0,-1000.0,-276.367,-1000.0
1742548823.562,-395.508,-442.871,-299.805,-340.82
1742548823.566,999.512,999.512,-312.5,999.512
1742548823.57,743.164,380.859,-315.43,666.504
1742548823.574,-679.688,-987.305,-340.332,-746.582
1742548823.574,-1000.0,-1000.0,-368.652,-1000.0
1742548823.578,-224.609,-213.379,-384.277,-230.469
1742548823.582,999.512,999.512,-372.07,999.512
1742548823.586,639.648,348.145,-339.844,554.199
1742548823.59,-748.535,-1000.0,-323.73,-820.312
1742548823.594,-1000.0,-244.141,-352.539,-1000.0
1742548823.598,-266.113,999.512,-379.883,-304.199
1742548823.601,999.512,999.512,-375.488,999.512
1742548823.605,176.758,119.629,-336.426,182.617
1742548823.609,-1000.0,-1000.0,-298.828,-1000.0
1742548823.613,-1000.0,-937.012,-314.941,-1000.0
1742548823.617,-244.141,269.531,-358.887,-262.695
1742548823.574,-1000.0,-1000.0,-368.652,-1000.0
1742548823.578,-224.609,-213.379,-384.277,-230.469
1742548823.582,999.512,999.512,-372.07,999.512
1742548823.586,639.648,348.145,-339.844,554.199
1742548823.59,-748.535,-1000.0,-323.73,-820.312
1742548823.594,-1000.0,-244.141,-352.539,-1000.0
1742548823.598,-266.113,999.512,-379.883,-304.199
1742548823.601,999.512,999.512,-375.488,999.512
1742548823.605,176.758,119.629,-336.426,182.617
1742548823.609,-1000.0,-1000.0,-298.828,-1000.0
1742548823.613,-1000.0,-937.012,-314.941,-1000.0
1742548823.617,-244.141,269.531,-358.887,-262.695
1742548823.62,999.512,999.512,-380.371,999.512
1742548823.624,833.984,510.254,-347.656,707.031
1742548823.628,-508.789,-783.691,-333.984,-673.34
1742548823.632,-1000.0,-1000.0,-374.512,-1000.0
1742548823.636,-911.621,-837.402,-387.207,-933.105
1742548823.64,358.887,687.5,-380.859,367.188
1742548823.644,999.512,618.652,-375.977,999.512
1742548823.647,-147.949,-912.109,-348.633,-310.059
1742548823.651,-1000.0,-1000.0,-373.535,-1000.0
1742548823.655,-307.129,-172.363,-390.137,-330.078
1742548823.659,978.027,999.512,-325.684,994.141
1742548823.663,999.512,396.484,-297.852,944.824
1742548823.62,999.512,999.512,-380.371,999.512
1742548823.624,833.984,510.254,-347.656,707.031
1742548823.628,-508.789,-783.691,-333.984,-673.34
1742548823.632,-1000.0,-1000.0,-374.512,-1000.0
1742548823.636,-911.621,-837.402,-387.207,-933.105
1742548823.64,358.887,687.5,-380.859,367.188
1742548823.644,999.512,618.652,-375.977,999.512
1742548823.647,-147.949,-912.109,-348.633,-310.059
1742548823.651,-1000.0,-1000.0,-373.535,-1000.0
1742548823.655,-307.129,-172.363,-390.137,-330.078
1742548823.659,978.027,999.512,-325.684,994.141
1742548823.663,999.512,396.484,-297.852,944.824
1742548823.62,999.512,999.512,-380.371,999.512
1742548823.624,833.984,510.254,-347.656,707.031
1742548823.628,-508.789,-783.691,-333.984,-673.34
1742548823.632,-1000.0,-1000.0,-374.512,-1000.0
1742548823.636,-911.621,-837.402,-387.207,-933.105
1742548823.64,358.887,687.5,-380.859,367.188
1742548823.644,999.512,618.652,-375.977,999.512
1742548823.647,-147.949,-912.109,-348.633,-310.059
1742548823.651,-1000.0,-1000.0,-373.535,-1000.0
1742548823.655,-307.129,-172.363,-390.137,-330.078
1742548823.659,978.027,999.512,-325.684,994.141
1742548823.663,999.512,396.484,-297.852,944.824
1742548823.664,-157.227,-930.176,-300.293,-316.895
1742548823.668,-1000.0,-1000.0,-312.012,-1000.0
1742548823.672,-416.016,-176.758,-328.125,-412.109
1742548823.676,860.352,999.512,-331.543,853.027
1742548823.68,999.512,71.289,-320.801,999.512
1742548823.684,291.016,-1000.0,-311.523,265.625
1742548823.688,-1000.0,-1000.0,-321.777,-1000.0
1742548823.691,-892.09,-276.855,-349.609,-794.922
1742548823.695,465.332,999.512,-381.348,573.73
1742548823.699,999.512,925.781,-391.602,999.512
1742548823.703,166.992,-356.445,-370.605,143.066
1742548823.707,-1000.0,-1000.0,-365.234,-1000.0
1742548823.664,-157.227,-930.176,-300.293,-316.895
1742548823.668,-1000.0,-1000.0,-312.012,-1000.0
1742548823.672,-416.016,-176.758,-328.125,-412.109
1742548823.676,860.352,999.512,-331.543,853.027
1742548823.68,999.512,71.289,-320.801,999.512
1742548823.684,291.016,-1000.0,-311.523,265.625
1742548823.688,-1000.0,-1000.0,-321.777,-1000.0
1742548823.691,-892.09,-276.855,-349.609,-794.922
1742548823.695,465.332,999.512,-381.348,573.73
1742548823.699,999.512,925.781,-391.602,999.512
1742548823.703,166.992,-356.445,-370.605,143.066
1742548823.707,-1000.0,-1000.0,-365.234,-1000.0
1742548823.725,-906.738,-77.148,-376.465,-787.598
1742548823.729,410.645,999.512,-375.977,545.41
1742548823.733,999.512,808.105,-380.859,999.512
1742548823.737,192.383,-501.465,-399.902,174.316
1742548823.741,-1000.0,-1000.0,-400.391,-1000.0
1742548823.745,-589.844,-85.938,-390.625,-501.465
1742548823.749,794.434,999.512,-390.625,838.379
1742548823.752,999.512,126.465,-393.555,999.512
1742548823.756,220.703,-1000.0,-373.047,243.652
1742548823.76,-980.469,-1000.0,-367.188,-986.816
1742548823.764,-1000.0,-689.453,-395.02,-1000.0
1742548823.768,-84.473,867.188,-393.555,-11.23
1742548823.725,-906.738,-77.148,-376.465,-787.598
1742548823.729,410.645,999.512,-375.977,545.41
1742548823.733,999.512,808.105,-380.859,999.512
1742548823.737,192.383,-501.465,-399.902,174.316
1742548823.741,-1000.0,-1000.0,-400.391,-1000.0
1742548823.745,-589.844,-85.938,-390.625,-501.465
1742548823.749,794.434,999.512,-390.625,838.379
1742548823.752,999.512,126.465,-393.555,999.512
1742548823.756,220.703,-1000.0,-373.047,243.652
1742548823.76,-980.469,-1000.0,-367.188,-986.816
1742548823.764,-1000.0,-689.453,-395.02,-1000.0
1742548823.768,-84.473,867.188,-393.555,-11.23
1742548823.77,999.512,570.312,-363.77,999.512
1742548823.774,585.449,-858.887,-338.867,506.348
1742548823.778,-752.441,-1000.0,-344.238,-802.246
1742548823.782,-1000.0,-406.738,-341.797,-1000.0
1742548823.786,-405.273,819.336,-350.586,-393.066
1742548823.79,978.516,999.512,-366.699,999.512
1742548823.794,889.648,399.902,-356.445,813.477
1742548823.797,-454.102,-864.746,-355.469,-550.781
1742548823.801,-1000.0,-1000.0,-378.418,-1000.0
1742548823.805,-530.762,-251.465,-394.531,-529.785
1742548823.809,863.77,999.512,-386.23,879.395
1742548823.813,999.512,532.715,-377.441,969.727
1742548823.77,999.512,570.312,-363.77,999.512
1742548823.774,585.449,-858.887,-338.867,506.348
1742548823.778,-752.441,-1000.0,-344.238,-802.246
1742548823.782,-1000.0,-406.738,-341.797,-1000.0
1742548823.786,-405.273,819.336,-350.586,-393.066
1742548823.79,978.516,999.512,-366.699,999.512
1742548823.794,889.648,399.902,-356.445,813.477
1742548823.797,-454.102,-864.746,-355.469,-550.781
1742548823.801,-1000.0,-1000.0,-378.418,-1000.0
1742548823.805,-530.762,-251.465,-394.531,-529.785
1742548823.809,863.77,999.512,-386.23,879.395
1742548823.813,999.512,532.715,-377.441,969.727
1742548823.816,-267.578,-884.277,-346.68,-380.371
1742548823.82,-1000.0,-1000.0,-326.66,-1000.0
1742548823.824,-382.324,70.312,-320.312,-365.234
1742548823.828,935.059,999.512,-293.457,977.051
1742548823.832,999.512,200.195,-273.438,929.199
1742548823.836,-184.57,-1000.0,-250.488,-358.887
1742548823.84,-1000.0,-553.223,-225.586,-1000.0
1742548823.843,-832.52,849.121,-204.102,-770.508
1742548823.847,430.664,974.121,-135.742,490.723
1742548823.851,999.512,989.746,-76.172,999.512
1742548823.855,147.461,59.57,-60.547,149.902
1742548823.859,-1000.0,-1000.0,-75.684,-1000.0
1742548823.816,-267.578,-884.277,-346.68,-380.371
1742548823.82,-1000.0,-1000.0,-326.66,-1000.0
1742548823.824,-382.324,70.312,-320.312,-365.234
1742548823.828,935.059,999.512,-293.457,977.051
1742548823.832,999.512,200.195,-273.438,929.199
1742548823.836,-184.57,-1000.0,-250.488,-358.887
1742548823.84,-1000.0,-553.223,-225.586,-1000.0
1742548823.843,-832.52,849.121,-204.102,-770.508
1742548823.847,430.664,974.121,-135.742,490.723
1742548823.851,999.512,989.746,-76.172,999.512
1742548823.855,147.461,59.57,-60.547,149.902
1742548823.859,-1000.0,-1000.0,-75.684,-1000.0
1742548823.816,-267.578,-884.277,-346.68,-380.371
1742548823.82,-1000.0,-1000.0,-326.66,-1000.0
1742548823.824,-382.324,70.312,-320.312,-365.234
1742548823.828,935.059,999.512,-293.457,977.051
1742548823.832,999.512,200.195,-273.438,929.199
1742548823.836,-184.57,-1000.0,-250.488,-358.887
1742548823.84,-1000.0,-553.223,-225.586,-1000.0
1742548823.843,-832.52,849.121,-204.102,-770.508
1742548823.847,430.664,974.121,-135.742,490.723
1742548823.851,999.512,989.746,-76.172,999.512
1742548823.855,147.461,59.57,-60.547,149.902
1742548823.859,-1000.0,-1000.0,-75.684,-1000.0
1742548823.859,-1000.0,-541.504,-110.84,-1000.0
1742548823.863,147.461,785.645,-122.559,192.871
1742548823.867,999.512,999.512,-126.465,999.512
1742548823.871,248.535,204.59,-132.812,212.402
1742548823.875,-995.117,-1000.0,-141.113,-1000.0
1742548823.879,-1000.0,-126.465,-145.02,-1000.0
1742548823.883,2.93,999.512,-142.09,69.824
1742548823.886,999.512,987.793,-151.855,999.512
1742548823.89,145.508,-145.508,-119.629,129.395
1742548823.894,-1000.0,-1000.0,-91.797,-1000.0
1742548823.898,-1000.0,-927.734,-115.234,-1000.0
1742548823.902,-133.789,268.555,-125.0,-112.793
1742548823.859,-1000.0,-541.504,-110.84,-1000.0
1742548823.863,147.461,785.645,-122.559,192.871
1742548823.867,999.512,999.512,-126.465,999.512
1742548823.871,248.535,204.59,-132.812,212.402
1742548823.875,-995.117,-1000.0,-141.113,-1000.0
1742548823.879,-1000.0,-126.465,-145.02,-1000.0
1742548823.883,2.93,999.512,-142.09,69.824
1742548823.886,999.512,987.793,-151.855,999.512
1742548823.89,145.508,-145.508,-119.629,129.395
1742548823.894,-1000.0,-1000.0,-91.797,-1000.0
1742548823.898,-1000.0,-927.734,-115.234,-1000.0
1742548823.902,-133.789,268.555,-125.0,-112.793
1742548823.906,999.512,999.512,-127.441,999.512
1742548823.91,299.316,82.031,-108.398,251.465
1742548823.914,-970.703,-1000.0,-98.633,-987.793
1742548823.918,-1000.0,-985.84,-127.93,-1000.0
1742548823.922,-213.379,151.367,-153.809,-214.355
1742548823.926,999.512,999.512,-168.457,999.512
1742548823.93,979.492,685.059,-148.438,940.918
1742548823.933,-229.004,-605.469,-145.996,-296.387
1742548823.937,-1000.0,-1000.0,-167.48,-1000.0
1742548823.941,-444.336,-316.406,-159.668,-404.785
1742548823.945,937.988,999.512,-135.742,983.887
1742548823.949,995.605,223.633,-119.629,895.996
1742548823.949,-330.566,-1000.0,-107.91,-456.055
1742548823.953,-1000.0,-952.637,-109.375,-1000.0
1742548823.957,-216.797,311.523,-132.324,-187.012
1742548823.961,999.512,999.512,-142.09,999.512
1742548823.965,655.762,91.309,-140.137,546.875
1742548823.969,-706.055,-1000.0,-131.348,-760.742
1742548823.973,-1000.0,-308.594,-147.949,-1000.0
1742548823.976,-170.41,958.984,-181.152,-163.574
1742548823.98,979.492,999.512,-177.246,999.512
1742548823.984,999.512,143.555,-145.996,999.512
1742548823.988,29.297,-1000.0,-128.906,-45.898
1742548823.992,-1000.0,-1000.0,-134.277,-1000.0
1742548823.949,-330.566,-1000.0,-107.91,-456.055
1742548823.953,-1000.0,-952.637,-109.375,-1000.0
1742548823.957,-216.797,311.523,-132.324,-187.012
1742548823.961,999.512,999.512,-142.09,999.512
1742548823.965,655.762,91.309,-140.137,546.875
1742548823.969,-706.055,-1000.0,-131.348,-760.742
1742548823.973,-1000.0,-308.594,-147.949,-1000.0
1742548823.976,-170.41,958.984,-181.152,-163.574
1742548823.98,979.492,999.512,-177.246,999.512
1742548823.984,999.512,143.555,-145.996,999.512
1742548823.988,29.297,-1000.0,-128.906,-45.898
1742548823.992,-1000.0,-1000.0,-134.277,-1000.0
1742548823.997,-481.934,-171.387,-142.09,-432.129
1742548824.001,851.074,999.512,-130.371,873.535
1742548824.005,999.512,942.383,-125.0,999.512
1742548824.009,202.637,-275.879,-100.098,188.477
1742548824.013,-1000.0,-1000.0,-98.145,-1000.0
1742548824.017,-294.434,-146.484,-128.418,-268.066
1742548824.021,972.656,999.512,-122.559,985.352
1742548824.024,999.512,431.641,-107.91,999.512
1742548824.028,136.719,-899.902,-110.352,103.516
1742548824.032,-1000.0,-1000.0,-114.746,-1000.0
1742548824.036,-1000.0,-226.074,-112.793,-1000.0
1742548824.04,36.621,999.512,-115.723,147.949
1742548824.039,858.398,327.148,-93.75,691.406
1742548824.043,-721.68,-1000.0,-67.871,-896.484
1742548824.047,-1000.0,-983.398,-88.867,-1000.0
1742548824.051,-983.398,402.832,-99.609,-967.773
1742548824.055,-928.711,696.289,-101.562,-1000.0
1742548824.059,697.266,821.777,-133.789,560.059
1742548824.063,349.609,284.668,-145.996,288.086
1742548824.066,-1000.0,-1000.0,-154.297,-1000.0
1742548824.07,-1000.0,-1000.0,-179.688,-1000.0
1742548824.074,-546.387,-324.219,-203.613,-633.301
1742548824.078,999.512,999.512,-213.867,975.586
1742548824.082,560.059,527.344,-192.871,416.992
1742548824.039,858.398,327.148,-93.75,691.406
1742548824.043,-721.68,-1000.0,-67.871,-896.484
1742548824.047,-1000.0,-983.398,-88.867,-1000.0
1742548824.051,-983.398,402.832,-99.609,-967.773
1742548824.055,-928.711,696.289,-101.562,-1000.0
1742548824.059,697.266,821.777,-133.789,560.059
1742548824.063,349.609,284.668,-145.996,288.086
1742548824.066,-1000.0,-1000.0,-154.297,-1000.0
1742548824.07,-1000.0,-1000.0,-179.688,-1000.0
1742548824.074,-546.387,-324.219,-203.613,-633.301
1742548824.078,999.512,999.512,-213.867,975.586
1742548824.082,560.059,527.344,-192.871,416.992
1742548824.1,-881.836,-1000.0,-166.016,-978.027
1742548824.104,-1000.0,-633.789,-146.973,-1000.0
1742548824.108,-591.309,792.969,-136.23,-675.781
1742548824.112,987.305,999.512,-145.02,907.227
1742548824.116,305.664,188.477,-153.32,279.297
1742548824.12,-1000.0,-1000.0,-154.785,-1000.0
1742548824.124,-1000.0,-288.574,-152.344,-1000.0
1742548824.127,-198.73,967.285,-174.316,-152.344
1742548824.131,999.512,999.512,-213.867,999.512
1742548824.135,416.016,199.219,-164.551,340.82
1742548824.139,-924.805,-1000.0,-113.77,-953.613
1742548824.143,-1000.0,-1000.0,-122.07,-1000.0
1742548824.1,-881.836,-1000.0,-166.016,-978.027
1742548824.104,-1000.0,-633.789,-146.973,-1000.0
1742548824.108,-591.309,792.969,-136.23,-675.781
1742548824.112,987.305,999.512,-145.02,907.227
1742548824.116,305.664,188.477,-153.32,279.297
1742548824.12,-1000.0,-1000.0,-154.785,-1000.0
1742548824.124,-1000.0,-288.574,-152.344,-1000.0
1742548824.127,-198.73,967.285,-174.316,-152.344
1742548824.131,999.512,999.512,-213.867,999.512
1742548824.135,416.016,199.219,-164.551,340.82
1742548824.139,-924.805,-1000.0,-113.77,-953.613
1742548824.143,-1000.0,-1000.0,-122.07,-1000.0
1742548824.145,-165.527,-61.035,-118.652,-169.922
1742548824.149,953.125,999.512,-116.699,954.59
1742548824.153,999.512,490.234,-87.891,999.512
1742548824.157,356.934,-908.691,-42.48,383.301
1742548824.161,-1000.0,-1000.0,-11.719,-1000.0
1742548824.165,-220.703,162.598,-9.766,-145.508
1742548824.169,999.512,999.512,7.324,999.512
1742548824.172,999.512,141.113,36.133,999.512
1742548824.176,354.492,-999.023,78.613,466.309
1742548824.18,-1000.0,-1000.0,92.773,-1000.0
1742548824.184,-479.98,-344.727,49.805,-399.902
1742548824.188,897.949,999.512,-4.883,973.145
1742548824.145,-165.527,-61.035,-118.652,-169.922
1742548824.149,953.125,999.512,-116.699,954.59
1742548824.153,999.512,490.234,-87.891,999.512
1742548824.157,356.934,-908.691,-42.48,383.301
1742548824.161,-1000.0,-1000.0,-11.719,-1000.0
1742548824.165,-220.703,162.598,-9.766,-145.508
1742548824.169,999.512,999.512,7.324,999.512
1742548824.172,999.512,141.113,36.133,999.512
1742548824.176,354.492,-999.023,78.613,466.309
1742548824.18,-1000.0,-1000.0,92.773,-1000.0
1742548824.184,-479.98,-344.727,49.805,-399.902
1742548824.188,897.949,999.512,-4.883,973.145
1742548824.192,999.512,174.316,-14.16,979.98
1742548824.196,734.375,-1000.0,36.621,930.176
1742548824.2,-746.582,-1000.0,28.32,-535.645
1742548824.204,-905.273,-552.246,-3.906,-787.109
1742548824.208,607.91,760.254,17.09,791.504
1742548824.212,999.512,999.512,46.875,999.512
1742548824.216,875.488,540.527,85.938,966.309
1742548824.219,-342.285,-781.738,120.117,-221.68
1742548824.223,-1000.0,-1000.0,97.656,-1000.0
1742548824.227,-43.457,18.555,36.621,130.859
1742548824.231,999.512,999.512,33.203,999.512
1742548824.235,999.512,137.695,62.988,998.535
1742548824.192,999.512,174.316,-14.16,979.98
1742548824.196,734.375,-1000.0,36.621,930.176
1742548824.2,-746.582,-1000.0,28.32,-535.645
1742548824.204,-905.273,-552.246,-3.906,-787.109
1742548824.208,607.91,760.254,17.09,791.504
1742548824.212,999.512,999.512,46.875,999.512
1742548824.216,875.488,540.527,85.938,966.309
1742548824.219,-342.285,-781.738,120.117,-221.68
1742548824.223,-1000.0,-1000.0,97.656,-1000.0
1742548824.227,-43.457,18.555,36.621,130.859
1742548824.231,999.512,999.512,33.203,999.512
1742548824.235,999.512,137.695,62.988,998.535
1742548824.235,-171.875,-1000.0,23.438,-146.973
1742548824.239,-1000.0,-919.922,-54.688,-1000.0
1742548824.243,-36.621,335.938,-83.008,56.641
1742548824.247,999.512,999.512,-59.57,999.512
1742548824.251,999.512,180.664,-136.719,999.512
1742548824.255,-24.902,-1000.0,-250.977,-23.438
1742548824.259,-1000.0,-379.883,-412.109,-1000.0
1742548824.262,23.926,948.242,-422.852,214.844
1742548824.266,999.512,983.398,-124.512,999.512
1742548824.27,999.512,922.852,23.438,999.512
1742548824.274,174.805,-355.469,79.102,176.27
1742548824.278,-1000.0,-1000.0,126.465,-1000.0
1742548824.235,-171.875,-1000.0,23.438,-146.973
1742548824.239,-1000.0,-919.922,-54.688,-1000.0
1742548824.243,-36.621,335.938,-83.008,56.641
1742548824.247,999.512,999.512,-59.57,999.512
1742548824.251,999.512,180.664,-136.719,999.512
1742548824.255,-24.902,-1000.0,-250.977,-23.438
1742548824.259,-1000.0,-379.883,-412.109,-1000.0
1742548824.262,23.926,948.242,-422.852,214.844
1742548824.266,999.512,983.398,-124.512,999.512
1742548824.27,999.512,922.852,23.438,999.512
1742548824.274,174.805,-355.469,79.102,176.27
1742548824.278,-1000.0,-1000.0,126.465,-1000.0
1742548824.282,-92.285,316.895,112.793,-13.672
1742548824.286,979.98,999.512,135.254,998.047
1742548824.29,999.512,999.512,201.66,999.512
1742548824.294,410.156,316.406,231.934,429.199
1742548824.298,-1000.0,-1000.0,247.559,-1000.0
1742548824.302,-235.352,47.363,267.578,-169.434
1742548824.306,999.512,999.512,345.215,999.512
1742548824.309,999.512,999.512,265.137,999.512
1742548824.313,222.168,77.148,121.094,222.656
1742548824.317,-1000.0,-1000.0,193.359,-1000.0
1742548824.321,-199.219,10.742,219.727,-145.02
1742548824.325,999.512,999.512,253.418,999.512
1742548824.325,903.32,909.18,329.102,892.578
1742548824.329,999.512,999.512,344.238,999.512
1742548824.333,-276.855,-388.672,338.379,-225.098
1742548824.337,-703.613,-459.473,319.824,-574.707
1742548824.341,907.715,999.512,307.129,971.191
1742548824.345,990.234,961.426,336.914,967.773
1742548824.349,999.512,974.609,413.574,999.512
1742548824.352,-62.988,-200.684,467.773,-40.039
1742548824.356,-1000.0,-1000.0,497.07,-1000.0
1742548824.36,-233.887,-67.871,468.75,-208.008
1742548824.364,999.512,999.512,433.105,999.512
1742548824.368,629.395,671.387,470.215,504.395
1742548824.849,674.805,948.73,-134.277,659.668
1742548824.853,999.512,999.512,-110.352,999.512
1742548824.857,168.945,171.875,-98.633,166.016
1742548824.861,-1000.0,-1000.0,-108.887,-1000.0
1742548824.865,-1000.0,-942.871,-120.605,-1000.0
1742548824.869,-20.02,368.652,-127.93,-17.09
1742548824.873,999.512,999.512,-115.234,999.512
1742548824.876,165.527,-12.695,-92.773,166.504
1742548824.88,-1000.0,-1000.0,-111.328,-1000.0
1742548824.884,-1000.0,-950.195,-142.09,-1000.0
1742548824.888,-130.371,255.859,-167.969,-107.422
1742548824.892,999.512,999.512,-168.945,999.512
1742548824.325,903.32,909.18,329.102,892.578
1742548824.329,999.512,999.512,344.238,999.512
1742548824.333,-276.855,-388.672,338.379,-225.098
1742548824.337,-703.613,-459.473,319.824,-574.707
1742548824.341,907.715,999.512,307.129,971.191
1742548824.345,990.234,961.426,336.914,967.773
1742548824.349,999.512,974.609,413.574,999.512
1742548824.352,-62.988,-200.684,467.773,-40.039
1742548824.356,-1000.0,-1000.0,497.07,-1000.0
1742548824.36,-233.887,-67.871,468.75,-208.008
1742548824.364,999.512,999.512,433.105,999.512
1742548824.368,629.395,671.387,470.215,504.395
1742548824.325,903.32,909.18,329.102,892.578
1742548824.329,999.512,999.512,344.238,999.512
1742548824.333,-276.855,-388.672,338.379,-225.098
1742548824.337,-703.613,-459.473,319.824,-574.707
1742548824.341,907.715,999.512,307.129,971.191
1742548824.345,990.234,961.426,336.914,967.773
1742548824.349,999.512,974.609,413.574,999.512
1742548824.352,-62.988,-200.684,467.773,-40.039
1742548824.356,-1000.0,-1000.0,497.07,-1000.0
1742548824.36,-233.887,-67.871,468.75,-208.008
1742548824.364,999.512,999.512,433.105,999.512
1742548824.368,629.395,671.387,470.215,504.395
1742548824.371,-764.648,-946.777,453.613,-865.723
1742548824.375,-1000.0,-575.684,345.215,-1000.0
1742548824.379,-224.121,893.066,260.254,-190.43
1742548824.383,999.512,999.512,222.656,999.512
1742548824.387,278.809,192.871,217.773,256.348
1742548824.391,-1000.0,-1000.0,177.246,-1000.0
1742548824.395,-556.641,-258.789,97.168,-479.004
1742548824.398,888.184,999.512,57.129,925.781
1742548824.402,965.332,181.641,39.551,951.172
1742548824.406,999.512,-1000.0,24.902,999.512
1742548824.41,69.336,-905.762,15.625,77.637
1742548824.414,-1000.0,-1000.0,-21.484,-1000.0
1742548824.371,-764.648,-946.777,453.613,-865.723
1742548824.375,-1000.0,-575.684,345.215,-1000.0
1742548824.379,-224.121,893.066,260.254,-190.43
1742548824.383,999.512,999.512,222.656,999.512
1742548824.387,278.809,192.871,217.773,256.348
1742548824.391,-1000.0,-1000.0,177.246,-1000.0
1742548824.395,-556.641,-258.789,97.168,-479.004
1742548824.398,888.184,999.512,57.129,925.781
1742548824.402,965.332,181.641,39.551,951.172
1742548824.406,999.512,-1000.0,24.902,999.512
1742548824.41,69.336,-905.762,15.625,77.637
1742548824.414,-1000.0,-1000.0,-21.484,-1000.0
1742548824.371,-764.648,-946.777,453.613,-865.723
1742548824.375,-1000.0,-575.684,345.215,-1000.0
1742548824.379,-224.121,893.066,260.254,-190.43
1742548824.383,999.512,999.512,222.656,999.512
1742548824.387,278.809,192.871,217.773,256.348
1742548824.391,-1000.0,-1000.0,177.246,-1000.0
1742548824.395,-556.641,-258.789,97.168,-479.004
1742548824.398,888.184,999.512,57.129,925.781
1742548824.402,965.332,181.641,39.551,951.172
1742548824.406,999.512,-1000.0,24.902,999.512
1742548824.41,69.336,-905.762,15.625,77.637
1742548824.414,-1000.0,-1000.0,-21.484,-1000.0
1742548824.414,-590.82,-618.164,-66.895,-502.441
1742548824.418,996.094,999.512,-60.059,999.512
1742548824.422,657.227,648.926,-28.32,471.68
1742548824.426,-809.57,-1000.0,-35.156,-927.734
1742548824.43,-1000.0,-833.984,-30.273,-1000.0
1742548824.434,-412.109,590.82,2.93,-425.293
1742548824.438,999.512,999.512,19.043,999.512
1742548824.441,785.645,255.371,81.055,675.781
1742548824.445,-604.98,-949.707,153.809,-726.074
1742548824.449,-1000.0,-1000.0,176.27,-1000.0
1742548824.453,-449.219,-200.684,205.566,-454.102
1742548824.457,867.676,999.512,240.234,895.02
1742548824.414,-590.82,-618.164,-66.895,-502.441
1742548824.418,996.094,999.512,-60.059,999.512
1742548824.422,657.227,648.926,-28.32,471.68
1742548824.426,-809.57,-1000.0,-35.156,-927.734
1742548824.43,-1000.0,-833.984,-30.273,-1000.0
1742548824.434,-412.109,590.82,2.93,-425.293
1742548824.438,999.512,999.512,19.043,999.512
1742548824.441,785.645,255.371,81.055,675.781
1742548824.445,-604.98,-949.707,153.809,-726.074
1742548824.449,-1000.0,-1000.0,176.27,-1000.0
1742548824.453,-449.219,-200.684,205.566,-454.102
1742548824.457,867.676,999.512,240.234,895.02
1742548824.476,999.512,274.414,260.742,999.512
1742548824.48,-48.34,-996.094,279.785,-205.078
1742548824.484,-1000.0,-1000.0,273.438,-1000.0
1742548824.488,-335.938,-119.141,262.695,-302.734
1742548824.492,921.387,979.98,239.258,923.828
1742548824.496,999.512,999.512,207.031,999.512
1742548824.5,154.297,188.477,222.168,153.809
1742548824.503,-1000.0,-1000.0,208.496,-1000.0
1742548824.507,-1000.0,-1000.0,182.617,-1000.0
1742548824.511,-111.816,92.285,199.219,-85.449
1742548824.515,999.512,999.512,208.008,999.512
1742548824.519,744.629,547.363,222.168,680.664
1742548824.476,999.512,274.414,260.742,999.512
1742548824.48,-48.34,-996.094,279.785,-205.078
1742548824.484,-1000.0,-1000.0,273.438,-1000.0
1742548824.488,-335.938,-119.141,262.695,-302.734
1742548824.492,921.387,979.98,239.258,923.828
1742548824.496,999.512,999.512,207.031,999.512
1742548824.5,154.297,188.477,222.168,153.809
1742548824.503,-1000.0,-1000.0,208.496,-1000.0
1742548824.507,-1000.0,-1000.0,182.617,-1000.0
1742548824.511,-111.816,92.285,199.219,-85.449
1742548824.515,999.512,999.512,208.008,999.512
1742548824.519,744.629,547.363,222.168,680.664
1742548824.519,-617.676,-831.543,260.742,-696.777
1742548824.523,-1000.0,-1000.0,267.578,-1000.0
1742548824.527,-73.73,98.145,202.148,-8.301
1742548824.531,999.512,999.512,171.387,999.512
1742548824.535,535.645,181.641,194.824,465.332
1742548824.539,-1000.0,-1000.0,194.824,-1000.0
1742548824.543,-471.191,-98.145,144.043,-382.324
1742548824.546,966.797,999.512,113.77,999.512
1742548824.55,966.797,999.512,108.887,942.871
1742548824.554,973.145,155.273,111.816,999.512
1742548824.558,-275.391,-1000.0,114.746,-253.906
1742548824.562,-1000.0,-888.672,104.492,-1000.0
1742548824.519,-617.676,-831.543,260.742,-696.777
1742548824.523,-1000.0,-1000.0,267.578,-1000.0
1742548824.527,-73.73,98.145,202.148,-8.301
1742548824.531,999.512,999.512,171.387,999.512
1742548824.535,535.645,181.641,194.824,465.332
1742548824.539,-1000.0,-1000.0,194.824,-1000.0
1742548824.543,-471.191,-98.145,144.043,-382.324
1742548824.546,966.797,999.512,113.77,999.512
1742548824.55,966.797,999.512,108.887,942.871
1742548824.554,973.145,155.273,111.816,999.512
1742548824.558,-275.391,-1000.0,114.746,-253.906
1742548824.562,-1000.0,-888.672,104.492,-1000.0
1742548824.567,247.07,398.438,62.5,415.527
1742548824.571,999.512,999.512,45.41,999.512
1742548824.575,999.512,248.047,54.199,999.512
1742548824.579,189.453,-1000.0,36.621,150.879
1742548824.583,-1000.0,-938.477,26.367,-1000.0
1742548824.587,249.512,352.051,-9.277,435.059
1742548824.591,999.512,999.512,-8.301,999.512
1742548824.594,999.512,340.332,21.973,999.512
1742548824.598,250.0,-907.715,27.344,277.832
1742548824.602,-1000.0,-1000.0,28.809,-1000.0
1742548824.606,-205.078,-227.051,16.113,-204.59
1742548824.61,999.512,999.512,24.414,999.512
1742548824.567,247.07,398.438,62.5,415.527
1742548824.571,999.512,999.512,45.41,999.512
1742548824.575,999.512,248.047,54.199,999.512
1742548824.579,189.453,-1000.0,36.621,150.879
1742548824.583,-1000.0,-938.477,26.367,-1000.0
1742548824.587,249.512,352.051,-9.277,435.059
1742548824.591,999.512,999.512,-8.301,999.512
1742548824.594,999.512,340.332,21.973,999.512
1742548824.598,250.0,-907.715,27.344,277.832
1742548824.602,-1000.0,-1000.0,28.809,-1000.0
1742548824.606,-205.078,-227.051,16.113,-204.59
1742548824.61,999.512,999.512,24.414,999.512
1742548824.609,999.512,168.945,51.758,999.512
1742548824.613,214.355,-1000.0,63.477,190.43
1742548824.617,-1000.0,-1000.0,57.129,-1000.0
1742548824.621,-518.066,-191.406,27.344,-438.965
1742548824.625,857.422,969.238,5.859,896.484
1742548824.629,999.512,999.512,-10.254,999.512
1742548824.633,133.301,159.668,-25.391,127.441
1742548824.636,-993.652,-1000.0,-27.832,-998.535
1742548824.64,-1000.0,-1000.0,-39.551,-1000.0
1742548824.644,-261.719,-257.812,-39.062,-260.254
1742548824.648,999.512,999.512,-40.527,999.512
1742548824.652,260.254,328.125,-44.434,230.957
1742548824.609,999.512,168.945,51.758,999.512
1742548824.613,214.355,-1000.0,63.477,190.43
1742548824.617,-1000.0,-1000.0,57.129,-1000.0
1742548824.621,-518.066,-191.406,27.344,-438.965
1742548824.625,857.422,969.238,5.859,896.484
1742548824.629,999.512,999.512,-10.254,999.512
1742548824.633,133.301,159.668,-25.391,127.441
1742548824.636,-993.652,-1000.0,-27.832,-998.535
1742548824.64,-1000.0,-1000.0,-39.551,-1000.0
1742548824.644,-261.719,-257.812,-39.062,-260.254
1742548824.648,999.512,999.512,-40.527,999.512
1742548824.652,260.254,328.125,-44.434,230.957
1742548824.656,-1000.0,-1000.0,-64.941,-1000.0
1742548824.66,-1000.0,-622.07,-117.676,-1000.0
1742548824.664,-144.531,760.254,-152.832,-64.453
1742548824.668,999.512,999.512,-141.113,999.512
1742548824.672,154.785,170.41,-113.77,147.461
1742548824.676,-1000.0,-1000.0,-110.84,-1000.0
1742548824.68,-1000.0,-251.953,-103.027,-1000.0
1742548824.683,-253.418,999.512,-101.074,-229.004
1742548824.687,999.512,689.453,-107.91,999.512
1742548824.691,132.812,-600.098,-107.91,60.059
1742548824.695,-1000.0,-1000.0,-107.422,-1000.0
1742548824.699,-1000.0,-464.844,-109.375,-1000.0
1742548824.699,-258.301,786.133,-129.883,-194.824
1742548824.703,999.512,999.512,-141.113,999.512
1742548824.707,726.074,619.141,-129.883,649.902
1742548824.711,-651.855,-909.18,-140.625,-719.727
1742548824.715,-1000.0,-766.113,-159.18,-1000.0
1742548824.719,-226.562,721.191,-146.973,-193.848
1742548824.723,999.512,999.512,-134.766,999.512
1742548824.726,295.898,121.094,-133.789,261.719
1742548824.73,-973.145,-989.258,-119.629,-982.91
1742548824.734,-1000.0,-1000.0,-109.863,-1000.0
1742548824.738,-505.371,-352.539,-134.277,-494.629
1742548824.742,939.453,999.512,-153.32,966.309
1742548824.699,-258.301,786.133,-129.883,-194.824
1742548824.703,999.512,999.512,-141.113,999.512
1742548824.707,726.074,619.141,-129.883,649.902
1742548824.711,-651.855,-909.18,-140.625,-719.727
1742548824.715,-1000.0,-766.113,-159.18,-1000.0
1742548824.719,-226.562,721.191,-146.973,-193.848
1742548824.723,999.512,999.512,-134.766,999.512
1742548824.726,295.898,121.094,-133.789,261.719
1742548824.73,-973.145,-989.258,-119.629,-982.91
1742548824.734,-1000.0,-1000.0,-109.863,-1000.0
1742548824.738,-505.371,-352.539,-134.277,-494.629
1742548824.742,939.453,999.512,-153.32,966.309
1742548824.776,921.387,422.363,-123.535,853.516
1742548824.78,-442.871,-1000.0,-110.352,-530.273
1742548824.784,-1000.0,-588.379,-128.418,-1000.0
1742548824.788,-378.906,851.562,-136.719,-323.73
1742548824.792,873.535,945.312,-121.094,899.414
1742548824.796,999.512,999.512,-110.84,999.512
1742548824.8,154.297,226.562,-112.793,132.324
1742548824.803,-1000.0,-1000.0,-112.793,-1000.0
1742548824.807,-1000.0,-1000.0,-129.883,-1000.0
1742548824.811,-35.645,141.602,-153.809,4.883
1742548824.815,999.512,999.512,-164.551,999.512
1742548824.819,156.738,178.711,-145.508,148.926
1742548824.776,921.387,422.363,-123.535,853.516
1742548824.78,-442.871,-1000.0,-110.352,-530.273
1742548824.784,-1000.0,-588.379,-128.418,-1000.0
1742548824.788,-378.906,851.562,-136.719,-323.73
1742548824.792,873.535,945.312,-121.094,899.414
1742548824.796,999.512,999.512,-110.84,999.512
1742548824.8,154.297,226.562,-112.793,132.324
1742548824.803,-1000.0,-1000.0,-112.793,-1000.0
1742548824.807,-1000.0,-1000.0,-129.883,-1000.0
1742548824.811,-35.645,141.602,-153.809,4.883
1742548824.815,999.512,999.512,-164.551,999.512
1742548824.819,156.738,178.711,-145.508,148.926
1742548824.789,-1000.0,-1000.0,-123.535,-1000.0
1742548824.793,-1000.0,-1000.0,-121.094,-1000.0
1742548824.797,-109.863,130.859,-120.117,-74.707
1742548824.801,999.512,999.512,-123.047,999.512
1742548824.805,166.016,157.227,-102.051,161.133
1742548824.809,-1000.0,-1000.0,-99.609,-1000.0
1742548824.813,-1000.0,-75.195,-122.559,-1000.0
1742548824.816,7.812,999.512,-134.277,69.336
1742548824.82,999.512,139.648,-134.277,999.512
1742548824.824,89.844,-1000.0,-113.281,-61.523
1742548824.828,-1000.0,-1000.0,-103.516,-1000.0
1742548824.832,-683.594,-254.883,-126.465,-664.062
1742548824.789,-1000.0,-1000.0,-123.535,-1000.0
1742548824.793,-1000.0,-1000.0,-121.094,-1000.0
1742548824.797,-109.863,130.859,-120.117,-74.707
1742548824.801,999.512,999.512,-123.047,999.512
1742548824.805,166.016,157.227,-102.051,161.133
1742548824.809,-1000.0,-1000.0,-99.609,-1000.0
1742548824.813,-1000.0,-75.195,-122.559,-1000.0
1742548824.816,7.812,999.512,-134.277,69.336
1742548824.82,999.512,139.648,-134.277,999.512
1742548824.824,89.844,-1000.0,-113.281,-61.523
1742548824.828,-1000.0,-1000.0,-103.516,-1000.0
1742548824.832,-683.594,-254.883,-126.465,-664.062
1742548824.789,-1000.0,-1000.0,-123.535,-1000.0
1742548824.793,-1000.0,-1000.0,-121.094,-1000.0
1742548824.797,-109.863,130.859,-120.117,-74.707
1742548824.801,999.512,999.512,-123.047,999.512
1742548824.805,166.016,157.227,-102.051,161.133
1742548824.809,-1000.0,-1000.0,-99.609,-1000.0
1742548824.813,-1000.0,-75.195,-122.559,-1000.0
1742548824.816,7.812,999.512,-134.277,69.336
1742548824.82,999.512,139.648,-134.277,999.512
1742548824.824,89.844,-1000.0,-113.281,-61.523
1742548824.828,-1000.0,-1000.0,-103.516,-1000.0
1742548824.832,-683.594,-254.883,-126.465,-664.062
1742548824.895,451.66,157.715,-141.602,372.559
1742548824.899,-913.086,-1000.0,-98.145,-950.195
1742548824.903,-1000.0,-819.336,-94.727,-1000.0
1742548824.907,-30.273,486.816,-116.699,-27.832
1742548824.911,999.512,999.512,-101.074,999.512
1742548824.915,999.512,711.426,-87.891,966.797
1742548824.919,-105.957,-540.039,-66.406,-177.246
1742548824.922,-1000.0,-1000.0,-48.34,-1000.0
1742548824.926,-785.645,-765.137,-64.941,-700.684
1742548824.93,507.812,519.043,-63.965,600.098
1742548824.934,999.512,999.512,-25.391,999.512
1742548824.938,194.824,126.465,-10.742,197.754
1742548824.895,451.66,157.715,-141.602,372.559
1742548824.899,-913.086,-1000.0,-98.145,-950.195
1742548824.903,-1000.0,-819.336,-94.727,-1000.0
1742548824.907,-30.273,486.816,-116.699,-27.832
1742548824.911,999.512,999.512,-101.074,999.512
1742548824.915,999.512,711.426,-87.891,966.797
1742548824.919,-105.957,-540.039,-66.406,-177.246
1742548824.922,-1000.0,-1000.0,-48.34,-1000.0
1742548824.926,-785.645,-765.137,-64.941,-700.684
1742548824.93,507.812,519.043,-63.965,600.098
1742548824.934,999.512,999.512,-25.391,999.512
1742548824.938,194.824,126.465,-10.742,197.754
1742548824.941,-1000.0,-1000.0,-20.02,-1000.0
1742548824.945,-529.297,-266.602,-50.781,-499.512
1742548824.949,854.004,979.492,-72.266,870.117
1742548824.953,999.512,999.512,-69.336,999.512
1742548824.957,204.59,142.578,-53.711,201.66
1742548824.961,-1000.0,-1000.0,-55.176,-1000.0
1742548824.965,-372.559,-202.637,-109.375,-345.703
1742548824.968,941.406,999.512,-125.977,965.332
1742548824.972,999.512,149.414,-106.445,999.512
1742548824.976,184.082,-1000.0,-78.613,83.496
1742548824.98,-1000.0,-1000.0,-60.059,-1000.0
1742548824.984,-641.113,-376.465,-59.57,-585.449
1742548824.941,-1000.0,-1000.0,-20.02,-1000.0
1742548824.945,-529.297,-266.602,-50.781,-499.512
1742548824.949,854.004,979.492,-72.266,870.117
1742548824.953,999.512,999.512,-69.336,999.512
1742548824.957,204.59,142.578,-53.711,201.66
1742548824.961,-1000.0,-1000.0,-55.176,-1000.0
1742548824.965,-372.559,-202.637,-109.375,-345.703
1742548824.968,941.406,999.512,-125.977,965.332
1742548824.972,999.512,149.414,-106.445,999.512
1742548824.976,184.082,-1000.0,-78.613,83.496
1742548824.98,-1000.0,-1000.0,-60.059,-1000.0
1742548824.984,-641.113,-376.465,-59.57,-585.449
1742548824.984,726.562,889.16,-47.852,756.836
1742548824.988,999.512,999.512,-33.203,999.512
1742548824.992,401.367,242.676,-23.438,379.883
1742548824.996,-1000.0,-1000.0,-30.273,-1000.0
1742548825.0,-912.598,-485.84,-64.453,-858.887
1742548825.004,464.355,881.348,-75.684,526.367
1742548825.008,999.512,999.512,-66.895,999.512
1742548825.011,242.676,206.055,-56.152,236.328
1742548825.015,-985.352,-1000.0,-59.082,-1000.0
1742548825.019,-1000.0,-342.773,-83.984,-1000.0
1742548825.023,51.27,995.605,-99.609,193.359
1742548825.027,999.512,999.512,-88.867,999.512
1742548824.984,726.562,889.16,-47.852,756.836
1742548824.988,999.512,999.512,-33.203,999.512
1742548824.992,401.367,242.676,-23.438,379.883
1742548824.996,-1000.0,-1000.0,-30.273,-1000.0
1742548825.0,-912.598,-485.84,-64.453,-858.887
1742548825.004,464.355,881.348,-75.684,526.367
1742548825.008,999.512,999.512,-66.895,999.512
1742548825.011,242.676,206.055,-56.152,236.328
1742548825.015,-985.352,-1000.0,-59.082,-1000.0
1742548825.019,-1000.0,-342.773,-83.984,-1000.0
1742548825.023,51.27,995.605,-99.609,193.359
1742548825.027,999.512,999.512,-88.867,999.512
1742548825.031,-112.793,-132.324,-63.965,-345.215
1742548825.035,-1000.0,-1000.0,-58.594,-1000.0
1742548825.039,-1000.0,-193.359,-61.523,-1000.0
1742548825.043,-343.75,955.078,-62.5,-513.184
1742548825.047,999.512,999.512,-65.43,999.512
1742548825.051,379.395,348.145,-48.828,233.887
1742548825.055,-954.102,-911.621,-29.785,-1000.0
1742548825.058,-1000.0,-1000.0,-16.113,-1000.0
1742548825.062,-725.098,-626.953,16.113,-783.203
1742548825.066,619.629,729.004,43.457,634.766
1742548825.07,999.512,999.512,48.828,999.512
1742548825.074,-2.441,-26.367,41.016,-279.297
1742548825.075,-1000.0,-1000.0,30.762,-1000.0
1742548825.079,-506.836,-375.977,30.273,-470.215
1742548825.083,836.914,907.715,60.059,842.285
1742548825.087,999.512,999.512,100.098,999.512
1742548825.091,195.801,69.824,120.117,134.766
1742548825.095,-1000.0,-1000.0,133.301,-1000.0
1742548825.099,-267.09,157.715,123.535,-251.465
1742548825.102,999.512,999.512,117.676,999.512
1742548825.106,163.086,-57.129,130.859,164.551
1742548825.11,-1000.0,-1000.0,138.184,-1000.0
1742548825.114,-1000.0,-1000.0,137.695,-1000.0
1742548825.118,-192.871,69.824,135.742,-184.57
1742548825.122,967.773,999.512,140.625,973.145
1742548825.126,999.512,999.512,148.926,999.512
1742548825.13,185.059,215.332,160.156,168.457
1742548825.134,-1000.0,-1000.0,166.016,-1000.0
1742548825.138,-1000.0,-963.379,152.832,-1000.0
1742548825.142,126.465,384.766,147.949,215.332
1742548825.146,999.512,999.512,153.809,999.512
1742548825.149,200.684,-148.438,166.504,184.57
1742548825.153,-1000.0,-1000.0,161.621,-1000.0
1742548825.157,-520.996,-261.23,124.512,-473.145
1742548825.161,853.027,951.172,91.309,875.0
1742548825.165,999.512,999.512,104.004,999.512
1742548825.122,967.773,999.512,140.625,973.145
1742548825.126,999.512,999.512,148.926,999.512
1742548825.13,185.059,215.332,160.156,168.457
1742548825.134,-1000.0,-1000.0,166.016,-1000.0
1742548825.138,-1000.0,-963.379,152.832,-1000.0
1742548825.142,126.465,384.766,147.949,215.332
1742548825.146,999.512,999.512,153.809,999.512
1742548825.149,200.684,-148.438,166.504,184.57
1742548825.153,-1000.0,-1000.0,161.621,-1000.0
1742548825.157,-520.996,-261.23,124.512,-473.145
1742548825.161,853.027,951.172,91.309,875.0
1742548825.165,999.512,999.512,104.004,999.512
1742548825.164,265.625,167.969,122.07,284.668
1742548825.168,-1000.0,-1000.0,128.418,-1000.0
1742548825.172,-365.234,-195.801,114.746,-303.711
1742548825.176,999.512,999.512,133.301,999.512
1742548825.18,912.109,919.434,142.578,892.578
1742548825.184,999.512,999.512,108.887,999.512
1742548825.188,154.297,-68.359,109.375,160.156
1742548825.191,-1000.0,-1000.0,93.75,-1000.0
1742548825.195,-129.395,-191.406,73.73,170.41
1742548825.199,999.512,999.512,105.469,999.512
1742548825.203,999.512,209.961,141.113,999.512
1742548825.207,-83.008,-1000.0,132.812,29.785
1742548825.164,265.625,167.969,122.07,284.668
1742548825.168,-1000.0,-1000.0,128.418,-1000.0
1742548825.172,-365.234,-195.801,114.746,-303.711
1742548825.176,999.512,999.512,133.301,999.512
1742548825.18,912.109,919.434,142.578,892.578
1742548825.184,999.512,999.512,108.887,999.512
1742548825.188,154.297,-68.359,109.375,160.156
1742548825.191,-1000.0,-1000.0,93.75,-1000.0
1742548825.195,-129.395,-191.406,73.73,170.41
1742548825.199,999.512,999.512,105.469,999.512
1742548825.203,999.512,209.961,141.113,999.512
1742548825.207,-83.008,-1000.0,132.812,29.785
1742548825.225,-1000.0,-1000.0,117.676,-1000.0
1742548825.229,-198.73,-90.82,123.047,-52.246
1742548825.233,999.512,999.512,136.23,999.512
1742548825.237,467.773,289.551,163.086,402.344
1742548825.241,-928.711,-1000.0,186.523,-944.336
1742548825.245,-1000.0,-206.055,201.172,-1000.0
1742548825.249,-1000.0,999.512,205.566,-1000.0
1742548825.252,307.617,999.512,185.059,272.461
1742548825.256,320.312,164.551,205.078,312.988
1742548825.26,-1000.0,-1000.0,193.359,-1000.0
1742548825.264,-1000.0,-1000.0,175.293,-1000.0
1742548825.268,-245.605,21.484,220.215,-283.691
1742548825.225,-1000.0,-1000.0,117.676,-1000.0
1742548825.229,-198.73,-90.82,123.047,-52.246
1742548825.233,999.512,999.512,136.23,999.512
1742548825.237,467.773,289.551,163.086,402.344
1742548825.241,-928.711,-1000.0,186.523,-944.336
1742548825.245,-1000.0,-206.055,201.172,-1000.0
1742548825.249,-1000.0,999.512,205.566,-1000.0
1742548825.252,307.617,999.512,185.059,272.461
1742548825.256,320.312,164.551,205.078,312.988
1742548825.26,-1000.0,-1000.0,193.359,-1000.0
1742548825.264,-1000.0,-1000.0,175.293,-1000.0
1742548825.268,-245.605,21.484,220.215,-283.691
1742548825.269,999.512,999.512,229.98,999.512
1742548825.273,824.707,721.191,187.012,631.836
1742548825.277,-516.113,-623.535,160.645,-739.746
1742548825.281,-1000.0,-1000.0,189.453,-1000.0
1742548825.285,-151.367,-2.441,200.195,-183.105
1742548825.289,950.195,989.746,259.277,939.453
1742548825.293,999.512,999.512,351.074,999.512
1742548825.296,425.293,215.82,439.941,449.707
1742548825.3,-1000.0,-1000.0,521.484,-1000.0
1742548825.304,-234.375,-22.949,549.316,-208.008
1742548825.308,999.512,999.512,660.645,999.512
1742548825.312,999.512,999.512,802.246,999.512
1742548825.269,999.512,999.512,229.98,999.512
1742548825.273,824.707,721.191,187.012,631.836
1742548825.277,-516.113,-623.535,160.645,-739.746
1742548825.281,-1000.0,-1000.0,189.453,-1000.0
1742548825.285,-151.367,-2.441,200.195,-183.105
1742548825.289,950.195,989.746,259.277,939.453
1742548825.293,999.512,999.512,351.074,999.512
1742548825.296,425.293,215.82,439.941,449.707
1742548825.3,-1000.0,-1000.0,521.484,-1000.0
1742548825.304,-234.375,-22.949,549.316,-208.008
1742548825.308,999.512,999.512,660.645,999.512
1742548825.312,999.512,999.512,802.246,999.512
1742548825.316,313.477,221.191,883.301,412.109
1742548825.32,-1000.0,-1000.0,944.824,-1000.0
1742548825.324,-219.238,-159.18,968.262,-236.328
1742548825.328,999.512,999.512,965.82,999.512
1742548825.332,880.371,875.977,966.797,878.906
1742548825.336,999.512,999.512,966.797,999.512
1742548825.34,225.098,245.605,966.797,204.59
1742548825.343,-1000.0,-1000.0,967.285,-1000.0
1742548825.347,-230.469,-203.613,967.285,-158.203
1742548825.351,999.512,999.512,966.797,999.512
1742548825.355,992.676,999.512,966.797,901.855
1742548825.359,-226.562,-244.141,967.285,-363.281
1742548825.316,313.477,221.191,883.301,412.109
1742548825.32,-1000.0,-1000.0,944.824,-1000.0
1742548825.324,-219.238,-159.18,968.262,-236.328
1742548825.328,999.512,999.512,965.82,999.512
1742548825.332,880.371,875.977,966.797,878.906
1742548825.336,999.512,999.512,966.797,999.512
1742548825.34,225.098,245.605,966.797,204.59
1742548825.343,-1000.0,-1000.0,967.285,-1000.0
1742548825.347,-230.469,-203.613,967.285,-158.203
1742548825.351,999.512,999.512,966.797,999.512
1742548825.355,992.676,999.512,966.797,901.855
1742548825.359,-226.562,-244.141,967.285,-363.281
1742548825.316,313.477,221.191,883.301,412.109
1742548825.32,-1000.0,-1000.0,944.824,-1000.0
1742548825.324,-219.238,-159.18,968.262,-236.328
1742548825.328,999.512,999.512,965.82,999.512
1742548825.332,880.371,875.977,966.797,878.906
1742548825.336,999.512,999.512,966.797,999.512
1742548825.34,225.098,245.605,966.797,204.59
1742548825.343,-1000.0,-1000.0,967.285,-1000.0
1742548825.347,-230.469,-203.613,967.285,-158.203
1742548825.351,999.512,999.512,966.797,999.512
1742548825.355,992.676,999.512,966.797,901.855
1742548825.359,-226.562,-244.141,967.285,-363.281
1742548825.359,-1000.0,-1000.0,967.285,-1000.0
1742548825.363,-192.383,414.062,967.285,-142.578
1742548825.367,999.512,999.512,966.797,999.512
1742548825.371,970.215,993.652,966.797,813.477
1742548825.375,-295.898,-422.852,967.285,-528.809
1742548825.379,-1000.0,-335.938,967.285,-1000.0
1742548825.383,-136.719,999.512,966.797,-20.508
1742548825.386,999.512,999.512,966.797,999.512
1742548825.39,204.59,153.809,967.285,188.477
1742548825.394,-1000.0,-1000.0,967.285,-1000.0
1742548825.398,-915.039,-198.242,967.285,-843.75
1742548825.402,455.566,999.512,967.285,536.133
1742548825.359,-1000.0,-1000.0,967.285,-1000.0
1742548825.363,-192.383,414.062,967.285,-142.578
1742548825.367,999.512,999.512,966.797,999.512
1742548825.371,970.215,993.652,966.797,813.477
1742548825.375,-295.898,-422.852,967.285,-528.809
1742548825.379,-1000.0,-335.938,967.285,-1000.0
1742548825.383,-136.719,999.512,966.797,-20.508
1742548825.386,999.512,999.512,966.797,999.512
1742548825.39,204.59,153.809,967.285,188.477
1742548825.394,-1000.0,-1000.0,967.285,-1000.0
1742548825.398,-915.039,-198.242,967.285,-843.75
1742548825.402,455.566,999.512,967.285,536.133
1742548825.407,999.512,876.465,966.797,999.512
1742548825.411,999.512,999.512,966.797,999.512
1742548825.415,253.418,200.684,967.285,212.402
1742548825.419,-1000.0,-1000.0,967.285,-1000.0
1742548825.423,-137.207,250.0,967.285,-29.785
1742548825.427,999.512,999.512,966.797,999.512
1742548825.431,999.512,999.512,966.797,999.512
1742548825.434,380.371,388.672,966.797,315.918
1742548825.438,-1000.0,-987.305,967.285,-1000.0
1742548825.442,-202.148,290.527,967.285,-83.008
1742548825.446,999.512,999.512,966.797,999.512
1742548825.45,999.512,999.512,967.285,999.512
1742548825.407,999.512,876.465,966.797,999.512
1742548825.411,999.512,999.512,966.797,999.512
1742548825.415,253.418,200.684,967.285,212.402
1742548825.419,-1000.0,-1000.0,967.285,-1000.0
1742548825.423,-137.207,250.0,967.285,-29.785
1742548825.427,999.512,999.512,966.797,999.512
1742548825.431,999.512,999.512,966.797,999.512
1742548825.434,380.371,388.672,966.797,315.918
1742548825.438,-1000.0,-987.305,967.285,-1000.0
