timestamps,TP9,AF7,AF8,TP10
1742550399.168,419.434,-256.348,-123.535,777.832
1742550399.172,-898.438,-560.059,-104.004,-662.598
1742550399.168,419.434,-256.348,-123.535,777.832
1742550399.172,-898.438,-560.059,-104.004,-662.598
1742550399.168,419.434,-256.348,-123.535,777.832
1742550399.172,-898.438,-560.059,-104.004,-662.598
1742550399.186,-842.285,-139.648,-95.703,-1000.0
1742550399.19,459.473,363.77,-63.477,-23.438
1742550399.194,999.512,455.566,0.977,999.512
1742550399.198,667.969,61.523,11.719,874.512
1742550399.202,-908.203,-876.465,-50.293,-785.156
1742550399.206,-393.066,-6.348,-75.684,-845.215
1742550399.21,767.578,677.246,-83.008,598.633
1742550399.213,-576.172,-651.855,-88.379,-531.25
1742550399.217,381.836,362.305,-60.547,188.477
1742550399.221,999.512,541.992,-68.359,999.512
1742550399.225,-823.242,-893.066,-64.453,-593.75
1742550399.229,-846.191,-226.562,-53.711,-1000.0
1742550399.186,-842.285,-139.648,-95.703,-1000.0
1742550399.19,459.473,363.77,-63.477,-23.438
1742550399.194,999.512,455.566,0.977,999.512
1742550399.198,667.969,61.523,11.719,874.512
1742550399.202,-908.203,-876.465,-50.293,-785.156
1742550399.206,-393.066,-6.348,-75.684,-845.215
1742550399.21,767.578,677.246,-83.008,598.633
1742550399.213,-576.172,-651.855,-88.379,-531.25
1742550399.217,381.836,362.305,-60.547,188.477
1742550399.221,999.512,541.992,-68.359,999.512
1742550399.225,-823.242,-893.066,-64.453,-593.75
1742550399.229,-846.191,-226.562,-53.711,-1000.0
1742550399.231,835.938,858.887,-47.852,653.809
1742550399.235,997.559,276.367,-33.691,999.512
1742550399.239,-803.223,-838.867,-68.359,-604.492
1742550399.243,-654.297,77.148,-52.246,-907.715
1742550399.247,684.082,644.043,-69.824,625.488
1742550399.251,-546.875,-604.492,-61.523,-479.98
1742550399.255,348.633,426.27,7.324,148.926
1742550399.258,859.863,221.191,4.883,999.512
1742550399.262,-969.727,-1000.0,-47.363,-754.883
1742550399.266,-794.434,-132.324,-94.727,-986.816
1742550399.27,786.621,645.508,-53.711,624.023
1742550399.274,999.512,261.23,-3.418,999.512
1742550399.231,835.938,858.887,-47.852,653.809
1742550399.235,997.559,276.367,-33.691,999.512
1742550399.239,-803.223,-838.867,-68.359,-604.492
1742550399.243,-654.297,77.148,-52.246,-907.715
1742550399.247,684.082,644.043,-69.824,625.488
1742550399.251,-546.875,-604.492,-61.523,-479.98
1742550399.255,348.633,426.27,7.324,148.926
1742550399.258,859.863,221.191,4.883,999.512
1742550399.262,-969.727,-1000.0,-47.363,-754.883
1742550399.266,-794.434,-132.324,-94.727,-986.816
1742550399.27,786.621,645.508,-53.711,624.023
1742550399.274,999.512,261.23,-3.418,999.512
1742550399.276,-312.012,-453.613,-15.137,96.68
1742550399.28,-1000.0,-590.82,-77.637,-1000.0
1742550399.284,-262.695,269.043,-113.77,-704.59
1742550399.288,669.434,388.184,-92.285,582.031
1742550399.292,-542.48,-636.23,-71.289,-471.68
1742550399.296,465.82,470.703,-92.773,332.52
1742550399.3,549.316,165.527,-111.816,955.078
1742550399.303,-1000.0,-882.812,-143.066,-918.945
1742550399.307,-716.309,-243.164,-166.992,-960.938
1742550399.311,799.805,648.926,-87.402,582.52
1742550399.315,809.57,197.266,-28.32,999.512
1742550399.319,-719.238,-509.277,-36.133,185.547
1742550399.322,-1000.0,-345.215,-86.914,-1000.0
1742550399.326,341.797,474.609,-144.043,-109.863
1742550399.33,999.512,499.023,-141.113,999.512
1742550399.334,772.461,-5.371,-92.773,901.855
1742550399.338,-808.105,-758.301,-87.891,-683.594
1742550399.342,-776.855,60.059,-144.043,-986.328
1742550399.346,666.016,717.285,-187.5,615.234
1742550399.349,-529.297,-713.867,-146.484,-410.156
1742550399.353,222.656,295.41,-65.918,28.809
1742550399.357,999.512,660.645,-74.219,999.512
1742550399.361,-854.492,-908.203,-139.648,-724.609
1742550399.365,-646.484,-134.277,-149.902,-998.047
1742550399.322,-1000.0,-345.215,-86.914,-1000.0
1742550399.326,341.797,474.609,-144.043,-109.863
1742550399.33,999.512,499.023,-141.113,999.512
1742550399.334,772.461,-5.371,-92.773,901.855
1742550399.338,-808.105,-758.301,-87.891,-683.594
1742550399.342,-776.855,60.059,-144.043,-986.328
1742550399.346,666.016,717.285,-187.5,615.234
1742550399.349,-529.297,-713.867,-146.484,-410.156
1742550399.353,222.656,295.41,-65.918,28.809
1742550399.357,999.512,660.645,-74.219,999.512
1742550399.361,-854.492,-908.203,-139.648,-724.609
1742550399.365,-646.484,-134.277,-149.902,-998.047
1742550399.366,999.512,822.266,-116.699,772.461
1742550399.37,738.77,-133.301,-118.652,999.512
1742550399.374,-841.309,-745.605,-128.906,-781.25
1742550399.378,385.254,556.152,-139.16,-33.203
1742550399.382,299.316,-74.707,-177.734,560.547
1742550399.386,-860.352,-291.992,-144.043,-825.195
1742550399.39,664.062,642.09,-98.633,587.402
1742550399.393,-262.207,-673.34,-129.883,224.121
1742550399.397,-1000.0,-640.137,-149.902,-1000.0
1742550399.401,-85.449,304.199,-156.738,-538.086
1742550399.405,999.512,358.398,-142.09,866.211
1742550399.409,904.297,270.508,-66.895,999.512
1742550399.366,999.512,822.266,-116.699,772.461
1742550399.37,738.77,-133.301,-118.652,999.512
1742550399.374,-841.309,-745.605,-128.906,-781.25
1742550399.378,385.254,556.152,-139.16,-33.203
1742550399.382,299.316,-74.707,-177.734,560.547
1742550399.386,-860.352,-291.992,-144.043,-825.195
1742550399.39,664.062,642.09,-98.633,587.402
1742550399.393,-262.207,-673.34,-129.883,224.121
1742550399.397,-1000.0,-640.137,-149.902,-1000.0
1742550399.401,-85.449,304.199,-156.738,-538.086
1742550399.405,999.512,358.398,-142.09,866.211
1742550399.409,904.297,270.508,-66.895,999.512
1742550399.414,-516.602,-537.598,-74.707,-293.945
1742550399.418,-1000.0,-532.227,-132.812,-1000.0
1742550399.422,407.227,505.859,-144.531,-270.996
1742550399.426,730.957,149.414,-107.91,688.965
1742550399.43,-702.637,-666.016,-47.852,-567.871
1742550399.434,619.141,636.719,-15.625,505.859
1742550399.438,447.754,56.641,-41.504,868.652
1742550399.441,-1000.0,-982.91,-99.609,-1000.0
1742550399.445,259.277,393.066,-73.242,-536.621
1742550399.449,999.512,702.637,2.93,999.512
1742550399.453,-220.703,-495.605,-8.789,411.621
1742550399.457,-1000.0,-491.211,-18.066,-1000.0
1742550399.414,-516.602,-537.598,-74.707,-293.945
1742550399.418,-1000.0,-532.227,-132.812,-1000.0
1742550399.422,407.227,505.859,-144.531,-270.996
1742550399.426,730.957,149.414,-107.91,688.965
1742550399.43,-702.637,-666.016,-47.852,-567.871
1742550399.434,619.141,636.719,-15.625,505.859
1742550399.438,447.754,56.641,-41.504,868.652
1742550399.441,-1000.0,-982.91,-99.609,-1000.0
1742550399.445,259.277,393.066,-73.242,-536.621
1742550399.449,999.512,702.637,2.93,999.512
1742550399.453,-220.703,-495.605,-8.789,411.621
1742550399.457,-1000.0,-491.211,-18.066,-1000.0
1742550399.457,-485.84,89.355,-3.418,-963.867
1742550399.461,647.949,643.066,51.758,397.461
1742550399.465,999.512,686.035,142.09,999.512
1742550399.469,-4.395,-368.164,146.484,515.625
1742550399.473,-1000.0,-712.402,107.422,-1000.0
1742550399.477,468.262,599.121,94.238,-45.898
1742550399.481,474.609,-99.609,96.68,679.199
1742550399.484,-840.332,-708.984,103.516,-787.598
1742550399.488,700.195,666.992,63.965,579.59
1742550399.492,88.379,-294.922,31.738,766.602
1742550399.496,-1000.0,-791.016,47.363,-1000.0
1742550399.5,-18.555,353.027,46.875,-676.27
1742550399.457,-485.84,89.355,-3.418,-963.867
1742550399.461,647.949,643.066,51.758,397.461
1742550399.465,999.512,686.035,142.09,999.512
1742550399.469,-4.395,-368.164,146.484,515.625
1742550399.473,-1000.0,-712.402,107.422,-1000.0
1742550399.477,468.262,599.121,94.238,-45.898
1742550399.481,474.609,-99.609,96.68,679.199
1742550399.484,-840.332,-708.984,103.516,-787.598
1742550399.488,700.195,666.992,63.965,579.59
1742550399.492,88.379,-294.922,31.738,766.602
1742550399.496,-1000.0,-791.016,47.363,-1000.0
1742550399.5,-18.555,353.027,46.875,-676.27
1742550399.516,999.512,627.441,73.73,923.34
1742550399.52,638.184,-73.242,103.516,919.434
1742550399.524,-798.828,-744.629,60.059,-645.996
1742550399.528,-1000.0,-234.375,24.414,-1000.0
1742550399.532,609.375,787.109,76.172,382.324
1742550399.536,560.059,81.055,123.535,941.895
1742550399.54,-1000.0,-805.176,114.258,-879.883
1742550399.543,338.867,363.281,72.754,-3.418
1742550399.547,521.484,126.953,64.941,819.824
1742550399.551,-1000.0,-905.762,49.316,-998.535
1742550399.555,-356.445,93.75,29.785,-832.031
1742550399.559,961.426,757.324,56.641,908.691
1742550399.516,999.512,627.441,73.73,923.34
1742550399.52,638.184,-73.242,103.516,919.434
1742550399.524,-798.828,-744.629,60.059,-645.996
1742550399.528,-1000.0,-234.375,24.414,-1000.0
1742550399.532,609.375,787.109,76.172,382.324
1742550399.536,560.059,81.055,123.535,941.895
1742550399.54,-1000.0,-805.176,114.258,-879.883
1742550399.543,338.867,363.281,72.754,-3.418
1742550399.547,521.484,126.953,64.941,819.824
1742550399.551,-1000.0,-905.762,49.316,-998.535
1742550399.555,-356.445,93.75,29.785,-832.031
1742550399.559,961.426,757.324,56.641,908.691
1742550399.561,-238.77,-383.301,42.48,375.0
1742550399.565,-1000.0,-747.07,-7.812,-1000.0
1742550399.569,-482.91,212.891,-7.324,-786.133
1742550399.573,864.746,560.059,20.996,763.184
1742550399.577,366.699,-291.016,51.27,999.512
1742550399.581,-815.918,-533.691,86.914,-414.551
1742550399.585,-1000.0,-183.594,39.551,-1000.0
1742550399.588,-460.449,99.121,35.645,-784.668
1742550399.592,701.66,164.062,53.223,547.852
1742550399.596,942.383,-135.742,48.828,999.512
1742550399.6,-188.477,-428.711,55.664,237.305
1742550399.604,-1000.0,-374.512,42.969,-1000.0
1742550399.606,-821.289,88.379,20.508,-917.48
1742550399.61,563.477,597.168,16.602,477.051
1742550399.614,999.512,295.41,24.414,999.512
1742550399.618,172.363,-193.848,8.301,630.371
1742550399.622,-1000.0,-454.59,-19.043,-884.766
1742550399.626,-494.141,306.152,-62.988,-941.895
1742550399.63,847.168,573.242,-58.594,764.648
1742550399.633,-621.582,-828.125,-8.789,-369.629
1742550399.637,-390.137,-217.285,-7.324,-639.648
1742550399.641,987.793,794.434,-9.277,895.508
1742550399.645,-642.09,-604.492,-43.457,-518.066
1742550399.649,-1000.0,-494.141,-67.871,-1000.0
1742550399.606,-821.289,88.379,20.508,-917.48
1742550399.61,563.477,597.168,16.602,477.051
1742550399.614,999.512,295.41,24.414,999.512
1742550399.618,172.363,-193.848,8.301,630.371
1742550399.622,-1000.0,-454.59,-19.043,-884.766
1742550399.626,-494.141,306.152,-62.988,-941.895
1742550399.63,847.168,573.242,-58.594,764.648
1742550399.633,-621.582,-828.125,-8.789,-369.629
1742550399.637,-390.137,-217.285,-7.324,-639.648
1742550399.641,987.793,794.434,-9.277,895.508
1742550399.645,-642.09,-604.492,-43.457,-518.066
1742550399.649,-1000.0,-494.141,-67.871,-1000.0
1742550399.651,653.809,679.199,-40.527,245.117
1742550399.655,914.062,363.77,-36.621,999.512
1742550399.659,-614.746,-627.441,-24.414,-329.102
1742550399.663,-1000.0,-405.273,-77.637,-1000.0
1742550399.667,-450.195,-62.012,-137.695,-763.672
1742550399.671,954.102,751.953,-42.969,730.469
1742550399.675,676.27,77.148,2.93,999.023
1742550399.678,-1000.0,-1000.0,-37.598,-862.793
1742550399.682,-275.879,96.68,-48.828,-704.102
1742550399.686,829.102,545.898,-28.809,697.266
1742550399.69,-583.008,-654.297,-12.207,-545.41
1742550399.694,464.844,552.734,17.09,292.969
1742550399.651,653.809,679.199,-40.527,245.117
1742550399.655,914.062,363.77,-36.621,999.512
1742550399.659,-614.746,-627.441,-24.414,-329.102
1742550399.663,-1000.0,-405.273,-77.637,-1000.0
1742550399.667,-450.195,-62.012,-137.695,-763.672
1742550399.671,954.102,751.953,-42.969,730.469
1742550399.675,676.27,77.148,2.93,999.023
1742550399.678,-1000.0,-1000.0,-37.598,-862.793
1742550399.682,-275.879,96.68,-48.828,-704.102
1742550399.686,829.102,545.898,-28.809,697.266
1742550399.69,-583.008,-654.297,-12.207,-545.41
1742550399.694,464.844,552.734,17.09,292.969
1742550399.698,847.168,376.953,-14.648,999.512
1742550399.702,-987.305,-930.176,-69.336,-777.344
1742550399.706,-434.082,77.148,-66.406,-926.27
1742550399.71,907.227,622.559,-14.16,666.016
1742550399.714,999.512,179.199,46.875,999.512
1742550399.718,683.594,421.387,47.852,962.402
1742550399.722,-722.168,-567.871,5.371,-373.047
1742550399.725,-942.871,-761.23,-15.625,-1000.0
1742550399.729,692.871,707.52,-0.488,556.152
1742550399.733,999.512,351.562,47.852,999.512
1742550399.737,-315.43,-625.0,46.875,71.777
1742550399.741,-1000.0,-371.094,-23.438,-1000.0
1742550399.742,-168.457,367.676,-39.062,-717.285
1742550399.746,851.074,422.852,-48.828,677.246
1742550399.75,944.336,437.5,-10.742,999.512
1742550399.754,-132.324,-232.422,-8.301,294.922
1742550399.758,-1000.0,-790.039,-41.016,-1000.0
1742550399.762,399.414,620.117,-19.043,-166.016
1742550399.766,206.543,-157.715,-10.254,377.93
1742550399.769,-697.266,-623.047,54.199,-759.277
1742550399.773,910.645,770.508,90.332,770.508
1742550399.777,-118.164,-306.152,33.691,602.539
1742550399.781,-1000.0,-818.359,-23.926,-1000.0
1742550399.785,467.285,635.254,-15.625,-13.672
1742550399.788,999.512,799.805,48.828,999.512
1742550399.792,-140.137,-431.641,48.34,567.383
1742550399.796,-1000.0,-662.598,14.648,-993.164
1742550399.8,670.41,681.152,0.977,160.645
1742550399.804,358.398,126.465,-24.902,656.25
1742550399.808,-740.234,-258.789,-49.316,-792.969
1742550399.812,838.867,405.273,-58.105,664.551
1742550399.815,88.379,-449.707,-52.734,839.844
1742550399.819,-1000.0,-685.059,-87.402,-987.793
1742550399.823,43.945,335.938,-87.891,-580.078
1742550399.827,999.512,657.227,-28.32,991.699
1742550399.831,740.723,-24.902,0.977,891.602
1742550399.788,999.512,799.805,48.828,999.512
1742550399.792,-140.137,-431.641,48.34,567.383
1742550399.796,-1000.0,-662.598,14.648,-993.164
1742550399.8,670.41,681.152,0.977,160.645
1742550399.804,358.398,126.465,-24.902,656.25
1742550399.808,-740.234,-258.789,-49.316,-792.969
1742550399.812,838.867,405.273,-58.105,664.551
1742550399.815,88.379,-449.707,-52.734,839.844
1742550399.819,-1000.0,-685.059,-87.402,-987.793
1742550399.823,43.945,335.938,-87.891,-580.078
1742550399.827,999.512,657.227,-28.32,991.699
1742550399.831,740.723,-24.902,0.977,891.602
1742550399.846,-701.66,-673.828,1.953,-567.871
1742550399.85,-1000.0,-354.492,-11.719,-1000.0
1742550399.854,255.859,489.746,1.465,-299.316
1742550399.858,999.512,627.441,26.855,999.512
1742550399.862,177.734,-348.633,26.367,735.84
1742550399.866,-725.098,-208.496,21.484,-591.797
1742550399.87,519.531,713.379,20.02,442.871
1742550399.873,-516.113,-640.137,-20.02,-315.918
1742550399.877,-912.109,-573.73,-56.152,-1000.0
1742550399.881,958.496,868.652,-49.805,804.199
1742550399.885,253.418,-77.637,-59.57,835.938
1742550399.889,-1000.0,-800.781,-78.125,-927.734
1742550399.846,-701.66,-673.828,1.953,-567.871
1742550399.85,-1000.0,-354.492,-11.719,-1000.0
1742550399.854,255.859,489.746,1.465,-299.316
1742550399.858,999.512,627.441,26.855,999.512
1742550399.862,177.734,-348.633,26.367,735.84
1742550399.866,-725.098,-208.496,21.484,-591.797
1742550399.87,519.531,713.379,20.02,442.871
1742550399.873,-516.113,-640.137,-20.02,-315.918
1742550399.877,-912.109,-573.73,-56.152,-1000.0
1742550399.881,958.496,868.652,-49.805,804.199
1742550399.885,253.418,-77.637,-59.57,835.938
1742550399.889,-1000.0,-800.781,-78.125,-927.734
1742550399.891,-220.215,291.016,-62.012,-756.836
1742550399.895,964.355,514.16,-32.715,747.559
1742550399.899,916.504,26.367,9.766,999.512
1742550399.903,-72.754,-234.375,44.434,476.562
1742550399.907,-1000.0,-536.621,-6.348,-1000.0
1742550399.911,136.719,643.555,-68.848,-591.309
1742550399.915,791.992,437.5,-47.852,619.629
1742550399.918,-691.406,-745.117,-34.668,-577.148
1742550399.922,586.914,652.832,-41.016,421.387
1742550399.926,749.023,524.902,-49.805,999.512
1742550399.93,-992.676,-807.129,-82.52,-894.531
1742550399.934,-14.16,202.148,-81.543,-890.137
1742550399.891,-220.215,291.016,-62.012,-756.836
1742550399.895,964.355,514.16,-32.715,747.559
1742550399.899,916.504,26.367,9.766,999.512
1742550399.903,-72.754,-234.375,44.434,476.562
1742550399.907,-1000.0,-536.621,-6.348,-1000.0
1742550399.911,136.719,643.555,-68.848,-591.309
1742550399.915,791.992,437.5,-47.852,619.629
1742550399.918,-691.406,-745.117,-34.668,-577.148
1742550399.922,586.914,652.832,-41.016,421.387
1742550399.926,749.023,524.902,-49.805,999.512
1742550399.93,-992.676,-807.129,-82.52,-894.531
1742550399.934,-14.16,202.148,-81.543,-890.137
1742550399.936,999.512,807.129,-35.645,889.16
1742550399.94,161.133,-338.379,-9.277,743.164
1742550399.944,-1000.0,-613.77,8.789,-991.211
1742550399.948,589.355,701.172,5.371,250.0
1742550399.952,120.117,-168.457,-12.695,394.043
1742550399.956,-418.945,-160.645,32.227,-611.328
1742550399.96,985.352,394.043,7.324,868.164
1742550399.963,-488.281,-795.898,-86.914,-137.695
1742550399.967,-1000.0,-597.168,-86.426,-1000.0
1742550399.971,435.059,479.98,-44.922,5.371
1742550399.975,999.512,404.785,-16.113,999.512
1742550399.979,724.609,21.484,29.297,848.633
1742550399.936,999.512,807.129,-35.645,889.16
1742550399.94,161.133,-338.379,-9.277,743.164
1742550399.944,-1000.0,-613.77,8.789,-991.211
1742550399.948,589.355,701.172,5.371,250.0
1742550399.952,120.117,-168.457,-12.695,394.043
1742550399.956,-418.945,-160.645,32.227,-611.328
1742550399.96,985.352,394.043,7.324,868.164
1742550399.963,-488.281,-795.898,-86.914,-137.695
1742550399.967,-1000.0,-597.168,-86.426,-1000.0
1742550399.971,435.059,479.98,-44.922,5.371
1742550399.975,999.512,404.785,-16.113,999.512
1742550399.979,724.609,21.484,29.297,848.633
1742550399.981,-681.152,-492.188,11.23,-528.809
1742550399.985,-1000.0,-454.102,-29.785,-1000.0
1742550399.989,312.012,426.27,-42.48,-196.289
1742550399.993,999.512,510.742,-3.906,999.512
1742550399.997,704.59,-55.176,29.785,905.762
1742550400.001,-739.746,-469.238,7.812,-549.316
1742550400.005,-915.039,-76.172,-12.207,-1000.0
1742550400.008,-619.141,-303.711,-58.594,-1000.0
1742550400.012,-325.684,-226.074,-46.387,-667.48
1742550400.016,865.234,618.164,4.883,899.414
1742550400.02,-329.59,-523.926,1.465,177.734
1742550400.024,-1000.0,-549.316,18.066,-1000.0
1742550399.981,-681.152,-492.188,11.23,-528.809
1742550399.985,-1000.0,-454.102,-29.785,-1000.0
1742550399.989,312.012,426.27,-42.48,-196.289
1742550399.993,999.512,510.742,-3.906,999.512
1742550399.997,704.59,-55.176,29.785,905.762
1742550400.001,-739.746,-469.238,7.812,-549.316
1742550400.005,-915.039,-76.172,-12.207,-1000.0
1742550400.008,-619.141,-303.711,-58.594,-1000.0
1742550400.012,-325.684,-226.074,-46.387,-667.48
1742550400.016,865.234,618.164,4.883,899.414
1742550400.02,-329.59,-523.926,1.465,177.734
1742550400.024,-1000.0,-549.316,18.066,-1000.0
1742550400.027,61.523,500.488,44.922,-469.238
1742550400.031,943.359,326.66,56.641,822.266
1742550400.035,850.586,85.938,86.914,999.512
1742550400.039,497.559,265.137,90.82,835.449
1742550400.043,-925.293,-723.633,25.879,-727.539
1742550400.047,-273.438,187.5,-16.602,-876.465
1742550400.051,999.512,734.863,-11.23,976.074
1742550400.054,-533.691,-826.172,-26.855,44.434
1742550400.058,-770.508,-314.941,-39.062,-871.094
1742550400.062,776.367,552.734,-24.902,631.836
1742550400.066,-641.113,-703.613,-58.105,-513.672
1742550400.07,-803.711,-171.875,-70.801,-1000.0
1742550400.073,954.59,920.41,-31.738,734.863
1742550400.077,435.059,-0.488,-39.551,875.488
1742550400.081,-1000.0,-726.074,-90.332,-833.496
1742550400.085,-823.73,-70.801,-119.629,-1000.0
1742550400.089,668.457,752.441,-104.98,475.098
1742550400.093,999.512,620.605,-55.664,999.512
1742550400.097,-172.852,-415.527,-45.41,155.273
1742550400.1,-1000.0,-738.281,-87.402,-1000.0
1742550400.104,-377.441,89.355,-128.418,-862.793
1742550400.108,770.02,699.219,-108.887,532.227
1742550400.112,999.512,409.18,-83.008,999.512
1742550400.116,345.703,-56.152,-89.844,642.09
1742550400.073,954.59,920.41,-31.738,734.863
1742550400.077,435.059,-0.488,-39.551,875.488
1742550400.081,-1000.0,-726.074,-90.332,-833.496
1742550400.085,-823.73,-70.801,-119.629,-1000.0
1742550400.089,668.457,752.441,-104.98,475.098
1742550400.093,999.512,620.605,-55.664,999.512
1742550400.097,-172.852,-415.527,-45.41,155.273
1742550400.1,-1000.0,-738.281,-87.402,-1000.0
1742550400.104,-377.441,89.355,-128.418,-862.793
1742550400.108,770.02,699.219,-108.887,532.227
1742550400.112,999.512,409.18,-83.008,999.512
1742550400.116,345.703,-56.152,-89.844,642.09
1742550400.116,-1000.0,-487.793,-59.082,-821.289
1742550400.12,-490.234,117.188,-58.105,-1000.0
1742550400.124,999.512,991.211,-68.359,824.219
1742550400.128,77.148,-71.777,-38.086,541.016
1742550400.132,-828.613,-500.977,-18.066,-807.129
1742550400.136,706.055,757.324,-13.672,623.535
1742550400.14,-395.508,-374.023,-59.082,-117.188
1742550400.143,-950.684,-400.879,-86.426,-1000.0
1742550400.147,820.312,746.582,-21.973,347.656
1742550400.151,999.512,334.473,-38.086,999.512
1742550400.155,-604.004,-686.523,-86.914,-227.051
1742550400.159,-1000.0,-423.34,-67.871,-1000.0
1742550400.116,-1000.0,-487.793,-59.082,-821.289
1742550400.12,-490.234,117.188,-58.105,-1000.0
1742550400.124,999.512,991.211,-68.359,824.219
1742550400.128,77.148,-71.777,-38.086,541.016
1742550400.132,-828.613,-500.977,-18.066,-807.129
1742550400.136,706.055,757.324,-13.672,623.535
1742550400.14,-395.508,-374.023,-59.082,-117.188
1742550400.143,-950.684,-400.879,-86.426,-1000.0
1742550400.147,820.312,746.582,-21.973,347.656
1742550400.151,999.512,334.473,-38.086,999.512
1742550400.155,-604.004,-686.523,-86.914,-227.051
1742550400.159,-1000.0,-423.34,-67.871,-1000.0
1742550400.178,416.016,642.578,-65.918,-83.008
1742550400.182,999.512,476.074,-56.152,999.512
1742550400.186,637.695,-76.66,-1.465,984.863
1742550400.19,-696.289,-458.984,-34.668,-281.25
1742550400.194,-1000.0,-243.164,-66.406,-1000.0
1742550400.198,651.855,818.359,3.906,297.852
1742550400.202,360.352,-98.145,27.344,625.488
1742550400.205,-773.926,-609.863,5.859,-767.09
1742550400.209,788.086,766.602,14.648,638.672
1742550400.213,-164.062,-249.512,7.324,317.383
1742550400.217,-1000.0,-879.395,-65.43,-1000.0
1742550400.221,470.215,606.934,-82.52,-281.738
1742550400.178,416.016,642.578,-65.918,-83.008
1742550400.182,999.512,476.074,-56.152,999.512
1742550400.186,637.695,-76.66,-1.465,984.863
1742550400.19,-696.289,-458.984,-34.668,-281.25
1742550400.194,-1000.0,-243.164,-66.406,-1000.0
1742550400.198,651.855,818.359,3.906,297.852
1742550400.202,360.352,-98.145,27.344,625.488
1742550400.205,-773.926,-609.863,5.859,-767.09
1742550400.209,788.086,766.602,14.648,638.672
1742550400.213,-164.062,-249.512,7.324,317.383
1742550400.217,-1000.0,-879.395,-65.43,-1000.0
1742550400.221,470.215,606.934,-82.52,-281.738
1742550400.221,999.512,771.484,-3.418,999.512
1742550400.225,-637.695,-780.273,-43.945,-184.082
1742550400.229,-834.961,-325.195,-37.598,-951.66
1742550400.233,642.578,684.57,24.414,620.117
1742550400.237,-500.0,-592.773,-12.695,-419.922
1742550400.241,262.695,371.582,12.695,33.203
1742550400.245,999.512,628.906,60.059,999.512
1742550400.248,-804.199,-963.867,-7.324,-627.93
1742550400.252,-916.504,-270.508,-64.453,-1000.0
1742550400.256,665.039,624.023,2.93,528.32
1742550400.26,999.512,-46.387,9.277,999.512
1742550400.264,249.512,-124.512,-28.32,699.707
1742550400.221,999.512,771.484,-3.418,999.512
1742550400.225,-637.695,-780.273,-43.945,-184.082
1742550400.229,-834.961,-325.195,-37.598,-951.66
1742550400.233,642.578,684.57,24.414,620.117
1742550400.237,-500.0,-592.773,-12.695,-419.922
1742550400.241,262.695,371.582,12.695,33.203
1742550400.245,999.512,628.906,60.059,999.512
1742550400.248,-804.199,-963.867,-7.324,-627.93
1742550400.252,-916.504,-270.508,-64.453,-1000.0
1742550400.256,665.039,624.023,2.93,528.32
1742550400.26,999.512,-46.387,9.277,999.512
1742550400.264,249.512,-124.512,-28.32,699.707
1742550400.254,-952.148,-297.852,-49.805,-725.098
1742550400.258,-912.109,-365.723,-83.008,-1000.0
1742550400.262,545.898,517.09,-63.965,382.324
1742550400.266,999.512,544.434,-29.297,999.512
1742550400.27,407.715,-155.273,6.348,695.801
1742550400.274,-907.715,-281.25,10.254,-663.086
1742550400.278,-942.871,8.789,-38.574,-1000.0
1742550400.281,397.461,317.871,-74.219,-62.988
1742550400.285,999.512,427.246,-51.27,999.512
1742550400.289,596.68,-81.543,-26.367,856.934
1742550400.293,-855.957,-688.965,-16.602,-668.457
1742550400.297,-718.262,82.52,-33.203,-1000.0
1742550400.254,-952.148,-297.852,-49.805,-725.098
1742550400.258,-912.109,-365.723,-83.008,-1000.0
1742550400.262,545.898,517.09,-63.965,382.324
1742550400.266,999.512,544.434,-29.297,999.512
1742550400.27,407.715,-155.273,6.348,695.801
1742550400.274,-907.715,-281.25,10.254,-663.086
1742550400.278,-942.871,8.789,-38.574,-1000.0
1742550400.281,397.461,317.871,-74.219,-62.988
1742550400.285,999.512,427.246,-51.27,999.512
1742550400.289,596.68,-81.543,-26.367,856.934
1742550400.293,-855.957,-688.965,-16.602,-668.457
1742550400.297,-718.262,82.52,-33.203,-1000.0
1742550400.311,679.688,741.699,-27.344,450.195
1742550400.315,795.41,190.43,26.367,999.512
1742550400.319,767.09,264.648,58.105,916.992
1742550400.323,-453.613,-370.117,32.227,-255.859
1742550400.327,-1000.0,-545.41,-38.086,-1000.0
1742550400.331,212.891,515.137,-34.668,-255.859
1742550400.335,999.512,426.758,7.324,999.512
1742550400.338,543.457,-260.742,27.344,847.656
1742550400.342,-720.703,-628.418,10.254,-565.918
1742550400.346,-865.723,-220.703,-22.949,-1000.0
1742550400.35,36.133,192.871,-40.039,-575.684
1742550400.354,974.121,492.188,-12.207,791.992
1742550400.311,679.688,741.699,-27.344,450.195
1742550400.315,795.41,190.43,26.367,999.512
1742550400.319,767.09,264.648,58.105,916.992
1742550400.323,-453.613,-370.117,32.227,-255.859
1742550400.327,-1000.0,-545.41,-38.086,-1000.0
1742550400.331,212.891,515.137,-34.668,-255.859
1742550400.335,999.512,426.758,7.324,999.512
1742550400.338,543.457,-260.742,27.344,847.656
1742550400.342,-720.703,-628.418,10.254,-565.918
1742550400.346,-865.723,-220.703,-22.949,-1000.0
1742550400.35,36.133,192.871,-40.039,-575.684
1742550400.354,974.121,492.188,-12.207,791.992
1742550400.356,867.676,146.973,30.762,999.512
1742550400.36,-568.848,-654.785,2.441,-412.598
1742550400.364,-1000.0,-311.035,-56.641,-1000.0
1742550400.368,-263.672,229.004,-83.496,-674.316
1742550400.372,967.773,493.652,-80.078,738.77
1742550400.376,890.625,279.785,-61.035,999.512
1742550400.38,-483.887,-487.793,-41.504,-380.859
1742550400.383,-974.121,-341.797,-42.48,-1000.0
1742550400.387,-754.883,-371.094,-75.684,-900.391
1742550400.391,516.113,445.801,-82.031,352.051
1742550400.395,999.512,521.484,-81.055,999.512
1742550400.399,-204.59,-466.797,-71.777,287.109
1742550400.356,867.676,146.973,30.762,999.512
1742550400.36,-568.848,-654.785,2.441,-412.598
1742550400.364,-1000.0,-311.035,-56.641,-1000.0
1742550400.368,-263.672,229.004,-83.496,-674.316
1742550400.372,967.773,493.652,-80.078,738.77
1742550400.376,890.625,279.785,-61.035,999.512
1742550400.38,-483.887,-487.793,-41.504,-380.859
1742550400.383,-974.121,-341.797,-42.48,-1000.0
1742550400.387,-754.883,-371.094,-75.684,-900.391
1742550400.391,516.113,445.801,-82.031,352.051
1742550400.395,999.512,521.484,-81.055,999.512
1742550400.399,-204.59,-466.797,-71.777,287.109
1742550400.401,-1000.0,-486.328,-51.27,-1000.0
1742550400.405,-526.367,45.41,-87.891,-937.988
1742550400.409,922.852,653.32,-100.098,702.637
1742550400.413,818.359,283.203,-76.172,999.512
1742550400.417,-725.586,-756.348,-67.871,-680.176
1742550400.421,446.289,528.809,-8.789,295.41
1742550400.425,161.133,125.977,10.254,518.555
1742550400.428,-1000.0,-943.848,5.371,-1000.0
1742550400.432,574.219,469.727,51.758,250.488
1742550400.436,990.723,390.625,75.195,999.512
1742550400.44,-774.414,-859.863,19.043,-528.809
1742550400.444,-1000.0,-350.098,-52.734,-1000.0
1742550400.401,-1000.0,-486.328,-51.27,-1000.0
1742550400.405,-526.367,45.41,-87.891,-937.988
1742550400.409,922.852,653.32,-100.098,702.637
1742550400.413,818.359,283.203,-76.172,999.512
1742550400.417,-725.586,-756.348,-67.871,-680.176
1742550400.421,446.289,528.809,-8.789,295.41
1742550400.425,161.133,125.977,10.254,518.555
1742550400.428,-1000.0,-943.848,5.371,-1000.0
1742550400.432,574.219,469.727,51.758,250.488
1742550400.436,990.723,390.625,75.195,999.512
1742550400.44,-774.414,-859.863,19.043,-528.809
1742550400.444,-1000.0,-350.098,-52.734,-1000.0
1742550400.448,580.566,751.465,-31.25,309.082
1742550400.452,999.512,361.816,2.441,999.512
1742550400.456,-542.48,-791.504,-1.465,-62.5
1742550400.46,-730.957,-164.551,-38.574,-811.523
1742550400.464,762.695,594.238,-37.598,615.234
1742550400.468,-718.262,-650.879,-52.734,-581.055
1742550400.472,-528.32,-99.121,-73.242,-864.746
1742550400.475,999.512,495.117,-53.223,999.512
1742550400.479,-428.711,-667.48,-79.59,293.945
1742550400.483,-1000.0,-522.461,-108.398,-1000.0
1742550400.487,397.461,649.414,-104.492,-45.41
1742550400.491,862.793,124.023,-115.234,999.512
1742550400.448,580.566,751.465,-31.25,309.082
1742550400.452,999.512,361.816,2.441,999.512
1742550400.456,-542.48,-791.504,-1.465,-62.5
1742550400.46,-730.957,-164.551,-38.574,-811.523
1742550400.464,762.695,594.238,-37.598,615.234
1742550400.468,-718.262,-650.879,-52.734,-581.055
1742550400.472,-528.32,-99.121,-73.242,-864.746
1742550400.475,999.512,495.117,-53.223,999.512
1742550400.479,-428.711,-667.48,-79.59,293.945
1742550400.483,-1000.0,-522.461,-108.398,-1000.0
1742550400.487,397.461,649.414,-104.492,-45.41
1742550400.491,862.793,124.023,-115.234,999.512
1742550400.491,506.348,-124.512,-83.984,999.512
1742550400.495,-542.969,-493.164,-76.66,84.961
1742550400.499,-978.027,-443.848,-111.328,-1000.0
1742550400.503,669.922,741.699,-74.707,458.984
1742550400.507,-270.996,-398.438,-50.293,59.082
1742550400.511,-11.23,166.016,-32.715,-166.992
1742550400.515,999.512,566.895,-61.523,999.512
1742550400.518,-804.199,-983.887,-98.633,-647.461
1742550400.522,-733.887,-162.109,-74.707,-1000.0
1742550400.526,876.953,681.641,-29.297,645.996
1742550400.53,804.199,18.555,-13.672,999.512
1742550400.534,-463.867,-404.785,-20.508,129.395
1742550400.491,506.348,-124.512,-83.984,999.512
1742550400.495,-542.969,-493.164,-76.66,84.961
1742550400.499,-978.027,-443.848,-111.328,-1000.0
1742550400.503,669.922,741.699,-74.707,458.984
1742550400.507,-270.996,-398.438,-50.293,59.082
1742550400.511,-11.23,166.016,-32.715,-166.992
1742550400.515,999.512,566.895,-61.523,999.512
1742550400.518,-804.199,-983.887,-98.633,-647.461
1742550400.522,-733.887,-162.109,-74.707,-1000.0
1742550400.526,876.953,681.641,-29.297,645.996
1742550400.53,804.199,18.555,-13.672,999.512
1742550400.534,-463.867,-404.785,-20.508,129.395
1742550400.539,-1000.0,-199.707,-15.137,-1000.0
1742550400.543,-497.07,46.387,-31.738,-930.664
1742550400.547,699.707,304.199,-51.758,429.199
1742550400.551,999.512,381.348,-1.465,999.512
1742550400.555,-112.305,-266.602,22.461,385.254
1742550400.559,-1000.0,-446.777,-23.438,-973.633
1742550400.563,-823.73,-350.098,-61.035,-921.387
1742550400.566,571.289,436.035,-94.238,525.879
1742550400.57,999.512,470.215,-44.434,999.512
1742550400.574,60.547,-373.535,-12.695,500.977
1742550400.578,-1000.0,-711.914,-72.754,-1000.0
1742550400.582,-72.266,349.121,-79.102,-772.461
1742550400.539,-1000.0,-199.707,-15.137,-1000.0
1742550400.543,-497.07,46.387,-31.738,-930.664
1742550400.547,699.707,304.199,-51.758,429.199
1742550400.551,999.512,381.348,-1.465,999.512
1742550400.555,-112.305,-266.602,22.461,385.254
1742550400.559,-1000.0,-446.777,-23.438,-973.633
1742550400.563,-823.73,-350.098,-61.035,-921.387
1742550400.566,571.289,436.035,-94.238,525.879
1742550400.57,999.512,470.215,-44.434,999.512
1742550400.574,60.547,-373.535,-12.695,500.977
1742550400.578,-1000.0,-711.914,-72.754,-1000.0
1742550400.582,-72.266,349.121,-79.102,-772.461
1742550400.596,791.016,462.891,-109.863,604.98
1742550400.6,-592.285,-705.078,-70.312,-482.422
1742550400.604,477.539,514.16,-0.488,280.762
1742550400.608,956.543,578.613,-22.461,999.512
1742550400.612,-894.043,-886.23,-47.852,-765.137
1742550400.616,-324.219,65.918,-58.594,-946.777
1742550400.62,999.512,532.227,-10.254,804.688
1742550400.623,640.625,-319.336,-8.301,927.734
1742550400.627,-815.43,-682.129,-33.691,-650.391
1742550400.631,-1000.0,-307.617,-69.336,-1000.0
1742550400.635,354.004,370.605,-86.914,-100.098
1742550400.639,999.512,560.547,-29.785,999.512
1742550400.596,791.016,462.891,-109.863,604.98
1742550400.6,-592.285,-705.078,-70.312,-482.422
1742550400.604,477.539,514.16,-0.488,280.762
1742550400.608,956.543,578.613,-22.461,999.512
1742550400.612,-894.043,-886.23,-47.852,-765.137
1742550400.616,-324.219,65.918,-58.594,-946.777
1742550400.62,999.512,532.227,-10.254,804.688
1742550400.623,640.625,-319.336,-8.301,927.734
1742550400.627,-815.43,-682.129,-33.691,-650.391
1742550400.631,-1000.0,-307.617,-69.336,-1000.0
1742550400.635,354.004,370.605,-86.914,-100.098
1742550400.639,999.512,560.547,-29.785,999.512
1742550400.641,672.852,20.996,-15.625,864.258
1742550400.645,-833.496,-727.051,-26.367,-670.41
1742550400.649,-800.781,-60.547,-42.969,-1000.0
1742550400.653,885.254,826.66,-83.984,669.922
1742550400.657,-155.762,-221.68,-62.5,312.988
1742550400.661,-478.027,-149.902,-18.066,-614.258
1742550400.665,999.512,566.895,-20.02,909.668
1742550400.668,-409.668,-597.168,-42.48,-78.613
1742550400.672,-1000.0,-724.121,-84.961,-1000.0
1742550400.676,585.449,615.234,-108.887,25.391
1742550400.68,999.512,417.969,-85.449,999.512
1742550400.684,-470.703,-611.816,-79.59,121.582
1742550400.641,672.852,20.996,-15.625,864.258
1742550400.645,-833.496,-727.051,-26.367,-670.41
1742550400.649,-800.781,-60.547,-42.969,-1000.0
1742550400.653,885.254,826.66,-83.984,669.922
1742550400.657,-155.762,-221.68,-62.5,312.988
1742550400.661,-478.027,-149.902,-18.066,-614.258
1742550400.665,999.512,566.895,-20.02,909.668
1742550400.668,-409.668,-597.168,-42.48,-78.613
1742550400.672,-1000.0,-724.121,-84.961,-1000.0
1742550400.676,585.449,615.234,-108.887,25.391
1742550400.68,999.512,417.969,-85.449,999.512
1742550400.684,-470.703,-611.816,-79.59,121.582
1742550400.687,-1000.0,-480.469,-85.938,-1000.0
1742550400.691,-317.871,165.527,-73.73,-746.582
1742550400.695,999.512,739.746,-25.879,796.875
1742550400.699,867.188,270.508,14.16,999.512
1742550400.703,-774.414,-776.367,-16.602,-760.254
1742550400.707,205.566,412.109,-41.504,-244.629
1742550400.711,311.035,2.441,-61.523,440.918
1742550400.714,-1000.0,-810.059,-58.594,-899.902
1742550400.718,653.32,653.809,-11.719,549.316
1742550400.722,491.699,-131.348,-3.418,999.512
1742550400.726,-1000.0,-954.102,-39.551,-810.059
1742550400.73,-848.145,-72.754,-85.938,-1000.0
1742550400.687,-1000.0,-480.469,-85.938,-1000.0
1742550400.691,-317.871,165.527,-73.73,-746.582
1742550400.695,999.512,739.746,-25.879,796.875
1742550400.699,867.188,270.508,14.16,999.512
1742550400.703,-774.414,-776.367,-16.602,-760.254
1742550400.707,205.566,412.109,-41.504,-244.629
1742550400.711,311.035,2.441,-61.523,440.918
1742550400.714,-1000.0,-810.059,-58.594,-899.902
1742550400.718,653.32,653.809,-11.719,549.316
1742550400.722,491.699,-131.348,-3.418,999.512
1742550400.726,-1000.0,-954.102,-39.551,-810.059
1742550400.73,-848.145,-72.754,-85.938,-1000.0
1742550400.732,688.477,727.539,-79.59,541.992
1742550400.736,999.512,237.305,-23.926,999.512
1742550400.74,-450.684,-681.641,2.93,-2.441
1742550400.744,-1000.0,-427.734,-20.508,-1000.0
1742550400.748,-312.988,243.164,-31.25,-681.152
1742550400.752,703.613,664.551,7.324,549.805
1742550400.756,732.91,125.977,-1.953,999.512
1742550400.759,175.293,-253.418,-41.992,812.5
1742550400.763,-832.52,-561.523,-45.41,-641.602
1742550400.767,-939.941,-236.816,-36.621,-1000.0
1742550400.771,564.941,606.934,-6.836,391.602
1742550400.775,999.512,449.219,33.203,999.512
1742550400.732,688.477,727.539,-79.59,541.992
1742550400.736,999.512,237.305,-23.926,999.512
1742550400.74,-450.684,-681.641,2.93,-2.441
1742550400.744,-1000.0,-427.734,-20.508,-1000.0
1742550400.748,-312.988,243.164,-31.25,-681.152
1742550400.752,703.613,664.551,7.324,549.805
1742550400.756,732.91,125.977,-1.953,999.512
1742550400.759,175.293,-253.418,-41.992,812.5
1742550400.763,-832.52,-561.523,-45.41,-641.602
1742550400.767,-939.941,-236.816,-36.621,-1000.0
1742550400.771,564.941,606.934,-6.836,391.602
1742550400.775,999.512,449.219,33.203,999.512
1742550400.776,287.598,-198.242,45.898,700.684
1742550400.78,-1000.0,-664.551,27.832,-867.676
1742550400.784,-541.016,119.141,-10.254,-873.047
1742550400.788,616.699,600.586,-10.254,576.172
1742550400.792,-516.602,-590.332,48.34,-445.801
1742550400.796,428.223,445.312,62.5,275.879
1742550400.8,874.023,410.645,-14.16,999.512
1742550400.803,-978.516,-1000.0,-86.426,-761.719
1742550400.807,-514.648,-87.891,-67.383,-973.145
1742550400.811,989.258,702.637,15.625,737.793
1742550400.815,597.168,-98.633,46.875,999.512
1742550400.819,-901.855,-803.711,28.32,-593.75
1742550400.825,-957.031,-207.031,7.324,-1000.0
1742550400.829,611.328,706.543,10.742,522.461
1742550400.833,-380.371,-545.898,-6.348,-137.695
1742550400.837,-133.301,-33.203,9.766,-377.441
1742550400.841,999.512,713.379,0.0,999.512
1742550400.845,-708.496,-795.41,-36.133,-465.332
1742550400.849,-1000.0,-373.535,-36.621,-1000.0
1742550400.852,694.824,547.363,-37.598,574.219
1742550400.856,999.512,113.281,-11.23,999.512
1742550400.86,-325.684,-555.176,-4.883,76.66
1742550400.864,-1000.0,-604.98,-25.879,-1000.0
1742550400.868,-254.883,242.676,-23.438,-742.188
1742550400.866,932.617,484.375,-14.16,717.773
1742550400.87,859.863,23.438,7.812,999.512
1742550400.874,-441.406,-526.367,-3.418,-167.969
1742550400.878,-1000.0,-233.887,-56.152,-1000.0
1742550400.882,-791.992,-108.398,-96.68,-1000.0
1742550400.886,542.969,541.992,-67.871,172.852
1742550400.89,999.512,551.27,9.277,999.512
1742550400.893,-786.133,-937.012,-11.719,-529.297
1742550400.897,-483.887,-135.742,-55.664,-823.73
1742550400.901,815.43,483.887,-51.27,690.43
1742550400.905,-665.527,-765.625,-39.062,-625.0
1742550400.909,249.023,392.09,-6.348,-49.805
1742550401.393,-722.656,-15.625,-16.113,-1000.0
1742550401.397,871.582,787.598,-4.395,823.73
1742550401.401,-297.363,-552.246,-11.23,253.906
1742550401.405,-675.293,-259.766,0.0,-746.582
1742550401.409,850.586,709.961,-5.371,703.125
1742550401.413,-636.23,-732.422,-30.762,-478.027
1742550401.417,-819.336,-257.812,-29.297,-1000.0
1742550401.42,938.965,791.992,-11.719,720.215
1742550401.424,718.75,-43.457,-37.109,985.352
1742550401.428,-898.926,-839.844,-53.223,-725.586
1742550401.432,-923.828,-273.926,-32.227,-1000.0
1742550401.436,614.746,702.637,-38.086,431.641
1742550400.913,999.512,594.727,-24.414,999.512
1742550400.917,-804.688,-916.992,-66.406,-644.531
1742550400.921,-966.309,-349.121,-88.867,-1000.0
1742550400.925,575.195,697.266,-86.426,379.395
1742550400.929,999.512,446.289,-35.156,999.512
1742550400.933,622.559,66.406,7.812,744.629
1742550400.937,-727.539,-527.832,9.277,-565.918
1742550400.94,-1000.0,-511.23,-17.09,-1000.0
1742550400.944,86.914,191.406,-36.133,-486.816
1742550400.948,999.512,531.25,-33.203,903.809
1742550400.952,597.656,-95.703,-15.625,910.156
1742550400.956,-878.906,-746.094,-5.371,-686.523
1742550400.913,999.512,594.727,-24.414,999.512
1742550400.917,-804.688,-916.992,-66.406,-644.531
1742550400.921,-966.309,-349.121,-88.867,-1000.0
1742550400.925,575.195,697.266,-86.426,379.395
1742550400.929,999.512,446.289,-35.156,999.512
1742550400.933,622.559,66.406,7.812,744.629
1742550400.937,-727.539,-527.832,9.277,-565.918
1742550400.94,-1000.0,-511.23,-17.09,-1000.0
1742550400.944,86.914,191.406,-36.133,-486.816
1742550400.948,999.512,531.25,-33.203,903.809
1742550400.952,597.656,-95.703,-15.625,910.156
1742550400.956,-878.906,-746.094,-5.371,-686.523
1742550400.971,-846.68,-146.484,-23.926,-1000.0
1742550400.975,830.566,759.277,-20.02,523.926
1742550400.979,292.969,89.844,16.113,826.66
1742550400.983,-1000.0,-626.953,34.18,-876.953
1742550400.987,493.652,540.527,18.555,245.605
1742550400.991,574.219,446.777,-27.344,932.129
1742550400.995,-1000.0,-851.074,-31.25,-969.727
1742550400.998,-446.777,-111.328,-44.434,-836.426
1742550401.002,969.727,823.73,-28.32,913.086
1742550401.006,-347.168,-507.324,-29.297,272.949
1742550401.01,-1000.0,-826.66,-55.664,-1000.0
1742550401.014,227.051,450.195,-64.941,-339.355
1742550400.971,-846.68,-146.484,-23.926,-1000.0
1742550400.975,830.566,759.277,-20.02,523.926
1742550400.979,292.969,89.844,16.113,826.66
1742550400.983,-1000.0,-626.953,34.18,-876.953
1742550400.987,493.652,540.527,18.555,245.605
1742550400.991,574.219,446.777,-27.344,932.129
1742550400.995,-1000.0,-851.074,-31.25,-969.727
1742550400.998,-446.777,-111.328,-44.434,-836.426
1742550401.002,969.727,823.73,-28.32,913.086
1742550401.006,-347.168,-507.324,-29.297,272.949
1742550401.01,-1000.0,-826.66,-55.664,-1000.0
1742550401.014,227.051,450.195,-64.941,-339.355
1742550401.016,998.535,517.578,-92.773,961.914
1742550401.02,813.965,47.363,-67.871,999.512
1742550401.024,-407.715,-560.059,-12.695,-177.246
1742550401.028,-1000.0,-358.398,-31.25,-1000.0
1742550401.032,235.84,523.438,-51.758,-456.543
1742550401.036,950.684,592.773,-27.344,978.027
1742550401.04,-817.871,-714.844,-42.48,-390.625
1742550401.043,-537.598,-231.445,-53.223,-825.684
1742550401.047,862.305,549.805,-28.32,785.645
1742550401.051,-715.332,-759.277,-52.246,-586.426
1742550401.055,-564.941,-11.719,-67.871,-1000.0
1742550401.059,999.512,802.734,-42.969,825.684
1742550401.016,998.535,517.578,-92.773,961.914
1742550401.02,813.965,47.363,-67.871,999.512
1742550401.024,-407.715,-560.059,-12.695,-177.246
1742550401.028,-1000.0,-358.398,-31.25,-1000.0
1742550401.032,235.84,523.438,-51.758,-456.543
1742550401.036,950.684,592.773,-27.344,978.027
1742550401.04,-817.871,-714.844,-42.48,-390.625
1742550401.043,-537.598,-231.445,-53.223,-825.684
1742550401.047,862.305,549.805,-28.32,785.645
1742550401.051,-715.332,-759.277,-52.246,-586.426
1742550401.055,-564.941,-11.719,-67.871,-1000.0
1742550401.059,999.512,802.734,-42.969,825.684
1742550401.061,517.578,-178.711,-51.758,916.992
1742550401.065,-1000.0,-888.672,-63.477,-926.27
1742550401.069,-486.816,136.719,-8.301,-766.602
1742550401.073,691.895,527.344,-15.625,588.867
1742550401.077,-557.617,-634.766,-31.25,-481.445
1742550401.081,528.32,568.359,50.293,443.359
1742550401.085,750.488,302.246,17.578,999.512
1742550401.088,-1000.0,-972.656,-51.27,-899.902
1742550401.092,-16.113,47.852,-22.949,-672.363
1742550401.096,999.512,592.285,22.461,977.539
1742550401.1,471.68,-165.527,21.973,867.676
1742550401.104,-965.332,-724.609,10.742,-735.84
1742550401.061,517.578,-178.711,-51.758,916.992
1742550401.065,-1000.0,-888.672,-63.477,-926.27
1742550401.069,-486.816,136.719,-8.301,-766.602
1742550401.073,691.895,527.344,-15.625,588.867
1742550401.077,-557.617,-634.766,-31.25,-481.445
1742550401.081,528.32,568.359,50.293,443.359
1742550401.085,750.488,302.246,17.578,999.512
1742550401.088,-1000.0,-972.656,-51.27,-899.902
1742550401.092,-16.113,47.852,-22.949,-672.363
1742550401.096,999.512,592.285,22.461,977.539
1742550401.1,471.68,-165.527,21.973,867.676
1742550401.104,-965.332,-724.609,10.742,-735.84
1742550401.106,-981.934,-122.07,-17.578,-1000.0
1742550401.11,724.609,761.23,-35.156,620.605
1742550401.114,-151.855,-418.945,-25.879,378.906
1742550401.118,-765.137,-401.855,-7.324,-761.23
1742550401.122,821.289,718.262,-8.789,697.754
1742550401.126,-532.227,-612.793,-60.547,-277.344
1742550401.13,-1000.0,-615.723,-63.477,-1000.0
1742550401.133,703.613,783.691,6.836,466.797
1742550401.137,974.121,352.051,71.289,999.512
1742550401.141,-744.141,-909.18,22.949,-529.297
1742550401.145,-1000.0,-589.355,-84.473,-1000.0
1742550401.149,708.496,811.035,-57.129,347.168
1742550401.106,-981.934,-122.07,-17.578,-1000.0
1742550401.11,724.609,761.23,-35.156,620.605
1742550401.114,-151.855,-418.945,-25.879,378.906
1742550401.118,-765.137,-401.855,-7.324,-761.23
1742550401.122,821.289,718.262,-8.789,697.754
1742550401.126,-532.227,-612.793,-60.547,-277.344
1742550401.13,-1000.0,-615.723,-63.477,-1000.0
1742550401.133,703.613,783.691,6.836,466.797
1742550401.137,974.121,352.051,71.289,999.512
1742550401.141,-744.141,-909.18,22.949,-529.297
1742550401.145,-1000.0,-589.355,-84.473,-1000.0
1742550401.149,708.496,811.035,-57.129,347.168
1742550401.151,381.348,107.422,13.672,684.082
1742550401.155,-921.875,-619.141,-31.25,-784.668
1742550401.159,662.109,830.566,-63.965,577.637
1742550401.163,62.988,59.082,-64.941,498.535
1742550401.167,-1000.0,-967.773,-102.051,-1000.0
1742550401.171,81.543,307.129,-73.73,-525.879
1742550401.175,994.629,357.422,-40.527,932.129
1742550401.178,-486.816,-779.297,-62.5,-116.211
1742550401.182,-1000.0,-498.047,-39.551,-1000.0
1742550401.186,-259.277,202.637,-14.16,-717.285
1742550401.19,957.52,321.777,-29.785,706.055
1742550401.194,878.418,52.246,2.93,999.512
1742550401.151,381.348,107.422,13.672,684.082
1742550401.155,-921.875,-619.141,-31.25,-784.668
1742550401.159,662.109,830.566,-63.965,577.637
1742550401.163,62.988,59.082,-64.941,498.535
1742550401.167,-1000.0,-967.773,-102.051,-1000.0
1742550401.171,81.543,307.129,-73.73,-525.879
1742550401.175,994.629,357.422,-40.527,932.129
1742550401.178,-486.816,-779.297,-62.5,-116.211
1742550401.182,-1000.0,-498.047,-39.551,-1000.0
1742550401.186,-259.277,202.637,-14.16,-717.285
1742550401.19,957.52,321.777,-29.785,706.055
1742550401.194,878.418,52.246,2.93,999.512
1742550401.151,381.348,107.422,13.672,684.082
1742550401.155,-921.875,-619.141,-31.25,-784.668
1742550401.159,662.109,830.566,-63.965,577.637
1742550401.163,62.988,59.082,-64.941,498.535
1742550401.167,-1000.0,-967.773,-102.051,-1000.0
1742550401.171,81.543,307.129,-73.73,-525.879
1742550401.175,994.629,357.422,-40.527,932.129
1742550401.178,-486.816,-779.297,-62.5,-116.211
1742550401.182,-1000.0,-498.047,-39.551,-1000.0
1742550401.186,-259.277,202.637,-14.16,-717.285
1742550401.19,957.52,321.777,-29.785,706.055
1742550401.194,878.418,52.246,2.93,999.512
1742550401.198,-525.391,-569.336,29.297,-319.824
1742550401.202,-1000.0,-476.074,-34.18,-1000.0
1742550401.206,-821.289,-47.363,-56.641,-876.465
1742550401.21,653.809,650.391,-21.484,538.574
1742550401.214,968.75,338.379,-2.93,999.512
1742550401.218,-852.051,-739.746,-1.465,-529.297
1742550401.222,-791.992,-86.914,-28.32,-994.629
1742550401.225,663.086,665.527,-81.055,593.262
1742550401.229,-612.793,-693.848,-89.844,-531.738
1742550401.233,0.488,81.055,-61.035,-455.078
1742550401.237,999.512,618.652,-34.18,999.512
1742550401.241,-650.879,-677.246,-26.855,-270.996
1742550401.198,-525.391,-569.336,29.297,-319.824
1742550401.202,-1000.0,-476.074,-34.18,-1000.0
1742550401.206,-821.289,-47.363,-56.641,-876.465
1742550401.21,653.809,650.391,-21.484,538.574
1742550401.214,968.75,338.379,-2.93,999.512
1742550401.218,-852.051,-739.746,-1.465,-529.297
1742550401.222,-791.992,-86.914,-28.32,-994.629
1742550401.225,663.086,665.527,-81.055,593.262
1742550401.229,-612.793,-693.848,-89.844,-531.738
1742550401.233,0.488,81.055,-61.035,-455.078
1742550401.237,999.512,618.652,-34.18,999.512
1742550401.241,-650.879,-677.246,-26.855,-270.996
1742550401.241,-1000.0,-403.32,-28.32,-1000.0
1742550401.245,277.832,551.758,11.23,-395.996
1742550401.249,999.512,864.746,70.312,999.512
1742550401.253,66.895,-185.547,50.293,614.746
1742550401.257,-1000.0,-683.105,33.203,-1000.0
1742550401.261,433.594,729.004,37.598,-219.238
1742550401.265,333.984,-52.246,12.695,479.98
1742550401.268,-898.438,-799.805,37.109,-836.426
1742550401.272,744.141,800.293,69.824,593.75
1742550401.276,94.238,-98.633,41.016,671.387
1742550401.28,-1000.0,-995.605,-10.742,-1000.0
1742550401.284,154.785,381.836,-9.277,-548.34
1742550401.241,-1000.0,-403.32,-28.32,-1000.0
1742550401.245,277.832,551.758,11.23,-395.996
1742550401.249,999.512,864.746,70.312,999.512
1742550401.253,66.895,-185.547,50.293,614.746
1742550401.257,-1000.0,-683.105,33.203,-1000.0
1742550401.261,433.594,729.004,37.598,-219.238
1742550401.265,333.984,-52.246,12.695,479.98
1742550401.268,-898.438,-799.805,37.109,-836.426
1742550401.272,744.141,800.293,69.824,593.75
1742550401.276,94.238,-98.633,41.016,671.387
1742550401.28,-1000.0,-995.605,-10.742,-1000.0
1742550401.284,154.785,381.836,-9.277,-548.34
1742550401.241,-1000.0,-403.32,-28.32,-1000.0
1742550401.245,277.832,551.758,11.23,-395.996
1742550401.249,999.512,864.746,70.312,999.512
1742550401.253,66.895,-185.547,50.293,614.746
1742550401.257,-1000.0,-683.105,33.203,-1000.0
1742550401.261,433.594,729.004,37.598,-219.238
1742550401.265,333.984,-52.246,12.695,479.98
1742550401.268,-898.438,-799.805,37.109,-836.426
1742550401.272,744.141,800.293,69.824,593.75
1742550401.276,94.238,-98.633,41.016,671.387
1742550401.28,-1000.0,-995.605,-10.742,-1000.0
1742550401.284,154.785,381.836,-9.277,-548.34
1742550401.288,999.512,731.934,-5.859,999.512
1742550401.292,281.25,-269.043,-18.555,754.395
1742550401.296,-803.223,-495.117,-11.23,-754.395
1742550401.3,654.785,722.168,-24.414,490.723
1742550401.304,-245.605,-262.695,-51.27,74.707
1742550401.308,-728.516,-132.324,-5.371,-958.496
1742550401.312,892.09,796.875,-4.395,774.414
1742550401.315,-463.867,-685.547,-58.105,-71.777
1742550401.319,-1000.0,-572.754,-57.617,-1000.0
1742550401.323,181.152,436.035,-53.223,-313.965
1742550401.327,999.512,400.391,-46.387,956.543
1742550401.331,808.105,205.078,-7.324,963.379
1742550401.288,999.512,731.934,-5.859,999.512
1742550401.292,281.25,-269.043,-18.555,754.395
1742550401.296,-803.223,-495.117,-11.23,-754.395
1742550401.3,654.785,722.168,-24.414,490.723
1742550401.304,-245.605,-262.695,-51.27,74.707
1742550401.308,-728.516,-132.324,-5.371,-958.496
1742550401.312,892.09,796.875,-4.395,774.414
1742550401.315,-463.867,-685.547,-58.105,-71.777
1742550401.319,-1000.0,-572.754,-57.617,-1000.0
1742550401.323,181.152,436.035,-53.223,-313.965
1742550401.327,999.512,400.391,-46.387,956.543
1742550401.331,808.105,205.078,-7.324,963.379
1742550401.332,-487.793,-530.762,-26.855,-363.281
1742550401.336,-1000.0,-570.801,-86.426,-1000.0
1742550401.34,-153.32,290.039,-100.098,-692.383
1742550401.344,756.348,419.922,-101.562,631.348
1742550401.348,588.867,-69.336,-96.68,999.512
1742550401.352,714.355,274.414,-75.195,899.414
1742550401.356,-594.727,-684.082,-89.844,-494.629
1742550401.359,-1000.0,-668.945,-131.836,-1000.0
1742550401.363,638.672,701.66,-128.906,468.75
1742550401.367,999.512,412.109,-80.078,999.512
1742550401.371,198.242,-226.562,-23.926,720.703
1742550401.375,-1000.0,-610.352,-20.508,-761.23
1742550401.332,-487.793,-530.762,-26.855,-363.281
1742550401.336,-1000.0,-570.801,-86.426,-1000.0
1742550401.34,-153.32,290.039,-100.098,-692.383
1742550401.344,756.348,419.922,-101.562,631.348
1742550401.348,588.867,-69.336,-96.68,999.512
1742550401.352,714.355,274.414,-75.195,899.414
1742550401.356,-594.727,-684.082,-89.844,-494.629
1742550401.359,-1000.0,-668.945,-131.836,-1000.0
1742550401.363,638.672,701.66,-128.906,468.75
1742550401.367,999.512,412.109,-80.078,999.512
1742550401.371,198.242,-226.562,-23.926,720.703
1742550401.375,-1000.0,-610.352,-20.508,-761.23
1742550401.436,999.512,438.965,-15.137,999.512
1742550401.44,-104.004,-456.543,-35.156,515.625
1742550401.444,-761.719,-337.891,-84.961,-615.723
1742550401.448,601.074,649.902,-89.844,547.852
1742550401.452,-590.332,-604.98,-92.773,-411.621
1742550401.456,-429.688,-108.398,-42.969,-786.621
1742550401.46,985.84,738.281,2.441,926.758
1742550401.463,-558.105,-727.539,-66.406,-278.32
1742550401.467,-1000.0,-764.648,-121.582,-1000.0
1742550401.471,-16.113,20.508,-111.816,-465.332
1742550401.475,999.512,356.445,-62.012,853.516
1742550401.479,858.887,175.781,-13.184,999.512
1742550401.436,999.512,438.965,-15.137,999.512
1742550401.44,-104.004,-456.543,-35.156,515.625
1742550401.444,-761.719,-337.891,-84.961,-615.723
1742550401.448,601.074,649.902,-89.844,547.852
1742550401.452,-590.332,-604.98,-92.773,-411.621
1742550401.456,-429.688,-108.398,-42.969,-786.621
1742550401.46,985.84,738.281,2.441,926.758
1742550401.463,-558.105,-727.539,-66.406,-278.32
1742550401.467,-1000.0,-764.648,-121.582,-1000.0
1742550401.471,-16.113,20.508,-111.816,-465.332
1742550401.475,999.512,356.445,-62.012,853.516
1742550401.479,858.887,175.781,-13.184,999.512
1742550401.481,-538.574,-541.504,-28.809,-259.277
1742550401.485,-1000.0,-543.945,-48.828,-1000.0
1742550401.489,-96.191,268.066,-32.715,-632.324
1742550401.493,999.512,560.547,11.719,757.812
1742550401.497,929.688,205.078,59.57,999.512
1742550401.501,-564.941,-496.582,62.012,-226.074
1742550401.505,-1000.0,-534.18,22.949,-1000.0
1742550401.508,570.801,608.887,15.137,133.789
1742550401.512,-33.691,-358.398,19.043,204.102
1742550401.516,-600.098,-412.598,46.875,-718.75
1742550401.52,999.512,692.871,52.246,924.316
1742550401.524,-89.844,-363.77,42.969,436.523
1742550401.481,-538.574,-541.504,-28.809,-259.277
1742550401.485,-1000.0,-543.945,-48.828,-1000.0
1742550401.489,-96.191,268.066,-32.715,-632.324
1742550401.493,999.512,560.547,11.719,757.812
1742550401.497,929.688,205.078,59.57,999.512
1742550401.501,-564.941,-496.582,62.012,-226.074
1742550401.505,-1000.0,-534.18,22.949,-1000.0
1742550401.508,570.801,608.887,15.137,133.789
1742550401.512,-33.691,-358.398,19.043,204.102
1742550401.516,-600.098,-412.598,46.875,-718.75
1742550401.52,999.512,692.871,52.246,924.316
1742550401.524,-89.844,-363.77,42.969,436.523
1742550401.481,-538.574,-541.504,-28.809,-259.277
1742550401.485,-1000.0,-543.945,-48.828,-1000.0
1742550401.489,-96.191,268.066,-32.715,-632.324
1742550401.493,999.512,560.547,11.719,757.812
1742550401.497,929.688,205.078,59.57,999.512
1742550401.501,-564.941,-496.582,62.012,-226.074
1742550401.505,-1000.0,-534.18,22.949,-1000.0
1742550401.508,570.801,608.887,15.137,133.789
1742550401.512,-33.691,-358.398,19.043,204.102
1742550401.516,-600.098,-412.598,46.875,-718.75
1742550401.52,999.512,692.871,52.246,924.316
1742550401.524,-89.844,-363.77,42.969,436.523
1742550401.526,-1000.0,-575.195,34.668,-1000.0
1742550401.53,467.773,592.773,18.555,-49.805
1742550401.534,999.512,608.887,29.785,999.512
1742550401.538,520.02,15.625,82.52,784.668
1742550401.542,-1000.0,-762.695,45.898,-892.09
1742550401.546,-73.242,405.762,52.246,-708.984
1742550401.55,832.031,648.438,98.633,639.16
1742550401.553,-666.504,-827.637,108.887,-578.613
1742550401.557,543.945,481.445,141.113,351.562
1742550401.561,747.07,446.289,100.586,999.512
1742550401.565,-1000.0,-950.195,30.273,-891.602
1742550401.569,-70.312,36.133,68.848,-787.109
1742550401.526,-1000.0,-575.195,34.668,-1000.0
1742550401.53,467.773,592.773,18.555,-49.805
1742550401.534,999.512,608.887,29.785,999.512
1742550401.538,520.02,15.625,82.52,784.668
1742550401.542,-1000.0,-762.695,45.898,-892.09
1742550401.546,-73.242,405.762,52.246,-708.984
1742550401.55,832.031,648.438,98.633,639.16
1742550401.553,-666.504,-827.637,108.887,-578.613
1742550401.557,543.945,481.445,141.113,351.562
1742550401.561,747.07,446.289,100.586,999.512
1742550401.565,-1000.0,-950.195,30.273,-891.602
1742550401.569,-70.312,36.133,68.848,-787.109
1742550402.052,-1000.0,-670.41,-46.387,-859.375
1742550402.056,-810.059,-65.918,-37.598,-1000.0
1742550402.06,633.789,651.855,-0.977,458.008
1742550402.064,999.512,406.25,28.809,999.512
1742550402.068,24.902,-263.184,25.879,483.398
1742550402.072,-833.984,-106.934,-38.086,-771.484
1742550402.076,-804.688,-167.48,-51.758,-1000.0
1742550402.079,-426.27,-129.883,-71.777,-853.027
1742550402.083,898.926,672.363,-100.586,641.113
1742550402.087,893.066,104.492,-50.293,977.051
1742550402.091,-712.402,-742.676,-20.02,-636.719
1742550402.095,-1000.0,-167.969,-79.59,-1000.0
1742550401.572,999.512,734.375,83.984,916.016
1742550401.576,350.098,-150.879,45.898,824.219
1742550401.58,-1000.0,-663.086,26.855,-805.664
1742550401.584,-658.691,-2.441,4.883,-1000.0
1742550401.588,668.945,684.082,9.277,387.695
1742550401.592,999.512,644.043,37.109,999.512
1742550401.596,330.566,-76.172,84.961,636.23
1742550401.599,-1000.0,-872.559,61.035,-772.949
1742550401.603,-662.109,-131.836,-38.086,-1000.0
1742550401.607,932.617,835.449,-11.719,516.602
1742550401.611,-33.203,-128.418,71.289,313.965
1742550401.615,-338.867,142.578,116.699,-554.688
1742550401.572,999.512,734.375,83.984,916.016
1742550401.576,350.098,-150.879,45.898,824.219
1742550401.58,-1000.0,-663.086,26.855,-805.664
1742550401.584,-658.691,-2.441,4.883,-1000.0
1742550401.588,668.945,684.082,9.277,387.695
1742550401.592,999.512,644.043,37.109,999.512
1742550401.596,330.566,-76.172,84.961,636.23
1742550401.599,-1000.0,-872.559,61.035,-772.949
1742550401.603,-662.109,-131.836,-38.086,-1000.0
1742550401.607,932.617,835.449,-11.719,516.602
1742550401.611,-33.203,-128.418,71.289,313.965
1742550401.615,-338.867,142.578,116.699,-554.688
1742550401.616,980.469,687.5,117.188,870.605
1742550401.62,-640.625,-754.883,172.852,-439.453
1742550401.624,-487.305,0.977,324.707,-913.086
1742550401.628,975.586,775.391,467.285,773.438
1742550401.632,999.512,443.848,510.254,999.512
1742550401.636,902.832,824.219,477.051,922.852
1742550401.64,-655.762,-529.297,371.094,-524.414
1742550401.643,-645.508,-377.441,380.371,-966.797
1742550401.647,891.113,943.359,439.453,627.441
1742550401.651,999.512,726.074,421.875,999.512
1742550401.655,26.367,91.797,367.188,456.543
1742550401.659,-1000.0,-198.73,284.18,-977.051
1742550401.616,980.469,687.5,117.188,870.605
1742550401.62,-640.625,-754.883,172.852,-439.453
1742550401.624,-487.305,0.977,324.707,-913.086
1742550401.628,975.586,775.391,467.285,773.438
1742550401.632,999.512,443.848,510.254,999.512
1742550401.636,902.832,824.219,477.051,922.852
1742550401.64,-655.762,-529.297,371.094,-524.414
1742550401.643,-645.508,-377.441,380.371,-966.797
1742550401.647,891.113,943.359,439.453,627.441
1742550401.651,999.512,726.074,421.875,999.512
1742550401.655,26.367,91.797,367.188,456.543
1742550401.659,-1000.0,-198.73,284.18,-977.051
1742550401.678,185.059,683.594,264.16,-529.297
1742550401.682,999.512,950.684,226.562,999.512
1742550401.686,445.312,-65.918,190.43,808.105
1742550401.69,-728.027,-472.656,213.379,-700.195
1742550401.694,644.043,847.656,162.598,508.789
1742550401.698,161.133,317.383,88.379,426.27
1742550401.702,-1000.0,-456.055,17.09,-1000.0
1742550401.705,693.359,783.691,-101.562,564.941
1742550401.709,958.496,532.227,-230.469,999.512
1742550401.713,-825.684,-548.828,-340.332,-590.332
1742550401.717,-826.172,32.227,-444.336,-984.863
1742550401.721,698.242,895.02,-487.793,592.285
1742550401.678,185.059,683.594,264.16,-529.297
1742550401.682,999.512,950.684,226.562,999.512
1742550401.686,445.312,-65.918,190.43,808.105
1742550401.69,-728.027,-472.656,213.379,-700.195
1742550401.694,644.043,847.656,162.598,508.789
1742550401.698,161.133,317.383,88.379,426.27
1742550401.702,-1000.0,-456.055,17.09,-1000.0
1742550401.705,693.359,783.691,-101.562,564.941
1742550401.709,958.496,532.227,-230.469,999.512
1742550401.713,-825.684,-548.828,-340.332,-590.332
1742550401.717,-826.172,32.227,-444.336,-984.863
1742550401.721,698.242,895.02,-487.793,592.285
1742550401.751,999.512,758.789,-449.707,999.512
1742550401.755,791.016,327.148,-394.043,879.395
1742550401.759,-697.754,-333.984,-408.691,-564.453
1742550401.763,-786.621,356.934,-421.387,-1000.0
1742550401.767,727.539,985.352,-397.949,540.527
1742550401.771,999.512,760.254,-333.008,999.512
1742550401.775,-150.391,-299.316,-318.848,307.129
1742550401.778,-788.574,-180.176,-372.559,-793.457
1742550401.782,796.387,981.445,-410.645,699.707
1742550401.786,-368.652,-319.336,-392.578,-36.621
1742550401.79,-555.664,-350.586,-304.199,-854.98
1742550401.794,999.512,999.512,-281.25,951.172
1742550401.751,999.512,758.789,-449.707,999.512
1742550401.755,791.016,327.148,-394.043,879.395
1742550401.759,-697.754,-333.984,-408.691,-564.453
1742550401.763,-786.621,356.934,-421.387,-1000.0
1742550401.767,727.539,985.352,-397.949,540.527
1742550401.771,999.512,760.254,-333.008,999.512
1742550401.775,-150.391,-299.316,-318.848,307.129
1742550401.778,-788.574,-180.176,-372.559,-793.457
1742550401.782,796.387,981.445,-410.645,699.707
1742550401.786,-368.652,-319.336,-392.578,-36.621
1742550401.79,-555.664,-350.586,-304.199,-854.98
1742550401.794,999.512,999.512,-281.25,951.172
1742550401.757,294.922,252.93,-280.273,927.246
1742550401.761,-1000.0,-473.633,-254.883,-829.102
1742550401.765,-27.832,492.676,-199.219,-629.395
1742550401.769,999.512,842.285,-177.734,909.18
1742550401.773,894.043,474.121,-186.035,999.512
1742550401.777,-517.09,-55.176,-120.605,-52.734
1742550401.781,-1000.0,-140.625,-141.602,-1000.0
1742550401.784,285.645,637.695,-112.305,-294.434
1742550401.788,999.512,559.082,-31.738,999.512
1742550401.792,825.195,89.844,-42.48,931.641
1742550401.796,-751.465,-632.812,-21.484,-719.238
1742550401.8,-544.922,244.629,-18.066,-969.727
1742550401.757,294.922,252.93,-280.273,927.246
1742550401.761,-1000.0,-473.633,-254.883,-829.102
1742550401.765,-27.832,492.676,-199.219,-629.395
1742550401.769,999.512,842.285,-177.734,909.18
1742550401.773,894.043,474.121,-186.035,999.512
1742550401.777,-517.09,-55.176,-120.605,-52.734
1742550401.781,-1000.0,-140.625,-141.602,-1000.0
1742550401.784,285.645,637.695,-112.305,-294.434
1742550401.788,999.512,559.082,-31.738,999.512
1742550401.792,825.195,89.844,-42.48,931.641
1742550401.796,-751.465,-632.812,-21.484,-719.238
1742550401.8,-544.922,244.629,-18.066,-969.727
1742550401.811,811.523,894.531,2.441,671.387
1742550401.815,-562.5,-631.348,70.801,-430.176
1742550401.819,154.297,260.254,125.977,-167.48
1742550401.823,999.512,969.238,107.422,999.512
1742550401.827,-786.621,-793.945,65.918,-601.074
1742550401.831,-772.949,-312.988,86.914,-1000.0
1742550401.835,871.582,613.281,70.801,660.156
1742550401.838,999.512,156.25,57.129,999.512
1742550401.842,-355.957,-386.719,22.461,-11.23
1742550401.846,-1000.0,-207.52,7.812,-1000.0
1742550401.85,-562.012,103.516,34.668,-832.52
1742550401.854,617.188,564.453,62.988,533.203
1742550401.811,811.523,894.531,2.441,671.387
1742550401.815,-562.5,-631.348,70.801,-430.176
1742550401.819,154.297,260.254,125.977,-167.48
1742550401.823,999.512,969.238,107.422,999.512
1742550401.827,-786.621,-793.945,65.918,-601.074
1742550401.831,-772.949,-312.988,86.914,-1000.0
1742550401.835,871.582,613.281,70.801,660.156
1742550401.838,999.512,156.25,57.129,999.512
1742550401.842,-355.957,-386.719,22.461,-11.23
1742550401.846,-1000.0,-207.52,7.812,-1000.0
1742550401.85,-562.012,103.516,34.668,-832.52
1742550401.854,617.188,564.453,62.988,533.203
1742550401.856,999.512,541.992,115.723,999.512
1742550401.86,490.723,30.762,153.809,767.578
1742550401.864,-934.57,-515.625,98.145,-721.68
1742550401.868,-778.32,43.945,61.523,-955.566
1742550401.872,713.867,765.625,77.637,597.168
1742550401.876,999.512,701.66,111.816,999.512
1742550401.88,222.656,4.395,158.691,620.117
1742550401.883,-1000.0,-767.578,105.957,-845.215
1742550401.887,-714.844,-216.797,90.332,-942.383
1742550401.891,623.047,595.703,143.066,610.352
1742550401.895,776.855,241.211,165.527,999.512
1742550401.899,805.664,474.609,152.832,957.031
1742550401.856,999.512,541.992,115.723,999.512
1742550401.86,490.723,30.762,153.809,767.578
1742550401.864,-934.57,-515.625,98.145,-721.68
1742550401.868,-778.32,43.945,61.523,-955.566
1742550401.872,713.867,765.625,77.637,597.168
1742550401.876,999.512,701.66,111.816,999.512
1742550401.88,222.656,4.395,158.691,620.117
1742550401.883,-1000.0,-767.578,105.957,-845.215
1742550401.887,-714.844,-216.797,90.332,-942.383
1742550401.891,623.047,595.703,143.066,610.352
1742550401.895,776.855,241.211,165.527,999.512
1742550401.899,805.664,474.609,152.832,957.031
1742550401.901,-500.488,-375.488,78.613,-226.562
1742550401.905,-1000.0,-677.734,46.875,-1000.0
1742550401.909,533.691,776.367,60.547,123.047
1742550401.913,999.512,587.891,93.262,999.512
1742550401.917,-318.359,-651.367,105.957,355.957
1742550401.921,-682.617,97.168,77.637,-641.113
1742550401.925,672.363,752.93,33.203,524.902
1742550401.928,-642.09,-768.066,32.715,-558.105
1742550401.932,-105.957,77.637,93.262,-544.434
1742550401.936,999.512,882.324,88.379,999.512
1742550401.94,-428.223,-516.602,38.086,203.613
1742550401.944,-1000.0,-437.988,10.742,-1000.0
1742550401.901,-500.488,-375.488,78.613,-226.562
1742550401.905,-1000.0,-677.734,46.875,-1000.0
1742550401.909,533.691,776.367,60.547,123.047
1742550401.913,999.512,587.891,93.262,999.512
1742550401.917,-318.359,-651.367,105.957,355.957
1742550401.921,-682.617,97.168,77.637,-641.113
1742550401.925,672.363,752.93,33.203,524.902
1742550401.928,-642.09,-768.066,32.715,-558.105
1742550401.932,-105.957,77.637,93.262,-544.434
1742550401.936,999.512,882.324,88.379,999.512
1742550401.94,-428.223,-516.602,38.086,203.613
1742550401.944,-1000.0,-437.988,10.742,-1000.0
1742550401.949,259.277,522.461,4.395,-315.918
1742550401.953,999.512,583.008,36.621,999.512
1742550401.957,858.887,337.891,56.152,962.891
1742550401.961,-596.68,-608.398,-11.719,-467.773
1742550401.965,-1000.0,-479.98,-64.453,-1000.0
1742550401.969,661.133,908.203,-24.414,371.582
1742550401.973,838.379,377.441,47.852,972.656
1742550401.976,-812.988,-783.203,12.695,-784.668
1742550401.98,472.656,546.875,-21.484,207.031
1742550401.984,608.887,334.473,-10.742,923.828
1742550401.988,-1000.0,-812.988,-41.992,-971.68
1742550401.992,4.395,277.344,-34.18,-762.695
1742550401.992,999.512,813.477,56.152,968.75
1742550401.996,-5.859,-322.266,56.152,632.324
1742550402.0,-1000.0,-543.457,-24.902,-1000.0
1742550402.004,315.918,619.141,-60.547,-451.66
1742550402.008,921.875,316.406,-17.578,827.637
1742550402.012,-778.32,-715.82,6.348,-684.57
1742550402.016,335.938,350.586,-8.301,-56.152
1742550402.019,854.004,280.762,10.254,999.512
1742550402.023,-941.406,-829.59,-44.434,-807.129
1742550402.027,-27.832,262.695,-20.508,-887.695
1742550402.031,999.512,817.383,-9.766,877.441
1742550402.035,227.051,-206.055,-21.484,799.805
1742550402.096,398.926,645.02,-65.43,-52.734
1742550402.1,999.512,413.086,-35.156,999.512
1742550402.104,623.047,-5.371,-2.441,908.691
1742550402.108,-721.191,-455.566,44.922,-466.797
1742550402.112,-1000.0,-486.816,-11.23,-1000.0
1742550402.116,351.562,584.961,-35.156,-57.129
1742550402.12,999.512,646.484,8.301,999.512
1742550402.123,-107.422,-583.496,3.906,364.746
1742550402.127,-817.871,-443.359,-9.766,-750.977
1742550402.131,612.305,579.59,61.523,508.301
1742550402.135,-622.559,-705.078,209.961,-499.512
1742550402.139,-666.504,-183.594,343.75,-1000.0
1742550402.096,398.926,645.02,-65.43,-52.734
1742550402.1,999.512,413.086,-35.156,999.512
1742550402.104,623.047,-5.371,-2.441,908.691
1742550402.108,-721.191,-455.566,44.922,-466.797
1742550402.112,-1000.0,-486.816,-11.23,-1000.0
1742550402.116,351.562,584.961,-35.156,-57.129
1742550402.12,999.512,646.484,8.301,999.512
1742550402.123,-107.422,-583.496,3.906,364.746
1742550402.127,-817.871,-443.359,-9.766,-750.977
1742550402.131,612.305,579.59,61.523,508.301
1742550402.135,-622.559,-705.078,209.961,-499.512
1742550402.139,-666.504,-183.594,343.75,-1000.0
1742550402.141,949.219,841.797,381.836,898.438
1742550402.145,-303.711,-467.285,340.332,372.07
1742550402.149,-1000.0,-721.191,309.082,-1000.0
1742550402.153,-819.336,20.02,270.02,-929.199
1742550402.157,666.016,743.652,259.766,621.582
1742550402.161,978.027,378.906,260.254,999.512
1742550402.165,-862.793,-916.504,226.074,-712.402
1742550402.168,-735.352,-234.375,268.555,-951.66
1742550402.172,701.66,646.484,240.234,672.852
1742550402.176,-682.617,-761.23,81.055,-521.973
1742550402.18,-179.688,-153.809,72.754,-518.555
1742550402.184,998.047,684.57,83.008,999.512
1742550402.141,949.219,841.797,381.836,898.438
1742550402.145,-303.711,-467.285,340.332,372.07
1742550402.149,-1000.0,-721.191,309.082,-1000.0
1742550402.153,-819.336,20.02,270.02,-929.199
1742550402.157,666.016,743.652,259.766,621.582
1742550402.161,978.027,378.906,260.254,999.512
1742550402.165,-862.793,-916.504,226.074,-712.402
1742550402.168,-735.352,-234.375,268.555,-951.66
1742550402.172,701.66,646.484,240.234,672.852
1742550402.176,-682.617,-761.23,81.055,-521.973
1742550402.18,-179.688,-153.809,72.754,-518.555
1742550402.184,998.047,684.57,83.008,999.512
1742550402.187,-590.82,-659.668,-9.277,-27.344
1742550402.191,-1000.0,-866.211,-147.461,-1000.0
1742550402.195,-151.855,270.996,-169.434,-653.32
1742550402.199,973.145,498.047,-116.211,948.73
1742550402.203,-622.07,-868.164,-168.945,-90.82
1742550402.207,-727.539,-193.359,-196.777,-874.512
1742550402.211,706.543,528.32,-250.0,636.719
1742550402.214,-685.059,-867.188,-309.57,-645.508
1742550402.218,135.742,59.082,-199.707,-228.027
1742550402.222,999.512,428.711,-193.359,999.512
1742550402.226,-804.688,-938.965,-299.805,-628.418
1742550402.23,-1000.0,-440.43,-282.227,-1000.0
1742550402.232,549.316,632.812,-239.746,285.156
1742550402.236,999.512,256.348,-173.34,999.512
1742550402.24,-301.27,-731.934,-97.656,341.309
1742550402.244,-965.82,-410.645,-75.195,-885.742
1742550402.248,760.254,771.484,-133.301,640.137
1742550402.252,-186.035,-221.191,-122.559,300.293
1742550402.256,-880.859,-554.688,-112.793,-999.023
1742550402.259,870.605,482.91,-203.613,745.605
1742550402.263,-66.406,-371.094,-197.266,710.938
1742550402.267,-1000.0,-821.289,-137.695,-1000.0
1742550402.271,-141.113,166.992,-170.41,-719.727
1742550402.275,999.512,474.121,-180.176,888.672
1742550402.232,549.316,632.812,-239.746,285.156
1742550402.236,999.512,256.348,-173.34,999.512
1742550402.24,-301.27,-731.934,-97.656,341.309
1742550402.244,-965.82,-410.645,-75.195,-885.742
1742550402.248,760.254,771.484,-133.301,640.137
1742550402.252,-186.035,-221.191,-122.559,300.293
1742550402.256,-880.859,-554.688,-112.793,-999.023
1742550402.259,870.605,482.91,-203.613,745.605
1742550402.263,-66.406,-371.094,-197.266,710.938
1742550402.267,-1000.0,-821.289,-137.695,-1000.0
1742550402.271,-141.113,166.992,-170.41,-719.727
1742550402.275,999.512,474.121,-180.176,888.672
1742550402.277,789.551,-115.723,-152.832,975.098
1742550402.281,-890.137,-925.293,-167.48,-791.504
1742550402.285,-726.074,-180.664,-133.301,-885.254
1742550402.289,627.93,531.25,-137.207,597.168
1742550402.293,-514.648,-589.844,-158.203,-465.82
1742550402.297,377.93,456.543,-121.582,222.168
1742550402.301,999.512,417.48,-132.812,999.512
1742550402.304,-847.168,-952.148,-145.996,-657.227
1742550402.308,-917.48,-285.156,-186.035,-1000.0
1742550402.312,732.422,706.543,-188.965,506.836
1742550402.316,999.512,165.527,-148.926,999.512
1742550402.32,-423.34,-683.594,-175.781,-30.762
1742550402.322,-1000.0,-518.555,-219.727,-1000.0
1742550402.326,-292.969,103.027,-182.129,-654.785
1742550402.33,823.73,279.297,-107.91,699.219
1742550402.334,958.008,105.957,-56.152,999.512
1742550402.338,248.047,-175.781,-33.691,679.199
1742550402.342,-1000.0,-584.961,-41.992,-794.922
1742550402.346,-781.25,68.359,-76.66,-964.355
1742550402.349,651.855,616.699,-52.246,557.617
1742550402.353,857.422,-99.121,7.324,999.512
1742550402.357,316.406,-377.93,22.949,809.57
1742550402.361,-826.172,-653.809,-53.223,-666.016
1742550402.365,-832.52,-121.094,-40.039,-1000.0
1742550402.322,-1000.0,-518.555,-219.727,-1000.0
1742550402.326,-292.969,103.027,-182.129,-654.785
1742550402.33,823.73,279.297,-107.91,699.219
1742550402.334,958.008,105.957,-56.152,999.512
1742550402.338,248.047,-175.781,-33.691,679.199
1742550402.342,-1000.0,-584.961,-41.992,-794.922
1742550402.346,-781.25,68.359,-76.66,-964.355
1742550402.349,651.855,616.699,-52.246,557.617
1742550402.353,857.422,-99.121,7.324,999.512
1742550402.357,316.406,-377.93,22.949,809.57
1742550402.361,-826.172,-653.809,-53.223,-666.016
1742550402.365,-832.52,-121.094,-40.039,-1000.0
1742550402.366,705.078,666.992,27.832,558.594
1742550402.37,845.703,33.691,13.184,999.512
1742550402.374,-238.77,-389.16,-33.203,524.902
1742550402.378,-1000.0,-451.66,-66.895,-832.031
1742550402.382,-937.988,-443.359,-72.266,-1000.0
1742550402.386,585.449,618.652,-15.625,458.496
1742550402.39,999.512,412.598,-6.348,999.512
1742550402.393,-791.504,-959.961,-50.293,-488.77
1742550402.397,-480.469,-188.477,-63.477,-726.074
1742550402.401,807.617,420.898,-69.336,770.02
1742550402.405,-832.031,-869.141,-95.215,-693.848
1742550402.409,-188.965,-17.09,-75.684,-653.32
1742550402.366,705.078,666.992,27.832,558.594
1742550402.37,845.703,33.691,13.184,999.512
1742550402.374,-238.77,-389.16,-33.203,524.902
1742550402.378,-1000.0,-451.66,-66.895,-832.031
1742550402.382,-937.988,-443.359,-72.266,-1000.0
1742550402.386,585.449,618.652,-15.625,458.496
1742550402.39,999.512,412.598,-6.348,999.512
1742550402.393,-791.504,-959.961,-50.293,-488.77
1742550402.397,-480.469,-188.477,-63.477,-726.074
1742550402.401,807.617,420.898,-69.336,770.02
1742550402.405,-832.031,-869.141,-95.215,-693.848
1742550402.409,-188.965,-17.09,-75.684,-653.32
1742550402.413,999.512,611.816,-9.277,999.512
1742550402.417,-536.621,-747.559,-10.742,14.648
1742550402.421,-1000.0,-590.82,-59.082,-1000.0
1742550402.425,183.105,331.055,-88.379,-283.691
1742550402.429,999.512,330.566,-91.797,984.375
1742550402.433,848.145,180.664,-29.297,963.867
1742550402.437,-509.277,-599.609,-42.48,-350.098
1742550402.44,-1000.0,-765.625,-97.168,-1000.0
1742550402.444,-36.133,242.676,-116.699,-447.266
1742550402.448,988.77,354.98,-104.492,840.332
1742550402.452,480.957,-269.531,-74.219,974.609
1742550402.456,520.02,204.59,5.371,999.512
1742550402.413,999.512,611.816,-9.277,999.512
1742550402.417,-536.621,-747.559,-10.742,14.648
1742550402.421,-1000.0,-590.82,-59.082,-1000.0
1742550402.425,183.105,331.055,-88.379,-283.691
1742550402.429,999.512,330.566,-91.797,984.375
1742550402.433,848.145,180.664,-29.297,963.867
1742550402.437,-509.277,-599.609,-42.48,-350.098
1742550402.44,-1000.0,-765.625,-97.168,-1000.0
1742550402.444,-36.133,242.676,-116.699,-447.266
1742550402.448,988.77,354.98,-104.492,840.332
1742550402.452,480.957,-269.531,-74.219,974.609
1742550402.456,520.02,204.59,5.371,999.512
1742550402.457,-290.527,-281.25,-43.457,73.242
1742550402.461,-1000.0,-891.602,-98.145,-1000.0
1742550402.465,500.977,489.746,-28.809,-125.977
1742550402.469,999.512,519.531,-38.086,999.512
1742550402.473,-822.754,-905.273,-74.219,-583.008
1742550402.477,-35.156,306.641,-72.754,-405.273
1742550402.481,633.301,293.945,-89.844,725.098
1742550402.484,-875.488,-904.785,-106.445,-754.395
1742550402.488,557.129,587.402,-67.383,375.488
1742550402.492,861.328,285.156,-49.805,999.512
1742550402.496,-943.359,-936.523,-99.121,-756.836
1742550402.5,-832.031,-55.176,-97.168,-983.887
1742550402.457,-290.527,-281.25,-43.457,73.242
1742550402.461,-1000.0,-891.602,-98.145,-1000.0
1742550402.465,500.977,489.746,-28.809,-125.977
1742550402.469,999.512,519.531,-38.086,999.512
1742550402.473,-822.754,-905.273,-74.219,-583.008
1742550402.477,-35.156,306.641,-72.754,-405.273
1742550402.481,633.301,293.945,-89.844,725.098
1742550402.484,-875.488,-904.785,-106.445,-754.395
1742550402.488,557.129,587.402,-67.383,375.488
1742550402.492,861.328,285.156,-49.805,999.512
1742550402.496,-943.359,-936.523,-99.121,-756.836
1742550402.5,-832.031,-55.176,-97.168,-983.887
1742550402.516,701.66,697.754,-107.91,569.824
1742550402.52,999.512,155.762,-83.984,999.512
1742550402.524,183.105,-153.809,-0.977,802.246
1742550402.528,-972.656,-722.656,14.16,-643.066
1742550402.532,-953.613,-401.855,-69.336,-1000.0
1742550402.536,730.469,798.828,-126.953,694.336
1742550402.54,239.746,-320.801,-140.137,890.625
1742550402.543,-957.031,-936.523,-100.586,-701.172
1742550402.547,583.008,602.051,-25.391,469.727
1742550402.551,-233.398,-365.234,-81.543,200.684
1742550402.555,-1000.0,-799.805,-152.832,-1000.0
1742550402.559,667.48,769.043,-101.074,410.645
1742550402.516,701.66,697.754,-107.91,569.824
1742550402.52,999.512,155.762,-83.984,999.512
1742550402.524,183.105,-153.809,-0.977,802.246
1742550402.528,-972.656,-722.656,14.16,-643.066
1742550402.532,-953.613,-401.855,-69.336,-1000.0
1742550402.536,730.469,798.828,-126.953,694.336
1742550402.54,239.746,-320.801,-140.137,890.625
1742550402.543,-957.031,-936.523,-100.586,-701.172
1742550402.547,583.008,602.051,-25.391,469.727
1742550402.551,-233.398,-365.234,-81.543,200.684
1742550402.555,-1000.0,-799.805,-152.832,-1000.0
1742550402.559,667.48,769.043,-101.074,410.645
1742550402.561,970.215,301.758,-12.695,999.512
1742550402.565,-891.113,-1000.0,-62.988,-560.547
1742550402.569,-820.801,-227.051,-125.488,-927.246
1742550402.573,559.082,570.801,-34.18,585.449
1742550402.577,-500.977,-618.164,13.184,-435.059
1742550402.581,368.164,421.875,-23.926,218.75
1742550402.585,830.566,387.695,-94.727,999.512
1742550402.588,-983.398,-1000.0,-162.109,-752.93
1742550402.592,-573.242,-243.164,-143.066,-991.699
1742550402.596,974.121,719.238,-62.5,715.332
1742550402.6,880.859,68.848,-18.066,999.512
1742550402.604,-653.32,-795.898,-47.852,-447.754
1742550402.561,970.215,301.758,-12.695,999.512
1742550402.565,-891.113,-1000.0,-62.988,-560.547
1742550402.569,-820.801,-227.051,-125.488,-927.246
1742550402.573,559.082,570.801,-34.18,585.449
1742550402.577,-500.977,-618.164,13.184,-435.059
1742550402.581,368.164,421.875,-23.926,218.75
1742550402.585,830.566,387.695,-94.727,999.512
1742550402.588,-983.398,-1000.0,-162.109,-752.93
1742550402.592,-573.242,-243.164,-143.066,-991.699
1742550402.596,974.121,719.238,-62.5,715.332
1742550402.6,880.859,68.848,-18.066,999.512
1742550402.604,-653.32,-795.898,-47.852,-447.754
1742550402.606,-1000.0,-456.055,-113.281,-1000.0
1742550402.61,120.605,300.293,-130.859,-268.066
1742550402.614,999.512,220.215,-50.781,929.688
1742550402.618,906.25,145.508,82.52,999.512
1742550402.622,-583.496,-578.125,54.688,-299.805
1742550402.626,-978.027,-205.078,1.465,-1000.0
1742550402.63,766.602,873.535,32.715,583.496
1742550402.633,-291.016,-478.516,-26.855,212.891
1742550402.637,-557.617,-500.488,-14.648,-673.828
1742550402.641,999.512,647.461,44.434,999.512
1742550402.645,-399.414,-602.051,14.648,172.852
1742550402.649,-1000.0,-604.004,-36.133,-1000.0
1742550402.606,-1000.0,-456.055,-113.281,-1000.0
1742550402.61,120.605,300.293,-130.859,-268.066
1742550402.614,999.512,220.215,-50.781,929.688
1742550402.618,906.25,145.508,82.52,999.512
1742550402.622,-583.496,-578.125,54.688,-299.805
1742550402.626,-978.027,-205.078,1.465,-1000.0
1742550402.63,766.602,873.535,32.715,583.496
1742550402.633,-291.016,-478.516,-26.855,212.891
1742550402.637,-557.617,-500.488,-14.648,-673.828
1742550402.641,999.512,647.461,44.434,999.512
1742550402.645,-399.414,-602.051,14.648,172.852
1742550402.649,-1000.0,-604.004,-36.133,-1000.0
1742550402.651,665.527,790.527,-32.227,364.746
1742550402.655,999.512,240.723,14.16,999.512
1742550402.659,-365.723,-676.27,49.805,145.996
1742550402.663,-1000.0,-453.125,-1.465,-1000.0
1742550402.667,-777.832,-229.004,-74.707,-863.77
1742550402.671,595.703,565.918,-74.707,600.098
1742550402.675,850.098,96.191,-44.434,999.512
1742550402.678,0.977,-491.211,-63.965,987.305
1742550402.682,-947.754,-714.355,-55.664,136.23
1742550402.686,-882.812,-349.121,15.625,-813.965
1742550402.69,556.152,545.898,48.828,559.57
1742550402.694,999.512,-25.391,78.613,999.512
1742550402.651,665.527,790.527,-32.227,364.746
1742550402.655,999.512,240.723,14.16,999.512
1742550402.659,-365.723,-676.27,49.805,145.996
1742550402.663,-1000.0,-453.125,-1.465,-1000.0
1742550402.667,-777.832,-229.004,-74.707,-863.77
1742550402.671,595.703,565.918,-74.707,600.098
1742550402.675,850.098,96.191,-44.434,999.512
1742550402.678,0.977,-491.211,-63.965,987.305
1742550402.682,-947.754,-714.355,-55.664,136.23
1742550402.686,-882.812,-349.121,15.625,-813.965
1742550402.69,556.152,545.898,48.828,559.57
1742550402.694,999.512,-25.391,78.613,999.512
1742550402.696,610.352,-124.512,64.941,999.512
1742550402.7,-737.793,-545.41,15.625,283.203
1742550402.704,-972.168,-569.336,-50.781,-871.094
1742550402.708,566.895,620.605,-84.961,416.992
1742550402.712,999.512,362.305,-31.738,999.512
1742550402.716,873.047,211.914,72.266,977.539
1742550402.72,-520.508,-601.562,46.387,-119.141
1742550402.723,-1000.0,-1000.0,-15.625,-1000.0
1742550402.727,500.0,491.211,-2.441,229.004
1742550402.731,999.512,479.492,22.949,999.512
1742550402.735,-462.891,-720.215,21.484,486.328
1742550402.739,-714.844,-185.059,-9.766,-451.172
1742550402.696,610.352,-124.512,64.941,999.512
1742550402.7,-737.793,-545.41,15.625,283.203
1742550402.704,-972.168,-569.336,-50.781,-871.094
1742550402.708,566.895,620.605,-84.961,416.992
1742550402.712,999.512,362.305,-31.738,999.512
1742550402.716,873.047,211.914,72.266,977.539
1742550402.72,-520.508,-601.562,46.387,-119.141
1742550402.723,-1000.0,-1000.0,-15.625,-1000.0
1742550402.727,500.0,491.211,-2.441,229.004
1742550402.731,999.512,479.492,22.949,999.512
1742550402.735,-462.891,-720.215,21.484,486.328
1742550402.739,-714.844,-185.059,-9.766,-451.172
1742550402.742,720.703,810.547,-59.082,650.391
1742550402.746,-643.555,-653.809,-120.117,-379.883
1742550402.75,-683.105,-412.598,-61.035,-932.129
1742550402.754,891.602,583.984,22.949,863.281
1742550402.758,-526.367,-787.109,-13.672,-125.488
1742550402.762,-1000.0,-460.449,-20.996,-1000.0
1742550402.766,417.48,736.816,-42.48,-66.406
1742550402.769,144.043,-274.902,-114.258,409.668
1742550402.773,-717.773,-484.863,-59.57,-642.09
1742550402.777,750.977,646.973,-41.016,610.352
1742550402.781,-453.613,-592.773,-112.793,-168.457
1742550402.785,-1000.0,-507.812,-119.141,-1000.0
1742550402.788,593.262,721.191,-120.117,23.926
1742550402.792,999.512,391.602,-76.66,999.512
1742550402.796,-331.543,-449.219,-14.16,257.812
1742550402.8,-1000.0,-494.141,-80.566,-1000.0
1742550402.804,-888.184,-169.922,-104.004,-1000.0
1742550402.808,749.023,736.328,-48.828,574.707
1742550402.812,450.195,-322.754,-44.434,830.078
1742550402.815,-887.695,-875.977,-63.965,-747.559
1742550402.819,569.336,735.352,-93.262,461.914
1742550402.823,-300.781,-389.16,-136.719,-62.988
1742550402.827,-1000.0,-736.816,-164.551,-1000.0
1742550402.831,735.84,861.816,-114.258,631.836
1742550402.788,593.262,721.191,-120.117,23.926
1742550402.792,999.512,391.602,-76.66,999.512
1742550402.796,-331.543,-449.219,-14.16,257.812
1742550402.8,-1000.0,-494.141,-80.566,-1000.0
1742550402.804,-888.184,-169.922,-104.004,-1000.0
1742550402.808,749.023,736.328,-48.828,574.707
1742550402.812,450.195,-322.754,-44.434,830.078
1742550402.815,-887.695,-875.977,-63.965,-747.559
1742550402.819,569.336,735.352,-93.262,461.914
1742550402.823,-300.781,-389.16,-136.719,-62.988
1742550402.827,-1000.0,-736.816,-164.551,-1000.0
1742550402.831,735.84,861.816,-114.258,631.836
1742550402.846,770.02,244.629,-83.984,999.512
1742550402.85,-1000.0,-971.68,-85.449,-806.641
1742550402.854,-714.355,70.801,-62.988,-904.297
1742550402.858,584.473,562.988,-62.5,597.656
1742550402.862,-418.945,-543.945,-58.594,-364.258
1742550402.866,431.641,433.594,1.465,288.574
1742550402.87,454.59,-95.703,-1.953,986.328
1742550402.873,-1000.0,-1000.0,-45.898,-889.16
1742550402.877,-196.777,22.461,-1.465,-887.695
1742550402.881,999.512,450.195,51.758,819.336
1742550402.885,645.02,-232.422,49.805,951.172
1742550402.889,-840.82,-729.004,34.668,-687.012
1742550402.846,770.02,244.629,-83.984,999.512
1742550402.85,-1000.0,-971.68,-85.449,-806.641
1742550402.854,-714.355,70.801,-62.988,-904.297
1742550402.858,584.473,562.988,-62.5,597.656
1742550402.862,-418.945,-543.945,-58.594,-364.258
1742550402.866,431.641,433.594,1.465,288.574
1742550402.87,454.59,-95.703,-1.953,986.328
1742550402.873,-1000.0,-1000.0,-45.898,-889.16
1742550402.877,-196.777,22.461,-1.465,-887.695
1742550402.881,999.512,450.195,51.758,819.336
1742550402.885,645.02,-232.422,49.805,951.172
1742550402.889,-840.82,-729.004,34.668,-687.012
1742550402.906,-970.215,-228.027,4.883,-1000.0
1742550402.91,494.141,565.918,-6.348,317.871
1742550402.914,999.512,331.543,43.945,999.512
1742550402.918,785.156,2.93,97.168,919.922
1742550402.922,-806.152,-757.812,64.941,-646.484
1742550402.926,-428.711,155.273,76.66,-845.703
1742550402.93,790.527,637.695,139.648,598.145
1742550402.933,-539.551,-614.746,95.215,-469.727
1742550402.937,457.031,485.84,44.434,318.359
1742550402.941,990.723,251.465,27.344,999.512
1742550402.945,-875.977,-986.328,-32.227,-675.293
1742550402.949,-679.688,-123.535,-69.824,-991.211
1742550402.906,-970.215,-228.027,4.883,-1000.0
1742550402.91,494.141,565.918,-6.348,317.871
1742550402.914,999.512,331.543,43.945,999.512
1742550402.918,785.156,2.93,97.168,919.922
1742550402.922,-806.152,-757.812,64.941,-646.484
1742550402.926,-428.711,155.273,76.66,-845.703
1742550402.93,790.527,637.695,139.648,598.145
1742550402.933,-539.551,-614.746,95.215,-469.727
1742550402.937,457.031,485.84,44.434,318.359
1742550402.941,990.723,251.465,27.344,999.512
1742550402.945,-875.977,-986.328,-32.227,-675.293
1742550402.949,-679.688,-123.535,-69.824,-991.211
1742550402.936,936.035,786.621,-33.203,718.75
1742550402.94,924.316,67.383,-11.719,999.512
1742550402.944,-508.301,-585.449,24.414,-431.641
1742550402.948,-1000.0,-169.434,3.906,-1000.0
1742550402.952,-592.773,-4.395,-57.617,-742.188
1742550402.956,630.859,598.145,-31.25,515.137
1742550402.96,999.512,266.113,-37.598,999.512
1742550402.963,-256.836,-537.109,-30.273,158.203
1742550402.967,-1000.0,-622.559,-28.809,-1000.0
1742550402.971,-98.633,182.129,-82.52,-908.203
1742550402.975,999.512,868.164,-110.84,800.293
1742550402.979,314.453,-270.508,-103.027,686.035
1742550402.936,936.035,786.621,-33.203,718.75
1742550402.94,924.316,67.383,-11.719,999.512
1742550402.944,-508.301,-585.449,24.414,-431.641
1742550402.948,-1000.0,-169.434,3.906,-1000.0
1742550402.952,-592.773,-4.395,-57.617,-742.188
1742550402.956,630.859,598.145,-31.25,515.137
1742550402.96,999.512,266.113,-37.598,999.512
1742550402.963,-256.836,-537.109,-30.273,158.203
1742550402.967,-1000.0,-622.559,-28.809,-1000.0
1742550402.971,-98.633,182.129,-82.52,-908.203
1742550402.975,999.512,868.164,-110.84,800.293
1742550402.979,314.453,-270.508,-103.027,686.035
1742550402.996,-786.621,-582.031,-92.773,-780.762
1742550403.0,560.547,671.875,-106.934,446.777
1742550403.004,-395.02,-489.258,-105.957,-270.02
1742550403.008,-947.754,-420.898,-89.355,-1000.0
1742550403.012,848.633,923.34,-104.004,633.301
1742550403.016,994.629,432.129,-46.387,999.512
1742550403.02,-662.109,-753.906,-32.715,-495.605
1742550403.023,-1000.0,-498.535,-80.566,-1000.0
1742550403.027,594.727,765.137,-85.938,159.18
1742550403.031,999.512,406.738,-97.168,999.512
1742550403.035,-550.781,-843.75,-87.891,-239.746
1742550403.039,-649.414,-182.617,-69.824,-950.684
1742550402.996,-786.621,-582.031,-92.773,-780.762
1742550403.0,560.547,671.875,-106.934,446.777
1742550403.004,-395.02,-489.258,-105.957,-270.02
1742550403.008,-947.754,-420.898,-89.355,-1000.0
1742550403.012,848.633,923.34,-104.004,633.301
1742550403.016,994.629,432.129,-46.387,999.512
1742550403.02,-662.109,-753.906,-32.715,-495.605
1742550403.023,-1000.0,-498.535,-80.566,-1000.0
1742550403.027,594.727,765.137,-85.938,159.18
1742550403.031,999.512,406.738,-97.168,999.512
1742550403.035,-550.781,-843.75,-87.891,-239.746
1742550403.039,-649.414,-182.617,-69.824,-950.684
1742550403.028,898.926,826.172,-18.066,730.469
1742550403.032,-621.582,-680.176,2.93,-396.484
1742550403.036,-482.422,-339.844,6.836,-847.168
1742550403.04,999.512,825.195,112.793,999.512
1742550403.044,-554.199,-657.227,141.113,30.273
1742550403.048,-1000.0,-416.504,134.766,-1000.0
1742550403.052,555.664,777.344,135.254,363.281
1742550403.055,690.43,-57.617,138.672,999.512
1742550403.059,490.723,-171.875,173.34,992.676
1742550403.063,-122.559,-310.059,145.508,403.809
1742550403.067,-1000.0,-825.684,73.242,-1000.0
1742550403.071,-52.246,143.555,44.434,-623.047
1742550403.028,898.926,826.172,-18.066,730.469
1742550403.032,-621.582,-680.176,2.93,-396.484
1742550403.036,-482.422,-339.844,6.836,-847.168
1742550403.04,999.512,825.195,112.793,999.512
1742550403.044,-554.199,-657.227,141.113,30.273
1742550403.048,-1000.0,-416.504,134.766,-1000.0
1742550403.052,555.664,777.344,135.254,363.281
1742550403.055,690.43,-57.617,138.672,999.512
1742550403.059,490.723,-171.875,173.34,992.676
1742550403.063,-122.559,-310.059,145.508,403.809
1742550403.067,-1000.0,-825.684,73.242,-1000.0
1742550403.071,-52.246,143.555,44.434,-623.047
1742550403.072,999.512,547.852,62.012,939.941
1742550403.076,688.965,-161.133,41.504,972.656
1742550403.08,-888.184,-768.555,-2.93,-814.941
1742550403.084,220.215,480.469,14.648,-162.598
1742550403.088,528.32,56.641,3.906,735.84
1742550403.092,-820.312,-479.98,9.277,-716.797
1742550403.096,563.477,662.598,29.785,540.039
1742550403.099,-124.023,-459.961,-10.254,408.203
1742550403.103,-1000.0,-759.766,-32.715,-1000.0
1742550403.107,-506.348,24.902,-18.555,-842.773
1742550403.111,858.887,446.777,16.113,649.414
1742550403.115,936.035,202.637,20.996,999.512
1742550403.072,999.512,547.852,62.012,939.941
1742550403.076,688.965,-161.133,41.504,972.656
1742550403.08,-888.184,-768.555,-2.93,-814.941
1742550403.084,220.215,480.469,14.648,-162.598
1742550403.088,528.32,56.641,3.906,735.84
1742550403.092,-820.312,-479.98,9.277,-716.797
1742550403.096,563.477,662.598,29.785,540.039
1742550403.099,-124.023,-459.961,-10.254,408.203
1742550403.103,-1000.0,-759.766,-32.715,-1000.0
1742550403.107,-506.348,24.902,-18.555,-842.773
1742550403.111,858.887,446.777,16.113,649.414
1742550403.115,936.035,202.637,20.996,999.512
1742550403.116,-502.441,-619.141,64.453,-267.578
1742550403.12,-1000.0,-553.711,29.785,-1000.0
1742550403.124,-529.785,270.996,-46.387,-814.941
1742550403.128,929.199,597.168,13.672,830.078
1742550403.132,-315.43,-534.18,29.785,233.398
1742550403.136,-881.348,-258.301,-18.555,-879.883
1742550403.14,759.766,694.336,-47.363,666.504
1742550403.143,-552.246,-672.852,-76.172,-347.168
1742550403.147,-1000.0,-594.727,-83.008,-1000.0
1742550403.151,837.402,850.586,6.836,728.516
1742550403.155,456.543,-31.738,-9.766,871.582
1742550403.159,-1000.0,-812.988,-14.16,-839.355
1742550403.116,-502.441,-619.141,64.453,-267.578
1742550403.12,-1000.0,-553.711,29.785,-1000.0
1742550403.124,-529.785,270.996,-46.387,-814.941
1742550403.128,929.199,597.168,13.672,830.078
1742550403.132,-315.43,-534.18,29.785,233.398
1742550403.136,-881.348,-258.301,-18.555,-879.883
1742550403.14,759.766,694.336,-47.363,666.504
1742550403.143,-552.246,-672.852,-76.172,-347.168
1742550403.147,-1000.0,-594.727,-83.008,-1000.0
1742550403.151,837.402,850.586,6.836,728.516
1742550403.155,456.543,-31.738,-9.766,871.582
1742550403.159,-1000.0,-812.988,-14.16,-839.355
1742550403.162,-721.191,118.652,-42.969,-1000.0
1742550403.166,640.625,620.117,-83.008,417.48
1742550403.17,999.512,203.613,-53.223,999.512
1742550403.174,358.398,-146.484,-48.828,769.531
1742550403.178,-1000.0,-545.898,-44.922,-812.988
1742550403.182,-527.832,359.863,-115.723,-869.629
1742550403.186,615.234,312.012,-168.945,550.293
1742550403.189,-501.953,-738.77,-96.68,-439.941
1742550403.193,496.582,549.316,-30.273,396.484
1742550403.197,482.422,48.828,-90.332,981.934
1742550403.201,-1000.0,-961.426,-131.836,-930.176
1742550403.205,-165.527,169.434,-126.465,-741.699
1742550403.162,-721.191,118.652,-42.969,-1000.0
1742550403.166,640.625,620.117,-83.008,417.48
1742550403.17,999.512,203.613,-53.223,999.512
1742550403.174,358.398,-146.484,-48.828,769.531
1742550403.178,-1000.0,-545.898,-44.922,-812.988
1742550403.182,-527.832,359.863,-115.723,-869.629
1742550403.186,615.234,312.012,-168.945,550.293
1742550403.189,-501.953,-738.77,-96.68,-439.941
1742550403.193,496.582,549.316,-30.273,396.484
1742550403.197,482.422,48.828,-90.332,981.934
1742550403.201,-1000.0,-961.426,-131.836,-930.176
1742550403.205,-165.527,169.434,-126.465,-741.699
1742550403.221,999.512,714.844,-125.0,912.109
1742550403.225,763.184,-50.293,-101.074,926.758
1742550403.229,-656.738,-541.504,-90.82,-542.48
1742550403.233,-1000.0,-212.402,-98.633,-1000.0
1742550403.237,-28.809,277.344,-72.266,-458.984
1742550403.241,999.512,699.219,-3.906,999.512
1742550403.245,-30.273,-598.145,-4.883,637.207
1742550403.248,-913.574,-676.758,-67.871,-749.023
1742550403.252,692.383,777.344,-29.785,600.098
1742550403.256,-360.84,-451.172,8.789,-37.109
1742550403.26,-807.129,-451.66,23.926,-1000.0
1742550403.264,968.262,823.73,65.43,864.258
1742550403.221,999.512,714.844,-125.0,912.109
1742550403.225,763.184,-50.293,-101.074,926.758
1742550403.229,-656.738,-541.504,-90.82,-542.48
1742550403.233,-1000.0,-212.402,-98.633,-1000.0
1742550403.237,-28.809,277.344,-72.266,-458.984
1742550403.241,999.512,699.219,-3.906,999.512
1742550403.245,-30.273,-598.145,-4.883,637.207
1742550403.248,-913.574,-676.758,-67.871,-749.023
1742550403.252,692.383,777.344,-29.785,600.098
1742550403.256,-360.84,-451.172,8.789,-37.109
1742550403.26,-807.129,-451.66,23.926,-1000.0
1742550403.264,968.262,823.73,65.43,864.258
1742550403.256,-156.25,-442.871,45.41,559.082
1742550403.26,-1000.0,-853.516,-3.906,-1000.0
1742550403.264,-37.109,282.227,-34.668,-553.223
1742550403.268,958.984,599.121,-33.203,834.961
1742550403.272,998.047,279.785,-4.883,999.512
1742550403.276,476.562,172.852,5.859,834.961
1742550403.28,-904.785,-699.707,-58.594,-664.551
1742550403.283,-832.52,-326.66,-99.121,-1000.0
1742550403.287,735.84,621.094,-77.637,599.121
1742550403.291,999.512,-66.406,-91.309,999.512
1742550403.295,-468.75,-781.25,-106.445,-55.176
1742550403.299,-1000.0,-253.906,-79.59,-1000.0
1742550403.256,-156.25,-442.871,45.41,559.082
1742550403.26,-1000.0,-853.516,-3.906,-1000.0
1742550403.264,-37.109,282.227,-34.668,-553.223
1742550403.268,958.984,599.121,-33.203,834.961
1742550403.272,998.047,279.785,-4.883,999.512
1742550403.276,476.562,172.852,5.859,834.961
1742550403.28,-904.785,-699.707,-58.594,-664.551
1742550403.283,-832.52,-326.66,-99.121,-1000.0
1742550403.287,735.84,621.094,-77.637,599.121
1742550403.291,999.512,-66.406,-91.309,999.512
1742550403.295,-468.75,-781.25,-106.445,-55.176
1742550403.299,-1000.0,-253.906,-79.59,-1000.0
1742550403.256,-156.25,-442.871,45.41,559.082
1742550403.26,-1000.0,-853.516,-3.906,-1000.0
1742550403.264,-37.109,282.227,-34.668,-553.223
1742550403.268,958.984,599.121,-33.203,834.961
1742550403.272,998.047,279.785,-4.883,999.512
1742550403.276,476.562,172.852,5.859,834.961
1742550403.28,-904.785,-699.707,-58.594,-664.551
1742550403.283,-832.52,-326.66,-99.121,-1000.0
1742550403.287,735.84,621.094,-77.637,599.121
1742550403.291,999.512,-66.406,-91.309,999.512
1742550403.295,-468.75,-781.25,-106.445,-55.176
1742550403.299,-1000.0,-253.906,-79.59,-1000.0
1742550403.311,849.609,929.688,-81.055,490.723
1742550403.315,329.102,86.426,-124.023,654.785
1742550403.319,-697.266,-487.793,-93.75,-761.719
1742550403.323,907.227,715.82,20.02,784.18
1742550403.327,-112.305,-456.543,21.484,450.195
1742550403.331,-1000.0,-743.652,-66.895,-1000.0
1742550403.335,572.266,618.652,-97.656,268.555
1742550403.338,999.512,435.059,-69.824,999.512
1742550403.342,570.312,-276.367,-87.402,795.41
1742550403.346,-908.691,-774.414,-107.91,-710.938
1742550403.35,-726.562,-156.25,-135.742,-952.148
1742550403.354,747.559,684.57,-191.895,701.66
1742550403.311,849.609,929.688,-81.055,490.723
1742550403.315,329.102,86.426,-124.023,654.785
1742550403.319,-697.266,-487.793,-93.75,-761.719
1742550403.323,907.227,715.82,20.02,784.18
1742550403.327,-112.305,-456.543,21.484,450.195
1742550403.331,-1000.0,-743.652,-66.895,-1000.0
1742550403.335,572.266,618.652,-97.656,268.555
1742550403.338,999.512,435.059,-69.824,999.512
1742550403.342,570.312,-276.367,-87.402,795.41
1742550403.346,-908.691,-774.414,-107.91,-710.938
1742550403.35,-726.562,-156.25,-135.742,-952.148
1742550403.354,747.559,684.57,-191.895,701.66
1742550403.356,809.082,159.18,-150.391,980.957
1742550403.36,909.668,157.227,-111.816,999.512
1742550403.364,-250.488,-339.844,-119.141,503.906
1742550403.368,-939.941,-281.25,-122.559,-736.328
1742550403.372,578.125,608.887,-97.168,507.812
1742550403.376,999.512,274.414,-54.199,999.512
1742550403.38,947.266,339.355,-52.734,999.512
1742550403.383,-381.348,-501.465,-87.402,328.125
1742550403.387,-979.492,-565.918,-86.426,-911.621
1742550403.391,561.523,643.066,-72.266,391.602
1742550403.395,744.141,179.688,-64.453,999.512
1742550403.399,699.219,156.25,-57.129,922.363
1742550403.356,809.082,159.18,-150.391,980.957
1742550403.36,909.668,157.227,-111.816,999.512
1742550403.364,-250.488,-339.844,-119.141,503.906
1742550403.368,-939.941,-281.25,-122.559,-736.328
1742550403.372,578.125,608.887,-97.168,507.812
1742550403.376,999.512,274.414,-54.199,999.512
1742550403.38,947.266,339.355,-52.734,999.512
1742550403.383,-381.348,-501.465,-87.402,328.125
1742550403.387,-979.492,-565.918,-86.426,-911.621
1742550403.391,561.523,643.066,-72.266,391.602
1742550403.395,744.141,179.688,-64.453,999.512
1742550403.399,699.219,156.25,-57.129,922.363
1742550403.401,-374.023,-396.484,-42.48,-97.656
1742550403.405,-1000.0,-554.199,-45.898,-1000.0
1742550403.409,215.332,631.348,-47.363,-416.504
1742550403.413,865.234,306.152,-32.715,825.195
1742550403.417,-695.312,-782.227,-27.344,-653.809
1742550403.421,294.922,442.871,-8.301,-136.719
1742550403.425,251.465,20.996,-16.602,499.512
1742550403.428,-1000.0,-880.859,-28.809,-1000.0
1742550403.432,-362.305,75.195,-21.484,-884.766
1742550403.436,834.473,582.031,11.23,711.426
1742550403.44,-346.191,-536.621,7.812,-34.18
1742550403.444,-1000.0,-601.562,-4.395,-1000.0
1742550403.401,-374.023,-396.484,-42.48,-97.656
1742550403.405,-1000.0,-554.199,-45.898,-1000.0
1742550403.409,215.332,631.348,-47.363,-416.504
1742550403.413,865.234,306.152,-32.715,825.195
1742550403.417,-695.312,-782.227,-27.344,-653.809
1742550403.421,294.922,442.871,-8.301,-136.719
1742550403.425,251.465,20.996,-16.602,499.512
1742550403.428,-1000.0,-880.859,-28.809,-1000.0
1742550403.432,-362.305,75.195,-21.484,-884.766
1742550403.436,834.473,582.031,11.23,711.426
1742550403.44,-346.191,-536.621,7.812,-34.18
1742550403.444,-1000.0,-601.562,-4.395,-1000.0
1742550403.462,-819.824,20.996,-23.438,-972.168
1742550403.466,648.926,580.078,-46.875,345.215
1742550403.47,850.586,142.09,-19.043,999.512
1742550403.474,-674.805,-793.457,42.969,-385.254
1742550403.478,-1000.0,-463.379,19.531,-1000.0
1742550403.482,-588.379,337.891,-23.926,-912.109
1742550403.486,831.055,694.336,0.0,696.777
1742550403.489,-161.133,-643.066,39.551,462.891
1742550403.493,-960.449,-487.793,31.25,-800.781
1742550403.497,581.543,600.098,-14.16,497.07
1742550403.501,-530.273,-712.891,-49.805,-407.715
1742550403.505,-1000.0,-558.105,-42.48,-1000.0
1742550403.462,-819.824,20.996,-23.438,-972.168
1742550403.466,648.926,580.078,-46.875,345.215
1742550403.47,850.586,142.09,-19.043,999.512
1742550403.474,-674.805,-793.457,42.969,-385.254
1742550403.478,-1000.0,-463.379,19.531,-1000.0
1742550403.482,-588.379,337.891,-23.926,-912.109
1742550403.486,831.055,694.336,0.0,696.777
1742550403.489,-161.133,-643.066,39.551,462.891
1742550403.493,-960.449,-487.793,31.25,-800.781
1742550403.497,581.543,600.098,-14.16,497.07
1742550403.501,-530.273,-712.891,-49.805,-407.715
1742550403.505,-1000.0,-558.105,-42.48,-1000.0
1742550403.491,718.75,831.543,-45.898,559.57
1742550403.495,459.473,-70.312,-48.34,867.188
1742550403.499,-958.496,-575.195,-19.043,-721.191
1742550403.503,-1000.0,-74.707,-32.715,-1000.0
1742550403.507,-863.77,-327.148,-62.012,-928.711
1742550403.511,683.594,692.383,-35.156,533.691
1742550403.515,706.543,219.238,-69.336,943.359
1742550403.518,-915.527,-916.504,-116.211,-678.223
1742550403.522,-1000.0,-341.309,-100.586,-1000.0
1742550403.526,270.996,383.301,-104.004,-209.961
1742550403.53,999.512,734.863,-49.805,999.512
1742550403.534,303.223,-7.812,-35.156,683.105
1742550403.552,-927.734,-677.734,-110.352,-726.074
1742550403.556,-855.957,-236.328,-93.262,-1000.0
1742550403.56,-242.676,-20.02,-40.039,-860.352
1742550403.564,990.234,684.082,-17.09,748.535
1742550403.568,381.836,-104.98,-7.812,579.102
1742550403.572,-763.672,-290.527,-40.527,-922.852
1742550403.576,581.543,763.184,-12.207,264.648
1742550403.579,-570.312,-671.875,-1.953,-451.172
1742550403.583,-733.398,-318.359,15.625,-1000.0
1742550403.587,932.617,804.688,81.055,830.078
1742550403.591,-430.176,-623.047,66.406,109.863
1742550403.595,-1000.0,-541.504,8.301,-1000.0
1742550403.552,-927.734,-677.734,-110.352,-726.074
1742550403.556,-855.957,-236.328,-93.262,-1000.0
1742550403.56,-242.676,-20.02,-40.039,-860.352
1742550403.564,990.234,684.082,-17.09,748.535
1742550403.568,381.836,-104.98,-7.812,579.102
1742550403.572,-763.672,-290.527,-40.527,-922.852
1742550403.576,581.543,763.184,-12.207,264.648
1742550403.579,-570.312,-671.875,-1.953,-451.172
1742550403.583,-733.398,-318.359,15.625,-1000.0
1742550403.587,932.617,804.688,81.055,830.078
1742550403.591,-430.176,-623.047,66.406,109.863
1742550403.595,-1000.0,-541.504,8.301,-1000.0
1742550403.596,331.055,731.934,-17.09,-177.734
1742550403.6,999.512,523.438,76.172,999.512
1742550403.604,-609.863,-771.973,125.0,-122.559
1742550403.608,-823.73,-196.289,53.223,-901.855
1742550403.612,711.914,576.66,26.367,610.84
1742550403.616,-624.023,-702.637,68.359,-500.0
1742550403.62,-1000.0,-498.535,36.133,-1000.0
1742550403.623,779.297,727.539,16.602,729.004
1742550403.627,375.977,-18.555,37.109,886.719
1742550403.631,-1000.0,-929.199,20.996,-854.004
1742550403.635,-831.055,-322.266,18.066,-973.145
1742550403.639,699.707,714.844,28.32,613.77
1742550403.641,999.512,425.781,49.316,999.512
1742550403.645,-413.086,-545.41,43.945,-47.363
1742550403.649,-1000.0,-460.938,6.348,-1000.0
1742550403.653,-343.75,443.359,-3.906,-899.414
1742550403.657,880.371,747.559,9.766,746.094
1742550403.661,-416.992,-259.766,17.578,141.113
1742550403.665,-855.957,-26.367,21.484,-915.039
1742550403.668,723.145,686.523,12.695,584.473
1742550403.672,-586.914,-676.27,-34.18,-467.285
1742550403.676,-859.863,-350.098,-44.434,-1000.0
1742550403.68,914.062,995.117,26.855,695.801
1742550403.684,854.492,415.039,56.641,999.512
1742550403.641,999.512,425.781,49.316,999.512
1742550403.645,-413.086,-545.41,43.945,-47.363
1742550403.649,-1000.0,-460.938,6.348,-1000.0
1742550403.653,-343.75,443.359,-3.906,-899.414
1742550403.657,880.371,747.559,9.766,746.094
1742550403.661,-416.992,-259.766,17.578,141.113
1742550403.665,-855.957,-26.367,21.484,-915.039
1742550403.668,723.145,686.523,12.695,584.473
1742550403.672,-586.914,-676.27,-34.18,-467.285
1742550403.676,-859.863,-350.098,-44.434,-1000.0
1742550403.68,914.062,995.117,26.855,695.801
1742550403.684,854.492,415.039,56.641,999.512
1742550404.152,584.473,688.965,-113.281,398.438
1742550404.156,999.512,301.27,-55.664,999.512
1742550404.16,-102.051,-446.289,-10.742,329.102
1742550404.164,-1000.0,-420.41,-20.508,-937.5
1742550404.168,-976.074,-260.254,-60.059,-1000.0
1742550404.172,488.77,616.699,-67.871,300.293
1742550404.176,999.512,409.18,-13.672,999.512
1742550404.179,-778.32,-923.828,-19.043,-522.461
1742550404.183,-765.137,-189.453,-52.246,-935.059
1742550404.187,696.777,513.184,-112.305,636.23
1742550404.191,-761.23,-834.961,-98.145,-673.34
1742550404.195,-405.762,-52.734,-41.992,-760.254
1742550404.152,584.473,688.965,-113.281,398.438
1742550404.156,999.512,301.27,-55.664,999.512
1742550404.16,-102.051,-446.289,-10.742,329.102
1742550404.164,-1000.0,-420.41,-20.508,-937.5
1742550404.168,-976.074,-260.254,-60.059,-1000.0
1742550404.172,488.77,616.699,-67.871,300.293
1742550404.176,999.512,409.18,-13.672,999.512
1742550404.179,-778.32,-923.828,-19.043,-522.461
1742550404.183,-765.137,-189.453,-52.246,-935.059
1742550404.187,696.777,513.184,-112.305,636.23
1742550404.191,-761.23,-834.961,-98.145,-673.34
1742550404.195,-405.762,-52.734,-41.992,-760.254
1742550403.686,-812.5,-645.508,10.742,-674.805
1742550403.69,-944.824,-29.785,-63.965,-1000.0
1742550403.694,700.684,953.125,-80.566,470.215
1742550403.698,999.512,746.094,-38.086,999.512
1742550403.702,-597.656,-594.238,-59.082,-225.586
1742550403.706,-341.309,118.652,-71.289,-640.137
1742550403.71,847.656,707.031,-107.91,764.16
1742550403.713,-775.879,-774.414,-127.93,-664.551
1742550403.717,-45.41,-70.801,-53.711,-645.02
1742550403.721,999.512,448.73,-72.754,999.512
1742550403.725,-352.539,-597.656,-91.309,197.754
1742550403.729,-1000.0,-312.988,-41.992,-1000.0
1742550403.731,480.469,744.141,-63.965,113.77
1742550403.735,999.512,510.254,-29.785,999.512
1742550403.739,864.258,201.172,13.184,942.383
1742550403.743,-605.957,-605.469,-22.461,-423.828
1742550403.747,-1000.0,-323.242,-80.078,-1000.0
1742550403.751,836.426,994.629,-66.895,627.93
1742550403.755,156.25,-7.812,-82.031,501.953
1742550403.758,-783.203,-601.562,-87.402,-851.074
1742550403.762,934.57,641.113,-53.223,783.203
1742550403.766,-138.672,-341.309,-57.617,256.348
1742550403.77,-1000.0,-592.285,-73.73,-1000.0
1742550403.774,615.723,725.586,-62.5,419.922
1742550403.731,480.469,744.141,-63.965,113.77
1742550403.735,999.512,510.254,-29.785,999.512
1742550403.739,864.258,201.172,13.184,942.383
1742550403.743,-605.957,-605.469,-22.461,-423.828
1742550403.747,-1000.0,-323.242,-80.078,-1000.0
1742550403.751,836.426,994.629,-66.895,627.93
1742550403.755,156.25,-7.812,-82.031,501.953
1742550403.758,-783.203,-601.562,-87.402,-851.074
1742550403.762,934.57,641.113,-53.223,783.203
1742550403.766,-138.672,-341.309,-57.617,256.348
1742550403.77,-1000.0,-592.285,-73.73,-1000.0
1742550403.774,615.723,725.586,-62.5,419.922
1742550403.776,999.512,488.281,0.0,999.512
1742550403.78,165.527,-268.066,11.23,628.418
1742550403.784,-969.238,-276.367,-47.852,-918.945
1742550403.788,643.066,769.043,-29.297,110.352
1742550403.792,499.023,-66.895,31.25,677.734
1742550403.796,-556.641,-183.594,77.637,-626.953
1742550403.8,999.512,750.0,42.48,818.359
1742550403.803,253.418,-236.328,15.137,711.426
1742550403.807,-998.047,-685.059,-3.418,-1000.0
1742550403.811,422.852,548.34,-22.949,-88.867
1742550403.815,999.512,763.672,30.273,999.512
1742550403.819,667.969,225.586,29.785,812.988
1742550403.776,999.512,488.281,0.0,999.512
1742550403.78,165.527,-268.066,11.23,628.418
1742550403.784,-969.238,-276.367,-47.852,-918.945
1742550403.788,643.066,769.043,-29.297,110.352
1742550403.792,499.023,-66.895,31.25,677.734
1742550403.796,-556.641,-183.594,77.637,-626.953
1742550403.8,999.512,750.0,42.48,818.359
1742550403.803,253.418,-236.328,15.137,711.426
1742550403.807,-998.047,-685.059,-3.418,-1000.0
1742550403.811,422.852,548.34,-22.949,-88.867
1742550403.815,999.512,763.672,30.273,999.512
1742550403.819,667.969,225.586,29.785,812.988
1742550403.822,-842.285,-689.941,-16.113,-730.469
1742550403.826,-695.801,-79.59,-22.461,-964.355
1742550403.83,779.297,719.727,26.855,593.262
1742550403.834,746.094,181.641,37.109,999.512
1742550403.838,205.566,-124.512,20.996,744.141
1742550403.842,-688.477,-225.098,72.266,-543.457
1742550403.846,-1000.0,-134.766,0.0,-1000.0
1742550403.849,-376.465,9.766,-78.613,-721.191
1742550403.853,977.539,567.383,-47.363,755.859
1742550403.857,705.078,45.41,-48.828,926.758
1742550403.861,-800.293,-723.145,-76.66,-630.859
1742550403.865,-1000.0,-242.676,-86.426,-1000.0
1742550403.822,-842.285,-689.941,-16.113,-730.469
1742550403.826,-695.801,-79.59,-22.461,-964.355
1742550403.83,779.297,719.727,26.855,593.262
1742550403.834,746.094,181.641,37.109,999.512
1742550403.838,205.566,-124.512,20.996,744.141
1742550403.842,-688.477,-225.098,72.266,-543.457
1742550403.846,-1000.0,-134.766,0.0,-1000.0
1742550403.849,-376.465,9.766,-78.613,-721.191
1742550403.853,977.539,567.383,-47.363,755.859
1742550403.857,705.078,45.41,-48.828,926.758
1742550403.861,-800.293,-723.145,-76.66,-630.859
1742550403.865,-1000.0,-242.676,-86.426,-1000.0
1742550403.867,262.695,494.141,-104.492,-291.504
1742550403.871,999.512,569.336,-71.777,999.512
1742550403.875,274.414,-63.477,-52.246,674.316
1742550403.879,-887.207,-604.98,-64.941,-738.77
1742550403.883,-1000.0,-494.141,-74.219,-1000.0
1742550403.887,-291.504,289.062,-104.98,-825.195
1742550403.891,933.594,493.164,-136.23,561.035
1742550403.894,-453.125,-717.285,-115.723,-172.363
1742550403.898,-978.027,-411.133,-92.285,-1000.0
1742550403.902,-388.184,19.043,-98.145,-947.754
1742550403.906,-795.898,-343.262,-74.219,-993.652
1742550403.91,639.648,731.445,-50.781,551.758
1742550403.867,262.695,494.141,-104.492,-291.504
1742550403.871,999.512,569.336,-71.777,999.512
1742550403.875,274.414,-63.477,-52.246,674.316
1742550403.879,-887.207,-604.98,-64.941,-738.77
1742550403.883,-1000.0,-494.141,-74.219,-1000.0
1742550403.887,-291.504,289.062,-104.98,-825.195
1742550403.891,933.594,493.164,-136.23,561.035
1742550403.894,-453.125,-717.285,-115.723,-172.363
1742550403.898,-978.027,-411.133,-92.285,-1000.0
1742550403.902,-388.184,19.043,-98.145,-947.754
1742550403.906,-795.898,-343.262,-74.219,-993.652
1742550403.91,639.648,731.445,-50.781,551.758
1742550403.913,832.52,270.02,-52.246,956.055
1742550403.917,-756.348,-765.625,-80.566,-664.062
1742550403.921,-1000.0,-300.781,-146.973,-1000.0
1742550403.925,-890.625,-6.348,-171.387,-1000.0
1742550403.929,575.684,694.824,-136.719,253.906
1742550403.933,967.285,446.289,-115.723,988.77
1742550403.937,-634.277,-749.512,-87.402,-550.293
1742550403.94,-1000.0,-634.277,-90.332,-1000.0
1742550403.944,-358.887,157.715,-71.777,-789.062
1742550403.948,766.602,548.34,-35.156,580.078
1742550403.952,999.512,89.355,15.137,999.512
1742550403.956,785.645,122.07,10.742,999.512
1742550403.913,832.52,270.02,-52.246,956.055
1742550403.917,-756.348,-765.625,-80.566,-664.062
1742550403.921,-1000.0,-300.781,-146.973,-1000.0
1742550403.925,-890.625,-6.348,-171.387,-1000.0
1742550403.929,575.684,694.824,-136.719,253.906
1742550403.933,967.285,446.289,-115.723,988.77
1742550403.937,-634.277,-749.512,-87.402,-550.293
1742550403.94,-1000.0,-634.277,-90.332,-1000.0
1742550403.944,-358.887,157.715,-71.777,-789.062
1742550403.948,766.602,548.34,-35.156,580.078
1742550403.952,999.512,89.355,15.137,999.512
1742550403.956,785.645,122.07,10.742,999.512
1742550403.971,-583.984,-363.281,-14.648,291.992
1742550403.975,-1000.0,-470.215,-31.738,-894.043
1742550403.979,704.102,863.77,30.273,489.258
1742550403.983,999.512,583.984,101.562,999.512
1742550403.987,-752.93,-780.273,36.621,-282.227
1742550403.991,103.516,198.242,-23.926,-60.547
1742550403.995,585.938,78.125,-67.871,928.223
1742550403.998,-955.566,-683.105,-64.453,-628.418
1742550404.002,434.57,609.375,11.23,169.434
1742550404.006,999.512,531.25,-18.066,999.512
1742550404.01,-651.855,-837.402,-44.434,-51.27
1742550404.014,-978.516,-353.516,-35.645,-922.363
1742550403.971,-583.984,-363.281,-14.648,291.992
1742550403.975,-1000.0,-470.215,-31.738,-894.043
1742550403.979,704.102,863.77,30.273,489.258
1742550403.983,999.512,583.984,101.562,999.512
1742550403.987,-752.93,-780.273,36.621,-282.227
1742550403.991,103.516,198.242,-23.926,-60.547
1742550403.995,585.938,78.125,-67.871,928.223
1742550403.998,-955.566,-683.105,-64.453,-628.418
1742550404.002,434.57,609.375,11.23,169.434
1742550404.006,999.512,531.25,-18.066,999.512
1742550404.01,-651.855,-837.402,-44.434,-51.27
1742550404.014,-978.516,-353.516,-35.645,-922.363
1742550404.017,607.422,735.352,-27.344,576.66
1742550404.021,999.512,218.262,-8.789,999.512
1742550404.025,699.707,-160.645,-26.855,810.059
1742550404.029,-41.016,-153.32,-32.715,999.512
1742550404.033,-307.617,-197.266,-50.293,660.645
1742550404.037,-682.129,-87.891,-33.203,-601.562
1742550404.041,501.953,637.695,37.109,484.375
1742550404.044,999.512,111.328,57.129,999.512
1742550404.048,999.512,148.926,44.434,997.559
1742550404.052,413.574,105.469,22.949,785.156
1742550404.056,-755.371,-573.242,3.906,-522.461
1742550404.06,492.676,576.172,3.418,433.105
1742550404.017,607.422,735.352,-27.344,576.66
1742550404.021,999.512,218.262,-8.789,999.512
1742550404.025,699.707,-160.645,-26.855,810.059
1742550404.029,-41.016,-153.32,-32.715,999.512
1742550404.033,-307.617,-197.266,-50.293,660.645
1742550404.037,-682.129,-87.891,-33.203,-601.562
1742550404.041,501.953,637.695,37.109,484.375
1742550404.044,999.512,111.328,57.129,999.512
1742550404.048,999.512,148.926,44.434,997.559
1742550404.052,413.574,105.469,22.949,785.156
1742550404.056,-755.371,-573.242,3.906,-522.461
1742550404.06,492.676,576.172,3.418,433.105
1742550404.061,999.512,488.281,-18.555,999.512
1742550404.065,692.871,-94.238,-25.879,999.512
1742550404.069,-649.902,-540.527,-47.852,-122.07
1742550404.073,-972.168,-327.637,-80.566,-1000.0
1742550404.077,737.793,707.031,-48.828,607.422
1742550404.081,962.402,420.898,-19.531,999.512
1742550404.085,-564.941,-684.082,-39.062,-389.648
1742550404.088,-1000.0,-817.871,-66.406,-1000.0
1742550404.092,-702.148,-172.363,-83.496,-911.621
1742550404.096,833.008,673.34,-70.312,622.559
1742550404.1,508.789,-156.738,-55.176,906.738
1742550404.104,-848.145,-689.453,-26.367,-801.27
1742550404.061,999.512,488.281,-18.555,999.512
1742550404.065,692.871,-94.238,-25.879,999.512
1742550404.069,-649.902,-540.527,-47.852,-122.07
1742550404.073,-972.168,-327.637,-80.566,-1000.0
1742550404.077,737.793,707.031,-48.828,607.422
1742550404.081,962.402,420.898,-19.531,999.512
1742550404.085,-564.941,-684.082,-39.062,-389.648
1742550404.088,-1000.0,-817.871,-66.406,-1000.0
1742550404.092,-702.148,-172.363,-83.496,-911.621
1742550404.096,833.008,673.34,-70.312,622.559
1742550404.1,508.789,-156.738,-55.176,906.738
1742550404.104,-848.145,-689.453,-26.367,-801.27
1742550404.106,480.469,553.711,-38.574,130.859
1742550404.11,-286.621,-511.23,-71.777,-133.301
1742550404.114,-1000.0,-815.918,-47.852,-1000.0
1742550404.118,782.227,816.895,-13.184,685.059
1742550404.122,425.293,38.086,-1.953,812.012
1742550404.126,-981.934,-542.969,-6.348,-768.066
1742550404.13,-1000.0,-228.027,-50.781,-1000.0
1742550404.133,-643.555,-269.531,-113.281,-893.555
1742550404.137,790.527,660.645,-113.281,612.305
1742550404.141,505.371,72.754,-107.91,896.484
1742550404.145,-1000.0,-801.27,-111.328,-821.289
1742550404.149,-919.922,-141.602,-129.395,-1000.0
1742550404.106,480.469,553.711,-38.574,130.859
1742550404.11,-286.621,-511.23,-71.777,-133.301
1742550404.114,-1000.0,-815.918,-47.852,-1000.0
1742550404.118,782.227,816.895,-13.184,685.059
1742550404.122,425.293,38.086,-1.953,812.012
1742550404.126,-981.934,-542.969,-6.348,-768.066
1742550404.13,-1000.0,-228.027,-50.781,-1000.0
1742550404.133,-643.555,-269.531,-113.281,-893.555
1742550404.137,790.527,660.645,-113.281,612.305
1742550404.141,505.371,72.754,-107.91,896.484
1742550404.145,-1000.0,-801.27,-111.328,-821.289
1742550404.149,-919.922,-141.602,-129.395,-1000.0
1742550404.197,916.992,641.113,-66.406,807.617
1742550404.201,-592.285,-759.277,-89.844,-480.957
1742550404.205,-1000.0,-621.094,-101.562,-1000.0
1742550404.209,-460.449,144.043,-95.703,-804.199
1742550404.213,875.0,830.078,-45.41,575.684
1742550404.217,584.473,225.586,-16.113,895.02
1742550404.221,-818.848,-711.914,-14.16,-683.105
1742550404.224,-1000.0,-664.062,-60.547,-1000.0
1742550404.228,-751.953,-341.797,-108.887,-944.336
1742550404.232,732.422,612.793,-62.012,473.633
1742550404.236,729.492,-17.578,2.93,987.305
1742550404.24,-783.691,-786.133,13.672,-683.594
1742550404.197,916.992,641.113,-66.406,807.617
1742550404.201,-592.285,-759.277,-89.844,-480.957
1742550404.205,-1000.0,-621.094,-101.562,-1000.0
1742550404.209,-460.449,144.043,-95.703,-804.199
1742550404.213,875.0,830.078,-45.41,575.684
1742550404.217,584.473,225.586,-16.113,895.02
1742550404.221,-818.848,-711.914,-14.16,-683.105
1742550404.224,-1000.0,-664.062,-60.547,-1000.0
1742550404.228,-751.953,-341.797,-108.887,-944.336
1742550404.232,732.422,612.793,-62.012,473.633
1742550404.236,729.492,-17.578,2.93,987.305
1742550404.24,-783.691,-786.133,13.672,-683.594
1742550404.241,-1000.0,-178.223,-19.043,-1000.0
1742550404.245,-1000.0,-141.602,-65.918,-1000.0
1742550404.249,-124.512,312.012,-63.477,-754.395
1742550404.253,865.234,554.199,-26.855,698.73
1742550404.257,-606.934,-750.977,-42.969,-336.426
1742550404.261,-960.938,-89.355,-54.688,-1000.0
1742550404.265,-780.762,44.922,-70.801,-930.664
1742550404.268,-971.191,-664.551,-85.938,-1000.0
1742550404.272,656.25,602.051,-66.406,540.527
1742550404.276,529.297,134.766,-51.27,868.652
1742550404.28,-1000.0,-906.25,-70.801,-851.074
1742550404.284,-893.555,-55.664,-75.195,-1000.0
1742550404.241,-1000.0,-178.223,-19.043,-1000.0
1742550404.245,-1000.0,-141.602,-65.918,-1000.0
1742550404.249,-124.512,312.012,-63.477,-754.395
1742550404.253,865.234,554.199,-26.855,698.73
1742550404.257,-606.934,-750.977,-42.969,-336.426
1742550404.261,-960.938,-89.355,-54.688,-1000.0
1742550404.265,-780.762,44.922,-70.801,-930.664
1742550404.268,-971.191,-664.551,-85.938,-1000.0
1742550404.272,656.25,602.051,-66.406,540.527
1742550404.276,529.297,134.766,-51.27,868.652
1742550404.28,-1000.0,-906.25,-70.801,-851.074
1742550404.284,-893.555,-55.664,-75.195,-1000.0
1742550404.287,709.961,832.52,-22.461,496.094
1742550404.291,999.512,317.383,-7.324,999.512
1742550404.295,-822.266,-863.77,-20.508,-574.707
1742550404.299,-572.266,-37.598,-32.715,-911.621
1742550404.303,836.914,701.66,-48.34,681.641
1742550404.307,-718.75,-626.953,-54.688,-590.82
1742550404.311,-394.531,-309.082,-66.895,-859.375
1742550404.314,999.512,461.426,-17.578,969.727
1742550404.318,-419.434,-470.215,-21.973,155.762
1742550404.322,-1000.0,-383.789,-78.125,-1000.0
1742550404.326,-496.094,-5.859,-55.176,-901.367
1742550404.33,802.246,657.715,67.383,634.277
1742550404.287,709.961,832.52,-22.461,496.094
1742550404.291,999.512,317.383,-7.324,999.512
1742550404.295,-822.266,-863.77,-20.508,-574.707
1742550404.299,-572.266,-37.598,-32.715,-911.621
1742550404.303,836.914,701.66,-48.34,681.641
1742550404.307,-718.75,-626.953,-54.688,-590.82
1742550404.311,-394.531,-309.082,-66.895,-859.375
1742550404.314,999.512,461.426,-17.578,969.727
1742550404.318,-419.434,-470.215,-21.973,155.762
1742550404.322,-1000.0,-383.789,-78.125,-1000.0
1742550404.326,-496.094,-5.859,-55.176,-901.367
1742550404.33,802.246,657.715,67.383,634.277
1742550404.346,835.449,275.879,105.957,999.512
1742550404.35,-925.293,-853.516,-7.324,-788.086
1742550404.354,-757.324,106.934,-45.41,-937.988
1742550404.358,625.0,645.02,14.648,628.418
1742550404.362,-522.461,-624.512,21.973,-409.18
1742550404.366,325.684,382.812,-16.113,147.461
1742550404.37,822.754,104.492,-47.363,999.512
1742550404.373,-1000.0,-1000.0,-26.367,-803.711
1742550404.377,-280.273,160.645,38.574,-774.414
1742550404.381,999.512,718.75,25.391,999.512
1742550404.385,122.559,-437.5,-22.949,674.316
1742550404.389,-811.035,-337.891,-43.945,-655.762
1742550404.379,549.316,627.93,-62.5,466.797
1742550404.383,-577.637,-661.621,-60.547,-408.203
1742550404.387,-801.27,-252.441,-22.461,-1000.0
1742550404.391,915.039,810.059,-3.906,835.938
1742550404.395,-198.242,-348.633,-39.062,400.391
1742550404.399,-1000.0,-309.57,-62.5,-1000.0
1742550404.403,-703.613,99.609,-54.688,-1000.0
1742550404.406,713.867,457.52,-11.719,441.895
1742550404.41,983.887,181.152,38.086,999.512
1742550404.414,-562.012,-789.551,25.879,-342.773
1742550404.418,-1000.0,-423.34,-40.527,-1000.0
1742550404.422,-290.039,262.207,-94.727,-757.324
1742550404.379,549.316,627.93,-62.5,466.797
1742550404.383,-577.637,-661.621,-60.547,-408.203
1742550404.387,-801.27,-252.441,-22.461,-1000.0
1742550404.391,915.039,810.059,-3.906,835.938
1742550404.395,-198.242,-348.633,-39.062,400.391
1742550404.399,-1000.0,-309.57,-62.5,-1000.0
1742550404.403,-703.613,99.609,-54.688,-1000.0
1742550404.406,713.867,457.52,-11.719,441.895
1742550404.41,983.887,181.152,38.086,999.512
1742550404.414,-562.012,-789.551,25.879,-342.773
1742550404.418,-1000.0,-423.34,-40.527,-1000.0
1742550404.422,-290.039,262.207,-94.727,-757.324
1742550404.437,855.469,625.0,-102.539,570.801
1742550404.441,976.074,227.051,-63.965,999.512
1742550404.445,-191.895,-120.117,-19.531,355.957
1742550404.449,-1000.0,-372.559,6.348,-968.262
1742550404.453,-792.969,-211.914,32.715,-919.434
1742550404.457,572.754,487.305,30.273,539.551
1742550404.461,988.77,20.508,7.812,999.512
1742550404.464,657.227,-10.254,0.0,906.738
1742550404.468,-671.875,-554.199,-54.199,-474.609
1742550404.472,-971.191,-335.449,-58.594,-1000.0
1742550404.476,596.68,797.852,-21.484,454.59
1742550404.48,999.512,539.062,11.719,999.512
1742550404.481,449.707,-38.574,-0.488,729.98
1742550404.485,-954.102,-533.203,-7.324,-757.812
1742550404.489,-834.961,-37.109,-34.668,-965.332
1742550404.493,617.676,673.34,-80.078,579.102
1742550404.497,999.512,513.184,-26.367,999.512
1742550404.501,655.762,194.336,8.789,772.461
1742550404.505,-752.441,-550.781,0.488,-565.43
1742550404.508,-1000.0,-442.871,-17.578,-1000.0
1742550404.512,432.129,236.328,35.156,-118.652
1742550404.516,999.512,389.648,73.242,999.512
1742550404.52,242.188,-246.094,65.43,661.621
1742550404.524,-934.57,-375.0,75.684,-952.637
