timestamps,TP9,AF7,AF8,TP10
1742641984.264,-983.887,-980.469,240.723,-982.91
1742641984.268,-973.145,-1000.0,235.84,-974.121
1742641984.272,-1000.0,342.285,200.195,-1000.0
1742641984.276,-937.5,535.156,185.059,-937.5
1742641984.28,-1000.0,-1000.0,201.172,-1000.0
1742641984.284,-221.191,-41.016,215.82,-220.703
1742641984.288,999.512,999.512,218.262,999.512
1742641984.291,949.707,915.039,170.41,950.684
1742641984.295,938.965,950.195,145.996,939.453
1742641984.299,973.145,914.551,164.062,974.121
1742641984.303,970.215,999.512,147.461,972.656
1742641984.307,899.902,119.141,145.02,898.926
1742641983.89,-1000.0,-1000.0,-53.711,-1000.0
1742641983.894,-779.785,-246.094,-34.668,-837.891
1742641983.898,645.508,999.512,-3.906,559.082
1742641983.902,999.512,890.625,0.488,999.512
1742641983.906,901.367,999.512,58.594,901.855
1742641983.909,979.98,220.215,130.371,978.516
1742641983.913,966.309,-1000.0,174.316,966.797
1742641983.917,966.309,-948.73,190.918,966.797
1742641983.921,966.309,-1000.0,165.527,966.797
1742641983.925,966.797,1.953,113.77,967.285
1742641983.89,-1000.0,-1000.0,-53.711,-1000.0
1742641983.894,-779.785,-246.094,-34.668,-837.891
1742641983.898,645.508,999.512,-3.906,559.082
1742641983.902,999.512,890.625,0.488,999.512
1742641983.906,901.367,999.512,58.594,901.855
1742641983.909,979.98,220.215,130.371,978.516
1742641983.913,966.309,-1000.0,174.316,966.797
1742641983.917,966.309,-948.73,190.918,966.797
1742641983.921,966.309,-1000.0,165.527,966.797
1742641983.925,966.797,1.953,113.77,967.285
1742641983.929,965.82,999.512,93.75,966.309
1742641983.933,905.273,901.367,109.375,906.25
1742641983.937,999.512,999.512,99.609,999.512
1742641983.941,166.992,-149.414,42.969,163.086
1742641983.945,-1000.0,-1000.0,38.574,-1000.0
1742641983.949,-980.957,-950.195,75.684,-980.469
1742641983.953,-974.609,-994.141,75.195,-975.098
1742641983.956,-1000.0,-1000.0,13.184,-1000.0
1742641983.96,-1000.0,-1000.0,-16.113,-1000.0
1742641983.964,-944.824,-928.711,24.414,-962.402
1742641983.968,-1000.0,-1000.0,29.785,-1000.0
1742641983.972,-840.82,-413.086,37.598,-988.77
1742641983.929,965.82,999.512,93.75,966.309
1742641983.933,905.273,901.367,109.375,906.25
1742641983.937,999.512,999.512,99.609,999.512
1742641983.941,166.992,-149.414,42.969,163.086
1742641983.945,-1000.0,-1000.0,38.574,-1000.0
1742641983.949,-980.957,-950.195,75.684,-980.469
1742641983.953,-974.609,-994.141,75.195,-975.098
1742641983.956,-1000.0,-1000.0,13.184,-1000.0
1742641983.96,-1000.0,-1000.0,-16.113,-1000.0
1742641983.964,-944.824,-928.711,24.414,-962.402
1742641983.968,-1000.0,-1000.0,29.785,-1000.0
1742641983.972,-840.82,-413.086,37.598,-988.77
1742641983.974,561.523,967.285,60.059,327.637
1742641983.978,999.512,913.574,50.781,999.512
1742641983.982,900.879,999.512,25.879,902.832
1742641983.986,978.027,438.477,-19.531,972.168
1742641983.99,981.445,-1000.0,-9.277,980.469
1742641983.994,901.367,-423.34,11.23,911.621
1742641983.998,999.512,999.512,-28.32,999.512
1742641984.001,698.73,351.562,-99.609,805.176
1742641984.005,-737.793,-1000.0,-137.695,-595.703
1742641984.009,-1000.0,-934.57,-69.336,-1000.0
1742641984.013,-937.012,-1000.0,-28.32,-935.059
1742641984.017,-1000.0,-379.883,-28.809,-1000.0
1742641983.974,561.523,967.285,60.059,327.637
1742641983.978,999.512,913.574,50.781,999.512
1742641983.982,900.879,999.512,25.879,902.832
1742641983.986,978.027,438.477,-19.531,972.168
1742641983.99,981.445,-1000.0,-9.277,980.469
1742641983.994,901.367,-423.34,11.23,911.621
1742641983.998,999.512,999.512,-28.32,999.512
1742641984.001,698.73,351.562,-99.609,805.176
1742641984.005,-737.793,-1000.0,-137.695,-595.703
1742641984.009,-1000.0,-934.57,-69.336,-1000.0
1742641984.013,-937.012,-1000.0,-28.32,-935.059
1742641984.017,-1000.0,-379.883,-28.809,-1000.0
1742641984.019,-1000.0,982.422,-5.371,-1000.0
1742641984.023,-1000.0,906.25,2.93,-1000.0
1742641984.027,-1000.0,999.512,14.648,-1000.0
1742641984.031,-937.5,363.77,15.137,-937.5
1742641984.035,-1000.0,-1000.0,1.953,-1000.0
1742641984.039,-220.703,-79.102,64.453,-220.703
1742641984.043,999.512,999.512,63.477,999.512
1742641984.046,950.195,922.363,27.344,950.684
1742641984.05,948.73,951.172,74.707,950.195
1742641984.054,900.879,908.203,45.898,901.367
1742641984.058,999.512,999.512,-1.465,999.512
1742641984.062,379.883,187.012,-30.762,404.785
1742641984.019,-1000.0,982.422,-5.371,-1000.0
1742641984.023,-1000.0,906.25,2.93,-1000.0
1742641984.027,-1000.0,999.512,14.648,-1000.0
1742641984.031,-937.5,363.77,15.137,-937.5
1742641984.035,-1000.0,-1000.0,1.953,-1000.0
1742641984.039,-220.703,-79.102,64.453,-220.703
1742641984.043,999.512,999.512,63.477,999.512
1742641984.046,950.195,922.363,27.344,950.684
1742641984.05,948.73,951.172,74.707,950.195
1742641984.054,900.879,908.203,45.898,901.367
1742641984.058,999.512,999.512,-1.465,999.512
1742641984.062,379.883,187.012,-30.762,404.785
1742641984.063,-995.605,-1000.0,-65.918,-980.469
1742641984.067,-1000.0,-978.027,-54.199,-1000.0
1742641984.071,-926.758,-920.898,-60.059,-917.969
1742641984.075,-1000.0,-1000.0,-45.898,-1000.0
1742641984.079,-1000.0,-110.84,-14.16,-958.008
1742641984.083,229.004,999.512,-10.742,332.52
1742641984.087,999.512,947.266,-0.488,999.512
1742641984.09,903.809,896.973,-48.34,907.715
1742641984.094,968.262,999.512,32.227,970.215
1742641984.098,966.309,781.738,470.703,967.285
1742641984.102,966.309,-509.766,733.398,967.285
1742641984.106,966.309,-1000.0,766.113,967.285
1742641984.109,981.445,-716.797,772.461,979.98
1742641984.113,902.832,529.297,756.348,914.062
1742641984.117,999.512,999.512,741.699,999.512
1742641984.121,717.773,411.621,678.711,829.102
1742641984.125,-715.332,-929.688,596.191,-564.453
1742641984.129,-1000.0,-1000.0,618.164,-1000.0
1742641984.133,-936.523,-916.016,625.0,-934.57
1742641984.136,-1000.0,-1000.0,556.641,-1000.0
1742641984.14,-967.285,-1000.0,479.004,-959.961
1742641984.144,-997.559,272.461,486.816,-1000.0
1742641984.148,-1000.0,999.512,528.32,-941.895
1742641984.152,258.789,905.762,522.949,371.582
1742641984.109,981.445,-716.797,772.461,979.98
1742641984.113,902.832,529.297,756.348,914.062
1742641984.117,999.512,999.512,741.699,999.512
1742641984.121,717.773,411.621,678.711,829.102
1742641984.125,-715.332,-929.688,596.191,-564.453
1742641984.129,-1000.0,-1000.0,618.164,-1000.0
1742641984.133,-936.523,-916.016,625.0,-934.57
1742641984.136,-1000.0,-1000.0,556.641,-1000.0
1742641984.14,-967.285,-1000.0,479.004,-959.961
1742641984.144,-997.559,272.461,486.816,-1000.0
1742641984.148,-1000.0,999.512,528.32,-941.895
1742641984.152,258.789,905.762,522.949,371.582
1742641984.167,999.512,969.727,494.141,999.512
1742641984.171,901.855,967.285,460.938,905.273
1742641984.175,969.727,967.285,391.113,972.168
1742641984.179,977.539,969.727,333.008,980.957
1742641984.183,893.066,902.344,352.539,892.578
1742641984.187,999.512,999.512,308.105,999.512
1742641984.191,410.156,219.727,226.074,497.559
1742641984.194,-980.469,-1000.0,232.91,-931.641
1742641984.198,-1000.0,-998.047,268.555,-1000.0
1742641984.202,-955.078,-900.391,252.93,-947.754
1742641984.206,-1000.0,-1000.0,302.246,-1000.0
1742641984.21,-974.609,-403.809,279.785,-972.656
1742641984.167,999.512,969.727,494.141,999.512
1742641984.171,901.855,967.285,460.938,905.273
1742641984.175,969.727,967.285,391.113,972.168
1742641984.179,977.539,969.727,333.008,980.957
1742641984.183,893.066,902.344,352.539,892.578
1742641984.187,999.512,999.512,308.105,999.512
1742641984.191,410.156,219.727,226.074,497.559
1742641984.194,-980.469,-1000.0,232.91,-931.641
1742641984.198,-1000.0,-998.047,268.555,-1000.0
1742641984.202,-955.078,-900.391,252.93,-947.754
1742641984.206,-1000.0,-1000.0,302.246,-1000.0
1742641984.21,-974.609,-403.809,279.785,-972.656
1742641984.213,-981.934,958.496,196.777,-989.258
1742641984.217,-1000.0,983.887,259.277,-1000.0
1742641984.221,164.062,925.293,333.496,191.406
1742641984.225,999.512,979.004,348.633,999.512
1742641984.229,906.738,966.797,312.5,910.645
1742641984.233,965.332,905.273,301.27,965.332
1742641984.237,966.797,999.512,310.547,968.262
1742641984.24,966.797,173.828,244.141,967.285
1742641984.244,903.809,-1000.0,226.562,905.273
1742641984.248,999.512,-981.934,243.164,999.512
1742641984.252,187.012,-980.469,227.051,178.711
1742641984.256,-1000.0,-979.004,225.098,-1000.0
1742641984.213,-981.934,958.496,196.777,-989.258
1742641984.217,-1000.0,983.887,259.277,-1000.0
1742641984.221,164.062,925.293,333.496,191.406
1742641984.225,999.512,979.004,348.633,999.512
1742641984.229,906.738,966.797,312.5,910.645
1742641984.233,965.332,905.273,301.27,965.332
1742641984.237,966.797,999.512,310.547,968.262
1742641984.24,966.797,173.828,244.141,967.285
1742641984.244,903.809,-1000.0,226.562,905.273
1742641984.248,999.512,-981.934,243.164,999.512
1742641984.252,187.012,-980.469,227.051,178.711
1742641984.256,-1000.0,-979.004,225.098,-1000.0
1742641984.304,999.512,-1000.0,136.23,999.512
1742641984.308,244.141,-989.258,89.355,288.574
1742641984.312,-1000.0,-904.785,119.629,-1000.0
1742641984.316,-993.164,-1000.0,130.371,-1000.0
1742641984.32,-968.262,-542.969,158.203,-964.844
1742641984.324,-1000.0,834.473,140.625,-1000.0
1742641984.328,-1000.0,999.512,79.102,-1000.0
1742641984.331,-1000.0,14.648,69.336,-1000.0
1742641984.335,-1000.0,-1000.0,84.961,-1000.0
1742641984.339,-1000.0,-981.934,98.633,-1000.0
1742641984.343,-966.797,-922.363,49.805,-976.562
1742641984.347,-999.023,-1000.0,12.207,-978.027
1742641984.304,999.512,-1000.0,136.23,999.512
1742641984.308,244.141,-989.258,89.355,288.574
1742641984.312,-1000.0,-904.785,119.629,-1000.0
1742641984.316,-993.164,-1000.0,130.371,-1000.0
1742641984.32,-968.262,-542.969,158.203,-964.844
1742641984.324,-1000.0,834.473,140.625,-1000.0
1742641984.328,-1000.0,999.512,79.102,-1000.0
1742641984.331,-1000.0,14.648,69.336,-1000.0
1742641984.335,-1000.0,-1000.0,84.961,-1000.0
1742641984.339,-1000.0,-981.934,98.633,-1000.0
1742641984.343,-966.797,-922.363,49.805,-976.562
1742641984.347,-999.023,-1000.0,12.207,-978.027
1742641984.348,-1000.0,-768.066,4.395,-1000.0
1742641984.352,266.113,637.207,10.254,139.16
1742641984.356,999.512,999.512,21.484,999.512
1742641984.36,901.855,904.785,50.293,909.668
1742641984.364,969.727,979.98,75.684,964.355
1742641984.368,966.797,904.297,57.617,967.773
1742641984.372,967.285,999.512,73.242,966.797
1742641984.375,903.809,187.5,70.312,905.273
1742641984.379,999.512,-1000.0,30.273,999.512
1742641984.383,187.012,-983.887,-74.707,179.199
1742641984.387,-1000.0,-973.145,-278.32,-1000.0
1742641984.391,-983.887,-1000.0,-518.555,-982.91
1742641984.348,-1000.0,-768.066,4.395,-1000.0
1742641984.352,266.113,637.207,10.254,139.16
1742641984.356,999.512,999.512,21.484,999.512
1742641984.36,901.855,904.785,50.293,909.668
1742641984.364,969.727,979.98,75.684,964.355
1742641984.368,966.797,904.297,57.617,967.773
1742641984.372,967.285,999.512,73.242,966.797
1742641984.375,903.809,187.5,70.312,905.273
1742641984.379,999.512,-1000.0,30.273,999.512
1742641984.383,187.012,-983.887,-74.707,179.199
1742641984.387,-1000.0,-973.145,-278.32,-1000.0
1742641984.391,-983.887,-1000.0,-518.555,-982.91
1742641984.395,-973.145,-1000.0,-765.625,-973.633
1742641984.399,-1000.0,-1000.0,-927.734,-1000.0
1742641984.403,-990.234,-935.547,-988.77,-998.047
1742641984.407,-953.613,-1000.0,-947.754,-941.895
1742641984.411,-1000.0,-703.125,-863.281,-1000.0
1742641984.415,-51.27,720.703,-794.434,-172.363
1742641984.419,999.512,999.512,-770.996,999.512
1742641984.422,941.895,885.742,-780.273,955.566
1742641984.426,876.953,954.102,-760.254,873.535
1742641984.43,999.512,999.512,-703.613,999.512
1742641984.434,517.09,-127.93,-676.27,479.004
1742641984.438,-919.922,-1000.0,-671.875,-917.48
1742641984.395,-973.145,-1000.0,-765.625,-973.633
1742641984.399,-1000.0,-1000.0,-927.734,-1000.0
1742641984.403,-990.234,-935.547,-988.77,-998.047
1742641984.407,-953.613,-1000.0,-947.754,-941.895
1742641984.411,-1000.0,-703.125,-863.281,-1000.0
1742641984.415,-51.27,720.703,-794.434,-172.363
1742641984.419,999.512,999.512,-770.996,999.512
1742641984.422,941.895,885.742,-780.273,955.566
1742641984.426,876.953,954.102,-760.254,873.535
1742641984.43,999.512,999.512,-703.613,999.512
1742641984.434,517.09,-127.93,-676.27,479.004
1742641984.438,-919.922,-1000.0,-671.875,-917.48
1742641984.438,-1000.0,-952.148,-579.102,-1000.0
1742641984.442,-934.57,-977.051,-544.434,-940.43
1742641984.446,-971.68,-967.773,-407.715,-966.797
1742641984.45,-1000.0,-1000.0,81.543,-1000.0
1742641984.454,-20.996,59.082,394.043,-50.293
1742641984.458,999.512,999.512,405.273,999.512
1742641984.462,923.34,999.512,359.863,928.223
1742641984.465,953.613,235.352,385.742,952.148
1742641984.469,968.75,-984.863,464.844,969.727
1742641984.473,966.309,-1000.0,464.844,967.285
1742641984.477,966.309,-220.703,421.387,967.285
1742641984.481,966.309,999.512,411.621,966.797
1742641984.501,966.797,956.543,405.762,967.285
1742641984.505,966.797,936.035,375.0,967.773
1742641984.509,903.32,915.039,376.465,904.297
1742641984.513,999.512,999.512,381.348,999.512
1742641984.517,186.523,156.25,298.34,187.012
1742641984.521,-1000.0,-1000.0,290.527,-1000.0
1742641984.525,-983.887,-979.98,309.082,-983.887
1742641984.528,-973.145,-975.098,269.043,-973.145
1742641984.532,-1000.0,-1000.0,270.508,-1000.0
1742641984.536,-1000.0,-999.512,260.254,-1000.0
1742641984.54,-931.641,-939.941,250.0,-929.688
1742641984.544,-1000.0,-1000.0,234.375,-1000.0
1742641984.501,966.797,956.543,405.762,967.285
1742641984.505,966.797,936.035,375.0,967.773
1742641984.509,903.32,915.039,376.465,904.297
1742641984.513,999.512,999.512,381.348,999.512
1742641984.517,186.523,156.25,298.34,187.012
1742641984.521,-1000.0,-1000.0,290.527,-1000.0
1742641984.525,-983.887,-979.98,309.082,-983.887
1742641984.528,-973.145,-975.098,269.043,-973.145
1742641984.532,-1000.0,-1000.0,270.508,-1000.0
1742641984.536,-1000.0,-999.512,260.254,-1000.0
1742641984.54,-931.641,-939.941,250.0,-929.688
1742641984.544,-1000.0,-1000.0,234.375,-1000.0
1742641984.544,-326.172,-196.289,284.668,-380.859
1742641984.548,999.023,999.512,280.273,975.098
1742641984.552,967.285,947.266,208.008,978.516
1742641984.556,931.152,948.73,197.266,927.246
1742641984.56,977.051,944.824,209.473,978.516
1742641984.564,903.32,956.543,215.332,904.785
1742641984.568,999.512,999.512,212.891,999.512
1742641984.571,187.012,-235.84,164.551,182.129
1742641984.575,-1000.0,-1000.0,126.953,-1000.0
1742641984.579,-983.887,-941.406,175.781,-983.398
1742641984.583,-973.145,-1000.0,196.777,-973.633
1742641984.587,-1000.0,-1000.0,171.875,-1000.0
1742641984.544,-326.172,-196.289,284.668,-380.859
1742641984.548,999.023,999.512,280.273,975.098
1742641984.552,967.285,947.266,208.008,978.516
1742641984.556,931.152,948.73,197.266,927.246
1742641984.56,977.051,944.824,209.473,978.516
1742641984.564,903.32,956.543,215.332,904.785
1742641984.568,999.512,999.512,212.891,999.512
1742641984.571,187.012,-235.84,164.551,182.129
1742641984.575,-1000.0,-1000.0,126.953,-1000.0
1742641984.579,-983.887,-941.406,175.781,-983.398
1742641984.583,-973.145,-1000.0,196.777,-973.633
1742641984.587,-1000.0,-1000.0,171.875,-1000.0
1742641984.589,-932.617,-937.012,147.949,-943.848
1742641984.593,-1000.0,-1000.0,133.301,-1000.0
1742641984.597,-696.777,-232.422,131.348,-818.848
1742641984.601,744.141,999.512,101.074,585.938
1742641984.605,999.512,948.242,-31.738,999.512
1742641984.609,841.797,884.766,-255.371,839.355
1742641984.613,999.512,999.512,-621.582,999.512
1742641984.616,187.012,101.074,-935.547,187.5
1742641984.62,-1000.0,-1000.0,-912.598,-1000.0
1742641984.624,-983.887,-972.656,-827.148,-983.887
1742641984.628,-973.145,-979.98,-867.188,-973.145
1742641984.632,-1000.0,-1000.0,-862.793,-1000.0
1742641984.589,-932.617,-937.012,147.949,-943.848
1742641984.593,-1000.0,-1000.0,133.301,-1000.0
1742641984.597,-696.777,-232.422,131.348,-818.848
1742641984.601,744.141,999.512,101.074,585.938
1742641984.605,999.512,948.242,-31.738,999.512
1742641984.609,841.797,884.766,-255.371,839.355
1742641984.613,999.512,999.512,-621.582,999.512
1742641984.616,187.012,101.074,-935.547,187.5
1742641984.62,-1000.0,-1000.0,-912.598,-1000.0
1742641984.624,-983.887,-972.656,-827.148,-983.887
1742641984.628,-973.145,-979.98,-867.188,-973.145
1742641984.632,-1000.0,-1000.0,-862.793,-1000.0
1742641984.589,-932.617,-937.012,147.949,-943.848
1742641984.593,-1000.0,-1000.0,133.301,-1000.0
1742641984.597,-696.777,-232.422,131.348,-818.848
1742641984.601,744.141,999.512,101.074,585.938
1742641984.605,999.512,948.242,-31.738,999.512
1742641984.609,841.797,884.766,-255.371,839.355
1742641984.613,999.512,999.512,-621.582,999.512
1742641984.616,187.012,101.074,-935.547,187.5
1742641984.62,-1000.0,-1000.0,-912.598,-1000.0
1742641984.624,-983.887,-972.656,-827.148,-983.887
1742641984.628,-973.145,-979.98,-867.188,-973.145
1742641984.632,-1000.0,-1000.0,-862.793,-1000.0
1742641984.647,-933.105,-940.918,-817.871,-930.176
1742641984.651,-1000.0,-1000.0,-817.383,-1000.0
1742641984.655,-289.062,-185.547,-765.137,-363.281
1742641984.659,999.512,999.512,-689.453,982.91
1742641984.663,961.426,953.613,-696.289,975.098
1742641984.667,937.5,911.621,-675.781,933.594
1742641984.671,955.566,968.262,-591.309,952.637
1742641984.674,935.059,997.07,-561.523,952.148
1742641984.678,999.512,-269.531,-595.215,999.512
1742641984.682,-113.281,-1000.0,-619.629,-193.848
1742641984.686,-1000.0,-939.453,-550.781,-1000.0
1742641984.69,-947.266,-1000.0,-445.801,-947.266
1742641984.647,-933.105,-940.918,-817.871,-930.176
1742641984.651,-1000.0,-1000.0,-817.383,-1000.0
1742641984.655,-289.062,-185.547,-765.137,-363.281
1742641984.659,999.512,999.512,-689.453,982.91
1742641984.663,961.426,953.613,-696.289,975.098
1742641984.667,937.5,911.621,-675.781,933.594
1742641984.671,955.566,968.262,-591.309,952.637
1742641984.674,935.059,997.07,-561.523,952.148
1742641984.678,999.512,-269.531,-595.215,999.512
1742641984.682,-113.281,-1000.0,-619.629,-193.848
1742641984.686,-1000.0,-939.453,-550.781,-1000.0
1742641984.69,-947.266,-1000.0,-445.801,-947.266
1742641984.694,-994.629,-1000.0,-407.715,-996.582
1742641984.698,-1000.0,-1000.0,-411.133,-1000.0
1742641984.702,-941.406,-928.223,-437.5,-949.707
1742641984.706,-1000.0,-1000.0,-487.305,-1000.0
1742641984.71,-807.129,-446.289,-501.953,-885.254
1742641984.714,612.793,940.43,-480.957,499.023
1742641984.718,999.512,991.211,-553.711,999.512
1742641984.721,900.879,935.547,-590.82,900.879
1742641984.725,985.84,910.645,-503.418,982.422
1742641984.729,940.43,999.512,-433.594,942.383
1742641984.733,949.219,585.938,-436.523,952.148
1742641984.737,999.512,-838.867,-442.383,999.512
1742641984.723,-203.613,-1000.0,-397.461,-189.453
1742641984.727,-1000.0,-939.941,-331.055,-1000.0
1742641984.731,-867.188,-958.496,-292.969,-876.953
1742641984.735,-1000.0,-1000.0,-274.414,-1000.0
1742641984.739,-489.746,-146.973,-218.75,-460.938
1742641984.743,923.828,999.512,-219.727,932.617
1742641984.747,997.559,879.883,-286.621,993.652
1742641984.75,925.781,999.512,-288.574,927.246
1742641984.754,945.801,651.367,-256.836,950.684
1742641984.758,968.262,-743.652,-209.961,959.473
1742641984.762,983.398,-1000.0,-216.309,999.512
1742641984.766,-317.383,-942.871,-255.371,-249.023
1742641984.723,-203.613,-1000.0,-397.461,-189.453
1742641984.727,-1000.0,-939.941,-331.055,-1000.0
1742641984.731,-867.188,-958.496,-292.969,-876.953
1742641984.735,-1000.0,-1000.0,-274.414,-1000.0
1742641984.739,-489.746,-146.973,-218.75,-460.938
1742641984.743,923.828,999.512,-219.727,932.617
1742641984.747,997.559,879.883,-286.621,993.652
1742641984.75,925.781,999.512,-288.574,927.246
1742641984.754,945.801,651.367,-256.836,950.684
1742641984.758,968.262,-743.652,-209.961,959.473
1742641984.762,983.398,-1000.0,-216.309,999.512
1742641984.766,-317.383,-942.871,-255.371,-249.023
1742641984.771,-1000.0,-1000.0,-197.266,-1000.0
1742641984.775,-936.035,-1000.0,-165.039,-941.895
1742641984.779,-1000.0,-954.59,-136.23,-1000.0
1742641984.783,-933.594,-1000.0,-134.277,-932.129
1742641984.787,-1000.0,-912.109,-161.133,-1000.0
1742641984.791,-284.18,439.453,-104.492,-333.496
1742641984.795,999.512,999.512,-85.938,995.605
1742641984.798,960.449,903.809,-116.211,969.727
1742641984.802,947.266,970.703,-98.145,942.871
1742641984.806,900.391,913.086,-91.797,904.297
1742641984.81,999.512,999.512,-99.609,999.512
1742641984.814,465.332,110.352,-116.699,452.148
1742641984.771,-1000.0,-1000.0,-197.266,-1000.0
1742641984.775,-936.035,-1000.0,-165.039,-941.895
1742641984.779,-1000.0,-954.59,-136.23,-1000.0
1742641984.783,-933.594,-1000.0,-134.277,-932.129
1742641984.787,-1000.0,-912.109,-161.133,-1000.0
1742641984.791,-284.18,439.453,-104.492,-333.496
1742641984.795,999.512,999.512,-85.938,995.605
1742641984.798,960.449,903.809,-116.211,969.727
1742641984.802,947.266,970.703,-98.145,942.871
1742641984.806,900.391,913.086,-91.797,904.297
1742641984.81,999.512,999.512,-99.609,999.512
1742641984.814,465.332,110.352,-116.699,452.148
1742641984.829,-951.172,-1000.0,-128.418,-952.637
1742641984.833,-1000.0,-970.703,-129.883,-1000.0
1742641984.837,-951.172,-923.34,-171.875,-952.637
1742641984.841,-951.66,-1000.0,-148.438,-951.172
1742641984.845,-1000.0,-126.465,-88.867,-1000.0
1742641984.849,-221.191,984.375,-81.543,-223.633
1742641984.853,999.512,999.512,-124.023,999.512
1742641984.856,950.195,380.859,-151.367,951.66
1742641984.86,938.965,-952.637,-88.867,939.453
1742641984.864,973.145,-996.582,-33.691,974.121
1742641984.868,966.309,-1000.0,-43.945,967.285
1742641984.872,981.445,99.609,-65.43,981.934
1742641984.829,-951.172,-1000.0,-128.418,-952.637
1742641984.833,-1000.0,-970.703,-129.883,-1000.0
1742641984.837,-951.172,-923.34,-171.875,-952.637
1742641984.841,-951.66,-1000.0,-148.438,-951.172
1742641984.845,-1000.0,-126.465,-88.867,-1000.0
1742641984.849,-221.191,984.375,-81.543,-223.633
1742641984.853,999.512,999.512,-124.023,999.512
1742641984.856,950.195,380.859,-151.367,951.66
1742641984.86,938.965,-952.637,-88.867,939.453
1742641984.864,973.145,-996.582,-33.691,974.121
1742641984.868,966.309,-1000.0,-43.945,967.285
1742641984.872,981.445,99.609,-65.43,981.934
1742641984.86,894.043,999.512,-82.52,898.926
1742641984.864,999.512,999.512,-59.57,999.512
1742641984.868,585.938,332.031,-65.43,640.625
1742641984.872,-860.84,-1000.0,-158.203,-796.387
1742641984.876,-1000.0,-1000.0,-141.113,-1000.0
1742641984.88,-941.895,-960.938,-98.633,-939.941
1742641984.884,-1000.0,-1000.0,-127.441,-1000.0
1742641984.887,-1000.0,-988.77,-120.605,-1000.0
1742641984.891,-936.523,-958.008,-111.328,-931.641
1742641984.895,-1000.0,-1000.0,-93.75,-1000.0
1742641984.899,-241.699,-39.551,-76.172,-329.102
1742641984.903,999.512,999.512,-95.703,998.047
1742641984.86,894.043,999.512,-82.52,898.926
1742641984.864,999.512,999.512,-59.57,999.512
1742641984.868,585.938,332.031,-65.43,640.625
1742641984.872,-860.84,-1000.0,-158.203,-796.387
1742641984.876,-1000.0,-1000.0,-141.113,-1000.0
1742641984.88,-941.895,-960.938,-98.633,-939.941
1742641984.884,-1000.0,-1000.0,-127.441,-1000.0
1742641984.887,-1000.0,-988.77,-120.605,-1000.0
1742641984.891,-936.523,-958.008,-111.328,-931.641
1742641984.895,-1000.0,-1000.0,-93.75,-1000.0
1742641984.899,-241.699,-39.551,-76.172,-329.102
1742641984.903,999.512,999.512,-95.703,998.047
1742641984.918,963.867,934.082,-146.484,979.492
1742641984.922,896.973,885.742,-131.836,886.23
1742641984.926,990.234,999.512,-94.727,999.512
1742641984.93,940.43,240.723,-156.25,875.0
1742641984.934,-394.531,-1000.0,-202.148,-465.82
1742641984.938,-1000.0,-992.676,-165.039,-1000.0
1742641984.942,-934.57,-968.75,-175.293,-937.5
1742641984.945,-1000.0,-1000.0,-202.148,-1000.0
1742641984.949,-1000.0,-985.84,-174.805,-1000.0
1742641984.953,-937.5,-961.914,-163.086,-937.5
1742641984.957,-1000.0,-1000.0,-150.391,-1000.0
1742641984.961,-220.703,5.859,-99.121,-220.703
1742641984.918,963.867,934.082,-146.484,979.492
1742641984.922,896.973,885.742,-131.836,886.23
1742641984.926,990.234,999.512,-94.727,999.512
1742641984.93,940.43,240.723,-156.25,875.0
1742641984.934,-394.531,-1000.0,-202.148,-465.82
1742641984.938,-1000.0,-992.676,-165.039,-1000.0
1742641984.942,-934.57,-968.75,-175.293,-937.5
1742641984.945,-1000.0,-1000.0,-202.148,-1000.0
1742641984.949,-1000.0,-985.84,-174.805,-1000.0
1742641984.953,-937.5,-961.914,-163.086,-937.5
1742641984.957,-1000.0,-1000.0,-150.391,-1000.0
1742641984.961,-220.703,5.859,-99.121,-220.703
1742641984.964,999.512,999.512,-108.887,999.512
1742641984.968,950.195,852.051,-171.875,950.684
1742641984.972,938.965,999.512,-175.293,939.941
1742641984.976,973.145,594.238,-202.148,973.633
1742641984.98,970.215,-1000.0,-210.449,972.168
1742641984.984,899.902,-247.07,-169.922,898.926
1742641984.988,999.512,999.512,-194.336,999.512
1742641984.991,248.047,130.371,-287.598,281.738
1742641984.995,-1000.0,-1000.0,-323.73,-1000.0
1742641984.999,-994.141,-977.051,-310.059,-1000.0
1742641985.003,-968.262,-976.074,-334.473,-965.82
1742641985.007,-1000.0,-998.047,-381.348,-1000.0
1742641984.964,999.512,999.512,-108.887,999.512
1742641984.968,950.195,852.051,-171.875,950.684
1742641984.972,938.965,999.512,-175.293,939.941
1742641984.976,973.145,594.238,-202.148,973.633
1742641984.98,970.215,-1000.0,-210.449,972.168
1742641984.984,899.902,-247.07,-169.922,898.926
1742641984.988,999.512,999.512,-194.336,999.512
1742641984.991,248.047,130.371,-287.598,281.738
1742641984.995,-1000.0,-1000.0,-323.73,-1000.0
1742641984.999,-994.141,-977.051,-310.059,-1000.0
1742641985.003,-968.262,-976.074,-334.473,-965.82
1742641985.007,-1000.0,-998.047,-381.348,-1000.0
1742641985.008,-937.5,-953.125,-399.902,-935.547
1742641985.012,-1000.0,-1000.0,-419.434,-1000.0
1742641985.016,-220.703,-77.637,-327.148,-256.348
1742641985.02,999.512,999.512,-190.43,999.512
1742641985.024,950.195,931.152,-175.293,958.496
1742641985.028,939.941,891.602,-204.59,929.199
1742641985.032,910.645,999.512,-231.445,930.664
1742641985.035,999.512,135.742,-250.0,999.512
1742641985.039,186.523,-1000.0,-228.027,59.082
1742641985.043,-1000.0,-973.633,-155.273,-1000.0
1742641985.047,-948.73,-920.41,-143.066,-932.617
1742641985.051,-977.051,-1000.0,-133.789,-1000.0
1742641985.008,-937.5,-953.125,-399.902,-935.547
1742641985.012,-1000.0,-1000.0,-419.434,-1000.0
1742641985.016,-220.703,-77.637,-327.148,-256.348
1742641985.02,999.512,999.512,-190.43,999.512
1742641985.024,950.195,931.152,-175.293,958.496
1742641985.028,939.941,891.602,-204.59,929.199
1742641985.032,910.645,999.512,-231.445,930.664
1742641985.035,999.512,135.742,-250.0,999.512
1742641985.039,186.523,-1000.0,-228.027,59.082
1742641985.043,-1000.0,-973.633,-155.273,-1000.0
1742641985.047,-948.73,-920.41,-143.066,-932.617
1742641985.051,-977.051,-1000.0,-133.789,-1000.0
1742641985.055,-1000.0,-152.344,-71.289,-901.855
1742641985.059,293.457,999.512,-74.707,424.316
1742641985.063,999.512,941.895,-111.328,999.512
1742641985.067,901.367,945.312,-173.34,906.738
1742641985.071,973.633,972.656,-151.367,979.98
1742641985.075,900.879,904.785,-112.305,897.461
1742641985.079,999.512,999.512,-103.516,999.512
1742641985.082,227.051,183.105,-113.281,314.941
1742641985.086,-1000.0,-1000.0,-198.242,-1000.0
1742641985.09,-990.723,-983.398,-198.73,-1000.0
1742641985.094,-969.727,-977.051,-154.297,-962.891
1742641985.098,-1000.0,-990.234,-142.578,-1000.0
1742641985.098,-926.27,-967.773,-130.371,-929.199
1742641985.102,-1000.0,-1000.0,-171.875,-1000.0
1742641985.106,-464.844,41.504,-166.992,-404.297
1742641985.11,936.523,999.512,-59.57,962.402
1742641985.114,999.512,897.461,-41.504,996.582
1742641985.118,845.215,938.477,-49.316,854.004
1742641985.122,999.512,999.512,-30.273,999.512
1742641985.125,471.68,-183.105,-65.43,540.527
1742641985.129,-945.801,-1000.0,-60.059,-881.348
1742641985.133,-1000.0,-944.824,-43.457,-1000.0
1742641985.137,-959.473,-997.07,-68.848,-955.566
1742641985.141,-942.383,-939.941,-83.008,-942.871
1742641985.098,-926.27,-967.773,-130.371,-929.199
1742641985.102,-1000.0,-1000.0,-171.875,-1000.0
1742641985.106,-464.844,41.504,-166.992,-404.297
1742641985.11,936.523,999.512,-59.57,962.402
1742641985.114,999.512,897.461,-41.504,996.582
1742641985.118,845.215,938.477,-49.316,854.004
1742641985.122,999.512,999.512,-30.273,999.512
1742641985.125,471.68,-183.105,-65.43,540.527
1742641985.129,-945.801,-1000.0,-60.059,-881.348
1742641985.133,-1000.0,-944.824,-43.457,-1000.0
1742641985.137,-959.473,-997.07,-68.848,-955.566
1742641985.141,-942.383,-939.941,-83.008,-942.871
1742641985.173,-1000.0,-1000.0,-122.559,-1000.0
1742641985.177,-401.855,-203.125,-62.988,-416.992
1742641985.181,967.773,999.512,-3.906,958.008
1742641985.185,980.957,948.242,-52.246,984.863
1742641985.189,924.316,943.848,-96.68,923.828
1742641985.193,978.027,908.203,-86.426,979.004
1742641985.197,966.309,999.512,-45.898,966.797
1742641985.2,966.309,228.516,-88.379,966.797
1742641985.204,966.309,-1000.0,-116.699,966.797
1742641985.208,966.309,-1000.0,-86.426,967.285
1742641985.212,966.309,-897.461,-92.773,967.285
1742641985.216,966.309,-1000.0,-74.707,966.797
1742641985.173,-1000.0,-1000.0,-122.559,-1000.0
1742641985.177,-401.855,-203.125,-62.988,-416.992
1742641985.181,967.773,999.512,-3.906,958.008
1742641985.185,980.957,948.242,-52.246,984.863
1742641985.189,924.316,943.848,-96.68,923.828
1742641985.193,978.027,908.203,-86.426,979.004
1742641985.197,966.309,999.512,-45.898,966.797
1742641985.2,966.309,228.516,-88.379,966.797
1742641985.204,966.309,-1000.0,-116.699,966.797
1742641985.208,966.309,-1000.0,-86.426,967.285
1742641985.212,966.309,-897.461,-92.773,967.285
1742641985.216,966.309,-1000.0,-74.707,966.797
1742641985.188,980.957,-455.566,-33.203,974.609
1742641985.192,902.344,863.281,5.371,936.035
1742641985.196,999.512,999.512,-33.691,963.379
1742641985.2,699.219,253.906,-111.816,991.699
1742641985.204,-727.539,-1000.0,-92.285,-273.438
1742641985.208,-1000.0,-1000.0,-39.551,-1000.0
1742641985.212,-937.988,-963.867,-36.133,-940.43
1742641985.215,-1000.0,-1000.0,-48.34,-1000.0
1742641985.219,-991.211,-985.352,-75.684,-986.328
1742641985.223,-951.66,-961.914,-48.828,-962.891
1742641985.227,-1000.0,-1000.0,2.93,-1000.0
1742641985.231,-63.477,20.02,1.465,11.719
1742641985.188,980.957,-455.566,-33.203,974.609
1742641985.192,902.344,863.281,5.371,936.035
1742641985.196,999.512,999.512,-33.691,963.379
1742641985.2,699.219,253.906,-111.816,991.699
1742641985.204,-727.539,-1000.0,-92.285,-273.438
1742641985.208,-1000.0,-1000.0,-39.551,-1000.0
1742641985.212,-937.988,-963.867,-36.133,-940.43
1742641985.215,-1000.0,-1000.0,-48.34,-1000.0
1742641985.219,-991.211,-985.352,-75.684,-986.328
1742641985.223,-951.66,-961.914,-48.828,-962.891
1742641985.227,-1000.0,-1000.0,2.93,-1000.0
1742641985.231,-63.477,20.02,1.465,11.719
1742641985.188,980.957,-455.566,-33.203,974.609
1742641985.192,902.344,863.281,5.371,936.035
1742641985.196,999.512,999.512,-33.691,963.379
1742641985.2,699.219,253.906,-111.816,991.699
1742641985.204,-727.539,-1000.0,-92.285,-273.438
1742641985.208,-1000.0,-1000.0,-39.551,-1000.0
1742641985.212,-937.988,-963.867,-36.133,-940.43
1742641985.215,-1000.0,-1000.0,-48.34,-1000.0
1742641985.219,-991.211,-985.352,-75.684,-986.328
1742641985.223,-951.66,-961.914,-48.828,-962.891
1742641985.227,-1000.0,-1000.0,2.93,-1000.0
1742641985.231,-63.477,20.02,1.465,11.719
1742641985.248,999.512,999.512,-31.738,999.512
1742641985.252,928.223,875.488,-43.457,923.34
1742641985.256,950.684,994.629,-18.066,955.566
1742641985.26,969.727,887.207,-22.949,969.727
1742641985.264,978.027,-628.906,-20.02,980.957
1742641985.268,892.578,-378.906,19.043,894.531
1742641985.272,999.512,999.512,-5.371,999.512
1742641985.275,430.176,163.574,-73.73,529.785
1742641985.279,-970.215,-1000.0,-55.664,-898.438
1742641985.283,-1000.0,-977.051,9.277,-1000.0
1742641985.287,-953.125,-973.145,3.418,-946.289
1742641985.291,-1000.0,-1000.0,-92.773,-1000.0
1742641985.248,999.512,999.512,-31.738,999.512
1742641985.252,928.223,875.488,-43.457,923.34
1742641985.256,950.684,994.629,-18.066,955.566
1742641985.26,969.727,887.207,-22.949,969.727
1742641985.264,978.027,-628.906,-20.02,980.957
1742641985.268,892.578,-378.906,19.043,894.531
1742641985.272,999.512,999.512,-5.371,999.512
1742641985.275,430.176,163.574,-73.73,529.785
1742641985.279,-970.215,-1000.0,-55.664,-898.438
1742641985.283,-1000.0,-977.051,9.277,-1000.0
1742641985.287,-953.125,-973.145,3.418,-946.289
1742641985.291,-1000.0,-1000.0,-92.773,-1000.0
1742641985.293,-931.152,-931.152,-87.891,-934.082
1742641985.297,-1000.0,-1000.0,-36.621,-1000.0
1742641985.301,-681.641,-353.516,-50.781,-700.195
1742641985.305,765.625,985.352,-24.902,733.398
1742641985.309,999.512,974.121,-33.203,999.512
1742641985.313,904.785,867.188,-67.383,905.762
1742641985.317,981.934,999.512,-47.363,981.445
1742641985.32,971.191,180.664,-42.48,970.703
1742641985.324,943.848,-1000.0,-43.945,950.195
1742641985.328,942.383,-982.91,-38.574,935.059
1742641985.332,999.512,-973.633,-51.27,999.512
1742641985.336,-159.18,-1000.0,-75.195,-80.566
1742641985.293,-931.152,-931.152,-87.891,-934.082
1742641985.297,-1000.0,-1000.0,-36.621,-1000.0
1742641985.301,-681.641,-353.516,-50.781,-700.195
1742641985.305,765.625,985.352,-24.902,733.398
1742641985.309,999.512,974.121,-33.203,999.512
1742641985.313,904.785,867.188,-67.383,905.762
1742641985.317,981.934,999.512,-47.363,981.445
1742641985.32,971.191,180.664,-42.48,970.703
1742641985.324,943.848,-1000.0,-43.945,950.195
1742641985.328,942.383,-982.91,-38.574,935.059
1742641985.332,999.512,-973.633,-51.27,999.512
1742641985.336,-159.18,-1000.0,-75.195,-80.566
1742641985.338,-1000.0,-1000.0,-32.715,-1000.0
1742641985.342,-946.289,-1000.0,14.648,-956.543
1742641985.346,-986.816,-940.43,-12.207,-982.91
1742641985.35,-954.59,-1000.0,-31.738,-953.125
1742641985.354,-1000.0,-777.832,17.09,-1000.0
1742641985.358,-49.805,634.766,83.984,-82.52
1742641985.362,999.512,999.512,61.523,999.512
1742641985.365,927.246,914.062,12.207,932.617
1742641985.369,967.285,908.691,14.16,962.891
1742641985.373,898.926,999.512,33.691,907.227
1742641985.377,999.512,408.203,46.387,999.512
1742641985.381,616.211,-975.098,40.527,644.531
1742641985.338,-1000.0,-1000.0,-32.715,-1000.0
1742641985.342,-946.289,-1000.0,14.648,-956.543
1742641985.346,-986.816,-940.43,-12.207,-982.91
1742641985.35,-954.59,-1000.0,-31.738,-953.125
1742641985.354,-1000.0,-777.832,17.09,-1000.0
1742641985.358,-49.805,634.766,83.984,-82.52
1742641985.362,999.512,999.512,61.523,999.512
1742641985.365,927.246,914.062,12.207,932.617
1742641985.369,967.285,908.691,14.16,962.891
1742641985.373,898.926,999.512,33.691,907.227
1742641985.377,999.512,408.203,46.387,999.512
1742641985.381,616.211,-975.098,40.527,644.531
1742641985.398,-827.637,-1000.0,45.41,-764.16
1742641985.402,-1000.0,-908.203,54.688,-1000.0
1742641985.406,-940.918,-1000.0,39.062,-941.406
1742641985.41,-1000.0,-45.41,41.504,-1000.0
1742641985.414,-1000.0,999.512,47.363,-1000.0
1742641985.418,-1000.0,997.07,27.344,-1000.0
1742641985.422,-1000.0,753.418,-18.066,-1000.0
1742641985.425,-1000.0,-637.695,-69.824,-1000.0
1742641985.429,-1000.0,-1000.0,-32.715,-1000.0
1742641985.433,-1000.0,-940.918,-8.789,-1000.0
1742641985.437,-927.246,-945.312,-35.645,-926.27
1742641985.441,-1000.0,-1000.0,-50.781,-1000.0
1742641985.429,-434.082,-307.617,-52.734,-551.27
1742641985.433,951.172,999.512,-16.602,882.324
1742641985.437,987.305,965.332,-28.32,999.512
1742641985.441,921.875,933.105,-82.52,913.086
1742641985.445,994.141,978.516,-160.645,996.582
1742641985.449,897.461,902.344,-163.574,901.855
1742641985.453,999.512,999.512,-162.598,999.512
1742641985.456,651.855,216.797,-236.816,663.086
1742641985.46,-793.457,-1000.0,-262.695,-761.719
1742641985.464,-1000.0,-989.746,-208.984,-1000.0
1742641985.468,-954.102,-968.262,-194.824,-953.125
1742641985.472,-946.777,-949.707,-178.711,-955.078
1742641985.472,-1000.0,-1000.0,-154.785,-1000.0
1742641985.476,-673.34,-171.875,-127.441,-772.461
1742641985.48,770.02,999.512,-140.137,632.812
1742641985.484,999.512,947.266,-152.344,999.512
1742641985.488,905.762,929.199,-109.375,904.785
1742641985.492,918.945,933.594,-111.328,916.992
1742641985.496,999.512,999.512,-121.582,999.512
1742641985.499,187.012,-40.039,-196.777,182.617
1742641985.503,-1000.0,-1000.0,-249.512,-1000.0
1742641985.507,-983.887,-956.055,-193.848,-983.398
1742641985.511,-973.145,-989.258,-125.977,-973.633
1742641985.515,-1000.0,-1000.0,-109.863,-1000.0
1742641985.472,-1000.0,-1000.0,-154.785,-1000.0
1742641985.476,-673.34,-171.875,-127.441,-772.461
1742641985.48,770.02,999.512,-140.137,632.812
1742641985.484,999.512,947.266,-152.344,999.512
1742641985.488,905.762,929.199,-109.375,904.785
1742641985.492,918.945,933.594,-111.328,916.992
1742641985.496,999.512,999.512,-121.582,999.512
1742641985.499,187.012,-40.039,-196.777,182.617
1742641985.503,-1000.0,-1000.0,-249.512,-1000.0
1742641985.507,-983.887,-956.055,-193.848,-983.398
1742641985.511,-973.145,-989.258,-125.977,-973.633
1742641985.515,-1000.0,-1000.0,-109.863,-1000.0
1742641985.519,-1000.0,-972.168,-124.023,-1000.0
1742641985.523,-934.57,-991.211,-127.93,-935.547
1742641985.527,-1000.0,-1000.0,-126.465,-1000.0
1742641985.531,-275.879,202.148,-113.281,-702.148
1742641985.535,999.512,999.512,-101.562,734.375
1742641985.539,884.766,843.262,-104.98,968.262
1742641985.543,999.512,999.512,-125.977,999.512
1742641985.546,518.555,257.812,-193.359,483.398
1742641985.55,-924.805,-1000.0,-175.781,-946.289
1742641985.554,-1000.0,-995.605,-80.078,-1000.0
1742641985.558,-946.777,-972.168,-56.641,-950.195
1742641985.562,-1000.0,-983.887,-101.074,-1000.0
1742641985.519,-1000.0,-972.168,-124.023,-1000.0
1742641985.523,-934.57,-991.211,-127.93,-935.547
1742641985.527,-1000.0,-1000.0,-126.465,-1000.0
1742641985.531,-275.879,202.148,-113.281,-702.148
1742641985.535,999.512,999.512,-101.562,734.375
1742641985.539,884.766,843.262,-104.98,968.262
1742641985.543,999.512,999.512,-125.977,999.512
1742641985.546,518.555,257.812,-193.359,483.398
1742641985.55,-924.805,-1000.0,-175.781,-946.289
1742641985.554,-1000.0,-995.605,-80.078,-1000.0
1742641985.558,-946.777,-972.168,-56.641,-950.195
1742641985.562,-1000.0,-983.887,-101.074,-1000.0
1742641985.564,-1000.0,-983.398,-116.211,-1000.0
1742641985.568,-1000.0,-1000.0,-91.309,-1000.0
1742641985.572,-1000.0,145.996,-77.637,-1000.0
1742641985.576,-1000.0,999.512,-80.078,-1000.0
1742641985.58,-1000.0,858.887,-90.332,-1000.0
1742641985.584,-1000.0,999.512,-68.359,-1000.0
1742641985.588,-1000.0,790.039,-90.332,-1000.0
1742641985.591,-1000.0,-610.84,-122.559,-1000.0
1742641985.595,-1000.0,-1000.0,-82.031,-1000.0
1742641985.599,-1000.0,-936.523,-46.387,-1000.0
1742641985.603,-933.594,-949.219,-37.109,-928.223
1742641985.607,-1000.0,-1000.0,-74.219,-1000.0
1742641985.564,-1000.0,-983.398,-116.211,-1000.0
1742641985.568,-1000.0,-1000.0,-91.309,-1000.0
1742641985.572,-1000.0,145.996,-77.637,-1000.0
1742641985.576,-1000.0,999.512,-80.078,-1000.0
1742641985.58,-1000.0,858.887,-90.332,-1000.0
1742641985.584,-1000.0,999.512,-68.359,-1000.0
1742641985.588,-1000.0,790.039,-90.332,-1000.0
1742641985.591,-1000.0,-610.84,-122.559,-1000.0
1742641985.595,-1000.0,-1000.0,-82.031,-1000.0
1742641985.599,-1000.0,-936.523,-46.387,-1000.0
1742641985.603,-933.594,-949.219,-37.109,-928.223
1742641985.607,-1000.0,-1000.0,-74.219,-1000.0
1742641985.611,-283.691,-224.121,-28.809,-416.016
1742641985.615,999.512,999.512,17.09,959.961
1742641985.619,959.961,951.66,-59.082,984.375
1742641985.623,934.082,943.848,-104.004,924.316
1742641985.627,975.586,953.613,-79.102,979.492
1742641985.631,903.32,940.43,-39.062,904.785
1742641985.635,999.512,999.512,-37.598,999.512
1742641985.638,187.012,-128.906,-110.352,181.152
1742641985.642,-1000.0,-1000.0,-156.25,-1000.0
1742641985.646,-983.887,-948.242,-102.539,-982.91
1742641985.65,-973.145,-994.629,-64.941,-973.633
1742641985.654,-1000.0,-1000.0,-53.223,-1000.0
1742641985.668,-1000.0,-938.965,-46.387,-1000.0
1742641985.672,-929.199,-1000.0,-53.223,-937.5
1742641985.676,-1000.0,-203.613,-73.73,-1000.0
1742641985.68,-618.164,999.512,-81.055,-713.379
1742641985.684,834.473,949.219,-33.691,712.891
1742641985.688,950.195,878.418,-47.363,971.68
1742641985.692,999.512,999.512,-110.84,999.512
1742641985.695,506.836,187.5,-165.527,461.426
1742641985.699,-935.547,-1000.0,-152.344,-955.566
1742641985.703,-1000.0,-983.887,-97.656,-1000.0
1742641985.707,-948.73,-976.074,-67.383,-952.148
1742641985.711,-1000.0,-992.676,-88.379,-1000.0
1742641985.668,-1000.0,-938.965,-46.387,-1000.0
1742641985.672,-929.199,-1000.0,-53.223,-937.5
1742641985.676,-1000.0,-203.613,-73.73,-1000.0
1742641985.68,-618.164,999.512,-81.055,-713.379
1742641985.684,834.473,949.219,-33.691,712.891
1742641985.688,950.195,878.418,-47.363,971.68
1742641985.692,999.512,999.512,-110.84,999.512
1742641985.695,506.836,187.5,-165.527,461.426
1742641985.699,-935.547,-1000.0,-152.344,-955.566
1742641985.703,-1000.0,-983.887,-97.656,-1000.0
1742641985.707,-948.73,-976.074,-67.383,-952.148
1742641985.711,-1000.0,-992.676,-88.379,-1000.0
1742641985.714,-937.5,-963.379,-115.234,-937.5
1742641985.718,-1000.0,-1000.0,-83.984,-1000.0
1742641985.722,-221.191,2.93,-29.785,-220.703
1742641985.726,999.512,999.512,-24.902,999.512
1742641985.73,950.195,939.941,-59.082,950.684
1742641985.734,939.453,893.555,-34.668,939.941
1742641985.738,973.633,999.512,4.395,973.633
1742641985.741,903.809,718.262,-8.301,905.762
1742641985.745,999.512,-696.289,-56.152,999.512
1742641985.749,187.012,-1000.0,-87.402,172.852
1742641985.753,-1000.0,-937.988,-47.852,-1000.0
1742641985.757,-984.375,-1000.0,9.766,-982.91
1742641985.714,-937.5,-963.379,-115.234,-937.5
1742641985.718,-1000.0,-1000.0,-83.984,-1000.0
1742641985.722,-221.191,2.93,-29.785,-220.703
1742641985.726,999.512,999.512,-24.902,999.512
1742641985.73,950.195,939.941,-59.082,950.684
1742641985.734,939.453,893.555,-34.668,939.941
1742641985.738,973.633,999.512,4.395,973.633
1742641985.741,903.809,718.262,-8.301,905.762
1742641985.745,999.512,-696.289,-56.152,999.512
1742641985.749,187.012,-1000.0,-87.402,172.852
1742641985.753,-1000.0,-937.988,-47.852,-1000.0
1742641985.757,-984.375,-1000.0,9.766,-982.91
1742641985.758,-972.168,-930.176,17.578,-970.215
1742641985.762,-946.777,-1000.0,18.066,-951.172
1742641985.766,-1000.0,-573.73,-6.836,-1000.0
1742641985.77,-189.941,844.727,-15.137,-148.438
1742641985.774,999.512,999.512,-14.16,999.512
1742641985.778,945.312,848.633,-40.527,941.895
1742641985.782,941.406,999.512,-43.945,944.824
1742641985.785,972.168,204.59,-60.059,972.168
1742641985.789,966.309,-1000.0,-55.664,967.285
1742641985.793,966.309,-1000.0,-41.016,967.285
1742641985.797,966.309,-858.398,-25.391,967.285
1742641985.801,966.309,463.867,-2.93,966.797
1742641985.758,-972.168,-930.176,17.578,-970.215
1742641985.762,-946.777,-1000.0,18.066,-951.172
1742641985.766,-1000.0,-573.73,-6.836,-1000.0
1742641985.77,-189.941,844.727,-15.137,-148.438
1742641985.774,999.512,999.512,-14.16,999.512
1742641985.778,945.312,848.633,-40.527,941.895
1742641985.782,941.406,999.512,-43.945,944.824
1742641985.785,972.168,204.59,-60.059,972.168
1742641985.789,966.309,-1000.0,-55.664,967.285
1742641985.793,966.309,-1000.0,-41.016,967.285
1742641985.797,966.309,-858.398,-25.391,967.285
1742641985.801,966.309,463.867,-2.93,966.797
1742641985.804,966.309,999.512,-24.414,966.797
1742641985.808,966.309,832.52,-40.527,966.797
1742641985.812,966.309,999.512,-42.48,967.285
1742641985.816,966.309,345.703,-88.867,967.285
1742641985.82,966.309,-1000.0,-76.172,966.797
1742641985.824,966.309,-132.812,-17.578,966.797
1742641985.828,966.309,999.512,-41.504,967.285
1742641985.831,966.309,353.516,-69.336,966.797
1742641985.835,966.309,-928.711,-41.504,966.797
1742641985.839,966.309,-1000.0,-6.348,966.797
1742641985.843,966.309,-242.188,-10.742,966.797
1742641985.847,966.309,999.512,-59.082,967.285
1742641985.804,966.309,999.512,-24.414,966.797
1742641985.808,966.309,832.52,-40.527,966.797
1742641985.812,966.309,999.512,-42.48,967.285
1742641985.816,966.309,345.703,-88.867,967.285
1742641985.82,966.309,-1000.0,-76.172,966.797
1742641985.824,966.309,-132.812,-17.578,966.797
1742641985.828,966.309,999.512,-41.504,967.285
1742641985.831,966.309,353.516,-69.336,966.797
1742641985.835,966.309,-928.711,-41.504,966.797
1742641985.839,966.309,-1000.0,-6.348,966.797
1742641985.843,966.309,-242.188,-10.742,966.797
1742641985.847,966.309,999.512,-59.082,967.285
1742641985.848,966.309,961.426,-105.469,966.797
1742641985.852,966.309,934.57,-112.793,966.797
1742641985.856,966.309,976.562,-68.359,966.797
1742641985.86,966.309,958.008,-1.465,966.797
1742641985.864,966.309,970.703,63.965,966.797
1742641985.868,966.309,897.949,115.234,967.285
1742641985.872,966.309,999.512,125.488,967.285
1742641985.875,966.309,348.145,97.656,966.797
1742641985.879,966.309,-958.496,101.074,967.285
1742641985.883,966.309,-1000.0,144.531,967.285
1742641985.887,966.309,-882.324,147.949,966.797
1742641985.891,966.309,421.875,152.832,966.797
1742641985.896,966.309,999.512,161.133,966.797
1742641985.9,966.309,935.547,144.043,967.285
1742641985.904,966.309,886.23,96.191,966.797
1742641985.908,966.309,-413.086,102.051,966.797
1742641985.912,971.68,-1000.0,149.414,967.285
1742641985.916,941.895,-191.406,151.367,966.797
1742641985.92,948.242,999.512,104.98,966.797
1742641985.923,999.512,303.223,35.645,966.797
1742641985.927,-183.594,-1000.0,36.133,966.797
1742641985.931,-1000.0,-1000.0,147.949,979.004
1742641985.935,-945.801,-961.914,181.641,896.973
1742641985.939,-997.07,-1000.0,180.176,999.512
1742641985.896,966.309,999.512,161.133,966.797
1742641985.9,966.309,935.547,144.043,967.285
1742641985.904,966.309,886.23,96.191,966.797
1742641985.908,966.309,-413.086,102.051,966.797
1742641985.912,971.68,-1000.0,149.414,967.285
1742641985.916,941.895,-191.406,151.367,966.797
1742641985.92,948.242,999.512,104.98,966.797
1742641985.923,999.512,303.223,35.645,966.797
1742641985.927,-183.594,-1000.0,36.133,966.797
1742641985.931,-1000.0,-1000.0,147.949,979.004
1742641985.935,-945.801,-961.914,181.641,896.973
1742641985.939,-997.07,-1000.0,180.176,999.512
1742641985.938,-1000.0,-1000.0,208.008,501.465
1742641985.942,-1000.0,-933.105,190.918,-901.855
1742641985.946,-1000.0,-1000.0,178.223,-1000.0
1742641985.95,-1000.0,-642.578,135.742,-949.219
1742641985.954,-1000.0,720.703,17.578,-1000.0
1742641985.958,-1000.0,999.512,-182.129,-1000.0
1742641985.962,-1000.0,809.082,37.598,-1000.0
1742641985.965,-1000.0,-487.305,464.844,-1000.0
1742641985.969,-1000.0,-1000.0,591.309,-1000.0
1742641985.973,-1000.0,-941.406,610.84,-1000.0
1742641985.977,-1000.0,-940.43,586.426,-1000.0
1742641985.981,-1000.0,-1000.0,595.215,-1000.0
1742641985.938,-1000.0,-1000.0,208.008,501.465
1742641985.942,-1000.0,-933.105,190.918,-901.855
1742641985.946,-1000.0,-1000.0,178.223,-1000.0
1742641985.95,-1000.0,-642.578,135.742,-949.219
1742641985.954,-1000.0,720.703,17.578,-1000.0
1742641985.958,-1000.0,999.512,-182.129,-1000.0
1742641985.962,-1000.0,809.082,37.598,-1000.0
1742641985.965,-1000.0,-487.305,464.844,-1000.0
1742641985.969,-1000.0,-1000.0,591.309,-1000.0
1742641985.973,-1000.0,-941.406,610.84,-1000.0
1742641985.977,-1000.0,-940.43,586.426,-1000.0
1742641985.981,-1000.0,-1000.0,595.215,-1000.0
1742641985.984,-1000.0,-343.75,611.816,-1000.0
1742641985.988,-1000.0,990.234,590.82,-1000.0
1742641985.992,-995.117,972.168,546.387,-1000.0
1742641985.996,-954.59,930.176,499.512,-943.848
1742641986.0,-1000.0,977.539,482.91,-1000.0
1742641986.004,-156.25,967.285,516.602,-458.008
1742641986.008,999.512,967.285,479.004,875.0
1742641986.011,954.102,966.797,384.766,999.512
1742641986.015,954.59,979.004,262.695,932.129
1742641986.019,910.645,894.043,43.457,918.945
1742641986.023,999.512,999.512,-105.957,999.512
1742641986.027,726.562,443.359,-345.703,723.633
1742641985.984,-1000.0,-343.75,611.816,-1000.0
1742641985.988,-1000.0,990.234,590.82,-1000.0
1742641985.992,-995.117,972.168,546.387,-1000.0
1742641985.996,-954.59,930.176,499.512,-943.848
1742641986.0,-1000.0,977.539,482.91,-1000.0
1742641986.004,-156.25,967.285,516.602,-458.008
1742641986.008,999.512,967.285,479.004,875.0
1742641986.011,954.102,966.797,384.766,999.512
1742641986.015,954.59,979.004,262.695,932.129
1742641986.019,910.645,894.043,43.457,918.945
1742641986.023,999.512,999.512,-105.957,999.512
1742641986.027,726.562,443.359,-345.703,723.633
1742641985.984,-1000.0,-343.75,611.816,-1000.0
1742641985.988,-1000.0,990.234,590.82,-1000.0
1742641985.992,-995.117,972.168,546.387,-1000.0
1742641985.996,-954.59,930.176,499.512,-943.848
1742641986.0,-1000.0,977.539,482.91,-1000.0
1742641986.004,-156.25,967.285,516.602,-458.008
1742641986.008,999.512,967.285,479.004,875.0
1742641986.011,954.102,966.797,384.766,999.512
1742641986.015,954.59,979.004,262.695,932.129
1742641986.019,910.645,894.043,43.457,918.945
1742641986.023,999.512,999.512,-105.957,999.512
1742641986.027,726.562,443.359,-345.703,723.633
1742641986.043,-705.566,-964.355,-517.09,-702.148
1742641986.047,-1000.0,-1000.0,-523.438,-1000.0
1742641986.051,-936.035,-931.152,-562.5,-936.523
1742641986.055,-1000.0,-1000.0,-526.367,-1000.0
1742641986.059,-1000.0,131.836,-457.52,-1000.0
1742641986.063,-1000.0,999.512,-442.383,-1000.0
1742641986.067,-1000.0,999.512,-452.148,-1000.0
1742641986.07,-1000.0,16.602,-456.055,-1000.0
1742641986.074,-1000.0,-1000.0,-387.207,-1000.0
1742641986.078,-937.012,-902.344,-350.586,-930.176
1742641986.082,-1000.0,-1000.0,-366.699,-1000.0
1742641986.086,-233.398,-211.914,-290.039,-363.281
1742641986.043,-705.566,-964.355,-517.09,-702.148
1742641986.047,-1000.0,-1000.0,-523.438,-1000.0
1742641986.051,-936.035,-931.152,-562.5,-936.523
1742641986.055,-1000.0,-1000.0,-526.367,-1000.0
1742641986.059,-1000.0,131.836,-457.52,-1000.0
1742641986.063,-1000.0,999.512,-442.383,-1000.0
1742641986.067,-1000.0,999.512,-452.148,-1000.0
1742641986.07,-1000.0,16.602,-456.055,-1000.0
1742641986.074,-1000.0,-1000.0,-387.207,-1000.0
1742641986.078,-937.012,-902.344,-350.586,-930.176
1742641986.082,-1000.0,-1000.0,-366.699,-1000.0
1742641986.086,-233.398,-211.914,-290.039,-363.281
1742641986.103,999.512,999.512,-235.84,983.398
1742641986.107,952.148,949.219,-243.164,975.098
1742641986.111,937.988,940.918,-235.84,928.223
1742641986.115,978.516,983.887,-216.797,982.422
1742641986.119,944.824,924.805,-221.191,944.824
1742641986.123,939.453,990.234,-220.703,942.383
1742641986.127,999.512,916.504,-217.773,999.512
1742641986.13,-148.438,-423.828,-219.727,-150.879
1742641986.134,-1000.0,-1000.0,-154.785,-1000.0
1742641986.138,-943.848,-880.371,-97.656,-945.312
1742641986.142,-996.582,-1000.0,-107.91,-996.094
1742641986.146,-1000.0,-140.137,-105.469,-1000.0
1742641986.103,999.512,999.512,-235.84,983.398
1742641986.107,952.148,949.219,-243.164,975.098
1742641986.111,937.988,940.918,-235.84,928.223
1742641986.115,978.516,983.887,-216.797,982.422
1742641986.119,944.824,924.805,-221.191,944.824
1742641986.123,939.453,990.234,-220.703,942.383
1742641986.127,999.512,916.504,-217.773,999.512
1742641986.13,-148.438,-423.828,-219.727,-150.879
1742641986.134,-1000.0,-1000.0,-154.785,-1000.0
1742641986.138,-943.848,-880.371,-97.656,-945.312
1742641986.142,-996.582,-1000.0,-107.91,-996.094
1742641986.146,-1000.0,-140.137,-105.469,-1000.0
1742641986.133,-1000.0,999.512,-95.703,-1000.0
1742641986.137,-1000.0,868.164,-91.309,-1000.0
1742641986.141,-1000.0,999.512,-83.984,-1000.0
1742641986.145,-937.5,540.039,-58.105,-938.477
1742641986.149,-1000.0,-1000.0,-36.621,-1000.0
1742641986.153,-220.703,-141.113,34.18,-210.449
1742641986.157,999.512,999.512,76.172,999.512
1742641986.16,950.195,921.875,55.664,949.219
1742641986.164,938.965,948.73,28.809,940.43
1742641986.168,973.145,971.191,20.996,973.633
1742641986.172,966.309,967.285,58.594,966.797
1742641986.176,966.309,966.797,80.566,966.797
1742641986.133,-1000.0,999.512,-95.703,-1000.0
1742641986.137,-1000.0,868.164,-91.309,-1000.0
1742641986.141,-1000.0,999.512,-83.984,-1000.0
1742641986.145,-937.5,540.039,-58.105,-938.477
1742641986.149,-1000.0,-1000.0,-36.621,-1000.0
1742641986.153,-220.703,-141.113,34.18,-210.449
1742641986.157,999.512,999.512,76.172,999.512
1742641986.16,950.195,921.875,55.664,949.219
1742641986.164,938.965,948.73,28.809,940.43
1742641986.168,973.145,971.191,20.996,973.633
1742641986.172,966.309,967.285,58.594,966.797
1742641986.176,966.309,966.797,80.566,966.797
1742641986.196,966.309,967.285,102.051,966.797
1742641986.2,966.309,967.285,116.699,966.797
1742641986.204,966.309,967.285,99.121,966.797
1742641986.208,966.309,967.285,52.734,967.285
1742641986.212,966.309,967.285,58.105,966.797
1742641986.216,966.309,967.285,50.293,966.797
1742641986.22,966.309,967.285,35.645,966.797
1742641986.223,966.309,967.285,16.602,966.797
1742641986.227,966.309,967.285,30.273,966.797
1742641986.231,966.309,967.285,112.793,966.797
1742641986.235,966.309,967.285,149.902,967.285
1742641986.239,966.309,967.285,98.145,967.285
1742641986.196,966.309,967.285,102.051,966.797
1742641986.2,966.309,967.285,116.699,966.797
1742641986.204,966.309,967.285,99.121,966.797
1742641986.208,966.309,967.285,52.734,967.285
1742641986.212,966.309,967.285,58.105,966.797
1742641986.216,966.309,967.285,50.293,966.797
1742641986.22,966.309,967.285,35.645,966.797
1742641986.223,966.309,967.285,16.602,966.797
1742641986.227,966.309,967.285,30.273,966.797
1742641986.231,966.309,967.285,112.793,966.797
1742641986.235,966.309,967.285,149.902,967.285
1742641986.239,966.309,967.285,98.145,967.285
1742641986.222,966.309,967.285,81.543,967.285
1742641986.226,966.309,967.285,99.609,967.285
1742641986.23,966.309,967.285,-32.227,966.797
1742641986.234,966.309,967.285,-280.762,966.797
1742641986.238,966.309,966.797,-515.625,967.285
1742641986.242,966.309,967.285,-781.25,967.285
1742641986.246,966.309,967.285,-913.086,966.797
1742641986.249,966.309,967.285,-876.953,966.797
1742641986.253,966.309,967.285,-838.867,967.285
1742641986.257,966.309,967.285,-829.59,967.285
1742641986.261,966.309,966.797,-780.762,966.797
1742641986.265,966.309,967.285,-732.91,966.797
1742641986.222,966.309,967.285,81.543,967.285
1742641986.226,966.309,967.285,99.609,967.285
1742641986.23,966.309,967.285,-32.227,966.797
1742641986.234,966.309,967.285,-280.762,966.797
1742641986.238,966.309,966.797,-515.625,967.285
1742641986.242,966.309,967.285,-781.25,967.285
1742641986.246,966.309,967.285,-913.086,966.797
1742641986.249,966.309,967.285,-876.953,966.797
1742641986.253,966.309,967.285,-838.867,967.285
1742641986.257,966.309,967.285,-829.59,967.285
1742641986.261,966.309,966.797,-780.762,966.797
1742641986.265,966.309,967.285,-732.91,966.797
1742641986.222,966.309,967.285,81.543,967.285
1742641986.226,966.309,967.285,99.609,967.285
1742641986.23,966.309,967.285,-32.227,966.797
1742641986.234,966.309,967.285,-280.762,966.797
1742641986.238,966.309,966.797,-515.625,967.285
1742641986.242,966.309,967.285,-781.25,967.285
1742641986.246,966.309,967.285,-913.086,966.797
1742641986.249,966.309,967.285,-876.953,966.797
1742641986.253,966.309,967.285,-838.867,967.285
1742641986.257,966.309,967.285,-829.59,967.285
1742641986.261,966.309,966.797,-780.762,966.797
1742641986.265,966.309,967.285,-732.91,966.797
1742641986.269,966.309,966.797,-694.824,966.797
1742641986.273,966.309,966.797,-630.371,967.285
1742641986.277,966.309,967.285,-596.191,967.285
1742641986.281,966.309,967.285,-530.273,967.285
1742641986.285,966.309,967.285,-418.945,966.797
1742641986.289,966.309,967.285,-375.488,966.797
1742641986.293,966.309,966.797,-278.32,966.797
1742641986.296,966.309,966.797,29.297,966.797
1742641986.3,966.309,979.492,236.816,967.285
1742641986.304,966.309,895.02,281.738,967.285
1742641986.308,965.82,999.512,351.562,966.797
1742641986.312,966.309,485.352,341.309,967.285
1742641986.269,966.309,966.797,-694.824,966.797
1742641986.273,966.309,966.797,-630.371,967.285
1742641986.277,966.309,967.285,-596.191,967.285
1742641986.281,966.309,967.285,-530.273,967.285
1742641986.285,966.309,967.285,-418.945,966.797
1742641986.289,966.309,967.285,-375.488,966.797
1742641986.293,966.309,966.797,-278.32,966.797
1742641986.296,966.309,966.797,29.297,966.797
1742641986.3,966.309,979.492,236.816,967.285
1742641986.304,966.309,895.02,281.738,967.285
1742641986.308,965.82,999.512,351.562,966.797
1742641986.312,966.309,485.352,341.309,967.285
1742641986.313,966.309,-925.293,277.344,967.285
1742641986.317,966.309,-1000.0,97.656,967.285
1742641986.321,966.309,-876.953,-270.508,967.285
1742641986.325,966.309,-1000.0,-531.738,967.285
1742641986.329,966.309,-452.148,-568.359,966.797
1742641986.333,966.309,859.375,-534.18,966.797
1742641986.337,966.309,999.512,-528.809,966.797
1742641986.34,966.309,411.621,-323.242,967.285
1742641986.344,966.309,-928.711,119.141,967.285
1742641986.348,966.309,-1000.0,327.148,967.285
1742641986.352,966.309,-951.66,299.805,966.797
1742641986.356,966.309,-1000.0,260.254,966.797
1742641986.313,966.309,-925.293,277.344,967.285
1742641986.317,966.309,-1000.0,97.656,967.285
1742641986.321,966.309,-876.953,-270.508,967.285
1742641986.325,966.309,-1000.0,-531.738,967.285
1742641986.329,966.309,-452.148,-568.359,966.797
1742641986.333,966.309,859.375,-534.18,966.797
1742641986.337,966.309,999.512,-528.809,966.797
1742641986.34,966.309,411.621,-323.242,967.285
1742641986.344,966.309,-928.711,119.141,967.285
1742641986.348,966.309,-1000.0,327.148,967.285
1742641986.352,966.309,-951.66,299.805,966.797
1742641986.356,966.309,-1000.0,260.254,966.797
1742641986.359,966.309,-1000.0,230.469,966.797
1742641986.363,973.633,-1000.0,191.895,966.797
1742641986.367,936.035,-1000.0,141.113,967.285
1742641986.371,960.938,-1000.0,-20.508,967.285
1742641986.375,996.094,-1000.0,-484.375,966.797
1742641986.379,-262.695,-1000.0,-835.449,978.516
1742641986.383,-1000.0,-1000.0,-851.074,895.508
1742641986.386,-940.918,-1000.0,-840.332,999.512
1742641986.39,-1000.0,-1000.0,-792.48,448.73
1742641986.394,-1000.0,-1000.0,-719.238,-946.777
1742641986.398,-1000.0,-1000.0,-689.941,-1000.0
1742641986.402,-1000.0,-1000.0,-636.23,-952.148
1742641986.359,966.309,-1000.0,230.469,966.797
1742641986.363,973.633,-1000.0,191.895,966.797
1742641986.367,936.035,-1000.0,141.113,967.285
1742641986.371,960.938,-1000.0,-20.508,967.285
1742641986.375,996.094,-1000.0,-484.375,966.797
1742641986.379,-262.695,-1000.0,-835.449,978.516
1742641986.383,-1000.0,-1000.0,-851.074,895.508
1742641986.386,-940.918,-1000.0,-840.332,999.512
1742641986.39,-1000.0,-1000.0,-792.48,448.73
1742641986.394,-1000.0,-1000.0,-719.238,-946.777
1742641986.398,-1000.0,-1000.0,-689.941,-1000.0
1742641986.402,-1000.0,-1000.0,-636.23,-952.148
1742641986.418,-1000.0,-1000.0,-606.445,-1000.0
1742641986.422,-1000.0,-1000.0,-577.148,-1000.0
1742641986.426,-1000.0,-1000.0,-612.305,-1000.0
1742641986.43,-1000.0,-1000.0,-426.758,-1000.0
1742641986.434,-1000.0,-1000.0,173.34,-1000.0
1742641986.438,-1000.0,-1000.0,470.703,-1000.0
1742641986.442,-1000.0,-1000.0,493.164,-1000.0
1742641986.445,-1000.0,-1000.0,507.812,-1000.0
1742641986.449,-1000.0,-1000.0,499.512,-1000.0
1742641986.453,-1000.0,-1000.0,512.207,-1000.0
1742641986.457,-1000.0,-1000.0,559.082,-1000.0
1742641986.461,-1000.0,-953.613,595.703,-1000.0
1742641986.418,-1000.0,-1000.0,-606.445,-1000.0
1742641986.422,-1000.0,-1000.0,-577.148,-1000.0
1742641986.426,-1000.0,-1000.0,-612.305,-1000.0
1742641986.43,-1000.0,-1000.0,-426.758,-1000.0
1742641986.434,-1000.0,-1000.0,173.34,-1000.0
1742641986.438,-1000.0,-1000.0,470.703,-1000.0
1742641986.442,-1000.0,-1000.0,493.164,-1000.0
1742641986.445,-1000.0,-1000.0,507.812,-1000.0
1742641986.449,-1000.0,-1000.0,499.512,-1000.0
1742641986.453,-1000.0,-1000.0,512.207,-1000.0
1742641986.457,-1000.0,-1000.0,559.082,-1000.0
1742641986.461,-1000.0,-953.613,595.703,-1000.0
1742641986.466,-1000.0,-1000.0,579.59,-1000.0
1742641986.47,-1000.0,-905.273,581.055,-1000.0
1742641986.474,-1000.0,449.219,594.727,-1000.0
1742641986.478,-1000.0,999.512,584.473,-1000.0
1742641986.482,-1000.0,834.961,608.887,-1000.0
1742641986.486,-1000.0,999.512,612.793,-1000.0
1742641986.49,-1000.0,287.109,539.551,-1000.0
1742641986.493,-1000.0,-1000.0,541.016,-1000.0
1742641986.497,-1000.0,-1000.0,585.449,-1000.0
1742641986.501,-1000.0,-964.844,559.082,-1000.0
1742641986.505,-1000.0,-1000.0,502.441,-1000.0
1742641986.509,-1000.0,-1000.0,411.133,-1000.0
1742641986.466,-1000.0,-1000.0,579.59,-1000.0
1742641986.47,-1000.0,-905.273,581.055,-1000.0
1742641986.474,-1000.0,449.219,594.727,-1000.0
1742641986.478,-1000.0,999.512,584.473,-1000.0
1742641986.482,-1000.0,834.961,608.887,-1000.0
1742641986.486,-1000.0,999.512,612.793,-1000.0
1742641986.49,-1000.0,287.109,539.551,-1000.0
1742641986.493,-1000.0,-1000.0,541.016,-1000.0
1742641986.497,-1000.0,-1000.0,585.449,-1000.0
1742641986.501,-1000.0,-964.844,559.082,-1000.0
1742641986.505,-1000.0,-1000.0,502.441,-1000.0
1742641986.509,-1000.0,-1000.0,411.133,-1000.0
1742641986.508,-1000.0,-1000.0,348.633,-1000.0
1742641986.512,-1000.0,-1000.0,342.773,-1000.0
1742641986.516,-1000.0,-1000.0,309.57,-1000.0
1742641986.52,-1000.0,-1000.0,304.199,-1000.0
1742641986.524,-1000.0,-1000.0,298.828,-1000.0
1742641986.528,-1000.0,-1000.0,229.98,-1000.0
1742641986.532,-1000.0,-1000.0,220.703,-1000.0
1742641986.535,-1000.0,-1000.0,216.309,-1000.0
1742641986.539,-1000.0,-1000.0,117.676,-1000.0
1742641986.543,-1000.0,-1000.0,-31.25,-1000.0
1742641986.547,-1000.0,-1000.0,-208.008,-1000.0
1742641986.551,-1000.0,-1000.0,-216.797,-1000.0
1742641986.508,-1000.0,-1000.0,348.633,-1000.0
1742641986.512,-1000.0,-1000.0,342.773,-1000.0
1742641986.516,-1000.0,-1000.0,309.57,-1000.0
1742641986.52,-1000.0,-1000.0,304.199,-1000.0
1742641986.524,-1000.0,-1000.0,298.828,-1000.0
1742641986.528,-1000.0,-1000.0,229.98,-1000.0
1742641986.532,-1000.0,-1000.0,220.703,-1000.0
1742641986.535,-1000.0,-1000.0,216.309,-1000.0
1742641986.539,-1000.0,-1000.0,117.676,-1000.0
1742641986.543,-1000.0,-1000.0,-31.25,-1000.0
1742641986.547,-1000.0,-1000.0,-208.008,-1000.0
1742641986.551,-1000.0,-1000.0,-216.797,-1000.0
1742641986.554,-1000.0,-1000.0,88.379,-1000.0
1742641986.558,-1000.0,-938.477,261.719,-1000.0
1742641986.562,-1000.0,-1000.0,244.141,-1000.0
1742641986.566,-1000.0,-208.984,290.039,-1000.0
1742641986.57,-1000.0,999.512,338.867,-1000.0
1742641986.574,-1000.0,949.219,354.98,-1000.0
1742641986.578,-954.59,940.918,362.305,-1000.0
1742641986.581,-1000.0,973.633,420.41,-982.422
1742641986.585,-928.711,967.285,479.492,-967.773
1742641986.589,430.176,967.285,512.207,-1000.0
1742641986.593,999.512,967.285,520.508,62.5
1742641986.597,900.391,967.285,516.113,999.512
1742641986.554,-1000.0,-1000.0,88.379,-1000.0
1742641986.558,-1000.0,-938.477,261.719,-1000.0
1742641986.562,-1000.0,-1000.0,244.141,-1000.0
1742641986.566,-1000.0,-208.984,290.039,-1000.0
1742641986.57,-1000.0,999.512,338.867,-1000.0
1742641986.574,-1000.0,949.219,354.98,-1000.0
1742641986.578,-954.59,940.918,362.305,-1000.0
1742641986.581,-1000.0,973.633,420.41,-982.422
1742641986.585,-928.711,967.285,479.492,-967.773
1742641986.589,430.176,967.285,512.207,-1000.0
1742641986.593,999.512,967.285,520.508,62.5
1742641986.597,900.391,967.285,516.113,999.512
1742641986.613,974.609,967.285,516.113,916.504
1742641986.617,966.309,966.797,487.305,959.961
1742641986.621,966.309,966.797,453.613,968.262
1742641986.625,966.309,967.285,423.34,966.797
1742641986.629,966.309,967.285,447.266,967.285
1742641986.633,966.309,967.285,482.91,967.285
1742641986.637,966.309,967.285,477.051,967.285
1742641986.64,966.309,966.797,468.262,966.797
1742641986.644,966.309,966.797,414.062,966.797
1742641986.648,966.309,967.285,333.496,967.285
1742641986.652,966.309,967.285,263.672,966.797
1742641986.656,966.309,975.586,186.523,966.797
1742641986.644,966.309,896.484,139.16,966.797
1742641986.648,966.309,999.512,95.215,967.285
1742641986.652,966.309,352.539,48.828,967.285
1742641986.656,980.957,-1000.0,13.672,967.285
1742641986.66,897.461,-1000.0,-22.949,976.562
1742641986.664,999.512,-959.473,-47.363,927.246
1742641986.668,630.859,-1000.0,-75.684,982.91
1742641986.671,-804.688,-1000.0,-121.094,935.547
1742641986.675,-1000.0,-1000.0,-133.789,-385.254
1742641986.679,-940.43,-1000.0,-160.156,-1000.0
1742641986.683,-1000.0,-1000.0,-177.246,-936.523
1742641986.687,-1000.0,-1000.0,-151.367,-1000.0
1742641986.644,966.309,896.484,139.16,966.797
1742641986.648,966.309,999.512,95.215,967.285
1742641986.652,966.309,352.539,48.828,967.285
1742641986.656,980.957,-1000.0,13.672,967.285
1742641986.66,897.461,-1000.0,-22.949,976.562
1742641986.664,999.512,-959.473,-47.363,927.246
1742641986.668,630.859,-1000.0,-75.684,982.91
1742641986.671,-804.688,-1000.0,-121.094,935.547
1742641986.675,-1000.0,-1000.0,-133.789,-385.254
1742641986.679,-940.43,-1000.0,-160.156,-1000.0
1742641986.683,-1000.0,-1000.0,-177.246,-936.523
1742641986.687,-1000.0,-1000.0,-151.367,-1000.0
1742641986.689,-1000.0,-1000.0,-181.641,-1000.0
1742641986.693,-1000.0,-1000.0,-230.469,-1000.0
1742641986.697,-1000.0,-1000.0,-251.953,-1000.0
1742641986.701,-1000.0,-1000.0,-253.906,-1000.0
1742641986.705,-1000.0,-1000.0,-209.473,-1000.0
1742641986.709,-1000.0,-1000.0,-158.691,-1000.0
1742641986.713,-1000.0,-1000.0,-127.93,-1000.0
1742641986.716,-1000.0,-1000.0,-98.145,-1000.0
1742641986.72,-1000.0,-1000.0,-47.363,-1000.0
1742641986.724,-1000.0,-1000.0,-16.602,-1000.0
1742641986.728,-1000.0,-1000.0,-13.672,-1000.0
1742641986.732,-1000.0,-1000.0,3.418,-1000.0
1742641986.689,-1000.0,-1000.0,-181.641,-1000.0
1742641986.693,-1000.0,-1000.0,-230.469,-1000.0
1742641986.697,-1000.0,-1000.0,-251.953,-1000.0
1742641986.701,-1000.0,-1000.0,-253.906,-1000.0
1742641986.705,-1000.0,-1000.0,-209.473,-1000.0
1742641986.709,-1000.0,-1000.0,-158.691,-1000.0
1742641986.713,-1000.0,-1000.0,-127.93,-1000.0
1742641986.716,-1000.0,-1000.0,-98.145,-1000.0
1742641986.72,-1000.0,-1000.0,-47.363,-1000.0
1742641986.724,-1000.0,-1000.0,-16.602,-1000.0
1742641986.728,-1000.0,-1000.0,-13.672,-1000.0
1742641986.732,-1000.0,-1000.0,3.418,-1000.0
1742641986.748,-1000.0,-1000.0,-9.766,-1000.0
1742641986.752,-1000.0,-1000.0,-36.621,-1000.0
1742641986.756,-1000.0,-1000.0,2.441,-1000.0
1742641986.76,-1000.0,-1000.0,4.395,-1000.0
1742641986.764,-1000.0,-1000.0,-21.973,-1000.0
1742641986.768,-1000.0,-1000.0,28.32,-1000.0
1742641986.772,-1000.0,-1000.0,50.781,-1000.0
1742641986.775,-1000.0,-1000.0,60.547,-1000.0
1742641986.779,-1000.0,-1000.0,47.363,-1000.0
1742641986.783,-1000.0,-1000.0,0.488,-1000.0
1742641986.787,-1000.0,-980.469,-5.859,-1000.0
1742641986.791,-1000.0,-973.633,-10.254,-1000.0
1742641986.748,-1000.0,-1000.0,-9.766,-1000.0
1742641986.752,-1000.0,-1000.0,-36.621,-1000.0
1742641986.756,-1000.0,-1000.0,2.441,-1000.0
1742641986.76,-1000.0,-1000.0,4.395,-1000.0
1742641986.764,-1000.0,-1000.0,-21.973,-1000.0
1742641986.768,-1000.0,-1000.0,28.32,-1000.0
1742641986.772,-1000.0,-1000.0,50.781,-1000.0
1742641986.775,-1000.0,-1000.0,60.547,-1000.0
1742641986.779,-1000.0,-1000.0,47.363,-1000.0
1742641986.783,-1000.0,-1000.0,0.488,-1000.0
1742641986.787,-1000.0,-980.469,-5.859,-1000.0
1742641986.791,-1000.0,-973.633,-10.254,-1000.0
1742641986.807,-1000.0,-1000.0,-7.812,-1000.0
1742641986.811,-1000.0,86.426,23.926,-1000.0
1742641986.815,-1000.0,999.512,48.34,-1000.0
1742641986.819,-1000.0,917.969,88.867,-1000.0
1742641986.823,-1000.0,960.449,111.328,-1000.0
1742641986.827,-1000.0,969.238,80.566,-1000.0
1742641986.831,-1000.0,967.285,66.406,-1000.0
1742641986.834,-1000.0,967.285,33.691,-1000.0
1742641986.838,-1000.0,967.285,30.273,-1000.0
1742641986.842,-1000.0,967.285,27.832,-1000.0
1742641986.846,-1000.0,967.285,-15.137,-1000.0
1742641986.85,-1000.0,967.285,19.043,-1000.0
1742641986.807,-1000.0,-1000.0,-7.812,-1000.0
1742641986.811,-1000.0,86.426,23.926,-1000.0
1742641986.815,-1000.0,999.512,48.34,-1000.0
1742641986.819,-1000.0,917.969,88.867,-1000.0
1742641986.823,-1000.0,960.449,111.328,-1000.0
1742641986.827,-1000.0,969.238,80.566,-1000.0
1742641986.831,-1000.0,967.285,66.406,-1000.0
1742641986.834,-1000.0,967.285,33.691,-1000.0
1742641986.838,-1000.0,967.285,30.273,-1000.0
1742641986.842,-1000.0,967.285,27.832,-1000.0
1742641986.846,-1000.0,967.285,-15.137,-1000.0
1742641986.85,-1000.0,967.285,19.043,-1000.0
1742641986.839,-1000.0,967.285,62.988,-1000.0
1742641986.843,-1000.0,967.285,95.703,-1000.0
1742641986.847,-961.914,967.285,98.145,-1000.0
1742641986.851,-1000.0,967.285,70.801,-1000.0
1742641986.855,-981.445,967.285,81.543,-1000.0
1742641986.859,332.52,967.285,81.543,-1000.0
1742641986.863,999.512,967.285,43.457,-1000.0
1742641986.866,902.832,967.285,35.156,-1000.0
1742641986.87,971.68,967.285,29.297,-929.688
1742641986.874,966.797,967.285,-0.488,-1000.0
1742641986.878,966.309,967.285,9.766,-512.695
1742641986.882,966.309,967.285,40.039,887.695
1742641986.839,-1000.0,967.285,62.988,-1000.0
1742641986.843,-1000.0,967.285,95.703,-1000.0
1742641986.847,-961.914,967.285,98.145,-1000.0
1742641986.851,-1000.0,967.285,70.801,-1000.0
1742641986.855,-981.445,967.285,81.543,-1000.0
1742641986.859,332.52,967.285,81.543,-1000.0
1742641986.863,999.512,967.285,43.457,-1000.0
1742641986.866,902.832,967.285,35.156,-1000.0
1742641986.87,971.68,967.285,29.297,-929.688
1742641986.874,966.797,967.285,-0.488,-1000.0
1742641986.878,966.309,967.285,9.766,-512.695
1742641986.882,966.309,967.285,40.039,887.695
1742641986.839,-1000.0,967.285,62.988,-1000.0
1742641986.843,-1000.0,967.285,95.703,-1000.0
1742641986.847,-961.914,967.285,98.145,-1000.0
1742641986.851,-1000.0,967.285,70.801,-1000.0
1742641986.855,-981.445,967.285,81.543,-1000.0
1742641986.859,332.52,967.285,81.543,-1000.0
1742641986.863,999.512,967.285,43.457,-1000.0
1742641986.866,902.832,967.285,35.156,-1000.0
1742641986.87,971.68,967.285,29.297,-929.688
1742641986.874,966.797,967.285,-0.488,-1000.0
1742641986.878,966.309,967.285,9.766,-512.695
1742641986.882,966.309,967.285,40.039,887.695
1742641986.883,966.309,966.797,1.465,999.512
1742641986.887,966.309,967.285,-28.32,916.992
1742641986.891,966.309,967.285,-17.578,980.469
1742641986.895,966.309,969.727,4.395,967.285
1742641986.899,968.75,955.078,20.508,966.797
1742641986.903,952.148,924.805,-14.648,974.121
1742641986.907,938.965,999.512,-71.777,897.461
1742641986.91,991.211,-8.789,-78.125,999.512
1742641986.914,-59.082,-1000.0,-53.711,331.055
1742641986.918,-1000.0,-960.938,-7.324,-1000.0
1742641986.922,-970.703,-983.887,12.207,-1000.0
1742641986.926,-921.875,-946.289,-9.277,-898.926
1742641986.883,966.309,966.797,1.465,999.512
1742641986.887,966.309,967.285,-28.32,916.992
1742641986.891,966.309,967.285,-17.578,980.469
1742641986.895,966.309,969.727,4.395,967.285
1742641986.899,968.75,955.078,20.508,966.797
1742641986.903,952.148,924.805,-14.648,974.121
1742641986.907,938.965,999.512,-71.777,897.461
1742641986.91,991.211,-8.789,-78.125,999.512
1742641986.914,-59.082,-1000.0,-53.711,331.055
1742641986.918,-1000.0,-960.938,-7.324,-1000.0
1742641986.922,-970.703,-983.887,12.207,-1000.0
1742641986.926,-921.875,-946.289,-9.277,-898.926
1742641986.929,-1000.0,-1000.0,16.602,-1000.0
1742641986.933,-221.191,-159.18,77.637,-219.238
1742641986.937,999.512,999.512,99.609,999.512
1742641986.941,950.195,942.871,89.355,950.195
1742641986.945,953.613,946.289,69.824,948.242
1742641986.949,904.785,908.203,83.496,938.965
1742641986.953,999.512,999.512,113.77,971.191
1742641986.956,620.605,213.379,52.246,972.168
1742641986.96,-809.57,-1000.0,31.25,-319.336
1742641986.964,-1000.0,-953.125,50.781,-1000.0
1742641986.968,-878.906,-976.562,47.363,-876.953
1742641986.972,-1000.0,-1000.0,82.52,-1000.0
1742641986.929,-1000.0,-1000.0,16.602,-1000.0
1742641986.933,-221.191,-159.18,77.637,-219.238
1742641986.937,999.512,999.512,99.609,999.512
1742641986.941,950.195,942.871,89.355,950.195
1742641986.945,953.613,946.289,69.824,948.242
1742641986.949,904.785,908.203,83.496,938.965
1742641986.953,999.512,999.512,113.77,971.191
1742641986.956,620.605,213.379,52.246,972.168
1742641986.96,-809.57,-1000.0,31.25,-319.336
1742641986.964,-1000.0,-953.125,50.781,-1000.0
1742641986.968,-878.906,-976.562,47.363,-876.953
1742641986.972,-1000.0,-1000.0,82.52,-1000.0
1742641986.974,-220.703,293.457,77.148,-200.684
1742641986.978,999.512,999.512,28.809,999.512
1742641986.982,950.195,904.785,4.395,947.754
1742641986.986,938.965,970.703,19.043,940.918
1742641986.99,973.145,972.168,27.344,973.145
1742641986.994,966.309,899.414,19.531,967.285
1742641986.998,966.309,999.512,25.391,966.797
1742641987.001,966.309,340.332,15.625,966.797
1742641987.005,966.309,-1000.0,31.738,967.285
1742641987.009,966.309,-345.215,71.289,967.285
1742641987.013,966.309,999.512,81.055,966.797
1742641987.017,966.309,963.379,66.406,967.285
1742641986.974,-220.703,293.457,77.148,-200.684
1742641986.978,999.512,999.512,28.809,999.512
1742641986.982,950.195,904.785,4.395,947.754
1742641986.986,938.965,970.703,19.043,940.918
1742641986.99,973.145,972.168,27.344,973.145
1742641986.994,966.309,899.414,19.531,967.285
1742641986.998,966.309,999.512,25.391,966.797
1742641987.001,966.309,340.332,15.625,966.797
1742641987.005,966.309,-1000.0,31.738,967.285
1742641987.009,966.309,-345.215,71.289,967.285
1742641987.013,966.309,999.512,81.055,966.797
1742641987.017,966.309,963.379,66.406,967.285
1742641987.021,966.309,929.688,44.922,966.797
1742641987.025,966.309,977.539,42.48,966.797
1742641987.029,966.309,966.797,77.637,967.285
1742641987.033,966.309,966.797,81.543,966.797
1742641987.037,966.309,967.285,96.68,966.797
1742641987.041,966.309,967.285,104.98,966.797
1742641987.045,966.309,967.285,58.105,966.797
1742641987.048,966.309,966.797,68.848,966.797
1742641987.052,966.309,967.285,114.258,966.797
1742641987.056,966.309,967.285,100.586,966.797
1742641987.06,966.309,967.285,91.797,967.285
1742641987.064,966.309,967.285,116.211,966.797
1742641987.021,966.309,929.688,44.922,966.797
1742641987.025,966.309,977.539,42.48,966.797
1742641987.029,966.309,966.797,77.637,967.285
1742641987.033,966.309,966.797,81.543,966.797
1742641987.037,966.309,967.285,96.68,966.797
1742641987.041,966.309,967.285,104.98,966.797
1742641987.045,966.309,967.285,58.105,966.797
1742641987.048,966.309,966.797,68.848,966.797
1742641987.052,966.309,967.285,114.258,966.797
1742641987.056,966.309,967.285,100.586,966.797
1742641987.06,966.309,967.285,91.797,967.285
1742641987.064,966.309,967.285,116.211,966.797
1742641987.063,966.309,967.285,116.699,967.285
1742641987.067,966.309,966.797,103.516,966.797
1742641987.071,966.309,967.285,85.938,967.285
1742641987.075,966.309,967.285,69.824,966.797
1742641987.079,966.309,967.285,43.945,966.797
1742641987.083,966.309,966.797,37.598,966.797
1742641987.087,966.309,980.469,78.125,966.797
1742641987.09,966.309,903.809,67.383,966.797
1742641987.094,966.309,999.512,60.547,966.797
1742641987.098,966.309,681.641,65.918,966.797
1742641987.102,966.309,-735.352,26.367,966.797
1742641987.106,968.262,-1000.0,-4.883,966.797
1742641987.063,966.309,967.285,116.699,967.285
1742641987.067,966.309,966.797,103.516,966.797
1742641987.071,966.309,967.285,85.938,967.285
1742641987.075,966.309,967.285,69.824,966.797
1742641987.079,966.309,967.285,43.945,966.797
1742641987.083,966.309,966.797,37.598,966.797
1742641987.087,966.309,980.469,78.125,966.797
1742641987.09,966.309,903.809,67.383,966.797
1742641987.094,966.309,999.512,60.547,966.797
1742641987.098,966.309,681.641,65.918,966.797
1742641987.102,966.309,-735.352,26.367,966.797
1742641987.106,968.262,-1000.0,-4.883,966.797
1742641987.109,956.543,-939.453,-3.418,966.797
1742641987.113,920.898,-1000.0,17.09,967.285
1742641987.117,999.512,-1000.0,-8.789,966.797
1742641987.121,100.098,-936.523,-23.438,966.797
1742641987.125,-1000.0,-1000.0,-7.812,967.285
1742641987.129,-292.48,-235.84,86.914,966.797
1742641987.133,999.512,999.512,196.777,966.797
1742641987.136,965.82,966.309,173.828,966.797
1742641987.14,918.945,881.348,130.859,979.004
1742641987.144,932.129,999.512,126.465,894.531
1742641987.148,999.512,756.348,116.211,999.512
1742641987.152,-6.348,-642.578,12.695,452.637
1742641987.168,-1000.0,-1000.0,-61.523,-949.707
1742641987.172,-958.984,-937.5,-91.797,-1000.0
1742641987.176,-987.305,-1000.0,-107.91,-951.66
1742641987.18,-1000.0,-1000.0,-64.453,-1000.0
1742641987.184,-1000.0,-1000.0,-4.395,-1000.0
1742641987.188,-1000.0,-1000.0,12.695,-1000.0
1742641987.192,-1000.0,-1000.0,-19.043,-1000.0
1742641987.195,-1000.0,-1000.0,-20.02,-1000.0
1742641987.199,-1000.0,-1000.0,-8.301,-1000.0
1742641987.203,-1000.0,-1000.0,-9.766,-1000.0
1742641987.207,-1000.0,-1000.0,-30.273,-1000.0
1742641987.211,-1000.0,-1000.0,-38.086,-1000.0
1742641987.213,-1000.0,-1000.0,-29.297,-1000.0
1742641987.217,-1000.0,-1000.0,21.973,-1000.0
1742641987.221,-1000.0,-985.84,57.617,-1000.0
1742641987.225,-1000.0,-961.426,19.531,-1000.0
1742641987.229,-1000.0,-1000.0,20.508,-1000.0
1742641987.233,-1000.0,-53.223,60.547,-1000.0
1742641987.237,-1000.0,999.512,73.73,-1000.0
1742641987.24,-1000.0,227.051,24.414,-1000.0
1742641987.244,-1000.0,-1000.0,-6.348,-1000.0
1742641987.248,-1000.0,-974.121,1.953,-1000.0
1742641987.252,-1000.0,-940.43,6.348,-1000.0
1742641987.256,-1000.0,-1000.0,22.949,-1000.0
1742641987.213,-1000.0,-1000.0,-29.297,-1000.0
1742641987.217,-1000.0,-1000.0,21.973,-1000.0
1742641987.221,-1000.0,-985.84,57.617,-1000.0
1742641987.225,-1000.0,-961.426,19.531,-1000.0
1742641987.229,-1000.0,-1000.0,20.508,-1000.0
1742641987.233,-1000.0,-53.223,60.547,-1000.0
1742641987.237,-1000.0,999.512,73.73,-1000.0
1742641987.24,-1000.0,227.051,24.414,-1000.0
1742641987.244,-1000.0,-1000.0,-6.348,-1000.0
1742641987.248,-1000.0,-974.121,1.953,-1000.0
1742641987.252,-1000.0,-940.43,6.348,-1000.0
1742641987.256,-1000.0,-1000.0,22.949,-1000.0
1742641987.258,-1000.0,114.258,38.086,-1000.0
1742641987.262,-1000.0,999.512,14.648,-1000.0
1742641987.266,-1000.0,911.621,-11.23,-1000.0
1742641987.27,-1000.0,964.355,29.297,-1000.0
1742641987.274,-1000.0,963.867,32.715,-1000.0
1742641987.278,-1000.0,911.621,-15.137,-1000.0
1742641987.282,-1000.0,999.512,-42.969,-1000.0
1742641987.285,-1000.0,112.793,-93.75,-1000.0
1742641987.289,-1000.0,-1000.0,-104.004,-1000.0
1742641987.293,-1000.0,-974.121,-166.504,-1000.0
1742641987.297,-1000.0,-990.723,-247.07,-1000.0
1742641987.301,-1000.0,-952.637,-244.141,-1000.0
1742641987.258,-1000.0,114.258,38.086,-1000.0
1742641987.262,-1000.0,999.512,14.648,-1000.0
1742641987.266,-1000.0,911.621,-11.23,-1000.0
1742641987.27,-1000.0,964.355,29.297,-1000.0
1742641987.274,-1000.0,963.867,32.715,-1000.0
1742641987.278,-1000.0,911.621,-15.137,-1000.0
1742641987.282,-1000.0,999.512,-42.969,-1000.0
1742641987.285,-1000.0,112.793,-93.75,-1000.0
1742641987.289,-1000.0,-1000.0,-104.004,-1000.0
1742641987.293,-1000.0,-974.121,-166.504,-1000.0
1742641987.297,-1000.0,-990.723,-247.07,-1000.0
1742641987.301,-1000.0,-952.637,-244.141,-1000.0
1742641987.304,-1000.0,-1000.0,-180.176,-1000.0
1742641987.308,-1000.0,-841.797,-141.602,-1000.0
1742641987.312,-1000.0,538.574,-128.418,-1000.0
1742641987.316,-1000.0,999.512,-148.926,-1000.0
1742641987.32,-1000.0,887.207,-157.715,-1000.0
1742641987.324,-1000.0,943.848,-122.559,-1000.0
1742641987.328,-1000.0,999.512,-113.281,-1000.0
1742641987.331,-1000.0,-72.754,-109.863,-1000.0
1742641987.335,-1000.0,-1000.0,-106.445,-1000.0
1742641987.339,-990.234,-894.531,-103.027,-1000.0
1742641987.343,-953.613,-1000.0,-104.98,-1000.0
1742641987.347,-1000.0,-662.598,-107.91,-1000.0
1742641987.304,-1000.0,-1000.0,-180.176,-1000.0
1742641987.308,-1000.0,-841.797,-141.602,-1000.0
1742641987.312,-1000.0,538.574,-128.418,-1000.0
1742641987.316,-1000.0,999.512,-148.926,-1000.0
1742641987.32,-1000.0,887.207,-157.715,-1000.0
1742641987.324,-1000.0,943.848,-122.559,-1000.0
1742641987.328,-1000.0,999.512,-113.281,-1000.0
1742641987.331,-1000.0,-72.754,-109.863,-1000.0
1742641987.335,-1000.0,-1000.0,-106.445,-1000.0
1742641987.339,-990.234,-894.531,-103.027,-1000.0
1742641987.343,-953.613,-1000.0,-104.98,-1000.0
1742641987.347,-1000.0,-662.598,-107.91,-1000.0
1742641987.348,-39.551,720.703,-104.98,-1000.0
1742641987.352,999.512,963.379,-118.652,-1000.0
1742641987.356,999.512,999.512,-166.504,-1000.0
1742641987.36,549.316,370.605,-195.801,-1000.0
1742641987.364,-852.539,-933.105,-175.781,-1000.0
1742641987.368,-1000.0,-1000.0,-138.672,-1000.0
1742641987.372,-1000.0,-256.348,-116.699,-1000.0
1742641987.375,23.926,998.047,-145.508,-990.234
1742641987.379,999.512,972.656,-164.551,-996.582
1742641987.383,848.633,862.793,-150.391,-1000.0
1742641987.387,999.512,999.512,-151.367,-999.512
1742641987.391,547.363,358.887,-122.559,-1000.0
1742641987.348,-39.551,720.703,-104.98,-1000.0
1742641987.352,999.512,963.379,-118.652,-1000.0
1742641987.356,999.512,999.512,-166.504,-1000.0
1742641987.36,549.316,370.605,-195.801,-1000.0
1742641987.364,-852.539,-933.105,-175.781,-1000.0
1742641987.368,-1000.0,-1000.0,-138.672,-1000.0
1742641987.372,-1000.0,-256.348,-116.699,-1000.0
1742641987.375,23.926,998.047,-145.508,-990.234
1742641987.379,999.512,972.656,-164.551,-996.582
1742641987.383,848.633,862.793,-150.391,-1000.0
1742641987.387,999.512,999.512,-151.367,-999.512
1742641987.391,547.363,358.887,-122.559,-1000.0
1742641987.394,-894.043,-1000.0,-127.93,-1000.0
1742641987.398,-1000.0,-1000.0,-123.047,-1000.0
1742641987.402,-934.57,-928.711,-121.094,-998.047
1742641987.406,-968.75,-1000.0,-146.484,-941.895
1742641987.41,-1000.0,-1000.0,-114.258,-1000.0
1742641987.414,-50.293,229.98,-45.898,-173.828
1742641987.418,999.512,999.512,-78.125,999.512
1742641987.421,927.246,905.762,-140.137,944.336
1742641987.425,956.055,968.75,-101.562,947.754
1742641987.429,902.344,904.785,-44.434,905.762
1742641987.433,999.512,999.512,-34.668,999.512
1742641987.437,253.906,185.059,-70.312,260.742
1742641987.394,-894.043,-1000.0,-127.93,-1000.0
1742641987.398,-1000.0,-1000.0,-123.047,-1000.0
1742641987.402,-934.57,-928.711,-121.094,-998.047
1742641987.406,-968.75,-1000.0,-146.484,-941.895
1742641987.41,-1000.0,-1000.0,-114.258,-1000.0
1742641987.414,-50.293,229.98,-45.898,-173.828
1742641987.418,999.512,999.512,-78.125,999.512
1742641987.421,927.246,905.762,-140.137,944.336
1742641987.425,956.055,968.75,-101.562,947.754
1742641987.429,902.344,904.785,-44.434,905.762
1742641987.433,999.512,999.512,-34.668,999.512
1742641987.437,253.906,185.059,-70.312,260.742
1742641987.438,-1000.0,-1000.0,-56.152,-1000.0
1742641987.442,-995.117,-978.516,-9.277,-996.094
1742641987.446,-967.773,-918.945,-23.926,-967.285
1742641987.45,-1000.0,-1000.0,-41.016,-1000.0
1742641987.454,-1000.0,-130.859,1.465,-1000.0
1742641987.458,-1000.0,996.582,48.828,-1000.0
1742641987.462,-1000.0,999.512,70.801,-1000.0
1742641987.465,-1000.0,166.504,73.73,-1000.0
1742641987.469,-937.5,-1000.0,90.82,-933.105
1742641987.473,-1000.0,-1000.0,103.516,-1000.0
1742641987.477,-220.703,-23.438,91.797,-295.898
1742641987.481,999.512,999.512,59.082,999.512
1742641987.438,-1000.0,-1000.0,-56.152,-1000.0
1742641987.442,-995.117,-978.516,-9.277,-996.094
1742641987.446,-967.773,-918.945,-23.926,-967.285
1742641987.45,-1000.0,-1000.0,-41.016,-1000.0
1742641987.454,-1000.0,-130.859,1.465,-1000.0
1742641987.458,-1000.0,996.582,48.828,-1000.0
1742641987.462,-1000.0,999.512,70.801,-1000.0
1742641987.465,-1000.0,166.504,73.73,-1000.0
1742641987.469,-937.5,-1000.0,90.82,-933.105
1742641987.473,-1000.0,-1000.0,103.516,-1000.0
1742641987.477,-220.703,-23.438,91.797,-295.898
1742641987.481,999.512,999.512,59.082,999.512
1742641987.485,962.891,940.43,20.508,976.074
1742641987.489,887.207,879.395,-16.602,878.906
1742641987.493,999.512,999.512,-28.32,999.512
1742641987.497,843.75,434.57,-72.266,805.664
1742641987.501,-547.852,-962.891,-118.652,-590.332
1742641987.505,-1000.0,-1000.0,-61.035,-1000.0
1742641987.509,-933.594,-953.125,-20.508,-935.059
1742641987.512,-1000.0,-1000.0,-45.41,-1000.0
1742641987.516,-1000.0,-980.957,-62.988,-1000.0
1742641987.52,-937.5,-971.68,-50.781,-937.5
1742641987.524,-1000.0,-1000.0,-3.906,-1000.0
1742641987.528,-220.703,78.613,56.152,-220.703
1742641987.485,962.891,940.43,20.508,976.074
1742641987.489,887.207,879.395,-16.602,878.906
1742641987.493,999.512,999.512,-28.32,999.512
1742641987.497,843.75,434.57,-72.266,805.664
1742641987.501,-547.852,-962.891,-118.652,-590.332
1742641987.505,-1000.0,-1000.0,-61.035,-1000.0
1742641987.509,-933.594,-953.125,-20.508,-935.059
1742641987.512,-1000.0,-1000.0,-45.41,-1000.0
1742641987.516,-1000.0,-980.957,-62.988,-1000.0
1742641987.52,-937.5,-971.68,-50.781,-937.5
1742641987.524,-1000.0,-1000.0,-3.906,-1000.0
1742641987.528,-220.703,78.613,56.152,-220.703
1742641987.485,962.891,940.43,20.508,976.074
1742641987.489,887.207,879.395,-16.602,878.906
1742641987.493,999.512,999.512,-28.32,999.512
1742641987.497,843.75,434.57,-72.266,805.664
1742641987.501,-547.852,-962.891,-118.652,-590.332
1742641987.505,-1000.0,-1000.0,-61.035,-1000.0
1742641987.509,-933.594,-953.125,-20.508,-935.059
1742641987.512,-1000.0,-1000.0,-45.41,-1000.0
1742641987.516,-1000.0,-980.957,-62.988,-1000.0
1742641987.52,-937.5,-971.68,-50.781,-937.5
1742641987.524,-1000.0,-1000.0,-3.906,-1000.0
1742641987.528,-220.703,78.613,56.152,-220.703
1742641987.543,999.512,999.512,56.641,999.512
1742641987.547,950.195,916.992,21.484,950.684
1742641987.551,938.965,959.961,37.598,939.453
1742641987.555,976.074,979.004,57.129,976.074
1742641987.559,951.172,926.27,85.449,955.566
1742641987.563,927.734,984.863,130.859,922.852
1742641987.567,999.512,933.594,127.93,999.512
1742641987.57,-57.617,-396.484,80.078,-6.348
1742641987.574,-1000.0,-1000.0,74.219,-1000.0
1742641987.578,-952.637,-935.547,125.977,-958.496
1742641987.582,-995.605,-1000.0,149.902,-992.188
1742641987.586,-980.957,-935.059,134.277,-980.957
1742641987.543,999.512,999.512,56.641,999.512
1742641987.547,950.195,916.992,21.484,950.684
1742641987.551,938.965,959.961,37.598,939.453
1742641987.555,976.074,979.004,57.129,976.074
1742641987.559,951.172,926.27,85.449,955.566
1742641987.563,927.734,984.863,130.859,922.852
1742641987.567,999.512,933.594,127.93,999.512
1742641987.57,-57.617,-396.484,80.078,-6.348
1742641987.574,-1000.0,-1000.0,74.219,-1000.0
1742641987.578,-952.637,-935.547,125.977,-958.496
1742641987.582,-995.605,-1000.0,149.902,-992.188
1742641987.586,-980.957,-935.059,134.277,-980.957
1742641987.589,-972.168,-1000.0,121.582,-975.586
1742641987.593,-1000.0,-689.453,157.227,-1000.0
1742641987.597,104.98,734.375,173.34,113.281
1742641987.601,999.512,999.512,125.0,999.512
1742641987.605,910.645,913.086,97.656,913.086
1742641987.609,961.914,912.598,126.465,962.402
1742641987.613,967.285,999.512,143.555,968.262
1742641987.616,966.309,294.434,110.84,967.285
1742641987.62,972.168,-1000.0,77.148,977.539
1742641987.624,897.461,-1000.0,67.871,895.02
1742641987.628,999.512,-964.355,63.965,999.512
1742641987.632,293.945,-1000.0,66.406,404.297
1742641987.589,-972.168,-1000.0,121.582,-975.586
1742641987.593,-1000.0,-689.453,157.227,-1000.0
1742641987.597,104.98,734.375,173.34,113.281
1742641987.601,999.512,999.512,125.0,999.512
1742641987.605,910.645,913.086,97.656,913.086
1742641987.609,961.914,912.598,126.465,962.402
1742641987.613,967.285,999.512,143.555,968.262
1742641987.616,966.309,294.434,110.84,967.285
1742641987.62,972.168,-1000.0,77.148,977.539
1742641987.624,897.461,-1000.0,67.871,895.02
1742641987.628,999.512,-964.355,63.965,999.512
1742641987.632,293.945,-1000.0,66.406,404.297
1742641987.633,-1000.0,-1000.0,88.379,-979.492
1742641987.637,-1000.0,-981.934,104.004,-1000.0
1742641987.641,-978.027,-968.75,87.402,-966.309
1742641987.645,-935.547,-1000.0,58.105,-940.918
1742641987.649,-1000.0,66.406,65.918,-1000.0
1742641987.653,-521.484,999.512,98.633,-453.613
1742641987.657,904.297,916.504,92.773,934.57
1742641987.66,999.512,959.961,51.758,992.676
1742641987.664,914.551,968.262,53.223,920.898
1742641987.668,980.957,975.586,56.152,979.98
1742641987.672,966.797,896.484,79.59,968.75
1742641987.676,904.297,999.512,98.633,903.32
1742641987.633,-1000.0,-1000.0,88.379,-979.492
1742641987.637,-1000.0,-981.934,104.004,-1000.0
1742641987.641,-978.027,-968.75,87.402,-966.309
1742641987.645,-935.547,-1000.0,58.105,-940.918
1742641987.649,-1000.0,66.406,65.918,-1000.0
1742641987.653,-521.484,999.512,98.633,-453.613
1742641987.657,904.297,916.504,92.773,934.57
1742641987.66,999.512,959.961,51.758,992.676
1742641987.664,914.551,968.262,53.223,920.898
1742641987.668,980.957,975.586,56.152,979.98
1742641987.672,966.797,896.484,79.59,968.75
1742641987.676,904.297,999.512,98.633,903.32
1742641987.679,999.512,360.352,109.375,999.512
1742641987.683,178.223,-1000.0,128.418,204.59
1742641987.687,-1000.0,-1000.0,119.141,-1000.0
1742641987.691,-918.457,-916.504,138.672,-922.363
1742641987.695,-1000.0,-1000.0,187.5,-1000.0
1742641987.699,-256.836,-16.113,233.887,-256.348
1742641987.703,999.512,999.512,236.328,999.512
1742641987.706,954.59,926.27,213.379,955.078
1742641987.71,940.43,947.266,199.707,943.359
1742641987.714,907.715,919.922,186.035,905.762
1742641987.718,999.512,999.512,193.359,999.512
1742641987.722,243.652,67.383,170.41,296.387
1742641987.679,999.512,360.352,109.375,999.512
1742641987.683,178.223,-1000.0,128.418,204.59
1742641987.687,-1000.0,-1000.0,119.141,-1000.0
1742641987.691,-918.457,-916.504,138.672,-922.363
1742641987.695,-1000.0,-1000.0,187.5,-1000.0
1742641987.699,-256.836,-16.113,233.887,-256.348
1742641987.703,999.512,999.512,236.328,999.512
1742641987.706,954.59,926.27,213.379,955.078
1742641987.71,940.43,947.266,199.707,943.359
1742641987.714,907.715,919.922,186.035,905.762
1742641987.718,999.512,999.512,193.359,999.512
1742641987.722,243.652,67.383,170.41,296.387
1742641987.723,-1000.0,-1000.0,161.133,-1000.0
1742641987.727,-1000.0,-962.891,178.711,-1000.0
1742641987.731,-895.02,-930.176,181.152,-896.484
1742641987.735,-1000.0,-1000.0,169.922,-1000.0
1742641987.739,-586.426,-96.68,185.059,-597.656
1742641987.743,854.98,999.512,200.684,813.477
1742641987.747,999.512,934.57,187.012,999.512
1742641987.75,910.645,949.219,147.461,912.109
1742641987.754,983.887,971.68,137.695,985.352
1742641987.758,901.855,904.785,149.414,899.902
1742641987.762,999.512,999.512,121.582,999.512
1742641987.766,210.938,182.129,71.777,263.184
1742641987.723,-1000.0,-1000.0,161.133,-1000.0
1742641987.727,-1000.0,-962.891,178.711,-1000.0
1742641987.731,-895.02,-930.176,181.152,-896.484
1742641987.735,-1000.0,-1000.0,169.922,-1000.0
1742641987.739,-586.426,-96.68,185.059,-597.656
1742641987.743,854.98,999.512,200.684,813.477
1742641987.747,999.512,934.57,187.012,999.512
1742641987.75,910.645,949.219,147.461,912.109
1742641987.754,983.887,971.68,137.695,985.352
1742641987.758,901.855,904.785,149.414,899.902
1742641987.762,999.512,999.512,121.582,999.512
1742641987.766,210.938,182.129,71.777,263.184
1742641987.769,-1000.0,-1000.0,66.406,-1000.0
1742641987.773,-987.793,-985.84,137.207,-996.582
1742641987.777,-979.492,-960.938,144.531,-974.121
1742641987.781,-936.523,-964.355,107.91,-939.941
1742641987.785,-1000.0,-1000.0,117.188,-1000.0
1742641987.789,-372.559,-16.113,180.664,-353.027
1742641987.793,980.469,999.512,191.895,986.328
1742641987.796,975.586,924.316,94.238,973.633
1742641987.8,941.406,960.449,33.203,945.312
1742641987.804,902.832,900.879,48.34,906.25
1742641987.808,999.512,999.512,64.941,999.512
1742641987.812,520.996,291.016,31.25,627.93
1742641987.769,-1000.0,-1000.0,66.406,-1000.0
1742641987.773,-987.793,-985.84,137.207,-996.582
1742641987.777,-979.492,-960.938,144.531,-974.121
1742641987.781,-936.523,-964.355,107.91,-939.941
1742641987.785,-1000.0,-1000.0,117.188,-1000.0
1742641987.789,-372.559,-16.113,180.664,-353.027
1742641987.793,980.469,999.512,191.895,986.328
1742641987.796,975.586,924.316,94.238,973.633
1742641987.8,941.406,960.449,33.203,945.312
1742641987.804,902.832,900.879,48.34,906.25
1742641987.808,999.512,999.512,64.941,999.512
1742641987.812,520.996,291.016,31.25,627.93
1742641987.814,-917.48,-1000.0,23.438,-826.66
1742641987.818,-1000.0,-1000.0,38.086,-1000.0
1742641987.822,-942.383,-899.902,-12.207,-923.828
1742641987.826,-959.473,-1000.0,2.93,-984.375
1742641987.83,-1000.0,-253.906,56.641,-1000.0
1742641987.834,-147.461,999.512,90.332,15.137
1742641987.838,999.512,956.055,54.199,999.512
1742641987.841,941.895,946.289,4.883,931.152
1742641987.845,933.594,937.012,-5.859,944.824
1742641987.849,925.781,979.98,-10.254,922.363
1742641987.853,999.512,938.477,-29.297,999.512
1742641987.857,1.953,-363.281,-99.609,33.203
1742641987.814,-917.48,-1000.0,23.438,-826.66
1742641987.818,-1000.0,-1000.0,38.086,-1000.0
1742641987.822,-942.383,-899.902,-12.207,-923.828
1742641987.826,-959.473,-1000.0,2.93,-984.375
1742641987.83,-1000.0,-253.906,56.641,-1000.0
1742641987.834,-147.461,999.512,90.332,15.137
1742641987.838,999.512,956.055,54.199,999.512
1742641987.841,941.895,946.289,4.883,931.152
1742641987.845,933.594,937.012,-5.859,944.824
1742641987.849,925.781,979.98,-10.254,922.363
1742641987.853,999.512,938.477,-29.297,999.512
1742641987.857,1.953,-363.281,-99.609,33.203
1742641987.859,-1000.0,-1000.0,-106.445,-1000.0
1742641987.863,-959.473,-876.953,-58.594,-963.379
1742641987.867,-986.816,-1000.0,-56.152,-984.375
1742641987.871,-1000.0,-203.613,-92.285,-1000.0
1742641987.875,-1000.0,999.512,-129.395,-1000.0
1742641987.879,-1000.0,918.945,-111.816,-1000.0
1742641987.883,-1000.0,999.512,-129.395,-1000.0
1742641987.886,-1000.0,-90.332,-183.105,-1000.0
1742641987.89,-1000.0,-1000.0,-123.535,-1000.0
1742641987.894,-1000.0,-953.613,-93.262,-1000.0
1742641987.898,-1000.0,-986.816,-160.645,-1000.0
1742641987.902,-937.5,-948.73,-120.605,-937.5
1742641987.859,-1000.0,-1000.0,-106.445,-1000.0
1742641987.863,-959.473,-876.953,-58.594,-963.379
1742641987.867,-986.816,-1000.0,-56.152,-984.375
1742641987.871,-1000.0,-203.613,-92.285,-1000.0
1742641987.875,-1000.0,999.512,-129.395,-1000.0
1742641987.879,-1000.0,918.945,-111.816,-1000.0
1742641987.883,-1000.0,999.512,-129.395,-1000.0
1742641987.886,-1000.0,-90.332,-183.105,-1000.0
1742641987.89,-1000.0,-1000.0,-123.535,-1000.0
1742641987.894,-1000.0,-953.613,-93.262,-1000.0
1742641987.898,-1000.0,-986.816,-160.645,-1000.0
1742641987.902,-937.5,-948.73,-120.605,-937.5
1742641987.918,-1000.0,-1000.0,-52.734,-1000.0
1742641987.922,-221.191,-130.371,-31.738,-220.703
1742641987.926,999.512,999.512,-51.27,999.512
1742641987.93,950.195,939.453,-105.957,950.684
1742641987.934,953.125,946.777,-53.711,952.637
1742641987.938,898.438,909.18,-22.461,900.391
1742641987.942,999.512,999.512,-72.754,999.512
1742641987.945,499.512,187.5,-122.07,474.121
1742641987.949,-931.152,-1000.0,-125.488,-942.871
1742641987.953,-1000.0,-983.887,-55.664,-1000.0
1742641987.957,-947.754,-973.145,-16.113,-949.707
1742641987.961,-1000.0,-1000.0,-25.879,-1000.0
1742641987.918,-1000.0,-1000.0,-52.734,-1000.0
1742641987.922,-221.191,-130.371,-31.738,-220.703
1742641987.926,999.512,999.512,-51.27,999.512
1742641987.93,950.195,939.453,-105.957,950.684
1742641987.934,953.125,946.777,-53.711,952.637
1742641987.938,898.438,909.18,-22.461,900.391
1742641987.942,999.512,999.512,-72.754,999.512
1742641987.945,499.512,187.5,-122.07,474.121
1742641987.949,-931.152,-1000.0,-125.488,-942.871
1742641987.953,-1000.0,-983.887,-55.664,-1000.0
1742641987.957,-947.754,-973.145,-16.113,-949.707
1742641987.961,-1000.0,-1000.0,-25.879,-1000.0
1742641987.964,-990.234,-947.266,-43.945,-997.559
1742641987.968,-953.613,-1000.0,-75.195,-942.383
1742641987.972,-1000.0,-831.543,-82.031,-1000.0
1742641987.976,-49.316,547.852,-37.598,-165.527
1742641987.98,999.512,999.512,13.672,999.512
1742641987.984,868.652,837.402,20.02,884.277
1742641987.988,999.512,999.512,-2.93,999.512
1742641987.991,782.227,252.93,-28.809,745.117
1742641987.995,-638.672,-1000.0,-43.457,-665.527
1742641987.999,-1000.0,-994.629,-51.758,-1000.0
1742641988.003,-934.57,-967.773,-58.594,-937.988
1742641988.007,-1000.0,-1000.0,-48.828,-1000.0
1742641988.008,-925.781,-936.035,-54.688,-929.199
1742641988.012,-1000.0,-1000.0,-45.41,-1000.0
1742641988.016,-532.715,-242.676,9.277,-612.793
1742641988.02,896.973,999.512,44.434,823.73
1742641988.024,999.512,961.426,20.508,999.512
1742641988.028,869.629,868.164,-37.598,865.234
1742641988.032,999.512,999.512,-31.738,999.512
1742641988.035,914.062,320.801,-52.246,893.555
1742641988.039,-441.895,-1000.0,-89.844,-452.148
1742641988.043,-1000.0,-1000.0,-35.156,-1000.0
1742641988.047,-933.594,-962.402,-10.254,-936.035
1742641988.051,-1000.0,-1000.0,-2.441,-1000.0
1742641988.008,-925.781,-936.035,-54.688,-929.199
1742641988.012,-1000.0,-1000.0,-45.41,-1000.0
1742641988.016,-532.715,-242.676,9.277,-612.793
1742641988.02,896.973,999.512,44.434,823.73
1742641988.024,999.512,961.426,20.508,999.512
1742641988.028,869.629,868.164,-37.598,865.234
1742641988.032,999.512,999.512,-31.738,999.512
1742641988.035,914.062,320.801,-52.246,893.555
1742641988.039,-441.895,-1000.0,-89.844,-452.148
1742641988.043,-1000.0,-1000.0,-35.156,-1000.0
1742641988.047,-933.594,-962.402,-10.254,-936.035
1742641988.051,-1000.0,-1000.0,-2.441,-1000.0
1742641988.054,-1000.0,-1000.0,-35.156,-1000.0
1742641988.058,-1000.0,-1000.0,-46.387,-1000.0
1742641988.062,-991.699,-971.68,-41.504,-996.582
1742641988.066,-951.66,-989.258,-67.383,-944.336
1742641988.07,-1000.0,-1000.0,-37.109,-1000.0
1742641988.074,-68.359,205.566,29.297,-146.973
1742641988.078,999.512,999.512,-15.137,999.512
1742641988.081,929.199,907.227,-81.543,940.43
1742641988.085,958.984,966.797,-59.57,955.078
1742641988.089,897.949,906.738,-31.738,899.902
1742641988.093,999.512,999.512,-14.648,999.512
1742641988.097,352.539,170.41,-65.43,385.742
1742641988.054,-1000.0,-1000.0,-35.156,-1000.0
1742641988.058,-1000.0,-1000.0,-46.387,-1000.0
1742641988.062,-991.699,-971.68,-41.504,-996.582
1742641988.066,-951.66,-989.258,-67.383,-944.336
1742641988.07,-1000.0,-1000.0,-37.109,-1000.0
1742641988.074,-68.359,205.566,29.297,-146.973
1742641988.078,999.512,999.512,-15.137,999.512
1742641988.081,929.199,907.227,-81.543,940.43
1742641988.085,958.984,966.797,-59.57,955.078
1742641988.089,897.949,906.738,-31.738,899.902
1742641988.093,999.512,999.512,-14.648,999.512
1742641988.097,352.539,170.41,-65.43,385.742
1742641988.578,-1000.0,-1000.0,-53.711,-1000.0
1742641988.582,-297.852,-178.223,-12.207,-341.797
1742641988.586,999.512,999.512,-12.695,992.676
1742641988.59,962.402,945.312,-51.758,971.191
1742641988.594,947.266,943.359,-33.691,943.848
1742641988.598,900.879,910.156,-20.02,906.25
1742641988.602,999.512,999.512,-27.832,999.512
1742641988.605,509.277,184.082,-60.059,559.57
1742641988.609,-924.805,-1000.0,-49.316,-869.141
1742641988.613,-1000.0,-912.109,-5.859,-1000.0
1742641988.617,-946.777,-1000.0,-12.695,-944.824
1742641988.621,-1000.0,-429.199,-15.625,-1000.0
1742641988.099,-1000.0,-1000.0,-65.918,-990.234
1742641988.103,-1000.0,-979.004,-7.812,-1000.0
1742641988.107,-959.473,-916.992,-30.273,-957.031
1742641988.111,-1000.0,-1000.0,-51.758,-1000.0
1742641988.115,-1000.0,-164.551,-42.969,-1000.0
1742641988.119,-1000.0,997.07,-47.852,-1000.0
1742641988.123,-1000.0,999.512,-50.781,-1000.0
1742641988.126,-1000.0,85.449,-31.25,-1000.0
1742641988.13,-1000.0,-1000.0,-29.297,-1000.0
1742641988.134,-1000.0,-981.445,-32.227,-1000.0
1742641988.138,-993.652,-945.801,-0.488,-998.535
1742641988.142,-948.73,-1000.0,-22.461,-940.918
1742641988.099,-1000.0,-1000.0,-65.918,-990.234
1742641988.103,-1000.0,-979.004,-7.812,-1000.0
1742641988.107,-959.473,-916.992,-30.273,-957.031
1742641988.111,-1000.0,-1000.0,-51.758,-1000.0
1742641988.115,-1000.0,-164.551,-42.969,-1000.0
1742641988.119,-1000.0,997.07,-47.852,-1000.0
1742641988.123,-1000.0,999.512,-50.781,-1000.0
1742641988.126,-1000.0,85.449,-31.25,-1000.0
1742641988.13,-1000.0,-1000.0,-29.297,-1000.0
1742641988.134,-1000.0,-981.445,-32.227,-1000.0
1742641988.138,-993.652,-945.801,-0.488,-998.535
1742641988.142,-948.73,-1000.0,-22.461,-940.918
1742641988.144,-1000.0,-1000.0,-50.293,-1000.0
1742641988.148,-97.168,263.184,-21.973,-180.176
1742641988.152,999.512,999.512,-26.855,999.512
1742641988.156,932.617,907.227,-47.363,944.824
1742641988.16,961.426,969.727,-61.523,956.055
1742641988.164,895.996,904.785,-43.945,900.391
1742641988.168,999.512,999.512,-19.043,999.512
1742641988.171,471.191,187.012,-74.219,503.418
1742641988.175,-947.266,-1000.0,-65.918,-916.016
1742641988.179,-1000.0,-983.887,-5.859,-1000.0
1742641988.183,-958.984,-976.074,-1.953,-956.543
1742641988.187,-978.516,-941.406,-16.602,-979.004
1742641988.144,-1000.0,-1000.0,-50.293,-1000.0
1742641988.148,-97.168,263.184,-21.973,-180.176
1742641988.152,999.512,999.512,-26.855,999.512
1742641988.156,932.617,907.227,-47.363,944.824
1742641988.16,961.426,969.727,-61.523,956.055
1742641988.164,895.996,904.785,-43.945,900.391
1742641988.168,999.512,999.512,-19.043,999.512
1742641988.171,471.191,187.012,-74.219,503.418
1742641988.175,-947.266,-1000.0,-65.918,-916.016
1742641988.179,-1000.0,-983.887,-5.859,-1000.0
1742641988.183,-958.984,-976.074,-1.953,-956.543
1742641988.187,-978.516,-941.406,-16.602,-979.004
1742641988.188,-1000.0,-1000.0,-56.152,-1000.0
1742641988.192,-1000.0,-266.602,-68.848,-990.723
1742641988.196,302.246,999.512,-15.137,302.246
1742641988.2,999.512,958.496,27.832,999.512
1742641988.204,916.504,940.918,24.414,918.945
1742641988.208,904.297,908.203,4.395,912.598
1742641988.212,999.512,999.512,8.301,999.512
1742641988.215,672.852,263.184,-33.203,765.625
1742641988.219,-766.113,-1000.0,-71.289,-641.602
1742641988.223,-1000.0,-996.582,16.602,-1000.0
1742641988.227,-937.988,-967.285,96.68,-936.523
1742641988.231,-1000.0,-1000.0,118.164,-1000.0
1742641988.188,-1000.0,-1000.0,-56.152,-1000.0
1742641988.192,-1000.0,-266.602,-68.848,-990.723
1742641988.196,302.246,999.512,-15.137,302.246
1742641988.2,999.512,958.496,27.832,999.512
1742641988.204,916.504,940.918,24.414,918.945
1742641988.208,904.297,908.203,4.395,912.598
1742641988.212,999.512,999.512,8.301,999.512
1742641988.215,672.852,263.184,-33.203,765.625
1742641988.219,-766.113,-1000.0,-71.289,-641.602
1742641988.223,-1000.0,-996.582,16.602,-1000.0
1742641988.227,-937.988,-967.285,96.68,-936.523
1742641988.231,-1000.0,-1000.0,118.164,-1000.0
1742641988.235,-929.199,-938.477,124.512,-929.199
1742641988.239,-1000.0,-1000.0,98.633,-1000.0
1742641988.243,-374.512,-209.473,127.93,-390.625
1742641988.247,979.98,999.512,121.094,970.215
1742641988.251,976.074,950.195,96.68,980.469
1742641988.255,926.758,877.441,116.211,926.27
1742641988.259,977.539,999.512,71.777,978.516
1742641988.262,966.309,197.266,9.766,966.797
1742641988.266,971.191,-1000.0,30.273,967.773
1742641988.27,944.824,-985.84,62.988,964.355
1742641988.274,943.359,-972.168,25.879,909.18
1742641988.278,999.512,-1000.0,28.809,999.512
1742641988.235,-929.199,-938.477,124.512,-929.199
1742641988.239,-1000.0,-1000.0,98.633,-1000.0
1742641988.243,-374.512,-209.473,127.93,-390.625
1742641988.247,979.98,999.512,121.094,970.215
1742641988.251,976.074,950.195,96.68,980.469
1742641988.255,926.758,877.441,116.211,926.27
1742641988.259,977.539,999.512,71.777,978.516
1742641988.262,966.309,197.266,9.766,966.797
1742641988.266,971.191,-1000.0,30.273,967.773
1742641988.27,944.824,-985.84,62.988,964.355
1742641988.274,943.359,-972.168,25.879,909.18
1742641988.278,999.512,-1000.0,28.809,999.512
1742641988.293,-144.043,-1000.0,15.625,132.324
1742641988.297,-1000.0,-996.094,-20.996,-1000.0
1742641988.301,-885.742,-945.312,-21.973,-910.645
1742641988.305,-1000.0,-1000.0,-42.969,-1000.0
1742641988.309,-747.559,-139.648,-31.738,-633.301
1742641988.313,688.477,999.512,-22.461,777.832
1742641988.317,999.512,939.941,-65.918,999.512
1742641988.32,902.344,958.984,-69.824,911.133
1742641988.324,990.723,910.156,-51.27,994.141
1742641988.328,895.508,999.512,-58.105,907.715
1742641988.332,999.512,660.645,-80.566,999.512
1742641988.336,402.832,-741.211,-71.777,751.465
1742641988.293,-144.043,-1000.0,15.625,132.324
1742641988.297,-1000.0,-996.094,-20.996,-1000.0
1742641988.301,-885.742,-945.312,-21.973,-910.645
1742641988.305,-1000.0,-1000.0,-42.969,-1000.0
1742641988.309,-747.559,-139.648,-31.738,-633.301
1742641988.313,688.477,999.512,-22.461,777.832
1742641988.317,999.512,939.941,-65.918,999.512
1742641988.32,902.344,958.984,-69.824,911.133
1742641988.324,990.723,910.156,-51.27,994.141
1742641988.328,895.508,999.512,-58.105,907.715
1742641988.332,999.512,660.645,-80.566,999.512
1742641988.336,402.832,-741.211,-71.777,751.465
1742641988.338,-975.098,-1000.0,-80.078,-659.18
1742641988.342,-1000.0,-944.336,-93.262,-1000.0
1742641988.346,-956.055,-1000.0,-80.566,-937.012
1742641988.35,-950.195,-958.496,-93.75,-950.684
1742641988.354,-1000.0,-1000.0,-80.566,-1000.0
1742641988.358,-220.703,-11.719,-21.484,-214.844
1742641988.362,999.512,999.512,-27.832,999.512
1742641988.365,949.707,924.316,-87.402,949.707
1742641988.369,949.219,957.52,-59.57,947.266
1742641988.373,932.129,904.297,-9.766,943.359
1742641988.377,985.352,999.512,0.0,961.426
1742641988.381,929.199,221.191,-40.039,991.699
1742641988.338,-975.098,-1000.0,-80.078,-659.18
1742641988.342,-1000.0,-944.336,-93.262,-1000.0
1742641988.346,-956.055,-1000.0,-80.566,-937.012
1742641988.35,-950.195,-958.496,-93.75,-950.684
1742641988.354,-1000.0,-1000.0,-80.566,-1000.0
1742641988.358,-220.703,-11.719,-21.484,-214.844
1742641988.362,999.512,999.512,-27.832,999.512
1742641988.365,949.707,924.316,-87.402,949.707
1742641988.369,949.219,957.52,-59.57,947.266
1742641988.373,932.129,904.297,-9.766,943.359
1742641988.377,985.352,999.512,0.0,961.426
1742641988.381,929.199,221.191,-40.039,991.699
1742641988.848,-1000.0,-1000.0,516.113,-1000.0
1742641988.852,-988.77,-977.051,501.953,-996.094
1742641988.856,-956.055,-978.027,387.695,-944.336
1742641988.86,-1000.0,-1000.0,304.688,-1000.0
1742641988.864,-26.855,143.555,309.082,-143.066
1742641988.868,999.512,999.512,355.469,999.512
1742641988.872,924.316,999.512,414.551,939.941
1742641988.875,953.125,372.559,421.875,945.312
1742641988.879,968.75,-1000.0,339.355,971.68
1742641988.883,966.309,-948.242,332.031,967.285
1742641988.887,966.309,-1000.0,333.008,967.285
1742641988.891,966.309,-349.121,353.027,967.285
1742641988.384,-404.297,-1000.0,-89.844,-261.719
1742641988.388,-1000.0,-974.121,-70.312,-1000.0
1742641988.392,-872.559,-933.594,-77.637,-878.906
1742641988.396,-1000.0,-1000.0,-71.289,-1000.0
1742641988.4,-220.703,26.367,-18.066,-220.703
1742641988.404,999.512,999.512,-54.199,999.512
1742641988.408,949.707,920.898,-93.75,950.684
1742641988.411,942.383,970.703,-59.082,941.895
1742641988.415,957.52,909.668,-64.453,963.867
1742641988.419,928.711,999.512,-62.012,920.41
1742641988.423,999.512,730.957,-52.246,999.512
1742641988.427,-65.918,-674.805,-90.332,20.996
1742641988.443,-1000.0,-1000.0,-78.613,-1000.0
1742641988.447,-951.66,-895.508,-63.477,-962.402
1742641988.451,-1000.0,-1000.0,-51.758,-998.535
1742641988.455,-928.223,-941.895,-42.969,-933.105
1742641988.459,-1000.0,395.996,-77.148,-1000.0
1742641988.463,-594.727,999.512,-64.453,-580.566
1742641988.467,851.074,902.832,-21.484,840.82
1742641988.47,999.512,986.328,-45.41,999.512
1742641988.474,909.18,910.156,-65.918,912.109
1742641988.478,981.934,999.512,-56.152,981.445
1742641988.482,966.309,727.051,-41.992,966.797
1742641988.486,968.262,-658.691,-41.992,969.727
1742641988.473,958.496,-1000.0,-25.391,957.031
1742641988.477,924.316,-939.941,-13.672,929.688
1742641988.481,999.512,-1000.0,-24.902,999.512
1742641988.485,73.73,-1000.0,-12.695,41.504
1742641988.489,-1000.0,-989.258,4.395,-1000.0
1742641988.493,-980.469,-958.496,-5.371,-978.027
1742641988.497,-977.051,-1000.0,-27.344,-979.004
1742641988.5,-1000.0,-45.41,-52.246,-1000.0
1742641988.504,-925.781,999.512,-70.801,-930.176
1742641988.508,-1000.0,932.617,-43.945,-1000.0
1742641988.512,-556.152,951.172,-32.227,-548.828
1742641988.516,882.812,970.703,-49.805,859.375
1742641988.473,958.496,-1000.0,-25.391,957.031
1742641988.477,924.316,-939.941,-13.672,929.688
1742641988.481,999.512,-1000.0,-24.902,999.512
1742641988.485,73.73,-1000.0,-12.695,41.504
1742641988.489,-1000.0,-989.258,4.395,-1000.0
1742641988.493,-980.469,-958.496,-5.371,-978.027
1742641988.497,-977.051,-1000.0,-27.344,-979.004
1742641988.5,-1000.0,-45.41,-52.246,-1000.0
1742641988.504,-925.781,999.512,-70.801,-930.176
1742641988.508,-1000.0,932.617,-43.945,-1000.0
1742641988.512,-556.152,951.172,-32.227,-548.828
1742641988.516,882.812,970.703,-49.805,859.375
1742641988.519,999.512,966.797,-63.965,999.512
1742641988.523,911.621,966.797,-66.895,914.551
1742641988.527,981.445,967.285,-58.105,980.469
1742641988.531,980.957,979.004,-47.363,980.469
1742641988.535,903.809,894.043,-36.133,911.621
1742641988.539,999.512,999.512,-7.324,999.512
1742641988.543,733.398,448.242,-48.828,805.664
1742641988.546,-696.289,-956.055,-104.004,-596.191
1742641988.55,-1000.0,-1000.0,-31.25,-1000.0
1742641988.554,-936.035,-952.637,0.488,-935.059
1742641988.558,-1000.0,-1000.0,-39.062,-1000.0
1742641988.562,-933.105,-941.406,-58.105,-931.152
1742641988.519,999.512,966.797,-63.965,999.512
1742641988.523,911.621,966.797,-66.895,914.551
1742641988.527,981.445,967.285,-58.105,980.469
1742641988.531,980.957,979.004,-47.363,980.469
1742641988.535,903.809,894.043,-36.133,911.621
1742641988.539,999.512,999.512,-7.324,999.512
1742641988.543,733.398,448.242,-48.828,805.664
1742641988.546,-696.289,-956.055,-104.004,-596.191
1742641988.55,-1000.0,-1000.0,-31.25,-1000.0
1742641988.554,-936.035,-952.637,0.488,-935.059
1742641988.558,-1000.0,-1000.0,-39.062,-1000.0
1742641988.562,-933.105,-941.406,-58.105,-931.152
1742641988.623,-1000.0,875.0,-29.785,-1000.0
1742641988.627,-1000.0,999.512,-138.672,-1000.0
1742641988.631,-1000.0,374.512,-322.266,-1000.0
1742641988.635,-937.5,-919.922,-404.297,-937.988
1742641988.639,-1000.0,-1000.0,-388.672,-1000.0
1742641988.643,-221.191,22.949,-313.477,-217.285
1742641988.647,999.512,999.512,-318.359,999.512
1742641988.65,950.195,924.805,-407.227,950.195
1742641988.654,938.965,956.055,-376.953,940.43
1742641988.658,973.633,961.426,-340.332,974.609
1742641988.662,903.32,917.969,-347.168,904.297
1742641988.666,999.512,999.512,-310.059,999.512
1742641988.623,-1000.0,875.0,-29.785,-1000.0
1742641988.627,-1000.0,999.512,-138.672,-1000.0
1742641988.631,-1000.0,374.512,-322.266,-1000.0
1742641988.635,-937.5,-919.922,-404.297,-937.988
1742641988.639,-1000.0,-1000.0,-388.672,-1000.0
1742641988.643,-221.191,22.949,-313.477,-217.285
1742641988.647,999.512,999.512,-318.359,999.512
1742641988.65,950.195,924.805,-407.227,950.195
1742641988.654,938.965,956.055,-376.953,940.43
1742641988.658,973.633,961.426,-340.332,974.609
1742641988.662,903.32,917.969,-347.168,904.297
1742641988.666,999.512,999.512,-310.059,999.512
1742641988.668,187.012,49.805,-325.684,187.012
1742641988.672,-1000.0,-1000.0,-283.203,-1000.0
1742641988.676,-983.887,-897.461,-246.582,-983.887
1742641988.68,-973.145,-1000.0,-312.012,-973.145
1742641988.684,-1000.0,-367.676,-301.27,-1000.0
1742641988.688,-1000.0,973.633,-311.035,-1000.0
1742641988.692,-1000.0,999.512,-333.008,-1000.0
1742641988.695,-1000.0,-215.332,-336.426,-1000.0
1742641988.699,-1000.0,-1000.0,-291.504,-1000.0
1742641988.703,-1000.0,-945.801,-273.926,-1000.0
1742641988.707,-931.641,-934.57,-273.438,-929.199
1742641988.711,-1000.0,-1000.0,-267.578,-1000.0
1742641988.668,187.012,49.805,-325.684,187.012
1742641988.672,-1000.0,-1000.0,-283.203,-1000.0
1742641988.676,-983.887,-897.461,-246.582,-983.887
1742641988.68,-973.145,-1000.0,-312.012,-973.145
1742641988.684,-1000.0,-367.676,-301.27,-1000.0
1742641988.688,-1000.0,973.633,-311.035,-1000.0
1742641988.692,-1000.0,999.512,-333.008,-1000.0
1742641988.695,-1000.0,-215.332,-336.426,-1000.0
1742641988.699,-1000.0,-1000.0,-291.504,-1000.0
1742641988.703,-1000.0,-945.801,-273.926,-1000.0
1742641988.707,-931.641,-934.57,-273.438,-929.199
1742641988.711,-1000.0,-1000.0,-267.578,-1000.0
1742641988.714,-322.266,-216.797,-222.656,-382.812
1742641988.718,999.512,999.512,-171.387,975.098
1742641988.722,966.797,950.195,-179.199,978.516
1742641988.726,931.152,949.707,-167.48,926.758
1742641988.73,975.586,933.594,-146.484,978.516
1742641988.734,980.957,985.84,-124.512,981.445
1742641988.738,892.09,928.223,-128.906,899.902
1742641988.741,999.512,-396.973,-112.793,999.512
1742641988.745,533.691,-1000.0,-81.055,630.371
1742641988.749,-906.25,-936.523,-38.574,-796.387
1742641988.753,-1000.0,-1000.0,52.246,-1000.0
1742641988.757,-945.312,-1000.0,117.188,-941.406
1742641988.714,-322.266,-216.797,-222.656,-382.812
1742641988.718,999.512,999.512,-171.387,975.098
1742641988.722,966.797,950.195,-179.199,978.516
1742641988.726,931.152,949.707,-167.48,926.758
1742641988.73,975.586,933.594,-146.484,978.516
1742641988.734,980.957,985.84,-124.512,981.445
1742641988.738,892.09,928.223,-128.906,899.902
1742641988.741,999.512,-396.973,-112.793,999.512
1742641988.745,533.691,-1000.0,-81.055,630.371
1742641988.749,-906.25,-936.523,-38.574,-796.387
1742641988.753,-1000.0,-1000.0,52.246,-1000.0
1742641988.757,-945.312,-1000.0,117.188,-941.406
1742641988.758,-1000.0,-933.594,161.621,-1000.0
1742641988.762,-930.176,-1000.0,106.445,-933.594
1742641988.766,-1000.0,-669.434,88.867,-1000.0
1742641988.77,-351.562,754.883,119.141,-296.387
1742641988.774,996.582,999.512,116.699,999.512
1742641988.778,941.406,834.961,82.52,946.777
1742641988.782,922.363,999.512,-9.766,899.414
1742641988.785,999.512,439.453,-26.855,999.512
1742641988.789,-264.16,-962.402,26.855,-77.148
1742641988.793,-1000.0,-1000.0,114.746,-1000.0
1742641988.797,-942.383,-966.797,114.746,-956.543
1742641988.801,-986.816,-947.754,73.242,-973.633
1742641988.758,-1000.0,-933.594,161.621,-1000.0
1742641988.762,-930.176,-1000.0,106.445,-933.594
1742641988.766,-1000.0,-669.434,88.867,-1000.0
1742641988.77,-351.562,754.883,119.141,-296.387
1742641988.774,996.582,999.512,116.699,999.512
1742641988.778,941.406,834.961,82.52,946.777
1742641988.782,922.363,999.512,-9.766,899.414
1742641988.785,999.512,439.453,-26.855,999.512
1742641988.789,-264.16,-962.402,26.855,-77.148
1742641988.793,-1000.0,-1000.0,114.746,-1000.0
1742641988.797,-942.383,-966.797,114.746,-956.543
1742641988.801,-986.816,-947.754,73.242,-973.633
1742641988.805,-961.426,-1000.0,63.965,-969.727
1742641988.809,-1000.0,-686.035,102.539,-1000.0
1742641988.813,17.09,739.746,145.02,57.617
1742641988.817,999.512,999.512,137.207,999.512
1742641988.821,934.082,910.645,69.336,932.129
1742641988.825,884.766,915.527,6.836,897.461
1742641988.829,999.512,999.512,41.504,999.512
1742641988.832,578.125,237.305,-50.781,728.027
1742641988.836,-861.328,-1000.0,-108.398,-691.895
1742641988.84,-1000.0,-992.188,-63.965,-1000.0
1742641988.844,-942.871,-969.238,-179.688,-937.012
1742641988.848,-1000.0,-1000.0,107.422,-1000.0
1742641988.805,-961.426,-1000.0,63.965,-969.727
1742641988.809,-1000.0,-686.035,102.539,-1000.0
1742641988.813,17.09,739.746,145.02,57.617
1742641988.817,999.512,999.512,137.207,999.512
1742641988.821,934.082,910.645,69.336,932.129
1742641988.825,884.766,915.527,6.836,897.461
1742641988.829,999.512,999.512,41.504,999.512
1742641988.832,578.125,237.305,-50.781,728.027
1742641988.836,-861.328,-1000.0,-108.398,-691.895
1742641988.84,-1000.0,-992.188,-63.965,-1000.0
1742641988.844,-942.871,-969.238,-179.688,-937.012
1742641988.848,-1000.0,-1000.0,107.422,-1000.0
1742641988.895,975.586,994.629,433.105,978.027
1742641988.899,894.531,905.762,412.598,894.043
1742641988.903,999.512,999.512,366.211,999.512
1742641988.907,355.469,233.887,213.379,406.738
1742641988.911,-1000.0,-1000.0,152.344,-981.934
1742641988.915,-1000.0,-989.746,-127.441,-1000.0
1742641988.919,-959.473,-970.215,-862.793,-955.078
1742641988.922,-1000.0,-1000.0,-1000.0,-1000.0
1742641988.926,-985.352,-961.426,-963.867,-989.258
1742641988.93,-961.914,-1000.0,-1000.0,-955.566
1742641988.934,-1000.0,-957.031,-500.488,-1000.0
1742641988.938,24.902,350.098,115.723,-34.18
1742641988.895,975.586,994.629,433.105,978.027
1742641988.899,894.531,905.762,412.598,894.043
1742641988.903,999.512,999.512,366.211,999.512
1742641988.907,355.469,233.887,213.379,406.738
1742641988.911,-1000.0,-1000.0,152.344,-981.934
1742641988.915,-1000.0,-989.746,-127.441,-1000.0
1742641988.919,-959.473,-970.215,-862.793,-955.078
1742641988.922,-1000.0,-1000.0,-1000.0,-1000.0
1742641988.926,-985.352,-961.426,-963.867,-989.258
1742641988.93,-961.914,-1000.0,-1000.0,-955.566
1742641988.934,-1000.0,-957.031,-500.488,-1000.0
1742641988.938,24.902,350.098,115.723,-34.18
1742641988.939,999.512,999.512,229.492,999.512
1742641988.943,918.457,833.008,190.918,926.27
1742641988.947,957.031,999.512,213.867,953.613
1742641988.951,967.773,474.121,233.398,969.727
1742641988.955,980.957,-1000.0,223.633,981.934
1742641988.959,892.09,-304.199,199.707,896.484
1742641988.963,999.512,999.512,264.16,999.512
1742641988.966,516.602,133.789,22.949,599.609
1742641988.97,-920.41,-1000.0,-772.461,-838.867
1742641988.974,-1000.0,-974.121,-1000.0,-1000.0
1742641988.978,-946.289,-987.305,-970.703,-941.895
1742641988.982,-1000.0,-952.148,-1000.0,-1000.0
1742641988.939,999.512,999.512,229.492,999.512
1742641988.943,918.457,833.008,190.918,926.27
1742641988.947,957.031,999.512,213.867,953.613
1742641988.951,967.773,474.121,233.398,969.727
1742641988.955,980.957,-1000.0,223.633,981.934
1742641988.959,892.09,-304.199,199.707,896.484
1742641988.963,999.512,999.512,264.16,999.512
1742641988.966,516.602,133.789,22.949,599.609
1742641988.97,-920.41,-1000.0,-772.461,-838.867
1742641988.974,-1000.0,-974.121,-1000.0,-1000.0
1742641988.978,-946.289,-987.305,-970.703,-941.895
1742641988.982,-1000.0,-952.148,-1000.0,-1000.0
1742641988.985,-1000.0,-1000.0,-1000.0,-1000.0
1742641988.989,-1000.0,-807.617,-1000.0,-1000.0
1742641988.993,-1000.0,574.219,-1000.0,-1000.0
1742641988.997,-984.375,999.512,-999.512,-986.328
1742641989.001,-963.379,905.273,-1000.0,-961.914
1742641989.005,-1000.0,980.469,-1000.0,-1000.0
1742641989.009,34.668,955.078,-966.309,6.836
1742641989.012,999.512,925.293,-967.773,999.512
1742641989.016,917.48,999.512,-971.191,923.828
1742641989.02,957.52,-9.277,-858.398,955.566
1742641989.024,967.773,-1000.0,-731.445,969.238
1742641989.028,966.309,-960.449,-724.121,966.797
1742641988.985,-1000.0,-1000.0,-1000.0,-1000.0
1742641988.989,-1000.0,-807.617,-1000.0,-1000.0
1742641988.993,-1000.0,574.219,-1000.0,-1000.0
1742641988.997,-984.375,999.512,-999.512,-986.328
1742641989.001,-963.379,905.273,-1000.0,-961.914
1742641989.005,-1000.0,980.469,-1000.0,-1000.0
1742641989.009,34.668,955.078,-966.309,6.836
1742641989.012,999.512,925.293,-967.773,999.512
1742641989.016,917.48,999.512,-971.191,923.828
1742641989.02,957.52,-9.277,-858.398,955.566
1742641989.024,967.773,-1000.0,-731.445,969.238
1742641989.028,966.309,-960.449,-724.121,966.797
1742641989.043,966.309,-991.211,-696.289,966.797
1742641989.047,966.309,-983.398,-555.664,967.285
1742641989.051,966.309,-971.191,-488.77,967.285
1742641989.055,966.309,-1000.0,-552.246,966.797
1742641989.059,981.934,97.656,-547.852,982.422
1742641989.063,892.578,999.512,-483.887,898.926
1742641989.067,999.512,999.512,-439.453,999.512
1742641989.07,560.547,367.188,-441.406,648.438
1742641989.074,-886.719,-994.629,-466.309,-791.992
1742641989.078,-1000.0,-1000.0,-407.715,-1000.0
1742641989.082,-943.359,-958.008,-328.613,-939.453
1742641989.086,-1000.0,-1000.0,-280.273,-1000.0
1742641989.043,966.309,-991.211,-696.289,966.797
1742641989.047,966.309,-983.398,-555.664,967.285
1742641989.051,966.309,-971.191,-488.77,967.285
1742641989.055,966.309,-1000.0,-552.246,966.797
1742641989.059,981.934,97.656,-547.852,982.422
1742641989.063,892.578,999.512,-483.887,898.926
1742641989.067,999.512,999.512,-439.453,999.512
1742641989.07,560.547,367.188,-441.406,648.438
1742641989.074,-886.719,-994.629,-466.309,-791.992
1742641989.078,-1000.0,-1000.0,-407.715,-1000.0
1742641989.082,-943.359,-958.008,-328.613,-939.453
1742641989.086,-1000.0,-1000.0,-280.273,-1000.0
1742641989.104,-925.781,-936.523,-249.512,-926.758
1742641989.108,-1000.0,-1000.0,-190.43,-1000.0
1742641989.112,-515.625,-238.281,-111.816,-545.41
1742641989.116,907.715,999.512,-141.113,882.324
1742641989.12,999.512,956.543,-203.613,999.512
1742641989.124,915.039,873.047,-193.359,914.062
1742641989.128,980.957,999.512,-239.258,981.934
1742641989.131,968.75,228.027,-275.879,971.191
1742641989.135,901.367,-1000.0,-284.18,900.391
1742641989.139,999.512,-990.723,-306.152,999.512
1742641989.143,223.633,-969.727,-362.793,257.324
1742641989.147,-1000.0,-1000.0,-380.371,-1000.0
1742641989.104,-925.781,-936.523,-249.512,-926.758
