timestamps,TP9,AF7,AF8,TP10
1742640949.897,-973.145,-791.504,-86.914,-980.957
1742640949.901,-984.863,-1000.0,-104.004,-973.633
1742640949.905,-1000.0,528.809,-27.832,-1000.0
1742640949.909,192.383,999.512,20.02,71.289
1742640949.913,999.512,826.172,-50.781,999.512
1742640949.917,960.449,999.512,-48.828,982.422
1742640949.921,856.445,617.676,-81.543,830.566
1742640949.924,-597.168,-867.188,-148.926,-616.211
1742640949.928,-1000.0,-1000.0,-77.637,-1000.0
1742640949.932,-941.895,478.516,-13.184,-942.383
1742640949.936,-958.496,374.512,-49.805,-958.496
1742640949.94,-1000.0,-1000.0,-99.121,-1000.0
1742640949.897,-973.145,-791.504,-86.914,-980.957
1742640949.901,-984.863,-1000.0,-104.004,-973.633
1742640949.905,-1000.0,528.809,-27.832,-1000.0
1742640949.909,192.383,999.512,20.02,71.289
1742640949.913,999.512,826.172,-50.781,999.512
1742640949.917,960.449,999.512,-48.828,982.422
1742640949.921,856.445,617.676,-81.543,830.566
1742640949.924,-597.168,-867.188,-148.926,-616.211
1742640949.928,-1000.0,-1000.0,-77.637,-1000.0
1742640949.932,-941.895,478.516,-13.184,-942.383
1742640949.936,-958.496,374.512,-49.805,-958.496
1742640949.94,-1000.0,-1000.0,-99.121,-1000.0
1742640949.956,-891.113,-632.812,-29.297,-890.137
1742640949.96,563.965,753.906,124.512,565.43
1742640949.964,999.512,999.512,90.332,999.512
1742640949.968,891.602,331.055,-8.301,892.09
1742640949.972,982.422,-884.277,-25.391,983.887
1742640949.976,979.492,482.422,66.895,976.562
1742640949.98,895.02,999.512,96.191,903.809
1742640949.983,999.512,-646.973,21.973,999.512
1742640949.987,504.883,-1000.0,-6.836,467.773
1742640949.991,-844.727,-950.195,-36.621,-830.566
1742640949.995,-1000.0,-975.586,-15.137,-1000.0
1742640949.999,-836.914,376.953,98.145,-804.688
1742640949.956,-891.113,-632.812,-29.297,-890.137
1742640949.96,563.965,753.906,124.512,565.43
1742640949.964,999.512,999.512,90.332,999.512
1742640949.968,891.602,331.055,-8.301,892.09
1742640949.972,982.422,-884.277,-25.391,983.887
1742640949.976,979.492,482.422,66.895,976.562
1742640949.98,895.02,999.512,96.191,903.809
1742640949.983,999.512,-646.973,21.973,999.512
1742640949.987,504.883,-1000.0,-6.836,467.773
1742640949.991,-844.727,-950.195,-36.621,-830.566
1742640949.995,-1000.0,-975.586,-15.137,-1000.0
1742640949.999,-836.914,376.953,98.145,-804.688
1742640950.002,548.828,999.512,108.887,590.82
1742640950.006,999.512,946.289,5.859,999.512
1742640950.01,891.602,-248.047,-63.477,893.555
1742640950.014,998.047,-1000.0,-56.641,997.559
1742640950.018,909.668,159.668,17.09,916.504
1742640950.022,999.512,999.512,69.336,999.512
1742640950.026,864.746,677.246,40.039,910.156
1742640950.029,-603.516,-663.086,-76.66,-521.973
1742640950.033,-1000.0,-1000.0,-81.055,-1000.0
1742640950.037,-1000.0,-828.125,2.93,-1000.0
1742640950.041,-830.078,615.234,41.504,-666.992
1742640950.045,660.645,959.961,49.805,764.648
1742640950.002,548.828,999.512,108.887,590.82
1742640950.006,999.512,946.289,5.859,999.512
1742640950.01,891.602,-248.047,-63.477,893.555
1742640950.014,998.047,-1000.0,-56.641,997.559
1742640950.018,909.668,159.668,17.09,916.504
1742640950.022,999.512,999.512,69.336,999.512
1742640950.026,864.746,677.246,40.039,910.156
1742640950.029,-603.516,-663.086,-76.66,-521.973
1742640950.033,-1000.0,-1000.0,-81.055,-1000.0
1742640950.037,-1000.0,-828.125,2.93,-1000.0
1742640950.041,-830.078,615.234,41.504,-666.992
1742640950.045,660.645,959.961,49.805,764.648
1742640950.048,999.512,621.582,-26.855,999.512
1742640950.052,894.531,659.18,-67.383,906.738
1742640950.056,983.887,-586.426,16.602,981.934
1742640950.06,982.91,-1000.0,35.645,982.91
1742640950.064,908.691,-801.758,-5.371,909.18
1742640950.068,999.512,600.098,36.621,999.512
1742640950.072,857.422,923.34,5.371,857.91
1742640950.075,-597.656,-659.18,-63.965,-597.656
1742640950.079,-1000.0,-1000.0,-35.645,-1000.0
1742640950.083,-938.477,-763.184,-11.719,-938.965
1742640950.087,-970.215,776.367,-4.395,-969.727
1742640950.091,-1000.0,237.793,-28.32,-1000.0
1742640950.048,999.512,621.582,-26.855,999.512
1742640950.052,894.531,659.18,-67.383,906.738
1742640950.056,983.887,-586.426,16.602,981.934
1742640950.06,982.91,-1000.0,35.645,982.91
1742640950.064,908.691,-801.758,-5.371,909.18
1742640950.068,999.512,600.098,36.621,999.512
1742640950.072,857.422,923.34,5.371,857.91
1742640950.075,-597.656,-659.18,-63.965,-597.656
1742640950.079,-1000.0,-1000.0,-35.645,-1000.0
1742640950.083,-938.477,-763.184,-11.719,-938.965
1742640950.087,-970.215,776.367,-4.395,-969.727
1742640950.091,-1000.0,237.793,-28.32,-1000.0
1742640950.091,-978.516,-933.105,12.207,-971.68
1742640950.095,415.527,526.367,158.691,423.828
1742640950.099,999.512,999.512,139.648,999.512
1742640950.103,892.578,877.441,47.852,894.043
1742640950.107,988.281,-254.395,20.02,986.328
1742640950.111,928.223,258.789,61.523,936.523
1742640950.115,972.656,999.512,84.473,959.961
1742640950.118,986.328,-640.625,-36.621,999.512
1742640950.122,-356.934,-1000.0,-124.023,-253.906
1742640950.126,-1000.0,-1000.0,-121.094,-1000.0
1742640950.13,-930.176,-855.469,-37.598,-939.453
1742640950.134,-1000.0,578.613,57.129,-1000.0
1742640950.091,-978.516,-933.105,12.207,-971.68
1742640950.095,415.527,526.367,158.691,423.828
1742640950.099,999.512,999.512,139.648,999.512
1742640950.103,892.578,877.441,47.852,894.043
1742640950.107,988.281,-254.395,20.02,986.328
1742640950.111,928.223,258.789,61.523,936.523
1742640950.115,972.656,999.512,84.473,959.961
1742640950.118,986.328,-640.625,-36.621,999.512
1742640950.122,-356.934,-1000.0,-124.023,-253.906
1742640950.126,-1000.0,-1000.0,-121.094,-1000.0
1742640950.13,-930.176,-855.469,-37.598,-939.453
1742640950.134,-1000.0,578.613,57.129,-1000.0
1742640950.137,-1000.0,33.203,32.227,-1000.0
1742640950.141,-1000.0,332.031,-3.906,-1000.0
1742640950.145,-933.105,179.199,-48.34,-937.012
1742640950.149,-1000.0,-1000.0,-58.594,-1000.0
1742640950.153,-757.324,-36.133,16.602,-805.176
1742640950.157,645.508,964.844,87.891,584.473
1742640950.161,999.512,999.512,43.457,999.512
1742640950.164,787.598,377.441,-90.332,740.234
1742640950.168,-580.566,-881.836,-163.574,-635.742
1742640950.172,-1000.0,-1000.0,-30.273,-1000.0
1742640950.176,-925.781,-132.812,20.508,-927.734
1742640950.18,-1000.0,963.379,-33.691,-1000.0
1742640950.182,-939.941,-498.047,-65.43,-944.824
1742640950.186,-1000.0,-1000.0,-53.223,-1000.0
1742640950.19,-857.91,547.363,14.16,-908.203
1742640950.194,620.605,999.512,40.039,551.758
1742640950.198,999.512,824.219,-26.855,999.512
1742640950.202,984.863,999.512,-47.852,996.094
1742640950.206,727.051,543.457,-32.227,603.516
1742640950.209,-769.043,-812.012,-30.762,-846.68
1742640950.213,-1000.0,-1000.0,-6.348,-1000.0
1742640950.217,-945.801,-153.809,3.906,-946.777
1742640950.221,-970.215,879.395,-34.668,-997.559
1742640950.225,-1000.0,-715.332,-114.258,-971.68
1742640950.182,-939.941,-498.047,-65.43,-944.824
1742640950.186,-1000.0,-1000.0,-53.223,-1000.0
1742640950.19,-857.91,547.363,14.16,-908.203
1742640950.194,620.605,999.512,40.039,551.758
1742640950.198,999.512,824.219,-26.855,999.512
1742640950.202,984.863,999.512,-47.852,996.094
1742640950.206,727.051,543.457,-32.227,603.516
1742640950.209,-769.043,-812.012,-30.762,-846.68
1742640950.213,-1000.0,-1000.0,-6.348,-1000.0
1742640950.217,-945.801,-153.809,3.906,-946.777
1742640950.221,-970.215,879.395,-34.668,-997.559
1742640950.225,-1000.0,-715.332,-114.258,-971.68
1742640950.226,-942.871,-906.738,-19.531,-1000.0
1742640950.23,376.465,754.395,106.445,-30.762
1742640950.234,999.512,999.512,17.578,999.512
1742640950.238,673.34,0.0,-60.547,585.938
1742640950.242,-718.75,-1000.0,-51.27,-835.449
1742640950.246,-1000.0,272.461,115.723,-1000.0
1742640950.25,-930.176,999.512,167.969,-938.477
1742640950.253,-1000.0,-592.285,0.0,-1000.0
1742640950.257,-1000.0,-1000.0,-71.777,-1000.0
1742640950.261,-1000.0,-919.922,-89.355,-1000.0
1742640950.265,-1000.0,205.566,-96.68,-1000.0
1742640950.269,-1000.0,999.512,-65.43,-1000.0
1742640950.226,-942.871,-906.738,-19.531,-1000.0
1742640950.23,376.465,754.395,106.445,-30.762
1742640950.234,999.512,999.512,17.578,999.512
1742640950.238,673.34,0.0,-60.547,585.938
1742640950.242,-718.75,-1000.0,-51.27,-835.449
1742640950.246,-1000.0,272.461,115.723,-1000.0
1742640950.25,-930.176,999.512,167.969,-938.477
1742640950.253,-1000.0,-592.285,0.0,-1000.0
1742640950.257,-1000.0,-1000.0,-71.777,-1000.0
1742640950.261,-1000.0,-919.922,-89.355,-1000.0
1742640950.265,-1000.0,205.566,-96.68,-1000.0
1742640950.269,-1000.0,999.512,-65.43,-1000.0
1742640950.273,-1000.0,800.781,-78.125,-1000.0
1742640950.277,-942.383,-526.855,-161.621,-1000.0
1742640950.281,-1000.0,-1000.0,-167.48,-939.453
1742640950.285,-873.535,-353.027,-83.008,-1000.0
1742640950.289,508.301,789.062,1.953,-895.508
1742640950.293,999.512,999.512,69.824,673.34
1742640950.297,782.715,711.426,-9.766,965.332
1742640950.3,-582.031,-616.211,-160.645,-669.434
1742640950.304,-1000.0,-1000.0,-144.043,-1000.0
1742640950.308,-925.781,-432.617,-2.441,-925.781
1742640950.312,-1000.0,973.633,20.996,-1000.0
1742640950.316,-1000.0,-130.859,-55.664,-1000.0
1742640950.273,-1000.0,800.781,-78.125,-1000.0
1742640950.277,-942.383,-526.855,-161.621,-1000.0
1742640950.281,-1000.0,-1000.0,-167.48,-939.453
1742640950.285,-873.535,-353.027,-83.008,-1000.0
1742640950.289,508.301,789.062,1.953,-895.508
1742640950.293,999.512,999.512,69.824,673.34
1742640950.297,782.715,711.426,-9.766,965.332
1742640950.3,-582.031,-616.211,-160.645,-669.434
1742640950.304,-1000.0,-1000.0,-144.043,-1000.0
1742640950.308,-925.781,-432.617,-2.441,-925.781
1742640950.312,-1000.0,973.633,20.996,-1000.0
1742640950.316,-1000.0,-130.859,-55.664,-1000.0
1742640950.332,-930.664,-902.832,-48.828,-958.984
1742640950.336,-1000.0,689.453,14.16,-1000.0
1742640950.34,-702.148,999.512,53.223,-1000.0
1742640950.344,855.469,931.641,41.504,427.246
1742640950.348,923.34,-264.648,-56.641,930.664
1742640950.352,-658.691,-1000.0,-86.426,-725.586
1742640950.356,-1000.0,32.715,-36.621,-1000.0
1742640950.359,-925.781,25.879,-37.598,-928.223
1742640950.363,-1000.0,-1000.0,-25.391,-1000.0
1742640950.367,-1000.0,-266.602,39.062,-1000.0
1742640950.371,-942.383,939.453,46.387,-962.891
1742640950.375,-1000.0,-588.379,-2.441,-1000.0
1742640950.332,-930.664,-902.832,-48.828,-958.984
1742640950.336,-1000.0,689.453,14.16,-1000.0
1742640950.34,-702.148,999.512,53.223,-1000.0
1742640950.344,855.469,931.641,41.504,427.246
1742640950.348,923.34,-264.648,-56.641,930.664
1742640950.352,-658.691,-1000.0,-86.426,-725.586
1742640950.356,-1000.0,32.715,-36.621,-1000.0
1742640950.359,-925.781,25.879,-37.598,-928.223
1742640950.363,-1000.0,-1000.0,-25.391,-1000.0
1742640950.367,-1000.0,-266.602,39.062,-1000.0
1742640950.371,-942.383,939.453,46.387,-962.891
1742640950.375,-1000.0,-588.379,-2.441,-1000.0
1742640950.377,-875.0,-967.773,39.551,-999.512
1742640950.381,505.859,652.832,118.652,249.023
1742640950.385,999.512,999.512,77.148,999.512
1742640950.389,782.227,479.98,21.484,710.449
1742640950.393,-582.031,-880.859,11.719,-682.129
1742640950.397,-1000.0,266.602,119.629,-1000.0
1742640950.401,-925.781,999.512,135.742,-929.199
1742640950.404,-1000.0,-415.527,32.227,-1000.0
1742640950.408,-941.406,-1000.0,-16.113,-957.031
1742640950.412,-1000.0,-538.574,-22.949,-1000.0
1742640950.416,-863.77,765.625,50.293,-971.68
1742640950.42,520.02,965.82,109.375,325.684
1742640950.377,-875.0,-967.773,39.551,-999.512
1742640950.381,505.859,652.832,118.652,249.023
1742640950.385,999.512,999.512,77.148,999.512
1742640950.389,782.227,479.98,21.484,710.449
1742640950.393,-582.031,-880.859,11.719,-682.129
1742640950.397,-1000.0,266.602,119.629,-1000.0
1742640950.401,-925.781,999.512,135.742,-929.199
1742640950.404,-1000.0,-415.527,32.227,-1000.0
1742640950.408,-941.406,-1000.0,-16.113,-957.031
1742640950.412,-1000.0,-538.574,-22.949,-1000.0
1742640950.416,-863.77,765.625,50.293,-971.68
1742640950.42,520.02,965.82,109.375,325.684
1742640950.422,999.512,999.512,84.961,999.512
1742640950.426,783.203,668.457,-0.977,781.25
1742640950.43,-581.543,-716.309,-113.281,-594.727
1742640950.434,-1000.0,-1000.0,-48.34,-1000.0
1742640950.438,-925.781,-799.316,30.762,-925.781
1742640950.442,-1000.0,685.059,61.035,-1000.0
1742640950.446,-1000.0,984.375,24.902,-1000.0
1742640950.449,-941.406,-693.848,-49.805,-930.176
1742640950.453,-1000.0,-1000.0,-47.852,-1000.0
1742640950.457,-291.504,339.355,36.621,-555.176
1742640950.461,909.18,999.512,47.363,825.684
1742640950.465,999.512,783.691,-8.301,999.512
1742640950.422,999.512,999.512,84.961,999.512
1742640950.426,783.203,668.457,-0.977,781.25
1742640950.43,-581.543,-716.309,-113.281,-594.727
1742640950.434,-1000.0,-1000.0,-48.34,-1000.0
1742640950.438,-925.781,-799.316,30.762,-925.781
1742640950.442,-1000.0,685.059,61.035,-1000.0
1742640950.446,-1000.0,984.375,24.902,-1000.0
1742640950.449,-941.406,-693.848,-49.805,-930.176
1742640950.453,-1000.0,-1000.0,-47.852,-1000.0
1742640950.457,-291.504,339.355,36.621,-555.176
1742640950.461,909.18,999.512,47.363,825.684
1742640950.465,999.512,783.691,-8.301,999.512
1742640950.466,365.234,-515.625,-82.52,56.641
1742640950.47,-950.684,-1000.0,-56.152,-1000.0
1742640950.474,-1000.0,-726.074,63.965,-985.352
1742640950.478,-955.078,833.008,85.449,-976.562
1742640950.482,-1000.0,140.137,15.625,-1000.0
1742640950.486,-1000.0,-678.223,6.348,-1000.0
1742640950.49,-1000.0,872.07,66.895,-1000.0
1742640950.493,-934.57,-218.75,90.332,-930.176
1742640950.497,-1000.0,-1000.0,57.129,-1000.0
1742640950.501,-417.969,223.633,82.52,-555.664
1742640950.505,932.129,999.512,67.871,864.258
1742640950.509,999.512,756.348,-5.859,999.512
1742640950.466,365.234,-515.625,-82.52,56.641
1742640950.47,-950.684,-1000.0,-56.152,-1000.0
1742640950.474,-1000.0,-726.074,63.965,-985.352
1742640950.478,-955.078,833.008,85.449,-976.562
1742640950.482,-1000.0,140.137,15.625,-1000.0
1742640950.486,-1000.0,-678.223,6.348,-1000.0
1742640950.49,-1000.0,872.07,66.895,-1000.0
1742640950.493,-934.57,-218.75,90.332,-930.176
1742640950.497,-1000.0,-1000.0,57.129,-1000.0
1742640950.501,-417.969,223.633,82.52,-555.664
1742640950.505,932.129,999.512,67.871,864.258
1742640950.509,999.512,756.348,-5.859,999.512
1742640950.512,858.398,-457.52,81.055,847.168
1742640950.516,999.512,442.383,156.738,999.512
1742640950.52,784.18,51.27,24.902,720.215
1742640950.524,-689.453,-1000.0,-88.867,-738.77
1742640950.528,-1000.0,-930.176,-59.082,-1000.0
1742640950.532,-928.223,527.344,37.109,-933.105
1742640950.536,-1000.0,999.512,30.762,-1000.0
1742640950.539,-1000.0,-720.703,-56.152,-1000.0
1742640950.543,-928.711,-1000.0,-32.227,-932.129
1742640950.547,-1000.0,615.723,13.184,-1000.0
1742640950.551,-662.598,999.512,50.293,-745.117
1742640950.555,817.871,903.809,88.867,738.281
1742640950.512,858.398,-457.52,81.055,847.168
1742640950.516,999.512,442.383,156.738,999.512
1742640950.52,784.18,51.27,24.902,720.215
1742640950.524,-689.453,-1000.0,-88.867,-738.77
1742640950.528,-1000.0,-930.176,-59.082,-1000.0
1742640950.532,-928.223,527.344,37.109,-933.105
1742640950.536,-1000.0,999.512,30.762,-1000.0
1742640950.539,-1000.0,-720.703,-56.152,-1000.0
1742640950.543,-928.711,-1000.0,-32.227,-932.129
1742640950.547,-1000.0,615.723,13.184,-1000.0
1742640950.551,-662.598,999.512,50.293,-745.117
1742640950.555,817.871,903.809,88.867,738.281
1742640950.556,969.727,982.422,42.48,990.234
1742640950.56,980.957,-375.977,-23.438,989.258
1742640950.564,772.949,-1000.0,-68.848,624.512
1742640950.568,-645.996,-974.121,-48.828,-738.77
1742640950.572,-1000.0,-922.852,-40.039,-1000.0
1742640950.576,-819.824,429.199,-14.16,-818.359
1742640950.58,546.387,999.512,3.906,555.664
1742640950.583,999.512,697.754,-93.262,999.512
1742640950.587,909.18,-779.785,-38.086,910.645
1742640950.591,914.062,-187.5,129.883,916.504
1742640950.595,999.512,999.512,106.934,999.512
1742640950.599,735.352,-3.906,-6.348,749.023
1742640950.556,969.727,982.422,42.48,990.234
1742640950.56,980.957,-375.977,-23.438,989.258
1742640950.564,772.949,-1000.0,-68.848,624.512
1742640950.568,-645.996,-974.121,-48.828,-738.77
1742640950.572,-1000.0,-922.852,-40.039,-1000.0
1742640950.576,-819.824,429.199,-14.16,-818.359
1742640950.58,546.387,999.512,3.906,555.664
1742640950.583,999.512,697.754,-93.262,999.512
1742640950.587,909.18,-779.785,-38.086,910.645
1742640950.591,914.062,-187.5,129.883,916.504
1742640950.595,999.512,999.512,106.934,999.512
1742640950.599,735.352,-3.906,-6.348,749.023
1742640950.602,-759.277,-1000.0,-37.109,-717.773
1742640950.606,-1000.0,-1000.0,-8.301,-1000.0
1742640950.61,-1000.0,-489.746,10.254,-1000.0
1742640950.614,-714.844,882.324,-12.695,-362.793
1742640950.618,776.367,942.871,-58.594,897.949
1742640950.622,999.512,994.629,-53.711,991.211
1742640950.626,901.367,732.422,-73.242,926.758
1742640950.629,999.512,-751.465,-53.223,994.629
1742640950.633,908.691,-1000.0,4.883,909.18
1742640950.637,999.512,374.512,13.184,999.512
1742640950.641,840.332,931.152,-50.781,843.75
1742640950.645,-537.598,-761.719,-105.469,-533.691
1742640950.646,-1000.0,-1000.0,11.23,-1000.0
1742640950.65,-788.086,470.703,161.133,-615.723
1742640950.654,584.473,999.512,210.938,724.609
1742640950.658,999.512,831.055,175.781,999.512
1742640950.662,906.738,-557.617,124.512,911.621
1742640950.666,932.617,145.996,209.473,954.102
1742640950.67,999.512,999.512,236.816,954.59
1742640950.673,897.461,-214.844,171.875,999.512
1742640950.677,-450.195,-1000.0,74.219,-166.016
1742640950.681,-1000.0,-1000.0,84.961,-1000.0
1742640950.685,-848.145,-810.547,329.102,-847.656
1742640950.689,501.953,558.594,423.34,541.016
1742640950.646,-1000.0,-1000.0,11.23,-1000.0
1742640950.65,-788.086,470.703,161.133,-615.723
1742640950.654,584.473,999.512,210.938,724.609
1742640950.658,999.512,831.055,175.781,999.512
1742640950.662,906.738,-557.617,124.512,911.621
1742640950.666,932.617,145.996,209.473,954.102
1742640950.67,999.512,999.512,236.816,954.59
1742640950.673,897.461,-214.844,171.875,999.512
1742640950.677,-450.195,-1000.0,74.219,-166.016
1742640950.681,-1000.0,-1000.0,84.961,-1000.0
1742640950.685,-848.145,-810.547,329.102,-847.656
1742640950.689,501.953,558.594,423.34,541.016
1742640950.706,999.512,999.512,325.684,999.512
1742640950.71,891.602,796.875,295.41,892.09
1742640950.714,980.957,-727.539,248.535,982.422
1742640950.718,982.91,-670.898,297.363,983.398
1742640950.722,903.32,841.309,377.93,908.691
1742640950.726,999.512,999.512,398.438,999.512
1742640950.73,782.715,185.547,219.238,837.402
1742640950.733,-610.84,-901.367,-31.25,-544.922
1742640950.737,-1000.0,-1000.0,-54.199,-1000.0
1742640950.741,-818.848,-568.848,32.715,-812.012
1742640950.745,546.875,727.051,67.383,554.199
1742640950.749,999.512,999.512,117.676,999.512
1742640950.706,999.512,999.512,325.684,999.512
1742640950.71,891.602,796.875,295.41,892.09
1742640950.714,980.957,-727.539,248.535,982.422
1742640950.718,982.91,-670.898,297.363,983.398
1742640950.722,903.32,841.309,377.93,908.691
1742640950.726,999.512,999.512,398.438,999.512
1742640950.73,782.715,185.547,219.238,837.402
1742640950.733,-610.84,-901.367,-31.25,-544.922
1742640950.737,-1000.0,-1000.0,-54.199,-1000.0
1742640950.741,-818.848,-568.848,32.715,-812.012
1742640950.745,546.875,727.051,67.383,554.199
1742640950.749,999.512,999.512,117.676,999.512
1742640950.751,891.602,-125.0,169.434,892.578
1742640950.755,981.934,-902.832,231.934,982.91
1742640950.759,966.309,809.082,252.441,966.797
1742640950.763,966.797,835.449,182.617,966.797
1742640950.767,979.492,-810.059,199.707,982.91
1742640950.771,897.949,345.215,187.988,909.18
1742640950.775,999.512,999.512,165.039,999.512
1742640950.778,551.758,-500.488,105.469,857.91
1742640950.782,-883.301,-1000.0,-37.109,-612.793
1742640950.786,-1000.0,-929.199,2.441,-1000.0
1742640950.79,-985.352,400.391,88.867,-981.445
1742640950.794,-943.848,863.281,125.0,-898.926
1742640950.751,891.602,-125.0,169.434,892.578
1742640950.755,981.934,-902.832,231.934,982.91
1742640950.759,966.309,809.082,252.441,966.797
1742640950.763,966.797,835.449,182.617,966.797
1742640950.767,979.492,-810.059,199.707,982.91
1742640950.771,897.949,345.215,187.988,909.18
1742640950.775,999.512,999.512,165.039,999.512
1742640950.778,551.758,-500.488,105.469,857.91
1742640950.782,-883.301,-1000.0,-37.109,-612.793
1742640950.786,-1000.0,-929.199,2.441,-1000.0
1742640950.79,-985.352,400.391,88.867,-981.445
1742640950.794,-943.848,863.281,125.0,-898.926
1742640950.797,504.883,771.484,229.492,570.801
1742640950.801,999.512,953.125,270.508,999.512
1742640950.805,891.602,-659.668,201.66,893.066
1742640950.809,985.352,-1000.0,208.008,983.398
1742640950.813,950.195,557.129,169.434,981.445
1742640950.817,934.082,999.512,233.398,897.949
1742640950.821,999.512,765.137,304.199,999.512
1742640950.824,-57.129,-577.148,75.684,566.406
1742640950.828,-1000.0,-1000.0,-28.32,-781.738
1742640950.832,-1000.0,-983.398,109.863,-1000.0
1742640950.836,-799.805,-22.949,169.922,-664.062
1742640950.84,659.18,997.07,200.684,727.051
1742640950.797,504.883,771.484,229.492,570.801
1742640950.801,999.512,953.125,270.508,999.512
1742640950.805,891.602,-659.668,201.66,893.066
1742640950.809,985.352,-1000.0,208.008,983.398
1742640950.813,950.195,557.129,169.434,981.445
1742640950.817,934.082,999.512,233.398,897.949
1742640950.821,999.512,765.137,304.199,999.512
1742640950.824,-57.129,-577.148,75.684,566.406
1742640950.828,-1000.0,-1000.0,-28.32,-781.738
1742640950.832,-1000.0,-983.398,109.863,-1000.0
1742640950.836,-799.805,-22.949,169.922,-664.062
1742640950.84,659.18,997.07,200.684,727.051
1742640950.841,999.512,999.512,264.648,999.512
1742640950.845,894.531,-20.02,254.883,900.879
1742640950.849,983.887,-1000.0,220.703,983.887
1742640950.853,978.027,212.891,320.801,984.375
1742640950.857,896.484,999.512,315.43,897.949
1742640950.861,999.512,936.523,214.355,999.512
1742640950.865,469.727,-165.527,88.867,692.383
1742640950.868,-858.398,-1000.0,-37.109,-699.219
1742640950.872,-1000.0,-977.539,-44.922,-1000.0
1742640950.876,-816.406,173.34,-61.035,-656.738
1742640950.88,579.59,999.512,-172.852,713.379
1742640950.884,999.512,850.586,-228.516,999.512
1742640950.841,999.512,999.512,264.648,999.512
1742640950.845,894.531,-20.02,254.883,900.879
1742640950.849,983.887,-1000.0,220.703,983.887
1742640950.853,978.027,212.891,320.801,984.375
1742640950.857,896.484,999.512,315.43,897.949
1742640950.861,999.512,936.523,214.355,999.512
1742640950.865,469.727,-165.527,88.867,692.383
1742640950.868,-858.398,-1000.0,-37.109,-699.219
1742640950.872,-1000.0,-977.539,-44.922,-1000.0
1742640950.876,-816.406,173.34,-61.035,-656.738
1742640950.88,579.59,999.512,-172.852,713.379
1742640950.884,999.512,850.586,-228.516,999.512
1742640950.886,893.066,115.723,-102.051,901.367
1742640950.89,988.281,-790.527,178.223,999.512
1742640950.894,903.32,-863.281,265.625,899.902
1742640950.898,999.512,395.508,46.387,999.512
1742640950.902,364.258,-241.211,-134.277,747.07
1742640950.906,-927.734,-1000.0,-9.277,-737.793
1742640950.91,-1000.0,-511.23,8.301,-1000.0
1742640950.913,-63.477,691.895,-151.367,247.559
1742640950.917,999.512,999.512,-62.988,999.512
1742640950.921,941.406,794.922,24.414,911.621
1742640950.925,949.707,-704.59,-189.453,965.332
1742640950.929,960.938,-979.492,-276.855,981.445
1742640950.886,893.066,115.723,-102.051,901.367
1742640950.89,988.281,-790.527,178.223,999.512
1742640950.894,903.32,-863.281,265.625,899.902
1742640950.898,999.512,395.508,46.387,999.512
1742640950.902,364.258,-241.211,-134.277,747.07
1742640950.906,-927.734,-1000.0,-9.277,-737.793
1742640950.91,-1000.0,-511.23,8.301,-1000.0
1742640950.913,-63.477,691.895,-151.367,247.559
1742640950.917,999.512,999.512,-62.988,999.512
1742640950.921,941.406,794.922,24.414,911.621
1742640950.925,949.707,-704.59,-189.453,965.332
1742640950.929,960.938,-979.492,-276.855,981.445
1742640950.932,925.293,742.676,-188.477,897.461
1742640950.936,999.512,985.352,-255.859,999.512
1742640950.94,44.434,-533.203,-421.875,542.48
1742640950.944,-1000.0,-1000.0,-522.461,-851.562
1742640950.948,-1000.0,-588.379,-461.426,-1000.0
1742640950.952,-284.668,582.52,-314.453,39.062
1742640950.956,969.727,999.512,-250.977,999.512
1742640950.959,971.191,627.441,-342.773,944.336
1742640950.963,931.152,-861.816,-421.875,947.754
1742640950.967,976.074,-925.293,-333.008,972.168
1742640950.971,970.703,877.441,-167.969,970.215
1742640950.975,950.684,740.234,-168.457,958.496
1742640950.932,925.293,742.676,-188.477,897.461
1742640950.936,999.512,985.352,-255.859,999.512
1742640950.94,44.434,-533.203,-421.875,542.48
1742640950.944,-1000.0,-1000.0,-522.461,-851.562
1742640950.948,-1000.0,-588.379,-461.426,-1000.0
1742640950.952,-284.668,582.52,-314.453,39.062
1742640950.956,969.727,999.512,-250.977,999.512
1742640950.959,971.191,627.441,-342.773,944.336
1742640950.963,931.152,-861.816,-421.875,947.754
1742640950.967,976.074,-925.293,-333.008,972.168
1742640950.971,970.703,877.441,-167.969,970.215
1742640950.975,950.684,740.234,-168.457,958.496
1742640950.976,931.152,-571.777,-43.945,922.363
1742640950.98,999.512,508.301,66.895,999.512
1742640950.984,-35.645,-194.336,-32.715,92.773
1742640950.988,-1000.0,-1000.0,161.621,-1000.0
1742640950.992,-960.938,-944.336,85.938,-979.98
1742640950.996,-1000.0,501.465,-92.773,-994.629
1742640951.0,-933.594,986.816,-104.492,-937.5
1742640951.003,-1000.0,-750.0,-177.246,-1000.0
1742640951.007,-730.469,-134.766,-123.047,-702.637
1742640951.011,748.047,999.512,-68.359,760.742
1742640951.015,999.512,984.863,-119.629,999.512
1742640951.019,898.926,-356.934,-63.965,902.344
1742640950.976,931.152,-571.777,-43.945,922.363
1742640950.98,999.512,508.301,66.895,999.512
1742640950.984,-35.645,-194.336,-32.715,92.773
1742640950.988,-1000.0,-1000.0,161.621,-1000.0
1742640950.992,-960.938,-944.336,85.938,-979.98
1742640950.996,-1000.0,501.465,-92.773,-994.629
1742640951.0,-933.594,986.816,-104.492,-937.5
1742640951.003,-1000.0,-750.0,-177.246,-1000.0
1742640951.007,-730.469,-134.766,-123.047,-702.637
1742640951.011,748.047,999.512,-68.359,760.742
1742640951.015,999.512,984.863,-119.629,999.512
1742640951.019,898.926,-356.934,-63.965,902.344
1742640951.021,999.512,-1000.0,105.957,999.512
1742640951.025,908.203,534.668,101.074,910.645
1742640951.029,999.512,999.512,9.766,999.512
1742640951.033,857.422,-217.773,-65.43,866.699
1742640951.037,-597.656,-1000.0,-187.5,-582.52
1742640951.041,-1000.0,-724.121,-145.508,-1000.0
1742640951.045,-925.781,676.27,-69.336,-925.781
1742640951.048,-1000.0,-214.355,-183.594,-1000.0
1742640951.052,-937.988,-1000.0,-236.328,-937.988
1742640951.056,-1000.0,-912.598,-241.699,-1000.0
1742640951.06,-838.379,375.0,-173.828,-820.801
1742640951.064,629.883,999.512,-93.262,639.648
1742640951.021,999.512,-1000.0,105.957,999.512
1742640951.025,908.203,534.668,101.074,910.645
1742640951.029,999.512,999.512,9.766,999.512
1742640951.033,857.422,-217.773,-65.43,866.699
1742640951.037,-597.656,-1000.0,-187.5,-582.52
1742640951.041,-1000.0,-724.121,-145.508,-1000.0
1742640951.045,-925.781,676.27,-69.336,-925.781
1742640951.048,-1000.0,-214.355,-183.594,-1000.0
1742640951.052,-937.988,-1000.0,-236.328,-937.988
1742640951.056,-1000.0,-912.598,-241.699,-1000.0
1742640951.06,-838.379,375.0,-173.828,-820.801
1742640951.064,629.883,999.512,-93.262,639.648
1742640951.082,999.512,957.031,-132.812,999.512
1742640951.086,893.555,838.379,-169.434,895.996
1742640951.09,983.398,-630.371,-258.301,983.398
1742640951.094,969.727,-1000.0,-280.762,968.75
1742640951.098,954.59,75.684,-209.473,964.844
1742640951.102,925.781,999.512,-171.387,913.574
1742640951.106,999.512,749.512,-196.777,999.512
1742640951.109,10.254,-596.68,-273.926,201.172
1742640951.113,-1000.0,-1000.0,-268.066,-954.59
1742640951.117,-1000.0,-883.301,-32.715,-1000.0
1742640951.121,-644.531,491.211,162.109,-492.676
1742640951.125,814.941,999.512,221.68,864.746
1742640951.082,999.512,957.031,-132.812,999.512
1742640951.086,893.555,838.379,-169.434,895.996
1742640951.09,983.398,-630.371,-258.301,983.398
1742640951.094,969.727,-1000.0,-280.762,968.75
1742640951.098,954.59,75.684,-209.473,964.844
1742640951.102,925.781,999.512,-171.387,913.574
1742640951.106,999.512,749.512,-196.777,999.512
1742640951.109,10.254,-596.68,-273.926,201.172
1742640951.113,-1000.0,-1000.0,-268.066,-954.59
1742640951.117,-1000.0,-883.301,-32.715,-1000.0
1742640951.121,-644.531,491.211,162.109,-492.676
1742640951.125,814.941,999.512,221.68,864.746
1742640951.114,963.867,598.633,128.906,949.707
1742640951.118,999.512,686.035,59.57,999.512
1742640951.122,481.934,-488.281,-3.906,467.773
1742640951.126,-851.562,-1000.0,-47.852,-856.445
1742640951.13,-1000.0,-824.219,-17.578,-1000.0
1742640951.134,-541.992,522.461,-2.441,-232.422
1742640951.138,835.938,999.512,-52.734,939.453
1742640951.141,999.512,-211.914,-105.957,989.258
1742640951.145,854.98,-1000.0,-80.078,883.301
1742640951.149,999.512,680.664,-21.484,999.512
1742640951.153,887.207,895.02,-95.703,921.387
1742640951.157,-550.781,-906.738,-161.133,-489.258
1742640951.114,963.867,598.633,128.906,949.707
1742640951.118,999.512,686.035,59.57,999.512
1742640951.122,481.934,-488.281,-3.906,467.773
1742640951.126,-851.562,-1000.0,-47.852,-856.445
1742640951.13,-1000.0,-824.219,-17.578,-1000.0
1742640951.134,-541.992,522.461,-2.441,-232.422
1742640951.138,835.938,999.512,-52.734,939.453
1742640951.141,999.512,-211.914,-105.957,989.258
1742640951.145,854.98,-1000.0,-80.078,883.301
1742640951.149,999.512,680.664,-21.484,999.512
1742640951.153,887.207,895.02,-95.703,921.387
1742640951.157,-550.781,-906.738,-161.133,-489.258
1742640951.171,-1000.0,-931.152,-1.465,-1000.0
1742640951.175,-883.789,752.93,36.621,-880.371
1742640951.179,-1000.0,-275.879,-129.395,-1000.0
1742640951.183,-999.512,-606.934,-102.051,-968.262
1742640951.187,369.141,899.414,80.078,421.387
1742640951.191,999.512,999.512,244.629,999.512
1742640951.195,894.531,814.453,470.703,895.02
1742640951.198,984.375,-668.945,568.359,986.328
1742640951.202,933.105,-1000.0,572.754,935.547
1742640951.206,961.914,650.879,666.504,960.938
1742640951.21,999.512,896.484,689.941,999.512
1742640951.214,-292.969,-717.773,620.117,-257.324
1742640951.171,-1000.0,-931.152,-1.465,-1000.0
1742640951.175,-883.789,752.93,36.621,-880.371
1742640951.179,-1000.0,-275.879,-129.395,-1000.0
1742640951.183,-999.512,-606.934,-102.051,-968.262
1742640951.187,369.141,899.414,80.078,421.387
1742640951.191,999.512,999.512,244.629,999.512
1742640951.195,894.531,814.453,470.703,895.02
1742640951.198,984.375,-668.945,568.359,986.328
1742640951.202,933.105,-1000.0,572.754,935.547
1742640951.206,961.914,650.879,666.504,960.938
1742640951.21,999.512,896.484,689.941,999.512
1742640951.214,-292.969,-717.773,620.117,-257.324
1742640951.218,-1000.0,-1000.0,547.852,-1000.0
1742640951.222,-943.359,-1000.0,507.324,-950.195
1742640951.226,-967.773,0.977,438.477,-963.867
1742640951.23,-1000.0,924.805,303.223,-1000.0
1742640951.234,-1000.0,-417.969,322.754,-1000.0
1742640951.238,308.594,262.695,484.375,318.359
1742640951.242,999.512,999.512,524.414,999.512
1742640951.245,896.484,605.469,450.195,897.461
1742640951.249,973.145,-888.184,393.066,974.121
1742640951.253,966.309,-447.754,379.883,967.285
1742640951.257,975.586,999.512,277.832,971.68
1742640951.261,932.129,225.098,193.848,951.172
1742640951.218,-1000.0,-1000.0,547.852,-1000.0
1742640951.222,-943.359,-1000.0,507.324,-950.195
1742640951.226,-967.773,0.977,438.477,-963.867
1742640951.23,-1000.0,924.805,303.223,-1000.0
1742640951.234,-1000.0,-417.969,322.754,-1000.0
1742640951.238,308.594,262.695,484.375,318.359
1742640951.242,999.512,999.512,524.414,999.512
1742640951.245,896.484,605.469,450.195,897.461
1742640951.249,973.145,-888.184,393.066,974.121
1742640951.253,966.309,-447.754,379.883,967.285
1742640951.257,975.586,999.512,277.832,971.68
1742640951.261,932.129,225.098,193.848,951.172
1742640951.261,963.867,-712.891,191.895,933.594
1742640951.265,999.512,523.926,134.766,999.512
1742640951.269,-281.738,-386.719,122.07,6.836
1742640951.273,-1000.0,-1000.0,308.594,-1000.0
1742640951.277,-1000.0,-818.848,250.0,-996.094
1742640951.281,115.723,501.465,255.371,289.551
1742640951.285,999.512,999.512,277.344,999.512
1742640951.288,912.109,85.449,286.133,900.879
1742640951.292,962.402,232.422,364.258,971.68
1742640951.296,967.773,732.91,176.758,967.285
1742640951.3,966.309,-673.34,77.148,967.285
1742640951.304,966.309,286.133,226.562,966.797
1742640951.261,963.867,-712.891,191.895,933.594
1742640951.265,999.512,523.926,134.766,999.512
1742640951.269,-281.738,-386.719,122.07,6.836
1742640951.273,-1000.0,-1000.0,308.594,-1000.0
1742640951.277,-1000.0,-818.848,250.0,-996.094
1742640951.281,115.723,501.465,255.371,289.551
1742640951.285,999.512,999.512,277.344,999.512
1742640951.288,912.109,85.449,286.133,900.879
1742640951.292,962.402,232.422,364.258,971.68
1742640951.296,967.773,732.91,176.758,967.285
1742640951.3,966.309,-673.34,77.148,967.285
1742640951.304,966.309,286.133,226.562,966.797
1742640951.307,972.168,-223.633,283.203,966.797
1742640951.311,945.801,-386.719,336.914,967.285
1742640951.315,925.781,999.512,309.082,966.797
1742640951.319,999.512,793.457,227.539,966.797
1742640951.323,-158.691,-797.852,103.516,967.285
1742640951.327,-976.074,-741.699,128.906,967.285
1742640951.331,625.488,934.082,361.328,966.797
1742640951.334,999.512,875.977,438.965,967.285
1742640951.338,888.672,-769.531,352.051,967.285
1742640951.342,982.422,-1000.0,71.777,966.797
1742640951.346,966.309,775.879,-90.332,966.797
1742640951.35,966.309,860.84,-46.875,966.797
1742640951.307,972.168,-223.633,283.203,966.797
1742640951.311,945.801,-386.719,336.914,967.285
1742640951.315,925.781,999.512,309.082,966.797
1742640951.319,999.512,793.457,227.539,966.797
1742640951.323,-158.691,-797.852,103.516,967.285
1742640951.327,-976.074,-741.699,128.906,967.285
1742640951.331,625.488,934.082,361.328,966.797
1742640951.334,999.512,875.977,438.965,967.285
1742640951.338,888.672,-769.531,352.051,967.285
1742640951.342,982.422,-1000.0,71.777,966.797
1742640951.346,966.309,775.879,-90.332,966.797
1742640951.35,966.309,860.84,-46.875,966.797
1742640951.351,966.309,-520.02,-42.48,967.285
1742640951.355,966.309,558.594,-7.812,966.797
1742640951.359,966.309,-35.645,-152.344,966.797
1742640951.363,979.004,-1000.0,-182.129,966.797
1742640951.367,920.41,-2.441,-125.0,966.797
1742640951.371,989.746,999.512,-187.012,966.797
1742640951.375,932.129,821.289,-276.367,966.797
1742640951.378,-384.766,-644.043,-462.402,966.797
1742640951.382,-1000.0,-1000.0,-431.152,967.285
1742640951.386,-388.672,165.039,-208.496,966.797
1742640951.39,896.973,999.512,-222.168,966.797
1742640951.394,999.512,653.32,-387.695,966.797
1742640951.351,966.309,-520.02,-42.48,967.285
1742640951.355,966.309,558.594,-7.812,966.797
1742640951.359,966.309,-35.645,-152.344,966.797
1742640951.363,979.004,-1000.0,-182.129,966.797
1742640951.367,920.41,-2.441,-125.0,966.797
1742640951.371,989.746,999.512,-187.012,966.797
1742640951.375,932.129,821.289,-276.367,966.797
1742640951.378,-384.766,-644.043,-462.402,966.797
1742640951.382,-1000.0,-1000.0,-431.152,967.285
1742640951.386,-388.672,165.039,-208.496,966.797
1742640951.39,896.973,999.512,-222.168,966.797
1742640951.394,999.512,653.32,-387.695,966.797
1742640951.398,-273.438,-855.469,-391.113,966.797
1742640951.402,-1000.0,-582.031,-290.039,966.797
1742640951.406,266.113,811.035,-231.445,966.797
1742640951.41,999.512,999.512,-92.285,966.797
1742640951.414,905.273,604.004,-89.355,966.797
1742640951.418,966.797,-674.805,-94.238,966.797
1742640951.422,967.285,555.176,-0.488,966.797
1742640951.425,966.309,272.949,40.039,966.797
1742640951.429,966.309,-1000.0,149.902,967.285
1742640951.433,966.309,354.98,157.227,966.797
1742640951.437,966.309,999.512,-30.762,966.797
1742640951.441,966.309,-470.215,-64.453,966.797
1742640951.398,-273.438,-855.469,-391.113,966.797
1742640951.402,-1000.0,-582.031,-290.039,966.797
1742640951.406,266.113,811.035,-231.445,966.797
1742640951.41,999.512,999.512,-92.285,966.797
1742640951.414,905.273,604.004,-89.355,966.797
1742640951.418,966.797,-674.805,-94.238,966.797
1742640951.422,967.285,555.176,-0.488,966.797
1742640951.425,966.309,272.949,40.039,966.797
1742640951.429,966.309,-1000.0,149.902,967.285
1742640951.433,966.309,354.98,157.227,966.797
1742640951.437,966.309,999.512,-30.762,966.797
1742640951.441,966.309,-470.215,-64.453,966.797
1742640951.398,-273.438,-855.469,-391.113,966.797
1742640951.402,-1000.0,-582.031,-290.039,966.797
1742640951.406,266.113,811.035,-231.445,966.797
1742640951.41,999.512,999.512,-92.285,966.797
1742640951.414,905.273,604.004,-89.355,966.797
1742640951.418,966.797,-674.805,-94.238,966.797
1742640951.422,967.285,555.176,-0.488,966.797
1742640951.425,966.309,272.949,40.039,966.797
1742640951.429,966.309,-1000.0,149.902,967.285
1742640951.433,966.309,354.98,157.227,966.797
1742640951.437,966.309,999.512,-30.762,966.797
1742640951.441,966.309,-470.215,-64.453,966.797
1742640951.456,966.309,-877.93,28.32,966.797
1742640951.46,966.309,959.473,38.574,966.797
1742640951.464,966.309,626.465,12.695,966.797
1742640951.468,966.309,-682.617,155.762,967.285
1742640951.472,966.309,481.934,155.762,967.285
1742640951.476,966.309,999.512,10.742,966.797
1742640951.48,966.309,717.285,5.371,966.797
1742640951.483,966.309,-627.441,-74.707,966.797
1742640951.487,982.91,-1000.0,-142.09,966.797
1742640951.491,906.738,-17.578,-125.977,967.285
1742640951.495,999.512,999.512,-201.172,967.285
1742640951.499,838.867,238.77,-376.465,981.934
1742640951.456,966.309,-877.93,28.32,966.797
1742640951.46,966.309,959.473,38.574,966.797
1742640951.464,966.309,626.465,12.695,966.797
1742640951.468,966.309,-682.617,155.762,967.285
1742640951.472,966.309,481.934,155.762,967.285
1742640951.476,966.309,999.512,10.742,966.797
1742640951.48,966.309,717.285,5.371,966.797
1742640951.483,966.309,-627.441,-74.707,966.797
1742640951.487,982.91,-1000.0,-142.09,966.797
1742640951.491,906.738,-17.578,-125.977,967.285
1742640951.495,999.512,999.512,-201.172,967.285
1742640951.499,838.867,238.77,-376.465,981.934
1742640951.502,-620.605,-976.074,-475.586,904.297
1742640951.506,-1000.0,-1000.0,-488.281,999.512
1742640951.51,-907.715,-903.809,-547.363,763.184
1742640951.514,-986.328,-1000.0,-553.223,-716.309
1742640951.518,-1000.0,-853.516,-410.156,-1000.0
1742640951.522,-11.719,542.48,-209.473,274.414
1742640951.526,999.512,999.512,-133.301,999.512
1742640951.529,764.16,367.676,-267.09,740.234
1742640951.533,-666.504,-898.438,-354.492,-659.18
1742640951.537,-1000.0,-981.445,-232.422,-1000.0
1742640951.541,-927.246,-999.512,-72.266,-927.734
1742640951.545,-1000.0,-952.148,42.48,-1000.0
1742640951.502,-620.605,-976.074,-475.586,904.297
1742640951.506,-1000.0,-1000.0,-488.281,999.512
1742640951.51,-907.715,-903.809,-547.363,763.184
1742640951.514,-986.328,-1000.0,-553.223,-716.309
1742640951.518,-1000.0,-853.516,-410.156,-1000.0
1742640951.522,-11.719,542.48,-209.473,274.414
1742640951.526,999.512,999.512,-133.301,999.512
1742640951.529,764.16,367.676,-267.09,740.234
1742640951.533,-666.504,-898.438,-354.492,-659.18
1742640951.537,-1000.0,-981.445,-232.422,-1000.0
1742640951.541,-927.246,-999.512,-72.266,-927.734
1742640951.545,-1000.0,-952.148,42.48,-1000.0
1742640951.547,-1000.0,677.246,61.523,-1000.0
1742640951.551,-1000.0,523.926,55.664,-1000.0
1742640951.555,-1000.0,-938.965,48.828,-1000.0
1742640951.559,-1000.0,-1000.0,26.367,-1000.0
1742640951.563,-1000.0,-862.305,97.656,-1000.0
1742640951.567,-1000.0,708.984,200.684,-1000.0
1742640951.571,-1000.0,762.695,38.086,-1000.0
1742640951.574,-1000.0,-1000.0,-13.184,-1000.0
1742640951.578,-1000.0,-311.523,108.398,-1000.0
1742640951.582,-1000.0,459.961,42.969,-1000.0
1742640951.586,-1000.0,-846.68,-45.41,-1000.0
1742640951.59,-1000.0,-1000.0,-43.457,-1000.0
1742640951.592,-1000.0,-786.621,-2.441,-1000.0
1742640951.596,-1000.0,720.215,21.484,-1000.0
1742640951.6,-1000.0,896.484,-86.426,-1000.0
1742640951.604,-1000.0,-781.738,-157.715,-1000.0
1742640951.608,-1000.0,-1000.0,-24.414,-1000.0
1742640951.612,-1000.0,552.246,232.422,-1000.0
1742640951.616,-1000.0,999.512,330.566,-1000.0
1742640951.619,-1000.0,-569.336,192.383,-1000.0
1742640951.623,-1000.0,-1000.0,-15.625,-1000.0
1742640951.627,-1000.0,-1000.0,-84.473,-1000.0
1742640951.631,-1000.0,62.988,-45.898,-1000.0
1742640951.635,-1000.0,877.93,3.906,-1000.0
1742640951.592,-1000.0,-786.621,-2.441,-1000.0
1742640951.596,-1000.0,720.215,21.484,-1000.0
1742640951.6,-1000.0,896.484,-86.426,-1000.0
1742640951.604,-1000.0,-781.738,-157.715,-1000.0
1742640951.608,-1000.0,-1000.0,-24.414,-1000.0
1742640951.612,-1000.0,552.246,232.422,-1000.0
1742640951.616,-1000.0,999.512,330.566,-1000.0
1742640951.619,-1000.0,-569.336,192.383,-1000.0
1742640951.623,-1000.0,-1000.0,-15.625,-1000.0
1742640951.627,-1000.0,-1000.0,-84.473,-1000.0
1742640951.631,-1000.0,62.988,-45.898,-1000.0
1742640951.635,-1000.0,877.93,3.906,-1000.0
1742640951.637,-1000.0,-602.051,22.949,-1000.0
1742640951.641,-1000.0,164.062,12.207,-1000.0
1742640951.645,-946.289,-24.902,-120.605,-1000.0
1742640951.649,-1000.0,-1000.0,-115.723,-1000.0
1742640951.653,-978.516,-550.293,-18.555,-1000.0
1742640951.657,569.336,893.066,-53.223,-1000.0
1742640951.661,981.445,887.207,-144.531,-1000.0
1742640951.664,-672.363,-596.68,-192.383,-1000.0
1742640951.668,-1000.0,-1000.0,-80.566,-1000.0
1742640951.672,-925.781,-614.258,49.805,-1000.0
1742640951.676,-1000.0,833.984,37.598,-1000.0
1742640951.68,-1000.0,302.246,27.832,-1000.0
1742640951.637,-1000.0,-602.051,22.949,-1000.0
1742640951.641,-1000.0,164.062,12.207,-1000.0
1742640951.645,-946.289,-24.902,-120.605,-1000.0
1742640951.649,-1000.0,-1000.0,-115.723,-1000.0
1742640951.653,-978.516,-550.293,-18.555,-1000.0
1742640951.657,569.336,893.066,-53.223,-1000.0
1742640951.661,981.445,887.207,-144.531,-1000.0
1742640951.664,-672.363,-596.68,-192.383,-1000.0
1742640951.668,-1000.0,-1000.0,-80.566,-1000.0
1742640951.672,-925.781,-614.258,49.805,-1000.0
1742640951.676,-1000.0,833.984,37.598,-1000.0
1742640951.68,-1000.0,302.246,27.832,-1000.0
1742640951.683,-1000.0,-1000.0,-1.953,-1000.0
1742640951.687,-1000.0,-301.27,44.434,-1000.0
1742640951.691,-1000.0,999.512,110.84,-1000.0
1742640951.695,-1000.0,53.223,94.238,-1000.0
1742640951.699,-1000.0,-1000.0,113.77,-1000.0
1742640951.703,-1000.0,311.523,48.34,-1000.0
1742640951.707,-1000.0,999.512,23.926,-1000.0
1742640951.71,-1000.0,-582.52,7.324,-1000.0
1742640951.714,-1000.0,-1000.0,-27.832,-1000.0
1742640951.718,-1000.0,-135.254,-14.648,-1000.0
1742640951.722,-947.266,999.023,-120.605,-1000.0
1742640951.726,-1000.0,-294.922,-95.703,-1000.0
1742640951.727,-978.027,-972.168,197.266,-1000.0
1742640951.731,547.363,779.297,302.246,-1000.0
1742640951.735,999.512,955.078,120.605,-1000.0
1742640951.739,-582.031,-746.094,122.559,-1000.0
1742640951.743,-1000.0,-1000.0,138.672,-1000.0
1742640951.747,-1000.0,425.781,159.668,-1000.0
1742640951.751,122.07,999.512,260.254,-1000.0
1742640951.754,946.289,591.797,190.918,-1000.0
1742640951.758,-584.961,-712.402,31.25,-1000.0
1742640951.762,-1000.0,-1000.0,-80.566,-1000.0
1742640951.766,-798.828,-113.281,-65.918,-1000.0
1742640951.77,515.137,999.512,59.57,-1000.0
1742640951.727,-978.027,-972.168,197.266,-1000.0
1742640951.731,547.363,779.297,302.246,-1000.0
1742640951.735,999.512,955.078,120.605,-1000.0
1742640951.739,-582.031,-746.094,122.559,-1000.0
1742640951.743,-1000.0,-1000.0,138.672,-1000.0
1742640951.747,-1000.0,425.781,159.668,-1000.0
1742640951.751,122.07,999.512,260.254,-1000.0
1742640951.754,946.289,591.797,190.918,-1000.0
1742640951.758,-584.961,-712.402,31.25,-1000.0
1742640951.762,-1000.0,-1000.0,-80.566,-1000.0
1742640951.766,-798.828,-113.281,-65.918,-1000.0
1742640951.77,515.137,999.512,59.57,-1000.0
1742640951.772,999.512,746.094,-17.09,-1000.0
1742640951.776,195.312,-573.242,-103.516,-979.98
1742640951.78,-1000.0,-1000.0,-71.289,-975.586
1742640951.784,-887.207,-452.148,-25.391,-1000.0
1742640951.788,601.562,790.039,85.449,57.617
1742640951.792,999.512,999.512,112.305,999.512
1742640951.796,999.512,902.832,25.391,999.512
1742640951.799,389.648,-270.02,-108.887,139.16
1742640951.803,-971.68,-1000.0,-138.672,-1000.0
1742640951.807,-1000.0,-797.363,20.02,-988.281
1742640951.811,-957.52,798.828,-27.832,-974.121
1742640951.815,-1000.0,91.309,-141.113,-1000.0
1742640951.772,999.512,746.094,-17.09,-1000.0
1742640951.776,195.312,-573.242,-103.516,-979.98
1742640951.78,-1000.0,-1000.0,-71.289,-975.586
1742640951.784,-887.207,-452.148,-25.391,-1000.0
1742640951.788,601.562,790.039,85.449,57.617
1742640951.792,999.512,999.512,112.305,999.512
1742640951.796,999.512,902.832,25.391,999.512
1742640951.799,389.648,-270.02,-108.887,139.16
1742640951.803,-971.68,-1000.0,-138.672,-1000.0
1742640951.807,-1000.0,-797.363,20.02,-988.281
1742640951.811,-957.52,798.828,-27.832,-974.121
1742640951.815,-1000.0,91.309,-141.113,-1000.0
1742640951.831,-1000.0,-720.215,-113.281,-1000.0
1742640951.835,-1000.0,734.863,-147.949,-1000.0
1742640951.839,-944.824,-304.688,-213.379,-960.938
1742640951.843,-1000.0,-1000.0,-176.758,-1000.0
1742640951.847,-909.18,-703.613,-143.066,-1000.0
1742640951.851,535.156,569.824,-59.082,340.332
1742640951.855,999.512,999.512,20.508,999.512
1742640951.858,894.531,418.457,74.219,889.16
1742640951.862,920.898,-703.613,236.816,929.199
1742640951.866,999.512,492.188,339.355,999.512
1742640951.87,284.18,20.02,255.371,108.398
1742640951.874,-1000.0,-1000.0,159.668,-1000.0
1742640951.831,-1000.0,-720.215,-113.281,-1000.0
1742640951.835,-1000.0,734.863,-147.949,-1000.0
1742640951.839,-944.824,-304.688,-213.379,-960.938
1742640951.843,-1000.0,-1000.0,-176.758,-1000.0
1742640951.847,-909.18,-703.613,-143.066,-1000.0
1742640951.851,535.156,569.824,-59.082,340.332
1742640951.855,999.512,999.512,20.508,999.512
1742640951.858,894.531,418.457,74.219,889.16
1742640951.862,920.898,-703.613,236.816,929.199
1742640951.866,999.512,492.188,339.355,999.512
1742640951.87,284.18,20.02,255.371,108.398
1742640951.874,-1000.0,-1000.0,159.668,-1000.0
1742640951.876,-1000.0,-934.57,173.828,-982.422
1742640951.88,-964.355,534.18,249.512,-977.051
1742640951.884,-1000.0,878.418,337.402,-1000.0
1742640951.888,-1000.0,-865.723,240.723,-1000.0
1742640951.892,-1000.0,-959.961,56.641,-1000.0
1742640951.896,-1000.0,674.316,-5.859,-1000.0
1742640951.9,-1000.0,999.512,-55.176,-1000.0
1742640951.903,-994.141,-318.359,-78.613,-1000.0
1742640951.907,-953.125,-1000.0,-178.223,-937.012
1742640951.911,-1000.0,-852.539,-212.402,-1000.0
1742640951.915,-147.461,599.121,-21.973,-800.293
1742640951.919,953.613,959.961,70.312,581.543
1742640951.876,-1000.0,-934.57,173.828,-982.422
1742640951.88,-964.355,534.18,249.512,-977.051
1742640951.884,-1000.0,878.418,337.402,-1000.0
1742640951.888,-1000.0,-865.723,240.723,-1000.0
1742640951.892,-1000.0,-959.961,56.641,-1000.0
1742640951.896,-1000.0,674.316,-5.859,-1000.0
1742640951.9,-1000.0,999.512,-55.176,-1000.0
1742640951.903,-994.141,-318.359,-78.613,-1000.0
1742640951.907,-953.125,-1000.0,-178.223,-937.012
1742640951.911,-1000.0,-852.539,-212.402,-1000.0
1742640951.915,-147.461,599.121,-21.973,-800.293
1742640951.919,953.613,959.961,70.312,581.543
1742640951.922,999.512,625.0,4.883,999.512
1742640951.926,810.547,437.012,-98.633,689.941
1742640951.93,-619.629,-774.902,-155.762,-692.383
1742640951.934,-1000.0,-1000.0,-29.297,-1000.0
1742640951.938,-926.27,-875.0,74.219,-930.176
1742640951.942,-1000.0,578.613,-38.574,-1000.0
1742640951.946,-1000.0,999.512,-137.695,-1000.0
1742640951.949,-943.359,-589.355,-128.906,-929.199
1742640951.953,-1000.0,-1000.0,12.207,-1000.0
1742640951.957,-286.133,354.004,160.645,-677.246
1742640951.961,938.477,999.512,116.699,788.086
1742640951.965,999.512,874.512,-18.555,999.512
1742640951.922,999.512,625.0,4.883,999.512
1742640951.926,810.547,437.012,-98.633,689.941
1742640951.93,-619.629,-774.902,-155.762,-692.383
1742640951.934,-1000.0,-1000.0,-29.297,-1000.0
1742640951.938,-926.27,-875.0,74.219,-930.176
1742640951.942,-1000.0,578.613,-38.574,-1000.0
1742640951.946,-1000.0,999.512,-137.695,-1000.0
1742640951.949,-943.359,-589.355,-128.906,-929.199
1742640951.953,-1000.0,-1000.0,12.207,-1000.0
1742640951.957,-286.133,354.004,160.645,-677.246
1742640951.961,938.477,999.512,116.699,788.086
1742640951.965,999.512,874.512,-18.555,999.512
1742640951.968,37.109,-636.23,-65.43,-238.281
1742640951.972,-1000.0,-1000.0,-96.191,-1000.0
1742640951.976,-975.098,769.531,-209.473,-947.754
1742640951.98,-980.469,132.324,-191.895,-996.582
1742640951.984,-1000.0,-1000.0,-55.176,-1000.0
1742640951.988,-1000.0,380.371,16.113,-1000.0
1742640951.992,-1000.0,999.512,-50.293,-1000.0
1742640951.995,-938.477,-357.422,-1.953,-942.383
1742640951.999,-1000.0,-1000.0,55.664,-1000.0
1742640952.003,-842.773,-197.754,13.184,-891.113
1742640952.007,625.488,999.512,-46.875,570.312
1742640952.011,999.512,902.832,-204.102,999.512
1742640951.968,37.109,-636.23,-65.43,-238.281
1742640951.972,-1000.0,-1000.0,-96.191,-1000.0
1742640951.976,-975.098,769.531,-209.473,-947.754
1742640951.98,-980.469,132.324,-191.895,-996.582
1742640951.984,-1000.0,-1000.0,-55.176,-1000.0
1742640951.988,-1000.0,380.371,16.113,-1000.0
1742640951.992,-1000.0,999.512,-50.293,-1000.0
1742640951.995,-938.477,-357.422,-1.953,-942.383
1742640951.999,-1000.0,-1000.0,55.664,-1000.0
1742640952.003,-842.773,-197.754,13.184,-891.113
1742640952.007,625.488,999.512,-46.875,570.312
1742640952.011,999.512,902.832,-204.102,999.512
1742640952.011,853.027,-204.102,-178.223,868.652
1742640952.015,999.512,407.715,-62.988,999.512
1742640952.019,25.879,-139.16,-174.316,-121.582
1742640952.023,-1000.0,-1000.0,-250.488,-1000.0
1742640952.027,-968.75,-995.605,-203.613,-952.637
1742640952.031,-983.398,334.473,-115.723,-993.164
1742640952.035,-1000.0,996.582,-77.637,-1000.0
1742640952.038,-1000.0,-563.965,-161.621,-1000.0
1742640952.042,-952.637,-1000.0,-87.891,-1000.0
1742640952.046,-1000.0,-612.305,55.176,-1000.0
1742640952.05,-1000.0,690.918,186.035,-1000.0
1742640952.054,498.535,999.512,282.715,-1000.0
1742640952.011,853.027,-204.102,-178.223,868.652
1742640952.015,999.512,407.715,-62.988,999.512
1742640952.019,25.879,-139.16,-174.316,-121.582
1742640952.023,-1000.0,-1000.0,-250.488,-1000.0
1742640952.027,-968.75,-995.605,-203.613,-952.637
1742640952.031,-983.398,334.473,-115.723,-993.164
1742640952.035,-1000.0,996.582,-77.637,-1000.0
1742640952.038,-1000.0,-563.965,-161.621,-1000.0
1742640952.042,-952.637,-1000.0,-87.891,-1000.0
1742640952.046,-1000.0,-612.305,55.176,-1000.0
1742640952.05,-1000.0,690.918,186.035,-1000.0
1742640952.054,498.535,999.512,282.715,-1000.0
1742640952.056,960.938,135.742,232.422,-1000.0
1742640952.06,-624.512,-938.477,195.801,-1000.0
1742640952.064,-1000.0,-1000.0,154.785,-1000.0
1742640952.068,-771.484,62.988,278.32,-1000.0
1742640952.072,525.879,979.004,219.727,-1000.0
1742640952.076,999.512,974.609,-128.906,-1000.0
1742640952.08,775.391,882.324,-318.359,-1000.0
1742640952.083,-506.836,-526.367,-299.316,-943.848
1742640952.087,-1000.0,-1000.0,-235.352,-1000.0
1742640952.091,-753.906,2.93,10.742,-883.301
1742640952.095,545.898,971.191,133.789,489.258
1742640952.099,999.512,999.512,-50.781,999.512
1742640952.056,960.938,135.742,232.422,-1000.0
1742640952.06,-624.512,-938.477,195.801,-1000.0
1742640952.064,-1000.0,-1000.0,154.785,-1000.0
1742640952.068,-771.484,62.988,278.32,-1000.0
1742640952.072,525.879,979.004,219.727,-1000.0
1742640952.076,999.512,974.609,-128.906,-1000.0
1742640952.08,775.391,882.324,-318.359,-1000.0
1742640952.083,-506.836,-526.367,-299.316,-943.848
1742640952.087,-1000.0,-1000.0,-235.352,-1000.0
1742640952.091,-753.906,2.93,10.742,-883.301
1742640952.095,545.898,971.191,133.789,489.258
1742640952.099,999.512,999.512,-50.781,999.512
1742640952.102,784.18,2.93,-100.098,734.863
1742640952.106,-591.309,-1000.0,-65.918,-644.043
1742640952.11,-1000.0,-993.652,-23.438,-1000.0
1742640952.114,-929.688,-892.09,7.324,-919.434
1742640952.118,-1000.0,205.566,-9.766,-1000.0
1742640952.122,308.594,929.688,173.828,211.426
1742640952.126,999.512,999.512,331.543,999.512
1742640952.129,909.18,746.582,249.023,918.945
1742640952.133,929.199,-683.594,141.602,923.34
1742640952.137,985.84,409.18,178.223,989.746
1742640952.141,953.613,589.355,96.191,945.801
1742640952.145,-444.824,-948.242,-73.73,-450.195
1742640952.102,784.18,2.93,-100.098,734.863
1742640952.106,-591.309,-1000.0,-65.918,-644.043
1742640952.11,-1000.0,-993.652,-23.438,-1000.0
1742640952.114,-929.688,-892.09,7.324,-919.434
1742640952.118,-1000.0,205.566,-9.766,-1000.0
1742640952.122,308.594,929.688,173.828,211.426
1742640952.126,999.512,999.512,331.543,999.512
1742640952.129,909.18,746.582,249.023,918.945
1742640952.133,929.199,-683.594,141.602,923.34
1742640952.137,985.84,409.18,178.223,989.746
1742640952.141,953.613,589.355,96.191,945.801
1742640952.145,-444.824,-948.242,-73.73,-450.195
1742640952.146,-1000.0,-1000.0,-180.664,-1000.0
1742640952.15,-981.445,-788.574,-294.434,-991.211
1742640952.154,-901.855,597.168,-385.254,-858.887
1742640952.158,563.477,999.512,-415.527,604.98
1742640952.162,999.512,830.566,-453.613,999.512
1742640952.166,891.602,999.512,-334.961,895.02
1742640952.17,981.934,719.238,-203.613,982.91
1742640952.173,966.309,-752.441,-300.293,966.797
1742640952.177,966.309,-1000.0,-399.414,967.285
1742640952.181,967.773,215.82,-354.004,966.797
1742640952.185,968.75,999.512,-290.527,983.398
1742640952.189,906.738,956.543,-287.109,897.461
1742640952.146,-1000.0,-1000.0,-180.664,-1000.0
1742640952.15,-981.445,-788.574,-294.434,-991.211
1742640952.154,-901.855,597.168,-385.254,-858.887
1742640952.158,563.477,999.512,-415.527,604.98
1742640952.162,999.512,830.566,-453.613,999.512
1742640952.166,891.602,999.512,-334.961,895.02
1742640952.17,981.934,719.238,-203.613,982.91
1742640952.173,966.309,-752.441,-300.293,966.797
1742640952.177,966.309,-1000.0,-399.414,967.285
1742640952.181,967.773,215.82,-354.004,966.797
1742640952.185,968.75,999.512,-290.527,983.398
1742640952.189,906.738,956.543,-287.109,897.461
1742640952.193,999.512,-189.941,-275.391,999.512
1742640952.197,283.203,-1000.0,-266.602,657.715
1742640952.201,-931.152,-949.219,-305.664,-725.098
1742640952.205,-1000.0,-995.117,-351.562,-1000.0
1742640952.209,-832.52,88.867,-383.789,-687.5
1742640952.213,580.566,999.512,-297.363,693.359
1742640952.217,999.512,909.18,-348.633,999.512
1742640952.22,892.578,-574.219,-516.602,899.414
1742640952.224,995.117,-1000.0,-374.512,986.816
1742640952.228,921.387,662.109,-230.957,958.984
1742640952.232,980.469,926.758,-239.746,911.621
1742640952.236,976.074,-634.766,-196.289,999.512
1742640952.193,999.512,-189.941,-275.391,999.512
1742640952.197,283.203,-1000.0,-266.602,657.715
1742640952.201,-931.152,-949.219,-305.664,-725.098
1742640952.205,-1000.0,-995.117,-351.562,-1000.0
1742640952.209,-832.52,88.867,-383.789,-687.5
1742640952.213,580.566,999.512,-297.363,693.359
1742640952.217,999.512,909.18,-348.633,999.512
1742640952.22,892.578,-574.219,-516.602,899.414
1742640952.224,995.117,-1000.0,-374.512,986.816
1742640952.228,921.387,662.109,-230.957,958.984
1742640952.232,980.469,926.758,-239.746,911.621
1742640952.236,976.074,-634.766,-196.289,999.512
1742640952.193,999.512,-189.941,-275.391,999.512
1742640952.197,283.203,-1000.0,-266.602,657.715
1742640952.201,-931.152,-949.219,-305.664,-725.098
1742640952.205,-1000.0,-995.117,-351.562,-1000.0
1742640952.209,-832.52,88.867,-383.789,-687.5
1742640952.213,580.566,999.512,-297.363,693.359
1742640952.217,999.512,909.18,-348.633,999.512
1742640952.22,892.578,-574.219,-516.602,899.414
1742640952.224,995.117,-1000.0,-374.512,986.816
1742640952.228,921.387,662.109,-230.957,958.984
1742640952.232,980.469,926.758,-239.746,911.621
1742640952.236,976.074,-634.766,-196.289,999.512
1742640952.252,-426.758,-1000.0,-95.703,90.332
1742640952.256,-1000.0,-837.891,46.875,-1000.0
1742640952.26,296.875,566.895,224.609,373.047
1742640952.264,999.512,999.512,107.91,999.512
1742640952.268,900.879,-224.609,-154.297,890.137
1742640952.272,969.238,226.562,-141.113,975.586
1742640952.276,966.309,999.512,-142.578,966.797
1742640952.279,968.262,-679.199,-125.0,966.797
1742640952.283,964.355,-1000.0,107.91,983.398
1742640952.287,912.598,490.234,192.383,898.438
1742640952.291,999.512,999.512,14.648,999.512
1742640952.295,210.938,-585.938,21.484,680.664
1742640952.252,-426.758,-1000.0,-95.703,90.332
1742640952.256,-1000.0,-837.891,46.875,-1000.0
1742640952.26,296.875,566.895,224.609,373.047
1742640952.264,999.512,999.512,107.91,999.512
1742640952.268,900.879,-224.609,-154.297,890.137
1742640952.272,969.238,226.562,-141.113,975.586
1742640952.276,966.309,999.512,-142.578,966.797
1742640952.279,968.262,-679.199,-125.0,966.797
1742640952.283,964.355,-1000.0,107.91,983.398
1742640952.287,912.598,490.234,192.383,898.438
1742640952.291,999.512,999.512,14.648,999.512
1742640952.295,210.938,-585.938,21.484,680.664
1742640952.312,-1000.0,-1000.0,51.758,-785.156
1742640952.316,-989.746,-239.746,62.5,-1000.0
1742640952.32,-922.363,-614.258,102.051,-899.414
1742640952.324,-1000.0,-1000.0,132.324,-1000.0
1742640952.328,-132.324,448.242,307.617,-23.438
1742640952.332,999.512,999.512,260.742,999.512
1742640952.336,944.824,828.613,73.73,932.129
1742640952.339,944.336,-439.941,207.031,952.637
1742640952.343,973.633,-1000.0,70.312,971.191
1742640952.347,971.68,-422.363,-69.336,983.887
1742640952.351,906.25,928.223,41.992,906.25
1742640952.355,999.512,866.699,120.117,999.512
1742640952.312,-1000.0,-1000.0,51.758,-785.156
1742640952.316,-989.746,-239.746,62.5,-1000.0
1742640952.32,-922.363,-614.258,102.051,-899.414
1742640952.324,-1000.0,-1000.0,132.324,-1000.0
1742640952.328,-132.324,448.242,307.617,-23.438
1742640952.332,999.512,999.512,260.742,999.512
1742640952.336,944.824,828.613,73.73,932.129
1742640952.339,944.336,-439.941,207.031,952.637
1742640952.343,973.633,-1000.0,70.312,971.191
1742640952.347,971.68,-422.363,-69.336,983.887
1742640952.351,906.25,928.223,41.992,906.25
1742640952.355,999.512,866.699,120.117,999.512
1742640952.341,355.469,-603.027,77.637,805.664
1742640952.345,-886.23,-1000.0,-21.973,-574.219
1742640952.349,-1000.0,-868.164,-71.289,-1000.0
1742640952.353,-792.969,468.75,105.469,-645.02
1742640952.357,622.559,999.512,241.211,719.238
1742640952.361,999.512,914.062,295.898,999.512
1742640952.365,836.426,953.125,331.543,853.027
1742640952.368,999.512,-409.18,75.195,999.512
1742640952.372,645.508,-1000.0,-182.129,921.387
1742640952.376,-754.883,-886.719,-303.223,-494.629
1742640952.38,-1000.0,-1000.0,-270.508,-1000.0
1742640952.384,-932.617,-470.703,-107.422,-935.059
1742640952.341,355.469,-603.027,77.637,805.664
1742640952.345,-886.23,-1000.0,-21.973,-574.219
1742640952.349,-1000.0,-868.164,-71.289,-1000.0
1742640952.353,-792.969,468.75,105.469,-645.02
1742640952.357,622.559,999.512,241.211,719.238
1742640952.361,999.512,914.062,295.898,999.512
1742640952.365,836.426,953.125,331.543,853.027
1742640952.368,999.512,-409.18,75.195,999.512
1742640952.372,645.508,-1000.0,-182.129,921.387
1742640952.376,-754.883,-886.719,-303.223,-494.629
1742640952.38,-1000.0,-1000.0,-270.508,-1000.0
1742640952.384,-932.617,-470.703,-107.422,-935.059
1742640952.341,355.469,-603.027,77.637,805.664
1742640952.345,-886.23,-1000.0,-21.973,-574.219
1742640952.349,-1000.0,-868.164,-71.289,-1000.0
1742640952.353,-792.969,468.75,105.469,-645.02
1742640952.357,622.559,999.512,241.211,719.238
1742640952.361,999.512,914.062,295.898,999.512
1742640952.365,836.426,953.125,331.543,853.027
1742640952.368,999.512,-409.18,75.195,999.512
1742640952.372,645.508,-1000.0,-182.129,921.387
1742640952.376,-754.883,-886.719,-303.223,-494.629
1742640952.38,-1000.0,-1000.0,-270.508,-1000.0
1742640952.384,-932.617,-470.703,-107.422,-935.059
1742640952.387,-1000.0,776.855,-12.207,-1000.0
1742640952.391,249.023,996.094,148.438,324.219
1742640952.395,999.512,999.512,110.84,999.512
1742640952.399,899.902,-255.371,-43.457,897.949
1742640952.403,970.215,-1000.0,-178.223,973.633
1742640952.407,966.309,604.98,-172.852,967.285
1742640952.411,966.309,999.512,113.77,966.797
1742640952.414,981.934,-391.602,229.492,981.445
1742640952.418,912.109,-1000.0,113.77,915.527
1742640952.422,999.512,-83.984,65.43,999.512
1742640952.426,883.301,823.242,159.668,905.273
1742640952.43,-556.641,-643.555,279.297,-518.555
1742640952.387,-1000.0,776.855,-12.207,-1000.0
1742640952.391,249.023,996.094,148.438,324.219
1742640952.395,999.512,999.512,110.84,999.512
1742640952.399,899.902,-255.371,-43.457,897.949
1742640952.403,970.215,-1000.0,-178.223,973.633
1742640952.407,966.309,604.98,-172.852,967.285
1742640952.411,966.309,999.512,113.77,966.797
1742640952.414,981.934,-391.602,229.492,981.445
1742640952.418,912.109,-1000.0,113.77,915.527
1742640952.422,999.512,-83.984,65.43,999.512
1742640952.426,883.301,823.242,159.668,905.273
1742640952.43,-556.641,-643.555,279.297,-518.555
1742640952.432,-1000.0,-1000.0,244.629,-1000.0
1742640952.436,-937.012,-1000.0,-45.898,-937.5
1742640952.44,-973.633,-222.656,-156.738,-972.656
1742640952.444,-1000.0,783.203,18.555,-1000.0
1742640952.448,-1000.0,-510.742,215.332,-1000.0
1742640952.452,362.793,375.488,378.906,362.793
1742640952.456,999.512,999.512,348.633,999.512
1742640952.459,894.043,-472.168,229.98,895.02
1742640952.463,988.77,-1000.0,317.383,987.305
1742640952.467,919.922,409.668,438.477,926.27
1742640952.471,991.699,999.512,377.93,980.469
1742640952.475,938.477,358.398,201.172,968.262
1742640952.477,-458.496,-881.836,88.379,-389.16
1742640952.481,-1000.0,-978.516,113.281,-1000.0
1742640952.485,-926.758,-1000.0,250.977,-929.688
1742640952.489,-1000.0,-713.867,382.812,-1000.0
1742640952.493,-1000.0,643.066,259.766,-1000.0
1742640952.497,-1000.0,999.512,234.375,-1000.0
1742640952.501,-942.383,520.02,300.781,-945.312
1742640952.504,-1000.0,-940.918,239.258,-1000.0
1742640952.508,-877.93,-852.051,344.238,-897.461
1742640952.512,517.578,634.766,376.953,481.445
1742640952.516,999.512,999.512,288.086,999.512
1742640952.52,867.676,771.484,188.965,836.914
1742640952.477,-458.496,-881.836,88.379,-389.16
1742640952.481,-1000.0,-978.516,113.281,-1000.0
1742640952.485,-926.758,-1000.0,250.977,-929.688
1742640952.489,-1000.0,-713.867,382.812,-1000.0
1742640952.493,-1000.0,643.066,259.766,-1000.0
1742640952.497,-1000.0,999.512,234.375,-1000.0
1742640952.501,-942.383,520.02,300.781,-945.312
1742640952.504,-1000.0,-940.918,239.258,-1000.0
1742640952.508,-877.93,-852.051,344.238,-897.461
1742640952.512,517.578,634.766,376.953,481.445
1742640952.516,999.512,999.512,288.086,999.512
1742640952.52,867.676,771.484,188.965,836.914
1742640952.525,-437.988,-728.027,-61.035,-491.699
1742640952.529,-1000.0,-1000.0,-11.719,-1000.0
1742640952.533,-943.359,719.238,53.711,-942.383
1742640952.537,-952.148,-18.555,-84.961,-955.078
1742640952.541,-1000.0,-1000.0,-139.648,-1000.0
1742640952.545,-871.094,411.133,16.113,-885.254
1742640952.549,588.867,999.512,113.281,571.777
1742640952.552,999.512,778.809,33.203,999.512
1742640952.556,892.578,-672.363,-77.148,892.578
1742640952.56,982.422,-1000.0,-319.824,982.91
1742640952.564,975.586,757.324,-358.887,975.586
1742640952.568,932.129,863.281,-238.77,934.082
1742640952.525,-437.988,-728.027,-61.035,-491.699
1742640952.529,-1000.0,-1000.0,-11.719,-1000.0
1742640952.533,-943.359,719.238,53.711,-942.383
1742640952.537,-952.148,-18.555,-84.961,-955.078
1742640952.541,-1000.0,-1000.0,-139.648,-1000.0
1742640952.545,-871.094,411.133,16.113,-885.254
1742640952.549,588.867,999.512,113.281,571.777
1742640952.552,999.512,778.809,33.203,999.512
1742640952.556,892.578,-672.363,-77.148,892.578
1742640952.56,982.422,-1000.0,-319.824,982.91
1742640952.564,975.586,757.324,-358.887,975.586
1742640952.568,932.129,863.281,-238.77,934.082
1742640952.582,964.355,-469.727,-203.125,962.402
1742640952.586,999.512,381.836,-233.398,999.512
1742640952.59,-324.707,-291.992,-425.781,-302.246
1742640952.594,-1000.0,-1000.0,-600.098,-1000.0
1742640952.598,-986.328,-693.359,-525.391,-998.047
1742640952.602,-896.484,668.945,-304.199,-854.98
1742640952.606,563.477,999.512,-268.066,606.445
1742640952.609,999.512,-288.086,-413.574,999.512
1742640952.613,897.949,-978.027,-435.059,899.902
1742640952.617,958.496,521.484,-279.297,963.379
1742640952.621,944.336,999.512,-109.863,941.406
1742640952.625,999.512,666.016,-44.922,999.512
1742640952.582,964.355,-469.727,-203.125,962.402
1742640952.586,999.512,381.836,-233.398,999.512
1742640952.59,-324.707,-291.992,-425.781,-302.246
1742640952.594,-1000.0,-1000.0,-600.098,-1000.0
1742640952.598,-986.328,-693.359,-525.391,-998.047
1742640952.602,-896.484,668.945,-304.199,-854.98
1742640952.606,563.477,999.512,-268.066,606.445
1742640952.609,999.512,-288.086,-413.574,999.512
1742640952.613,897.949,-978.027,-435.059,899.902
1742640952.617,958.496,521.484,-279.297,963.379
1742640952.621,944.336,999.512,-109.863,941.406
1742640952.625,999.512,666.016,-44.922,999.512
1742640952.627,-173.34,-609.375,-182.129,-103.027
1742640952.631,-1000.0,-1000.0,-129.883,-1000.0
1742640952.635,-997.07,-670.898,-40.527,-1000.0
1742640952.639,-896.484,697.266,-27.344,-884.277
1742640952.643,547.363,995.117,-68.848,551.758
1742640952.647,999.512,954.102,-58.105,999.512
1742640952.651,891.602,863.77,43.457,893.066
1742640952.654,993.652,-630.371,-72.754,992.676
1742640952.658,923.34,-1000.0,-50.781,929.199
1742640952.662,983.398,389.16,166.504,973.145
1742640952.666,960.449,983.398,162.598,986.328
1742640952.67,-416.016,-773.438,-60.547,-350.098
1742640952.627,-173.34,-609.375,-182.129,-103.027
1742640952.631,-1000.0,-1000.0,-129.883,-1000.0
1742640952.635,-997.07,-670.898,-40.527,-1000.0
1742640952.639,-896.484,697.266,-27.344,-884.277
1742640952.643,547.363,995.117,-68.848,551.758
1742640952.647,999.512,954.102,-58.105,999.512
1742640952.651,891.602,863.77,43.457,893.066
1742640952.654,993.652,-630.371,-72.754,992.676
1742640952.658,923.34,-1000.0,-50.781,929.199
1742640952.662,983.398,389.16,166.504,973.145
1742640952.666,960.449,983.398,162.598,986.328
1742640952.67,-416.016,-773.438,-60.547,-350.098
1742640952.672,-1000.0,-1000.0,-216.797,-1000.0
1742640952.676,-939.941,723.145,-228.027,-943.848
1742640952.68,-967.773,171.387,-278.32,-961.914
1742640952.684,-1000.0,-1000.0,-352.051,-1000.0
1742640952.688,-996.582,-774.414,-393.555,-975.586
1742640952.692,377.93,612.305,-299.805,412.598
1742640952.696,999.512,999.512,-181.641,999.512
1742640952.699,894.043,283.691,-77.148,894.531
1742640952.703,976.074,-1000.0,-86.426,978.027
1742640952.707,966.309,-571.289,-90.82,966.797
1742640952.711,966.309,954.102,-1.465,966.797
1742640952.715,982.422,-218.262,43.457,981.934
1742640952.672,-1000.0,-1000.0,-216.797,-1000.0
1742640952.676,-939.941,723.145,-228.027,-943.848
1742640952.68,-967.773,171.387,-278.32,-961.914
1742640952.684,-1000.0,-1000.0,-352.051,-1000.0
1742640952.688,-996.582,-774.414,-393.555,-975.586
1742640952.692,377.93,612.305,-299.805,412.598
1742640952.696,999.512,999.512,-181.641,999.512
1742640952.699,894.043,283.691,-77.148,894.531
1742640952.703,976.074,-1000.0,-86.426,978.027
1742640952.707,966.309,-571.289,-90.82,966.797
1742640952.711,966.309,954.102,-1.465,966.797
1742640952.715,982.422,-218.262,43.457,981.934
1742640952.717,908.691,-1000.0,38.086,913.086
1742640952.721,999.512,454.59,0.0,999.512
1742640952.725,840.332,971.191,-20.02,875.977
1742640952.729,-539.062,-781.738,-91.797,-490.723
1742640952.733,-1000.0,-990.234,2.93,-1000.0
1742640952.737,-861.328,590.82,131.348,-625.977
1742640952.741,609.863,999.512,127.93,772.461
1742640952.744,975.586,176.758,-40.527,955.566
1742640952.748,-585.938,-965.332,-210.449,-528.32
1742640952.752,-1000.0,-1000.0,22.461,-1000.0
1742640952.756,-806.641,164.551,229.98,-789.551
1742640952.76,512.695,984.375,230.469,531.738
1742640952.717,908.691,-1000.0,38.086,913.086
1742640952.721,999.512,454.59,0.0,999.512
1742640952.725,840.332,971.191,-20.02,875.977
1742640952.729,-539.062,-781.738,-91.797,-490.723
1742640952.733,-1000.0,-990.234,2.93,-1000.0
1742640952.737,-861.328,590.82,131.348,-625.977
1742640952.741,609.863,999.512,127.93,772.461
1742640952.744,975.586,176.758,-40.527,955.566
1742640952.748,-585.938,-965.332,-210.449,-528.32
1742640952.752,-1000.0,-1000.0,22.461,-1000.0
1742640952.756,-806.641,164.551,229.98,-789.551
1742640952.76,512.695,984.375,230.469,531.738
1742640952.762,999.512,996.094,204.102,999.512
1742640952.766,924.316,756.348,221.191,903.809
1742640952.77,-311.035,-620.605,256.348,-345.703
1742640952.774,-1000.0,-1000.0,248.535,-1000.0
1742640952.778,-931.641,-877.441,279.785,-931.641
1742640952.782,-1000.0,556.152,276.367,-1000.0
1742640952.786,-1000.0,999.512,-72.754,-1000.0
1742640952.789,-1000.0,-575.684,-223.145,-1000.0
1742640952.793,-1000.0,-1000.0,-84.961,-1000.0
1742640952.797,-1000.0,498.535,-137.695,-1000.0
1742640952.801,-948.73,999.512,-248.535,-958.008
1742640952.805,-1000.0,-663.574,-240.234,-1000.0
1742640952.762,999.512,996.094,204.102,999.512
1742640952.766,924.316,756.348,221.191,903.809
1742640952.77,-311.035,-620.605,256.348,-345.703
1742640952.774,-1000.0,-1000.0,248.535,-1000.0
1742640952.778,-931.641,-877.441,279.785,-931.641
1742640952.782,-1000.0,556.152,276.367,-1000.0
1742640952.786,-1000.0,999.512,-72.754,-1000.0
1742640952.789,-1000.0,-575.684,-223.145,-1000.0
1742640952.793,-1000.0,-1000.0,-84.961,-1000.0
1742640952.797,-1000.0,498.535,-137.695,-1000.0
1742640952.801,-948.73,999.512,-248.535,-958.008
1742640952.805,-1000.0,-663.574,-240.234,-1000.0
1742640952.808,-933.105,-912.598,-42.969,-986.816
1742640952.812,471.191,648.438,83.008,344.238
1742640952.816,999.512,999.512,1.953,999.512
1742640952.82,984.863,793.945,-51.758,930.176
1742640952.824,-52.734,-778.809,-53.223,-255.371
1742640952.828,-1000.0,-879.395,54.199,-1000.0
1742640952.832,-956.543,631.348,126.465,-940.43
1742640952.835,-990.234,-385.742,41.992,-1000.0
1742640952.839,-1000.0,-1000.0,99.609,-1000.0
1742640952.843,-1000.0,-719.727,73.73,-1000.0
1742640952.847,-964.844,748.047,-111.816,-973.145
1742640952.851,-1000.0,957.031,-248.535,-985.84
1742640952.808,-933.105,-912.598,-42.969,-986.816
1742640952.812,471.191,648.438,83.008,344.238
1742640952.816,999.512,999.512,1.953,999.512
1742640952.82,984.863,793.945,-51.758,930.176
1742640952.824,-52.734,-778.809,-53.223,-255.371
1742640952.828,-1000.0,-879.395,54.199,-1000.0
1742640952.832,-956.543,631.348,126.465,-940.43
1742640952.835,-990.234,-385.742,41.992,-1000.0
1742640952.839,-1000.0,-1000.0,99.609,-1000.0
1742640952.843,-1000.0,-719.727,73.73,-1000.0
1742640952.847,-964.844,748.047,-111.816,-973.145
1742640952.851,-1000.0,957.031,-248.535,-985.84
1742640952.852,-1000.0,-460.449,-265.137,-1000.0
1742640952.856,291.504,413.086,-217.773,173.828
1742640952.86,999.512,999.512,-300.293,999.512
1742640952.864,900.391,-137.207,-416.504,913.574
1742640952.868,962.402,-946.289,-363.281,953.125
1742640952.872,922.852,616.211,-287.109,929.688
1742640952.876,999.512,999.512,-335.938,999.512
1742640952.879,57.129,-376.465,-462.891,18.555
1742640952.883,-1000.0,-1000.0,-474.121,-1000.0
1742640952.887,-973.145,-987.305,-320.801,-968.75
1742640952.891,-997.559,385.742,-279.297,-999.512
1742640952.895,-947.754,962.891,-416.504,-949.707
1742640952.852,-1000.0,-460.449,-265.137,-1000.0
1742640952.856,291.504,413.086,-217.773,173.828
1742640952.86,999.512,999.512,-300.293,999.512
1742640952.864,900.391,-137.207,-416.504,913.574
1742640952.868,962.402,-946.289,-363.281,953.125
1742640952.872,922.852,616.211,-287.109,929.688
1742640952.876,999.512,999.512,-335.938,999.512
1742640952.879,57.129,-376.465,-462.891,18.555
1742640952.883,-1000.0,-1000.0,-474.121,-1000.0
1742640952.887,-973.145,-987.305,-320.801,-968.75
1742640952.891,-997.559,385.742,-279.297,-999.512
1742640952.895,-947.754,962.891,-416.504,-949.707
1742640952.897,-1000.0,-824.707,-457.031,-1000.0
1742640952.901,-891.113,-641.113,-158.691,-909.668
1742640952.905,563.477,874.023,93.75,535.645
1742640952.909,999.512,999.512,52.246,999.512
1742640952.913,865.723,-97.168,-144.531,862.793
1742640952.917,963.867,-82.52,-46.387,973.633
1742640952.921,999.512,883.301,40.527,999.512
1742640952.924,-190.43,-633.301,-147.461,-229.492
1742640952.928,-1000.0,-1000.0,-244.141,-1000.0
1742640952.932,-956.055,-1000.0,-190.918,-957.52
1742640952.936,-952.148,-598.145,-176.758,-951.66
1742640952.94,-1000.0,735.352,-291.992,-1000.0
1742640952.897,-1000.0,-824.707,-457.031,-1000.0
1742640952.901,-891.113,-641.113,-158.691,-909.668
1742640952.905,563.477,874.023,93.75,535.645
1742640952.909,999.512,999.512,52.246,999.512
1742640952.913,865.723,-97.168,-144.531,862.793
1742640952.917,963.867,-82.52,-46.387,973.633
1742640952.921,999.512,883.301,40.527,999.512
1742640952.924,-190.43,-633.301,-147.461,-229.492
1742640952.928,-1000.0,-1000.0,-244.141,-1000.0
1742640952.932,-956.055,-1000.0,-190.918,-957.52
1742640952.936,-952.148,-598.145,-176.758,-951.66
1742640952.94,-1000.0,735.352,-291.992,-1000.0
1742640952.942,-974.609,-74.707,-113.77,-964.355
1742640952.946,423.34,268.555,64.941,439.453
1742640952.95,999.512,999.512,-78.613,999.512
1742640952.954,892.578,545.898,-96.191,893.555
1742640952.958,978.027,-843.262,-133.789,979.004
1742640952.962,966.309,292.48,-38.574,966.797
1742640952.966,966.309,999.512,123.047,966.797
1742640952.969,966.309,-592.773,-8.301,966.797
1742640952.973,979.004,-1000.0,-36.133,974.609
1742640952.977,921.387,-395.02,19.043,938.965
1742640952.981,988.281,932.129,22.461,954.59
1742640952.985,946.289,807.129,29.785,999.512
1742640952.942,-974.609,-74.707,-113.77,-964.355
1742640952.946,423.34,268.555,64.941,439.453
1742640952.95,999.512,999.512,-78.613,999.512
1742640952.954,892.578,545.898,-96.191,893.555
1742640952.958,978.027,-843.262,-133.789,979.004
1742640952.962,966.309,292.48,-38.574,966.797
1742640952.966,966.309,999.512,123.047,966.797
1742640952.969,966.309,-592.773,-8.301,966.797
1742640952.973,979.004,-1000.0,-36.133,974.609
1742640952.977,921.387,-395.02,19.043,938.965
1742640952.981,988.281,932.129,22.461,954.59
1742640952.985,946.289,807.129,29.785,999.512
1742640953.002,-440.43,-676.758,-98.633,-220.703
1742640953.006,-1000.0,-1000.0,-58.594,-1000.0
1742640953.01,-866.211,-934.57,-10.254,-876.953
1742640953.014,-1000.0,297.363,-65.43,-1000.0
1742640953.018,-854.492,999.512,-58.594,-750.488
1742640953.022,627.93,976.562,23.926,712.402
1742640953.026,999.512,790.039,-40.527,999.512
1742640953.029,981.445,-683.594,-275.391,963.867
1742640953.033,727.051,-1000.0,-260.742,648.438
1742640953.037,-770.508,-1000.0,-154.297,-791.504
1742640953.041,-1000.0,-570.801,-108.398,-1000.0
1742640953.045,237.305,771.973,-107.422,390.625
1742640953.002,-440.43,-676.758,-98.633,-220.703
1742640953.006,-1000.0,-1000.0,-58.594,-1000.0
1742640953.01,-866.211,-934.57,-10.254,-876.953
1742640953.014,-1000.0,297.363,-65.43,-1000.0
1742640953.018,-854.492,999.512,-58.594,-750.488
1742640953.022,627.93,976.562,23.926,712.402
1742640953.026,999.512,790.039,-40.527,999.512
1742640953.029,981.445,-683.594,-275.391,963.867
1742640953.033,727.051,-1000.0,-260.742,648.438
1742640953.037,-770.508,-1000.0,-154.297,-791.504
1742640953.041,-1000.0,-570.801,-108.398,-1000.0
1742640953.045,237.305,771.973,-107.422,390.625
1742640953.047,999.512,999.512,-103.516,999.512
1742640953.051,906.738,934.57,61.035,898.926
1742640953.055,965.82,-139.16,33.203,973.633
1742640953.059,974.121,-1000.0,-25.879,971.68
1742640953.063,939.941,-897.461,-7.324,953.613
1742640953.067,949.219,620.117,-146.484,931.152
1742640953.071,999.512,970.215,-146.484,999.512
1742640953.074,-194.824,-673.34,31.738,9.277
1742640953.078,-1000.0,-1000.0,34.18,-1000.0
1742640953.082,-959.473,-1000.0,-125.977,-986.328
1742640953.086,-940.918,-427.734,-262.207,-925.781
1742640953.09,-1000.0,861.816,-284.668,-1000.0
1742640953.047,999.512,999.512,-103.516,999.512
1742640953.051,906.738,934.57,61.035,898.926
1742640953.055,965.82,-139.16,33.203,973.633
1742640953.059,974.121,-1000.0,-25.879,971.68
1742640953.063,939.941,-897.461,-7.324,953.613
1742640953.067,949.219,620.117,-146.484,931.152
1742640953.071,999.512,970.215,-146.484,999.512
1742640953.074,-194.824,-673.34,31.738,9.277
1742640953.078,-1000.0,-1000.0,34.18,-1000.0
1742640953.082,-959.473,-1000.0,-125.977,-986.328
1742640953.086,-940.918,-427.734,-262.207,-925.781
1742640953.09,-1000.0,861.816,-284.668,-1000.0
1742640953.092,-891.113,999.512,-222.656,-884.277
1742640953.096,579.59,857.91,-157.227,587.402
1742640953.1,999.512,999.512,-210.449,999.512
1742640953.104,940.918,713.867,-307.129,941.406
1742640953.108,886.23,-740.723,-394.531,872.07
1742640953.112,-577.148,-1000.0,-348.145,-574.707
1742640953.116,-1000.0,-870.605,-212.891,-1000.0
1742640953.119,-863.281,-1000.0,-121.582,-865.723
1742640953.123,-1000.0,-950.684,-121.094,-1000.0
1742640953.127,-837.891,374.023,-65.43,-768.555
1742640953.131,630.371,999.512,7.812,673.828
1742640953.135,999.512,791.016,6.348,999.512
1742640953.092,-891.113,999.512,-222.656,-884.277
1742640953.096,579.59,857.91,-157.227,587.402
1742640953.1,999.512,999.512,-210.449,999.512
1742640953.104,940.918,713.867,-307.129,941.406
1742640953.108,886.23,-740.723,-394.531,872.07
1742640953.112,-577.148,-1000.0,-348.145,-574.707
1742640953.116,-1000.0,-870.605,-212.891,-1000.0
1742640953.119,-863.281,-1000.0,-121.582,-865.723
1742640953.123,-1000.0,-950.684,-121.094,-1000.0
1742640953.127,-837.891,374.023,-65.43,-768.555
1742640953.131,630.371,999.512,7.812,673.828
1742640953.135,999.512,791.016,6.348,999.512
1742640953.137,827.637,-365.723,32.227,834.473
1742640953.141,999.512,332.52,32.715,999.512
1742640953.145,766.602,-99.121,-51.758,740.723
1742640953.149,-668.457,-1000.0,-21.973,-692.383
1742640953.153,-1000.0,-834.961,124.512,-1000.0
1742640953.157,-121.582,438.477,266.602,-32.227
1742640953.161,999.512,999.512,248.535,999.512
1742640953.164,906.25,431.641,84.961,890.137
1742640953.168,-505.371,-853.516,2.93,-506.836
1742640953.172,-1000.0,-1000.0,63.965,-1000.0
1742640953.176,-929.688,-1000.0,34.668,-929.688
1742640953.18,-1000.0,-18.555,-65.43,-1000.0
1742640953.137,827.637,-365.723,32.227,834.473
1742640953.141,999.512,332.52,32.715,999.512
1742640953.145,766.602,-99.121,-51.758,740.723
1742640953.149,-668.457,-1000.0,-21.973,-692.383
1742640953.153,-1000.0,-834.961,124.512,-1000.0
1742640953.157,-121.582,438.477,266.602,-32.227
1742640953.161,999.512,999.512,248.535,999.512
1742640953.164,906.25,431.641,84.961,890.137
1742640953.168,-505.371,-853.516,2.93,-506.836
1742640953.172,-1000.0,-1000.0,63.965,-1000.0
1742640953.176,-929.688,-1000.0,34.668,-929.688
1742640953.18,-1000.0,-18.555,-65.43,-1000.0
1742640953.182,-957.52,550.781,-125.0,-955.078
1742640953.186,-1000.0,-724.609,-136.719,-1000.0
1742640953.19,-87.402,265.137,-35.645,-133.789
1742640953.194,999.512,999.512,4.883,999.512
1742640953.198,951.66,49.805,-52.246,958.008
1742640953.202,901.855,-245.117,8.301,898.926
1742640953.206,995.117,892.09,-52.734,999.512
1742640953.209,943.359,-396.484,-165.527,871.582
1742640953.213,-447.266,-1000.0,-265.625,-487.793
1742640953.217,-1000.0,-894.531,-291.016,-1000.0
1742640953.221,-869.629,-1000.0,-113.281,-875.977
1742640953.225,-1000.0,-93.262,-30.273,-1000.0
1742640953.227,-889.648,808.105,8.789,-883.789
1742640953.231,564.453,984.375,113.281,561.523
1742640953.235,999.512,801.758,0.977,999.512
1742640953.239,999.512,-561.035,-212.891,986.816
1742640953.243,260.742,-1000.0,-299.805,127.441
1742640953.247,-1000.0,-647.461,-197.266,-1000.0
1742640953.251,-1000.0,639.16,-110.352,-998.047
1742640953.254,-918.457,-391.602,-249.023,-931.152
1742640953.258,-1000.0,-1000.0,-299.316,-1000.0
1742640953.262,-958.496,21.484,-99.609,-979.004
1742640953.266,451.66,988.281,126.953,406.738
1742640953.27,999.512,999.512,148.926,999.512
1742640953.227,-889.648,808.105,8.789,-883.789
1742640953.231,564.453,984.375,113.281,561.523
1742640953.235,999.512,801.758,0.977,999.512
1742640953.239,999.512,-561.035,-212.891,986.816
1742640953.243,260.742,-1000.0,-299.805,127.441
1742640953.247,-1000.0,-647.461,-197.266,-1000.0
1742640953.251,-1000.0,639.16,-110.352,-998.047
1742640953.254,-918.457,-391.602,-249.023,-931.152
1742640953.258,-1000.0,-1000.0,-299.316,-1000.0
1742640953.262,-958.496,21.484,-99.609,-979.004
1742640953.266,451.66,988.281,126.953,406.738
1742640953.27,999.512,999.512,148.926,999.512
1742640953.272,892.09,-213.379,22.461,894.531
1742640953.276,979.004,-1000.0,34.668,977.539
1742640953.28,966.309,252.441,146.484,966.797
1742640953.284,982.422,999.512,220.703,983.398
1742640953.288,908.203,153.32,267.09,909.18
1742640953.292,999.512,-296.875,245.117,999.512
1742640953.296,856.934,642.09,192.383,857.91
1742640953.299,-597.656,-551.27,35.645,-597.656
1742640953.303,-1000.0,-1000.0,41.016,-1000.0
1742640953.307,-925.781,-165.527,161.621,-926.27
1742640953.311,-1000.0,999.512,56.152,-1000.0
1742640953.315,-927.734,-306.152,-46.387,-934.082
1742640953.272,892.09,-213.379,22.461,894.531
1742640953.276,979.004,-1000.0,34.668,977.539
1742640953.28,966.309,252.441,146.484,966.797
1742640953.284,982.422,999.512,220.703,983.398
1742640953.288,908.203,153.32,267.09,909.18
1742640953.292,999.512,-296.875,245.117,999.512
1742640953.296,856.934,642.09,192.383,857.91
1742640953.299,-597.656,-551.27,35.645,-597.656
1742640953.303,-1000.0,-1000.0,41.016,-1000.0
1742640953.307,-925.781,-165.527,161.621,-926.27
1742640953.311,-1000.0,999.512,56.152,-1000.0
1742640953.315,-927.734,-306.152,-46.387,-934.082
1742640953.318,-1000.0,-1000.0,-63.965,-1000.0
1742640953.322,-591.309,567.383,-18.555,-522.461
1742640953.326,851.562,999.512,38.086,866.699
1742640953.33,999.512,611.328,-89.355,999.512
1742640953.334,909.18,-663.086,-117.676,915.039
1742640953.338,981.934,333.496,-146.973,981.445
1742640953.342,966.309,999.512,-134.277,966.797
1742640953.345,981.934,-538.574,-61.523,981.934
1742640953.349,909.668,-1000.0,5.371,914.062
1742640953.353,999.512,576.172,112.305,999.512
1742640953.357,866.211,925.781,76.66,894.043
1742640953.361,-590.82,-717.773,45.41,-545.898
1742640953.318,-1000.0,-1000.0,-63.965,-1000.0
1742640953.322,-591.309,567.383,-18.555,-522.461
1742640953.326,851.562,999.512,38.086,866.699
1742640953.33,999.512,611.328,-89.355,999.512
1742640953.334,909.18,-663.086,-117.676,915.039
1742640953.338,981.934,333.496,-146.973,981.445
1742640953.342,966.309,999.512,-134.277,966.797
1742640953.345,981.934,-538.574,-61.523,981.934
1742640953.349,909.668,-1000.0,5.371,914.062
1742640953.353,999.512,576.172,112.305,999.512
1742640953.357,866.211,925.781,76.66,894.043
1742640953.361,-590.82,-717.773,45.41,-545.898
1742640953.318,-1000.0,-1000.0,-63.965,-1000.0
1742640953.322,-591.309,567.383,-18.555,-522.461
1742640953.326,851.562,999.512,38.086,866.699
1742640953.33,999.512,611.328,-89.355,999.512
1742640953.334,909.18,-663.086,-117.676,915.039
1742640953.338,981.934,333.496,-146.973,981.445
1742640953.342,966.309,999.512,-134.277,966.797
1742640953.345,981.934,-538.574,-61.523,981.934
1742640953.349,909.668,-1000.0,5.371,914.062
1742640953.353,999.512,576.172,112.305,999.512
1742640953.357,866.211,925.781,76.66,894.043
1742640953.361,-590.82,-717.773,45.41,-545.898
1742640953.377,-1000.0,-1000.0,191.406,-1000.0
1742640953.381,-911.133,75.684,143.066,-945.312
1742640953.385,-1000.0,999.512,-75.684,-898.926
1742640953.389,187.988,967.773,-189.453,438.965
1742640953.393,999.512,364.746,-217.773,999.512
1742640953.397,920.41,743.164,-141.602,916.016
1742640953.401,911.621,833.496,-116.699,927.246
1742640953.404,999.512,-758.789,-231.934,995.605
1742640953.408,860.352,-1000.0,-311.523,916.504
1742640953.412,-498.047,-948.73,-338.379,-409.18
1742640953.416,-1000.0,-990.234,-231.445,-1000.0
1742640953.42,-687.5,315.43,-49.316,-505.371
1742640953.377,-1000.0,-1000.0,191.406,-1000.0
1742640953.381,-911.133,75.684,143.066,-945.312
1742640953.385,-1000.0,999.512,-75.684,-898.926
1742640953.389,187.988,967.773,-189.453,438.965
1742640953.393,999.512,364.746,-217.773,999.512
1742640953.397,920.41,743.164,-141.602,916.016
1742640953.401,911.621,833.496,-116.699,927.246
1742640953.404,999.512,-758.789,-231.934,995.605
1742640953.408,860.352,-1000.0,-311.523,916.504
1742640953.412,-498.047,-948.73,-338.379,-409.18
1742640953.416,-1000.0,-990.234,-231.445,-1000.0
1742640953.42,-687.5,315.43,-49.316,-505.371
1742640953.422,623.535,999.512,5.371,742.676
1742640953.426,999.512,724.609,-98.633,999.512
1742640953.43,802.246,-593.262,-172.363,756.348
1742640953.434,-617.676,-1000.0,-0.488,-680.176
1742640953.438,-1000.0,-684.082,243.652,-970.703
1742640953.442,470.703,537.109,308.105,525.879
1742640953.446,999.512,999.512,217.285,999.512
1742640953.449,902.344,661.621,187.5,890.625
1742640953.453,990.234,-861.816,220.703,951.172
1742640953.457,900.391,-518.066,242.188,900.391
1742640953.461,999.512,999.512,241.211,999.512
1742640953.465,765.625,295.41,134.766,798.34
1742640953.422,623.535,999.512,5.371,742.676
1742640953.426,999.512,724.609,-98.633,999.512
1742640953.43,802.246,-593.262,-172.363,756.348
1742640953.434,-617.676,-1000.0,-0.488,-680.176
1742640953.438,-1000.0,-684.082,243.652,-970.703
1742640953.442,470.703,537.109,308.105,525.879
1742640953.446,999.512,999.512,217.285,999.512
1742640953.449,902.344,661.621,187.5,890.625
1742640953.453,990.234,-861.816,220.703,951.172
1742640953.457,900.391,-518.066,242.188,900.391
1742640953.461,999.512,999.512,241.211,999.512
1742640953.465,765.625,295.41,134.766,798.34
1742640953.467,-710.938,-1000.0,-35.156,-665.527
1742640953.471,-1000.0,-995.117,142.09,-1000.0
1742640953.475,-929.199,612.305,322.754,-928.223
1742640953.479,-1000.0,964.844,214.844,-1000.0
1742640953.483,-1000.0,-779.785,121.094,-1000.0
1742640953.487,-1000.0,0.0,47.852,-1000.0
1742640953.491,-1000.0,999.512,-24.902,-1000.0
1742640953.494,-942.383,-173.34,-133.789,-941.406
1742640953.498,-1000.0,-1000.0,-272.949,-1000.0
1742640953.502,-889.16,-463.867,-228.516,-876.953
1742640953.506,566.406,906.738,-99.121,582.031
1742640953.51,999.512,893.066,-93.75,999.512
1742640953.467,-710.938,-1000.0,-35.156,-665.527
1742640953.471,-1000.0,-995.117,142.09,-1000.0
1742640953.475,-929.199,612.305,322.754,-928.223
1742640953.479,-1000.0,964.844,214.844,-1000.0
1742640953.483,-1000.0,-779.785,121.094,-1000.0
1742640953.487,-1000.0,0.0,47.852,-1000.0
1742640953.491,-1000.0,999.512,-24.902,-1000.0
1742640953.494,-942.383,-173.34,-133.789,-941.406
1742640953.498,-1000.0,-1000.0,-272.949,-1000.0
1742640953.502,-889.16,-463.867,-228.516,-876.953
1742640953.506,566.406,906.738,-99.121,582.031
1742640953.51,999.512,893.066,-93.75,999.512
1742640953.527,908.203,530.273,-19.043,909.18
1742640953.531,923.828,739.258,25.879,921.875
1742640953.535,999.512,-532.227,-33.203,999.512
1742640953.539,873.047,-1000.0,-87.891,830.078
1742640953.543,-582.031,-986.328,-59.082,-651.855
1742640953.547,-1000.0,-189.453,109.863,-1000.0
1742640953.551,199.219,999.512,259.766,299.316
1742640953.554,998.535,810.547,223.145,999.512
1742640953.558,999.512,-589.355,67.383,999.512
1742640953.562,645.02,-1000.0,3.418,506.348
1742640953.566,-820.312,-875.488,100.586,-868.652
1742640953.57,-1000.0,337.891,163.086,-1000.0
1742640953.56,-887.207,-192.871,134.766,-899.414
1742640953.564,-1000.0,-1000.0,119.141,-1000.0
1742640953.568,-956.543,-463.867,191.895,-960.938
1742640953.572,463.867,833.008,358.887,452.148
1742640953.576,999.512,955.078,383.789,999.512
1742640953.58,891.113,991.211,218.75,892.09
1742640953.584,999.512,733.398,91.309,999.512
1742640953.587,-330.078,-652.344,22.949,-295.41
1742640953.591,-1000.0,-1000.0,-4.883,-1000.0
1742640953.595,-1000.0,-675.293,-52.246,-1000.0
1742640953.599,-724.609,701.172,-142.09,-386.719
1742640953.603,757.324,999.512,-230.469,895.996
1742640953.56,-887.207,-192.871,134.766,-899.414
1742640953.564,-1000.0,-1000.0,119.141,-1000.0
1742640953.568,-956.543,-463.867,191.895,-960.938
1742640953.572,463.867,833.008,358.887,452.148
1742640953.576,999.512,955.078,383.789,999.512
1742640953.58,891.113,991.211,218.75,892.09
1742640953.584,999.512,733.398,91.309,999.512
1742640953.587,-330.078,-652.344,22.949,-295.41
1742640953.591,-1000.0,-1000.0,-4.883,-1000.0
1742640953.595,-1000.0,-675.293,-52.246,-1000.0
1742640953.599,-724.609,701.172,-142.09,-386.719
1742640953.603,757.324,999.512,-230.469,895.996
1742640953.603,999.512,270.02,-266.602,994.141
1742640953.607,913.574,744.629,-277.832,937.012
1742640953.611,936.035,703.613,-221.191,935.059
1742640953.615,995.117,-857.422,-102.051,986.816
1742640953.619,930.176,-981.445,-59.082,952.148
1742640953.623,-474.121,-1000.0,-51.27,-424.805
1742640953.627,-1000.0,-525.391,113.77,-1000.0
1742640953.63,-926.758,684.082,116.699,-928.711
1742640953.634,-1000.0,-713.867,-29.297,-1000.0
1742640953.638,-1000.0,-1000.0,23.438,-1000.0
1742640953.642,-964.355,838.867,-112.793,-967.773
1742640953.646,-1000.0,467.285,-259.766,-996.094
1742640953.603,999.512,270.02,-266.602,994.141
1742640953.607,913.574,744.629,-277.832,937.012
1742640953.611,936.035,703.613,-221.191,935.059
1742640953.615,995.117,-857.422,-102.051,986.816
1742640953.619,930.176,-981.445,-59.082,952.148
1742640953.623,-474.121,-1000.0,-51.27,-424.805
1742640953.627,-1000.0,-525.391,113.77,-1000.0
1742640953.63,-926.758,684.082,116.699,-928.711
1742640953.634,-1000.0,-713.867,-29.297,-1000.0
1742640953.638,-1000.0,-1000.0,23.438,-1000.0
1742640953.642,-964.355,838.867,-112.793,-967.773
1742640953.646,-1000.0,467.285,-259.766,-996.094
1742640953.677,-1000.0,-869.141,-174.316,-1000.0
1742640953.681,312.988,388.672,-140.625,261.719
1742640953.685,999.512,999.512,-147.949,999.512
1742640953.689,954.59,830.078,-182.129,985.352
1742640953.693,851.074,-501.953,-205.078,576.172
1742640953.697,-613.77,-1000.0,-151.367,-803.711
1742640953.701,-1000.0,-54.199,-182.129,-1000.0
1742640953.704,-866.699,-6.348,-291.016,-886.23
1742640953.708,-1000.0,-1000.0,-333.984,-1000.0
1742640953.712,-873.535,-171.875,-229.98,-891.113
1742640953.716,601.074,999.512,-35.156,580.078
1742640953.72,999.512,887.695,6.348,999.512
1742640953.677,-1000.0,-869.141,-174.316,-1000.0
1742640953.681,312.988,388.672,-140.625,261.719
1742640953.685,999.512,999.512,-147.949,999.512
1742640953.689,954.59,830.078,-182.129,985.352
1742640953.693,851.074,-501.953,-205.078,576.172
1742640953.697,-613.77,-1000.0,-151.367,-803.711
1742640953.701,-1000.0,-54.199,-182.129,-1000.0
1742640953.704,-866.699,-6.348,-291.016,-886.23
1742640953.708,-1000.0,-1000.0,-333.984,-1000.0
1742640953.712,-873.535,-171.875,-229.98,-891.113
1742640953.716,601.074,999.512,-35.156,580.078
1742640953.72,999.512,887.695,6.348,999.512
1742640953.692,933.105,999.512,-41.992,939.453
1742640953.696,900.391,660.156,-98.145,882.812
1742640953.7,-492.676,-712.891,-237.793,-526.855
1742640953.704,-1000.0,-1000.0,-182.129,-1000.0
1742640953.708,-917.969,-757.324,-25.879,-935.059
1742640953.712,370.605,538.574,199.219,323.73
1742640953.716,999.512,999.512,237.793,999.512
1742640953.719,894.043,570.312,25.391,897.461
1742640953.723,989.746,-882.812,39.551,985.84
1742640953.727,894.531,46.875,112.793,898.926
1742640953.731,999.512,999.512,12.207,999.512
1742640953.735,502.441,-370.605,-7.324,485.352
1742640953.692,933.105,999.512,-41.992,939.453
1742640953.696,900.391,660.156,-98.145,882.812
1742640953.7,-492.676,-712.891,-237.793,-526.855
1742640953.704,-1000.0,-1000.0,-182.129,-1000.0
1742640953.708,-917.969,-757.324,-25.879,-935.059
1742640953.712,370.605,538.574,199.219,323.73
1742640953.716,999.512,999.512,237.793,999.512
1742640953.719,894.043,570.312,25.391,897.461
1742640953.723,989.746,-882.812,39.551,985.84
1742640953.727,894.531,46.875,112.793,898.926
1742640953.731,999.512,999.512,12.207,999.512
1742640953.735,502.441,-370.605,-7.324,485.352
1742640953.752,-917.48,-1000.0,13.672,-910.156
1742640953.756,-1000.0,-798.34,154.297,-1000.0
1742640953.76,-947.266,794.922,236.816,-949.707
1742640953.764,-1000.0,533.203,114.746,-1000.0
1742640953.768,-927.734,-820.801,-15.625,-935.059
1742640953.772,-1000.0,465.82,32.715,-1000.0
1742640953.776,-612.793,999.512,149.902,-526.367
1742640953.779,854.492,860.352,182.617,876.465
1742640953.783,966.797,-414.551,88.379,952.148
1742640953.787,945.312,-1000.0,45.898,962.402
1742640953.791,930.176,-840.82,-64.941,885.742
1742640953.795,-649.414,-1000.0,-197.266,-697.266
1742640953.752,-917.48,-1000.0,13.672,-910.156
1742640953.756,-1000.0,-798.34,154.297,-1000.0
1742640953.76,-947.266,794.922,236.816,-949.707
1742640953.764,-1000.0,533.203,114.746,-1000.0
1742640953.768,-927.734,-820.801,-15.625,-935.059
1742640953.772,-1000.0,465.82,32.715,-1000.0
1742640953.776,-612.793,999.512,149.902,-526.367
1742640953.779,854.492,860.352,182.617,876.465
1742640953.783,966.797,-414.551,88.379,952.148
1742640953.787,945.312,-1000.0,45.898,962.402
1742640953.791,930.176,-840.82,-64.941,885.742
1742640953.795,-649.414,-1000.0,-197.266,-697.266
1742640953.797,-1000.0,-588.867,-88.867,-1000.0
1742640953.801,625.977,874.512,-24.414,637.207
1742640953.805,999.512,999.512,-94.727,999.512
1742640953.809,891.602,-534.668,-99.121,892.09
1742640953.813,981.934,-1000.0,17.578,982.91
1742640953.817,966.309,688.477,245.605,966.797
1742640953.821,966.309,981.934,219.238,966.797
1742640953.824,966.309,-573.242,120.605,966.797
1742640953.828,973.633,-1000.0,144.043,967.285
1742640953.832,939.453,-490.234,168.457,981.934
1742640953.836,950.684,877.441,266.113,902.832
1742640953.84,999.512,904.785,253.906,999.512
1742640953.797,-1000.0,-588.867,-88.867,-1000.0
1742640953.801,625.977,874.512,-24.414,637.207
1742640953.805,999.512,999.512,-94.727,999.512
1742640953.809,891.602,-534.668,-99.121,892.09
1742640953.813,981.934,-1000.0,17.578,982.91
1742640953.817,966.309,688.477,245.605,966.797
1742640953.821,966.309,981.934,219.238,966.797
1742640953.824,966.309,-573.242,120.605,966.797
1742640953.828,973.633,-1000.0,144.043,967.285
1742640953.832,939.453,-490.234,168.457,981.934
1742640953.836,950.684,877.441,266.113,902.832
1742640953.84,999.512,904.785,253.906,999.512
1742640953.842,-173.828,-570.312,37.598,738.77
1742640953.846,-1000.0,-1000.0,-74.707,-741.699
1742640953.85,-1000.0,-852.539,43.945,-1000.0
1742640953.854,159.668,500.977,294.434,352.051
1742640953.858,999.512,999.512,362.305,999.512
1742640953.862,907.715,960.938,342.773,899.414
1742640953.866,964.844,743.652,184.082,972.168
1742640953.869,966.797,-833.984,-55.664,966.797
1742640953.873,974.609,-893.066,48.828,968.262
1742640953.877,935.547,848.145,155.762,972.656
1742640953.881,951.172,600.098,91.797,893.066
1742640953.885,999.512,-831.055,140.137,999.512
1742640953.842,-173.828,-570.312,37.598,738.77
1742640953.846,-1000.0,-1000.0,-74.707,-741.699
1742640953.85,-1000.0,-852.539,43.945,-1000.0
1742640953.854,159.668,500.977,294.434,352.051
1742640953.858,999.512,999.512,362.305,999.512
1742640953.862,907.715,960.938,342.773,899.414
1742640953.866,964.844,743.652,184.082,972.168
1742640953.869,966.797,-833.984,-55.664,966.797
1742640953.873,974.609,-893.066,48.828,968.262
1742640953.877,935.547,848.145,155.762,972.656
1742640953.881,951.172,600.098,91.797,893.066
1742640953.885,999.512,-831.055,140.137,999.512
1742640953.888,-240.234,-1000.0,83.008,354.492
1742640953.892,-1000.0,-785.156,108.398,-944.824
1742640953.896,237.305,553.223,148.438,349.609
1742640953.9,999.512,999.512,33.691,999.512
1742640953.904,919.922,284.668,-173.34,989.258
1742640953.908,-342.773,-927.246,-327.637,133.301
1742640953.912,-1000.0,-972.168,-187.988,-1000.0
1742640953.915,-932.129,-999.512,-114.746,-984.375
1742640953.919,-1000.0,-993.652,-265.137,-980.469
1742640953.923,-989.746,650.879,-369.629,-993.164
1742640953.927,-958.496,462.891,-314.453,-963.867
1742640953.931,-1000.0,-958.984,-155.762,-1000.0
1742640953.888,-240.234,-1000.0,83.008,354.492
1742640953.892,-1000.0,-785.156,108.398,-944.824
1742640953.896,237.305,553.223,148.438,349.609
1742640953.9,999.512,999.512,33.691,999.512
1742640953.904,919.922,284.668,-173.34,989.258
1742640953.908,-342.773,-927.246,-327.637,133.301
1742640953.912,-1000.0,-972.168,-187.988,-1000.0
1742640953.915,-932.129,-999.512,-114.746,-984.375
1742640953.919,-1000.0,-993.652,-265.137,-980.469
1742640953.923,-989.746,650.879,-369.629,-993.164
1742640953.927,-958.496,462.891,-314.453,-963.867
1742640953.931,-1000.0,-958.984,-155.762,-1000.0
1742640954.396,720.215,-453.125,369.629,518.555
1742640954.4,-714.355,-1000.0,245.605,-827.637
1742640954.404,-1000.0,-806.641,312.012,-1000.0
1742640954.408,-929.688,704.102,376.953,-942.871
1742640954.412,-1000.0,-5.859,230.957,-1000.0
1742640954.416,-1000.0,-198.73,147.949,-1000.0
1742640954.42,-941.895,959.473,145.996,-942.383
1742640954.423,-1000.0,-728.516,84.473,-1000.0
1742640954.427,-866.699,-756.348,150.391,-873.535
1742640954.431,516.602,807.617,167.969,506.348
1742640954.435,999.512,999.512,166.016,999.512
1742640954.439,782.715,337.402,299.805,764.16
1742640953.932,-86.914,316.895,-66.406,-54.688
1742640953.936,999.512,999.512,25.391,999.512
1742640953.94,999.512,786.621,-119.629,999.512
1742640953.944,-19.043,-596.68,-236.328,-111.816
1742640953.948,-1000.0,-1000.0,-132.324,-1000.0
1742640953.952,-965.332,407.715,-86.426,-956.543
1742640953.956,-985.352,906.738,-7.324,-991.211
1742640953.959,-1000.0,-680.664,-4.883,-1000.0
1742640953.963,-1000.0,-1000.0,-58.594,-1000.0
1742640953.967,-1000.0,-286.621,-66.406,-1000.0
1742640953.971,-1000.0,999.512,-173.34,-1000.0
1742640953.975,-1000.0,344.238,-295.41,-1000.0
1742640953.977,-1000.0,-789.062,-273.438,-1000.0
1742640953.981,-1000.0,485.84,-279.785,-1000.0
1742640953.985,-946.777,-173.34,-351.074,-960.449
1742640953.989,-1000.0,-1000.0,-354.492,-1000.0
1742640953.993,-907.715,-676.27,-260.254,-992.188
1742640953.997,454.59,563.965,-159.668,281.25
1742640954.001,999.512,999.512,-248.047,999.512
1742640954.004,782.227,140.625,-381.348,719.238
1742640954.008,-583.496,-984.375,-395.02,-666.016
1742640954.012,-1000.0,-960.938,-304.199,-1000.0
1742640954.016,-935.059,-1000.0,-279.785,-936.523
1742640954.02,-981.934,-70.801,-284.18,-988.281
1742640953.977,-1000.0,-789.062,-273.438,-1000.0
1742640953.981,-1000.0,485.84,-279.785,-1000.0
1742640953.985,-946.777,-173.34,-351.074,-960.449
1742640953.989,-1000.0,-1000.0,-354.492,-1000.0
1742640953.993,-907.715,-676.27,-260.254,-992.188
1742640953.997,454.59,563.965,-159.668,281.25
1742640954.001,999.512,999.512,-248.047,999.512
1742640954.004,782.227,140.625,-381.348,719.238
1742640954.008,-583.496,-984.375,-395.02,-666.016
1742640954.012,-1000.0,-960.938,-304.199,-1000.0
1742640954.016,-935.059,-1000.0,-279.785,-936.523
1742640954.02,-981.934,-70.801,-284.18,-988.281
1742640954.021,-998.535,451.172,-272.949,-987.793
1742640954.025,-1000.0,-796.875,-174.316,-1000.0
1742640954.029,273.438,445.801,-125.977,191.406
1742640954.033,999.512,999.512,-226.562,999.512
1742640954.037,898.438,-477.539,-333.984,907.227
1742640954.041,971.191,247.559,-196.777,966.797
1742640954.045,982.422,999.512,-53.223,984.375
1742640954.048,908.691,-734.375,-163.574,908.691
1742640954.052,999.512,-816.895,-208.008,999.512
1742640954.056,848.145,616.211,-229.004,840.332
1742640954.06,-564.453,-498.047,-291.992,-565.43
1742640954.064,-1000.0,-1000.0,-162.598,-1000.0
1742640954.021,-998.535,451.172,-272.949,-987.793
1742640954.025,-1000.0,-796.875,-174.316,-1000.0
1742640954.029,273.438,445.801,-125.977,191.406
1742640954.033,999.512,999.512,-226.562,999.512
1742640954.037,898.438,-477.539,-333.984,907.227
1742640954.041,971.191,247.559,-196.777,966.797
1742640954.045,982.422,999.512,-53.223,984.375
1742640954.048,908.691,-734.375,-163.574,908.691
1742640954.052,999.512,-816.895,-208.008,999.512
1742640954.056,848.145,616.211,-229.004,840.332
1742640954.06,-564.453,-498.047,-291.992,-565.43
1742640954.064,-1000.0,-1000.0,-162.598,-1000.0
1742640954.082,-954.59,-486.328,-9.277,-910.156
1742640954.086,192.383,806.152,-11.719,278.32
1742640954.09,999.512,999.512,-163.574,999.512
1742640954.094,882.812,2.93,-161.621,863.281
1742640954.098,-592.285,-1000.0,49.805,-616.211
1742640954.102,-1000.0,-182.617,249.023,-981.934
1742640954.106,576.172,999.512,305.176,593.262
1742640954.109,999.512,592.285,177.734,999.512
1742640954.113,716.309,-769.531,9.766,636.23
1742640954.117,-582.52,-1000.0,34.18,-643.066
1742640954.121,-1000.0,-871.094,154.297,-1000.0
1742640954.125,-775.391,397.949,59.57,-644.531
1742640954.082,-954.59,-486.328,-9.277,-910.156
1742640954.086,192.383,806.152,-11.719,278.32
1742640954.09,999.512,999.512,-163.574,999.512
1742640954.094,882.812,2.93,-161.621,863.281
1742640954.098,-592.285,-1000.0,49.805,-616.211
1742640954.102,-1000.0,-182.617,249.023,-981.934
1742640954.106,576.172,999.512,305.176,593.262
1742640954.109,999.512,592.285,177.734,999.512
1742640954.113,716.309,-769.531,9.766,636.23
1742640954.117,-582.52,-1000.0,34.18,-643.066
1742640954.121,-1000.0,-871.094,154.297,-1000.0
1742640954.125,-775.391,397.949,59.57,-644.531
1742640954.126,601.074,999.512,-50.781,703.125
1742640954.13,999.512,884.766,-119.141,999.512
1742640954.134,893.066,-582.52,-134.277,902.832
1742640954.138,999.512,-506.348,132.812,999.512
1742640954.142,899.902,968.75,354.98,903.32
1742640954.146,999.512,999.512,441.406,999.512
1742640954.15,739.258,-69.824,432.129,769.043
1742640954.153,-661.621,-1000.0,383.789,-617.676
1742640954.157,-1000.0,-978.027,399.414,-1000.0
1742640954.161,-804.688,206.543,487.793,-680.664
1742640954.165,567.383,999.512,502.93,681.152
1742640954.169,999.512,853.516,321.289,999.512
1742640954.126,601.074,999.512,-50.781,703.125
1742640954.13,999.512,884.766,-119.141,999.512
1742640954.134,893.066,-582.52,-134.277,902.832
1742640954.138,999.512,-506.348,132.812,999.512
1742640954.142,899.902,968.75,354.98,903.32
1742640954.146,999.512,999.512,441.406,999.512
1742640954.15,739.258,-69.824,432.129,769.043
1742640954.153,-661.621,-1000.0,383.789,-617.676
1742640954.157,-1000.0,-978.027,399.414,-1000.0
1742640954.161,-804.688,206.543,487.793,-680.664
1742640954.165,567.383,999.512,502.93,681.152
1742640954.169,999.512,853.516,321.289,999.512
1742640954.172,837.891,-402.344,156.25,871.582
1742640954.176,999.512,497.07,139.16,971.68
1742640954.18,883.789,731.934,41.504,999.512
1742640954.184,-571.777,-896.484,-30.273,-229.492
1742640954.188,-1000.0,-1000.0,-47.363,-1000.0
1742640954.192,-1000.0,-374.023,-110.352,-1000.0
1742640954.196,-675.293,895.996,-61.035,-433.594
1742640954.199,809.082,999.512,-122.559,903.32
1742640954.203,999.512,-544.922,-258.789,997.559
1742640954.207,903.809,-982.422,-270.996,921.387
1742640954.211,983.398,697.754,-250.977,979.492
1742640954.215,966.309,999.512,-189.941,966.797
1742640954.172,837.891,-402.344,156.25,871.582
1742640954.176,999.512,497.07,139.16,971.68
1742640954.18,883.789,731.934,41.504,999.512
1742640954.184,-571.777,-896.484,-30.273,-229.492
1742640954.188,-1000.0,-1000.0,-47.363,-1000.0
1742640954.192,-1000.0,-374.023,-110.352,-1000.0
1742640954.196,-675.293,895.996,-61.035,-433.594
1742640954.199,809.082,999.512,-122.559,903.32
1742640954.203,999.512,-544.922,-258.789,997.559
1742640954.207,903.809,-982.422,-270.996,921.387
1742640954.211,983.398,697.754,-250.977,979.492
1742640954.215,966.309,999.512,-189.941,966.797
1742640954.681,-927.734,-488.77,-155.273,-929.199
1742640954.685,-1000.0,-1000.0,-177.246,-1000.0
1742640954.689,-615.234,250.488,-75.195,-668.945
1742640954.693,851.074,999.512,-24.902,807.617
1742640954.697,975.098,852.051,-10.742,984.375
1742640954.701,940.43,999.512,113.77,945.801
1742640954.705,934.082,603.516,267.09,911.133
1742640954.708,-497.559,-819.824,230.469,-537.109
1742640954.712,-1000.0,-1000.0,168.457,-1000.0
1742640954.716,-942.383,-935.059,123.047,-942.383
1742640954.72,-955.078,-1000.0,47.363,-955.566
1742640954.724,-1000.0,203.613,15.625,-1000.0
1742640954.218,966.309,-403.809,-143.066,966.797
1742640954.222,982.422,-1000.0,-130.859,966.797
1742640954.226,908.203,365.234,-124.023,967.285
1742640954.23,999.512,996.094,-193.359,966.797
1742640954.234,849.609,-293.945,-190.43,983.887
1742640954.238,-601.562,-1000.0,-47.363,903.809
1742640954.242,-1000.0,-229.492,-64.453,999.512
1742640954.245,-872.07,364.258,-209.473,848.633
1742640954.249,-1000.0,-1000.0,-257.324,-725.098
1742640954.253,-917.969,-799.316,-152.832,-1000.0
1742640954.257,521.973,746.582,-68.848,624.512
1742640954.261,999.512,999.512,-166.992,999.512
1742640954.218,966.309,-403.809,-143.066,966.797
1742640954.222,982.422,-1000.0,-130.859,966.797
1742640954.226,908.203,365.234,-124.023,967.285
1742640954.23,999.512,996.094,-193.359,966.797
1742640954.234,849.609,-293.945,-190.43,983.887
1742640954.238,-601.562,-1000.0,-47.363,903.809
1742640954.242,-1000.0,-229.492,-64.453,999.512
1742640954.245,-872.07,364.258,-209.473,848.633
1742640954.249,-1000.0,-1000.0,-257.324,-725.098
1742640954.253,-917.969,-799.316,-152.832,-1000.0
1742640954.257,521.973,746.582,-68.848,624.512
1742640954.261,999.512,999.512,-166.992,999.512
1742640954.262,892.09,-149.414,-244.141,892.578
1742640954.266,994.629,-1000.0,-232.91,996.094
1742640954.27,900.879,-58.105,-204.102,917.969
1742640954.274,999.512,844.727,-201.66,998.535
1742640954.278,632.812,-462.891,-244.629,920.41
1742640954.282,-796.875,-1000.0,-237.793,-486.328
1742640954.286,-1000.0,-854.492,-249.512,-1000.0
1742640954.289,-954.59,383.301,-233.887,-936.523
1742640954.293,-942.871,-364.258,-227.539,-946.777
1742640954.297,-1000.0,-1000.0,-193.848,-1000.0
1742640954.301,-628.906,285.156,-193.848,-485.352
1742640954.305,830.078,999.512,-229.004,889.16
1742640954.262,892.09,-149.414,-244.141,892.578
1742640954.266,994.629,-1000.0,-232.91,996.094
1742640954.27,900.879,-58.105,-204.102,917.969
1742640954.274,999.512,844.727,-201.66,998.535
1742640954.278,632.812,-462.891,-244.629,920.41
1742640954.282,-796.875,-1000.0,-237.793,-486.328
1742640954.286,-1000.0,-854.492,-249.512,-1000.0
1742640954.289,-954.59,383.301,-233.887,-936.523
1742640954.293,-942.871,-364.258,-227.539,-946.777
1742640954.297,-1000.0,-1000.0,-193.848,-1000.0
1742640954.301,-628.906,285.156,-193.848,-485.352
1742640954.305,830.078,999.512,-229.004,889.16
1742640954.306,999.512,926.27,-189.941,999.512
1742640954.31,916.992,966.797,-162.109,921.387
1742640954.314,913.574,-344.238,-242.188,923.34
1742640954.318,999.512,-1000.0,-205.078,999.512
1742640954.322,449.707,-997.559,-172.363,344.238
1742640954.326,-939.453,-972.656,-159.18,-956.055
1742640954.33,-1000.0,588.867,-20.02,-1000.0
1742640954.333,-951.66,17.578,-44.922,-958.984
1742640954.337,-1000.0,-1000.0,-110.352,-1000.0
1742640954.341,-1000.0,526.367,-84.473,-1000.0
1742640954.345,-929.199,862.305,-112.793,-930.664
1742640954.349,-1000.0,-934.082,-97.656,-1000.0
1742640954.351,-693.848,-649.414,-77.148,-705.566
1742640954.355,708.496,999.512,-119.629,692.871
1742640954.359,999.512,702.637,-232.422,999.512
1742640954.363,791.504,-735.352,-223.145,636.23
1742640954.367,-580.566,-1000.0,-170.898,-698.242
1742640954.371,-1000.0,-50.781,-144.531,-1000.0
1742640954.375,-926.758,875.0,-115.234,-946.777
1742640954.378,-958.008,-635.742,54.199,-946.289
1742640954.382,-1000.0,-1000.0,328.125,-1000.0
1742640954.386,-268.066,231.934,559.082,-497.07
1742640954.39,914.551,999.512,588.867,823.73
1742640954.394,999.512,836.426,511.23,999.512
1742640954.351,-693.848,-649.414,-77.148,-705.566
1742640954.355,708.496,999.512,-119.629,692.871
1742640954.359,999.512,702.637,-232.422,999.512
1742640954.363,791.504,-735.352,-223.145,636.23
1742640954.367,-580.566,-1000.0,-170.898,-698.242
1742640954.371,-1000.0,-50.781,-144.531,-1000.0
1742640954.375,-926.758,875.0,-115.234,-946.777
1742640954.378,-958.008,-635.742,54.199,-946.289
1742640954.382,-1000.0,-1000.0,328.125,-1000.0
1742640954.386,-268.066,231.934,559.082,-497.07
1742640954.39,914.551,999.512,588.867,823.73
1742640954.394,999.512,836.426,511.23,999.512
1742640954.443,-581.543,-1000.0,384.766,-605.469
1742640954.447,-1000.0,-93.262,351.562,-1000.0
1742640954.451,-932.617,498.047,320.801,-943.848
1742640954.455,-951.66,-983.398,400.879,-948.242
1742640954.459,-1000.0,-1000.0,493.652,-1000.0
1742640954.463,-439.941,395.508,552.734,-786.133
1742640954.467,905.762,999.512,386.719,726.562
1742640954.47,999.512,576.66,64.453,999.512
1742640954.474,-205.078,-720.215,-124.023,-388.184
1742640954.478,-1000.0,-1000.0,-81.543,-1000.0
1742640954.482,-945.801,-962.402,-77.637,-935.547
1742640954.486,-996.582,434.57,-103.516,-1000.0
1742640954.443,-581.543,-1000.0,384.766,-605.469
1742640954.447,-1000.0,-93.262,351.562,-1000.0
1742640954.451,-932.617,498.047,320.801,-943.848
1742640954.455,-951.66,-983.398,400.879,-948.242
1742640954.459,-1000.0,-1000.0,493.652,-1000.0
1742640954.463,-439.941,395.508,552.734,-786.133
1742640954.467,905.762,999.512,386.719,726.562
1742640954.47,999.512,576.66,64.453,999.512
1742640954.474,-205.078,-720.215,-124.023,-388.184
1742640954.478,-1000.0,-1000.0,-81.543,-1000.0
1742640954.482,-945.801,-962.402,-77.637,-935.547
1742640954.486,-996.582,434.57,-103.516,-1000.0
1742640954.502,-1000.0,858.887,-141.602,-1000.0
1742640954.506,-944.336,-829.102,-187.5,-960.938
1742640954.51,-1000.0,-952.148,-174.316,-1000.0
1742640954.514,-903.809,646.973,-163.086,-1000.0
1742640954.518,532.715,999.512,-104.492,310.547
1742640954.522,999.512,969.238,-29.785,999.512
1742640954.526,999.512,699.219,-76.66,954.59
1742640954.529,119.629,-666.992,-197.266,-148.438
1742640954.533,-1000.0,-1000.0,-172.363,-1000.0
1742640954.537,-979.492,-887.695,16.113,-952.148
1742640954.541,-994.141,611.328,100.098,-1000.0
1742640954.545,-947.754,999.512,142.578,-952.148
1742640954.502,-1000.0,858.887,-141.602,-1000.0
1742640954.506,-944.336,-829.102,-187.5,-960.938
1742640954.51,-1000.0,-952.148,-174.316,-1000.0
1742640954.514,-903.809,646.973,-163.086,-1000.0
1742640954.518,532.715,999.512,-104.492,310.547
1742640954.522,999.512,969.238,-29.785,999.512
1742640954.526,999.512,699.219,-76.66,954.59
1742640954.529,119.629,-666.992,-197.266,-148.438
1742640954.533,-1000.0,-1000.0,-172.363,-1000.0
1742640954.537,-979.492,-887.695,16.113,-952.148
1742640954.541,-994.141,611.328,100.098,-1000.0
1742640954.545,-947.754,999.512,142.578,-952.148
1742640954.547,-1000.0,-648.438,217.773,-1000.0
1742640954.551,-882.812,-50.293,211.426,-943.359
1742640954.555,574.707,999.512,187.988,476.562
1742640954.559,999.512,817.871,130.371,999.512
1742640954.563,833.984,-568.359,0.0,831.543
1742640954.567,999.512,405.273,-66.895,999.512
1742640954.571,856.934,932.129,-164.551,808.105
1742640954.574,-598.145,-737.793,-143.555,-654.297
1742640954.578,-1000.0,-1000.0,-171.875,-1000.0
1742640954.582,-926.27,-826.66,-358.887,-929.199
1742640954.586,-1000.0,703.613,-480.957,-1000.0
1742640954.59,-933.105,175.781,-596.191,-937.012
1742640954.547,-1000.0,-648.438,217.773,-1000.0
1742640954.551,-882.812,-50.293,211.426,-943.359
1742640954.555,574.707,999.512,187.988,476.562
1742640954.559,999.512,817.871,130.371,999.512
1742640954.563,833.984,-568.359,0.0,831.543
1742640954.567,999.512,405.273,-66.895,999.512
1742640954.571,856.934,932.129,-164.551,808.105
1742640954.574,-598.145,-737.793,-143.555,-654.297
1742640954.578,-1000.0,-1000.0,-171.875,-1000.0
1742640954.582,-926.27,-826.66,-358.887,-929.199
1742640954.586,-1000.0,703.613,-480.957,-1000.0
1742640954.59,-933.105,175.781,-596.191,-937.012
1742640954.592,-1000.0,-961.426,-596.68,-1000.0
1742640954.596,-476.074,528.32,-530.273,-489.258
1742640954.6,902.344,999.512,-520.996,896.973
1742640954.604,999.512,817.383,-572.754,999.512
1742640954.608,-253.906,-754.395,-638.672,-340.332
1742640954.612,-1000.0,-842.773,-491.699,-1000.0
1742640954.616,-940.43,715.82,-429.199,-936.035
1742640954.619,-1000.0,-481.934,-501.465,-1000.0
1742640954.623,-1000.0,-1000.0,-476.562,-1000.0
1742640954.627,-1000.0,546.387,-458.984,-1000.0
1742640954.631,-927.246,960.938,-413.574,-929.199
1742640954.635,-1000.0,-844.727,-383.301,-1000.0
1742640954.592,-1000.0,-961.426,-596.68,-1000.0
1742640954.596,-476.074,528.32,-530.273,-489.258
1742640954.6,902.344,999.512,-520.996,896.973
1742640954.604,999.512,817.383,-572.754,999.512
1742640954.608,-253.906,-754.395,-638.672,-340.332
1742640954.612,-1000.0,-842.773,-491.699,-1000.0
1742640954.616,-940.43,715.82,-429.199,-936.035
1742640954.619,-1000.0,-481.934,-501.465,-1000.0
1742640954.623,-1000.0,-1000.0,-476.562,-1000.0
1742640954.627,-1000.0,546.387,-458.984,-1000.0
1742640954.631,-927.246,960.938,-413.574,-929.199
1742640954.635,-1000.0,-844.727,-383.301,-1000.0
1742640954.637,-655.762,-554.199,-339.355,-684.57
1742640954.641,812.988,999.512,-284.668,782.715
1742640954.645,999.512,857.91,-390.137,999.512
1742640954.649,920.41,-777.832,-303.223,919.434
1742640954.653,925.781,-869.141,-97.168,926.27
1742640954.657,999.512,871.582,-139.648,999.512
1742640954.661,856.934,796.875,-271.484,857.91
1742640954.664,-597.656,-724.609,-342.285,-597.656
1742640954.668,-1000.0,-1000.0,-261.23,-1000.0
1742640954.672,-925.781,-524.414,-139.16,-925.781
1742640954.676,-1000.0,803.223,-83.496,-1000.0
1742640954.68,-1000.0,999.512,-84.961,-1000.0
1742640954.637,-655.762,-554.199,-339.355,-684.57
1742640954.641,812.988,999.512,-284.668,782.715
1742640954.645,999.512,857.91,-390.137,999.512
1742640954.649,920.41,-777.832,-303.223,919.434
1742640954.653,925.781,-869.141,-97.168,926.27
1742640954.657,999.512,871.582,-139.648,999.512
1742640954.661,856.934,796.875,-271.484,857.91
1742640954.664,-597.656,-724.609,-342.285,-597.656
1742640954.668,-1000.0,-1000.0,-261.23,-1000.0
1742640954.672,-925.781,-524.414,-139.16,-925.781
1742640954.676,-1000.0,803.223,-83.496,-1000.0
1742640954.68,-1000.0,999.512,-84.961,-1000.0
1742640954.728,-882.812,999.512,84.961,-873.535
1742640954.732,569.336,940.43,184.57,561.035
1742640954.736,999.512,916.504,127.93,999.512
1742640954.74,999.512,-373.047,122.559,965.332
1742640954.744,200.195,-1000.0,235.84,-38.574
1742640954.748,-1000.0,-721.68,397.949,-1000.0
1742640954.752,-995.605,527.832,493.164,-966.309
1742640954.755,-958.496,-368.652,389.648,-987.793
1742640954.759,-970.215,-1000.0,352.051,-948.73
1742640954.763,-1000.0,-756.836,510.254,-1000.0
1742640954.767,-39.551,577.637,678.711,-278.32
1742640954.771,999.512,999.512,639.648,978.516
1742640954.728,-882.812,999.512,84.961,-873.535
1742640954.732,569.336,940.43,184.57,561.035
1742640954.736,999.512,916.504,127.93,999.512
1742640954.74,999.512,-373.047,122.559,965.332
1742640954.744,200.195,-1000.0,235.84,-38.574
1742640954.748,-1000.0,-721.68,397.949,-1000.0
1742640954.752,-995.605,527.832,493.164,-966.309
1742640954.755,-958.496,-368.652,389.648,-987.793
1742640954.759,-970.215,-1000.0,352.051,-948.73
1742640954.763,-1000.0,-756.836,510.254,-1000.0
1742640954.767,-39.551,577.637,678.711,-278.32
1742640954.771,999.512,999.512,639.648,978.516
1742640954.772,933.105,-143.066,463.379,968.75
1742640954.776,950.684,-1000.0,367.188,933.594
1742640954.78,976.562,463.379,341.797,981.445
1742640954.784,942.871,999.512,549.805,947.266
1742640954.788,943.848,852.051,577.148,938.965
1742640954.792,999.512,929.688,391.113,999.512
1742640954.796,-157.715,-368.164,262.695,-88.379
1742640954.799,-1000.0,-1000.0,153.32,-1000.0
1742640954.803,-945.801,-951.66,227.051,-956.055
1742640954.807,-996.582,368.652,344.727,-991.211
1742640954.811,-1000.0,999.512,302.246,-1000.0
1742640954.815,-978.516,-502.441,226.562,-978.516
1742640954.772,933.105,-143.066,463.379,968.75
1742640954.776,950.684,-1000.0,367.188,933.594
1742640954.78,976.562,463.379,341.797,981.445
1742640954.784,942.871,999.512,549.805,947.266
1742640954.788,943.848,852.051,577.148,938.965
1742640954.792,999.512,929.688,391.113,999.512
1742640954.796,-157.715,-368.164,262.695,-88.379
1742640954.799,-1000.0,-1000.0,153.32,-1000.0
1742640954.803,-945.801,-951.66,227.051,-956.055
1742640954.807,-996.582,368.652,344.727,-991.211
1742640954.811,-1000.0,999.512,302.246,-1000.0
1742640954.815,-978.516,-502.441,226.562,-978.516
1742640954.817,-975.586,-927.734,186.035,-977.539
1742640954.821,-1000.0,652.344,292.48,-1000.0
1742640954.825,99.609,999.512,462.402,85.449
1742640954.829,999.512,905.762,368.164,999.512
1742640954.833,923.828,-510.254,219.238,917.969
1742640954.837,894.043,100.098,353.516,914.062
1742640954.841,999.512,986.328,406.25,999.512
1742640954.844,407.227,-722.656,414.551,244.629
1742640954.848,-954.59,-1000.0,306.641,-970.703
1742640954.852,-1000.0,-880.859,300.781,-1000.0
1742640954.856,-971.191,-1000.0,210.938,-980.469
1742640954.86,-954.59,-314.453,-80.566,-950.195
1742640954.817,-975.586,-927.734,186.035,-977.539
1742640954.821,-1000.0,652.344,292.48,-1000.0
1742640954.825,99.609,999.512,462.402,85.449
1742640954.829,999.512,905.762,368.164,999.512
1742640954.833,923.828,-510.254,219.238,917.969
1742640954.837,894.043,100.098,353.516,914.062
1742640954.841,999.512,986.328,406.25,999.512
1742640954.844,407.227,-722.656,414.551,244.629
1742640954.848,-954.59,-1000.0,306.641,-970.703
1742640954.852,-1000.0,-880.859,300.781,-1000.0
1742640954.856,-971.191,-1000.0,210.938,-980.469
1742640954.86,-954.59,-314.453,-80.566,-950.195
1742640954.877,-1000.0,928.223,-5.859,-1000.0
1742640954.881,-934.082,918.945,175.781,-859.863
1742640954.885,610.84,999.512,129.883,676.758
1742640954.889,999.512,870.117,-242.676,999.512
1742640954.893,-589.355,-727.539,-396.484,-589.844
1742640954.897,-1000.0,79.102,-116.699,-1000.0
1742640954.901,-925.781,999.512,178.223,-919.922
1742640954.904,-1000.0,-565.43,275.879,-1000.0
1742640954.908,-1000.0,-1000.0,147.461,-1000.0
1742640954.912,-1000.0,235.352,134.277,-1000.0
1742640954.916,-932.617,969.727,50.293,-936.035
1742640954.92,-1000.0,-784.668,-85.449,-1000.0
1742640954.877,-1000.0,928.223,-5.859,-1000.0
1742640954.881,-934.082,918.945,175.781,-859.863
1742640954.885,610.84,999.512,129.883,676.758
1742640954.889,999.512,870.117,-242.676,999.512
1742640954.893,-589.355,-727.539,-396.484,-589.844
1742640954.897,-1000.0,79.102,-116.699,-1000.0
1742640954.901,-925.781,999.512,178.223,-919.922
1742640954.904,-1000.0,-565.43,275.879,-1000.0
1742640954.908,-1000.0,-1000.0,147.461,-1000.0
1742640954.912,-1000.0,235.352,134.277,-1000.0
1742640954.916,-932.617,969.727,50.293,-936.035
1742640954.92,-1000.0,-784.668,-85.449,-1000.0
1742640954.922,-769.043,-613.77,83.984,-811.035
1742640954.926,708.496,999.512,-17.09,659.668
1742640954.93,999.512,769.043,-230.469,999.512
1742640954.934,913.086,-840.332,-0.977,912.598
1742640954.938,926.27,-906.25,77.637,924.805
1742640954.942,999.512,819.824,-65.918,999.512
1742640954.946,856.934,849.609,-177.246,839.355
1742640954.949,-598.145,-737.793,-423.828,-620.605
1742640954.953,-1000.0,-1000.0,-431.641,-1000.0
1742640954.957,-925.781,14.16,-173.828,-926.27
1742640954.961,-1000.0,999.512,-132.324,-1000.0
1742640954.965,-949.219,-212.891,-262.695,-950.684
1742640954.922,-769.043,-613.77,83.984,-811.035
1742640954.926,708.496,999.512,-17.09,659.668
1742640954.93,999.512,769.043,-230.469,999.512
1742640954.934,913.086,-840.332,-0.977,912.598
1742640954.938,926.27,-906.25,77.637,924.805
1742640954.942,999.512,819.824,-65.918,999.512
1742640954.946,856.934,849.609,-177.246,839.355
1742640954.949,-598.145,-737.793,-423.828,-620.605
1742640954.953,-1000.0,-1000.0,-431.641,-1000.0
1742640954.957,-925.781,14.16,-173.828,-926.27
1742640954.961,-1000.0,999.512,-132.324,-1000.0
1742640954.965,-949.219,-212.891,-262.695,-950.684
1742640954.969,-1000.0,-1000.0,-407.227,-1000.0
1742640954.973,-943.359,-532.227,-410.156,-949.219
1742640954.977,479.004,872.07,-374.023,465.82
1742640954.981,999.512,999.512,-376.465,999.512
1742640954.985,891.602,-476.074,-190.43,893.066
1742640954.989,979.98,188.965,-27.832,979.98
1742640954.993,982.422,999.512,-21.973,981.934
1742640954.996,909.18,-506.836,-105.469,913.086
1742640955.0,999.512,-1000.0,-130.859,999.512
1742640955.004,847.168,-935.547,-231.445,871.094
1742640955.008,-530.273,-944.824,-469.727,-493.652
1742640955.012,-1000.0,-1000.0,-463.867,-1000.0
1742640954.969,-1000.0,-1000.0,-407.227,-1000.0
1742640954.973,-943.359,-532.227,-410.156,-949.219
1742640954.977,479.004,872.07,-374.023,465.82
1742640954.981,999.512,999.512,-376.465,999.512
1742640954.985,891.602,-476.074,-190.43,893.066
1742640954.989,979.98,188.965,-27.832,979.98
1742640954.993,982.422,999.512,-21.973,981.934
1742640954.996,909.18,-506.836,-105.469,913.086
1742640955.0,999.512,-1000.0,-130.859,999.512
