timestamps,TP9,AF7,AF8,TP10
1743150706.621,525.879,523.438,999.512,515.137
1743150706.625,999.512,999.512,671.387,999.512
1743150706.629,564.941,542.48,-744.629,541.992
1743150706.633,-879.395,-908.203,-1000.0,-891.113
1743150706.637,-1000.0,-974.609,340.332,-1000.0
1743150706.641,419.922,480.469,999.512,422.363
1743150706.645,999.512,999.512,771.973,999.512
1743150706.648,686.035,675.781,-629.395,679.688
1743150706.652,-724.121,-735.352,-1000.0,-732.422
1743150706.656,-1000.0,-1000.0,144.531,-1000.0
1743150706.66,217.773,233.887,999.512,231.934
1743150706.664,999.512,999.512,812.5,999.512
1743150706.904,717.285,723.145,999.512,724.609
1743150706.908,999.512,999.512,-42.969,999.512
1743150706.912,-373.047,-389.648,-1000.0,-388.672
1743150706.916,-1000.0,-1000.0,-820.801,-1000.0
1743150706.92,-828.125,-828.125,606.445,-819.336
1743150706.924,546.387,556.152,999.512,562.5
1743150706.928,999.512,999.512,41.992,999.512
1743150706.931,-137.207,-190.43,-1000.0,-162.109
1743150706.935,-1000.0,-1000.0,-849.121,-1000.0
1743150706.939,-839.355,-835.449,539.551,-838.379
1743150706.943,511.23,511.23,999.512,512.207
1743150706.947,999.512,999.512,532.715,999.512
1743150707.191,999.512,999.512,833.984,999.512
1743150707.195,799.316,801.27,-543.457,798.34
1743150707.199,-545.41,-546.387,-1000.0,-553.711
1743150707.203,-1000.0,-1000.0,-353.027,-1000.0
1743150707.207,-181.152,-168.945,937.988,-171.387
1743150707.211,999.512,999.512,893.066,999.512
1743150707.215,831.055,830.566,-535.645,832.031
1743150707.218,-551.758,-551.27,-1000.0,-552.246
1743150707.222,-1000.0,-1000.0,-565.918,-1000.0
1743150707.226,-536.133,-524.902,807.617,-509.277
1743150707.23,912.109,920.41,982.422,923.34
1743150707.234,892.578,884.766,-420.41,892.09
1743150708.163,344.727,393.555,-821.289,273.438
1743150708.167,-1000.0,-998.047,-993.164,-1000.0
1743150708.171,-892.578,-896.484,482.422,-892.578
1743150708.175,534.18,544.922,999.512,512.207
1743150708.179,999.512,999.512,794.434,999.512
1743150708.183,632.812,655.273,-614.746,614.746
1743150708.187,-790.527,-775.879,-1000.0,-809.082
1743150708.19,-1000.0,-1000.0,314.453,-1000.0
1743150708.194,295.898,320.312,999.512,307.617
1743150708.198,999.512,999.512,794.922,999.512
1743150708.202,740.723,755.371,-581.543,732.422
1743150708.206,-638.184,-626.465,-1000.0,-651.367
1743150708.404,999.512,999.512,892.578,999.512
1743150708.408,805.176,807.617,-481.934,810.547
1743150708.412,-555.664,-551.27,-1000.0,-566.406
1743150708.416,-1000.0,-1000.0,-266.113,-1000.0
1743150708.42,-33.691,-149.902,944.824,93.75
1743150708.424,999.512,999.512,971.68,999.512
1743150708.428,812.012,824.219,-249.512,812.988
1743150708.431,-534.18,-549.316,-1000.0,-506.836
1743150708.435,-1000.0,-1000.0,-584.473,-1000.0
1743150708.439,-620.605,-640.137,791.016,-550.781
1743150708.443,824.219,817.383,999.512,864.746
1743150708.447,994.629,984.375,-154.297,979.004
1743150709.198,530.273,518.555,999.512,555.176
1743150709.202,999.512,999.512,568.848,999.512
1743150709.206,610.352,558.105,-832.52,611.816
1743150709.21,-876.465,-901.855,-1000.0,-877.93
1743150709.214,-952.148,-964.844,368.164,-944.824
1743150709.218,543.457,500.977,999.512,555.176
1743150709.222,999.512,999.512,752.441,999.512
1743150709.225,722.656,677.246,-643.066,723.633
1743150709.229,-707.031,-748.535,-1000.0,-719.727
1743150709.233,-1000.0,-1000.0,137.207,-1000.0
1743150709.237,327.148,296.387,999.512,378.418
1743150709.241,999.512,999.512,792.48,999.512
1743150710.789,-1000.0,-1000.0,-117.188,-1000.0
1743150710.793,119.629,144.043,999.512,126.953
1743150710.797,999.512,999.512,828.125,999.512
1743150710.801,801.758,800.781,-584.473,803.711
1743150710.805,-542.969,-541.992,-1000.0,-543.945
1743150710.809,-1000.0,-1000.0,-301.27,-1000.0
1743150710.813,-294.922,-275.879,973.633,-271.973
1743150710.816,999.512,999.512,880.859,999.512
1743150710.82,846.191,844.238,-533.203,844.238
1743150710.824,-559.57,-557.617,-1000.0,-558.594
1743150710.828,-1000.0,-1000.0,-531.738,-1000.0
1743150710.832,-611.816,-605.469,835.449,-594.727
1743150711.209,-827.148,-821.777,587.402,-818.359
1743150711.213,560.547,568.848,999.512,573.242
1743150711.217,999.512,999.512,76.172,999.512
1743150711.221,-237.305,-249.023,-1000.0,-236.328
1743150711.225,-1000.0,-1000.0,-871.094,-1000.0
1743150711.229,-832.52,-825.684,559.57,-835.449
1743150711.233,511.23,525.879,999.512,515.137
1743150711.236,999.512,999.512,86.426,999.512
1743150711.24,139.16,90.82,-1000.0,104.492
1743150711.244,-1000.0,-1000.0,-905.273,-1000.0
1743150711.248,-863.281,-858.398,456.055,-859.863
1743150711.252,516.602,515.625,999.512,516.113
1743150711.253,999.512,999.512,461.914,999.512
1743150711.257,509.766,463.379,-912.109,479.98
1743150711.261,-923.34,-944.336,-975.586,-937.988
1743150711.265,-979.98,-969.727,449.707,-969.727
1743150711.269,458.008,456.055,999.512,461.426
1743150711.273,999.512,999.512,696.777,999.512
1743150711.277,654.297,631.836,-705.566,648.438
1743150711.28,-770.508,-794.434,-1000.0,-779.785
1743150711.284,-1000.0,-1000.0,228.027,-1000.0
1743150711.288,293.457,301.27,999.512,304.199
1743150711.292,999.512,999.512,759.277,999.512
1743150711.296,779.785,768.066,-631.836,769.043
1743150712.664,-748.535,-766.602,-1000.0,-759.766
1743150712.668,-1000.0,-1000.0,104.004,-1000.0
1743150712.672,218.262,216.309,999.512,231.445
1743150712.676,999.512,999.512,807.617,999.512
1743150712.68,792.969,777.832,-567.871,783.691
1743150712.684,-558.105,-579.102,-1000.0,-574.219
1743150712.688,-1000.0,-1000.0,-214.355,-1000.0
1743150712.691,-114.258,-110.84,999.512,-81.543
1743150712.695,999.512,999.512,883.301,999.512
1743150712.699,824.707,826.172,-501.465,822.266
1743150712.703,-550.293,-550.781,-1000.0,-548.828
1743150712.707,-1000.0,-1000.0,-476.562,-1000.0
1743150713.413,832.52,848.145,999.512,846.191
1743150713.417,938.477,912.109,-258.301,933.594
1743150713.421,-548.34,-585.938,-1000.0,-548.828
1743150713.425,-1000.0,-1000.0,-756.348,-1000.0
1743150713.429,-762.207,-753.906,656.738,-752.93
1743150713.433,667.48,682.129,999.512,681.641
1743150713.437,999.512,999.512,-134.766,999.512
1743150713.44,-362.305,-381.836,-1000.0,-374.023
1743150713.444,-1000.0,-1000.0,-830.078,-1000.0
1743150713.448,-840.332,-840.82,560.547,-835.938
1743150713.452,527.832,534.18,999.512,538.086
1743150713.456,999.512,999.512,104.98,999.512
1743150714.253,855.957,855.469,-165.039,853.027
1743150714.257,-563.965,-563.477,-1000.0,-562.988
1743150714.261,-1000.0,-1000.0,-314.941,-1000.0
1743150714.265,-597.168,-602.051,912.109,-552.734
1743150714.269,844.238,845.703,999.512,868.652
1743150714.273,985.352,977.539,32.227,973.145
1743150714.277,-443.848,-462.891,-1000.0,-448.242
1743150714.28,-1000.0,-1000.0,-703.613,-1000.0
1743150714.284,-716.797,-736.816,711.914,-694.336
1743150714.288,704.59,692.383,999.512,726.074
1743150714.292,999.512,999.512,142.578,999.512
1743150714.296,-295.41,-334.961,-1000.0,-297.363
1743150714.301,-1000.0,-1000.0,-838.867,-1000.0
1743150714.305,-838.867,-838.867,589.844,-819.336
1743150714.309,522.461,524.902,999.512,546.875
1743150714.313,999.512,999.512,345.703,999.512
1743150714.317,-37.109,-73.73,-970.215,-26.367
1743150714.321,-1000.0,-1000.0,-895.996,-1000.0
1743150714.325,-846.68,-835.938,558.594,-845.703
1743150714.328,512.207,526.367,999.512,519.531
1743150714.332,999.512,999.512,463.867,999.512
1743150714.336,334.961,270.996,-910.156,322.754
1743150714.34,-1000.0,-1000.0,-949.707,-1000.0
1743150714.344,-890.625,-880.859,502.93,-889.16
1743150714.494,868.164,793.457,999.512,890.137
1743150714.498,999.512,999.512,499.023,999.512
1743150714.502,381.348,129.395,-880.371,434.082
1743150714.506,-1000.0,-1000.0,-943.359,-1000.0
1743150714.51,-655.273,-698.242,530.762,-571.289
1743150714.514,782.227,700.684,999.512,833.984
1743150714.518,999.512,999.512,633.789,999.512
1743150714.521,644.531,498.535,-774.414,673.828
1743150714.525,-926.758,-997.07,-1000.0,-911.621
1743150714.529,-727.539,-763.184,404.785,-655.762
1743150714.533,793.945,722.656,999.512,840.332
1743150714.537,999.512,999.512,709.473,999.512
1743150714.644,936.523,898.438,999.512,970.215
1743150714.648,999.512,999.512,-402.832,999.512
1743150714.652,-227.051,-322.266,-1000.0,-202.148
1743150714.656,-1000.0,-1000.0,-795.898,-1000.0
1743150714.66,-218.75,-436.523,583.008,-63.477
1743150714.664,931.641,873.047,999.512,969.238
1743150714.668,999.512,999.512,-74.707,999.512
1743150714.671,138.184,-110.352,-1000.0,210.938
1743150714.675,-1000.0,-1000.0,-844.238,-1000.0
1743150714.679,-135.254,-341.797,526.367,5.859
1743150714.683,970.703,885.742,999.512,999.512
1743150714.687,999.512,999.512,314.941,999.512
1743150715.003,-824.219,-824.707,547.852,-825.195
1743150715.007,501.953,502.93,999.512,504.883
1743150715.011,999.512,999.512,220.703,999.512
1743150715.015,248.535,245.605,-1000.0,173.828
1743150715.019,-1000.0,-1000.0,-901.855,-1000.0
1743150715.023,-879.395,-877.93,517.578,-869.629
1743150715.027,523.926,531.25,999.512,520.996
1743150715.03,999.512,999.512,439.941,999.512
1743150715.034,531.738,470.215,-897.949,486.328
1743150715.038,-909.668,-935.059,-991.211,-929.688
1743150715.042,-992.188,-986.328,411.621,-984.375
1743150715.046,444.824,430.664,999.512,438.965
1743150715.198,999.512,999.512,150.879,999.512
1743150715.202,125.0,96.191,-1000.0,73.242
1743150715.206,-1000.0,-1000.0,-929.688,-1000.0
1743150715.21,-871.582,-851.562,429.199,-875.977
1743150715.214,490.723,512.207,999.512,474.121
1743150715.218,999.512,999.512,492.188,999.512
1743150715.222,555.176,554.688,-838.867,494.629
1743150715.225,-858.887,-862.793,-1000.0,-890.137
1743150715.229,-1000.0,-1000.0,158.203,-1000.0
1743150715.233,303.223,320.312,999.512,303.223
1743150715.237,999.512,999.512,608.398,999.512
1743150715.241,648.438,659.668,-762.695,592.773
1743150715.533,-714.844,-606.445,866.211,-748.535
1743150715.537,794.922,874.023,913.086,792.969
1743150715.541,911.133,899.414,-547.852,854.98
1743150715.545,-610.84,-585.938,-1000.0,-685.547
1743150715.549,-1000.0,-1000.0,-625.488,-1000.0
1743150715.553,-775.391,-695.801,770.996,-799.316
1743150715.557,723.145,785.645,999.512,699.219
1743150715.56,937.988,958.984,-393.555,943.359
1743150715.564,-609.863,-544.434,-1000.0,-610.84
1743150715.568,-1000.0,-1000.0,-685.547,-1000.0
1743150715.572,-836.426,-814.941,686.523,-840.82
1743150715.576,551.27,578.613,999.512,562.012
1743150715.711,517.09,516.602,999.512,516.602
1743150715.715,999.512,999.512,413.574,999.512
1743150715.719,457.031,425.293,-942.383,432.129
1743150715.723,-948.73,-966.309,-914.551,-962.891
1743150715.727,-964.844,-949.707,552.246,-950.195
1743150715.731,461.426,473.633,999.512,475.586
1743150715.735,999.512,999.512,421.875,999.512
1743150715.738,600.586,589.844,-915.527,589.355
1743150715.742,-800.781,-811.035,-952.148,-815.43
1743150715.746,-1000.0,-1000.0,480.469,-1000.0
1743150715.75,201.66,212.402,999.512,229.004
1743150715.754,999.512,999.512,662.109,999.512
1743150716.085,-964.355,-987.305,390.137,-965.332
1743150716.089,562.988,497.559,999.512,561.035
1743150716.093,999.512,999.512,520.02,999.512
1743150716.097,791.016,743.652,-841.309,793.457
1743150716.101,-634.277,-695.801,-1000.0,-645.02
1743150716.105,-1000.0,-1000.0,416.016,-1000.0
1743150716.109,362.305,364.746,999.512,410.156
1743150716.112,999.512,999.512,753.418,999.512
1743150716.116,793.457,786.133,-646.973,799.805
1743150716.12,-542.969,-545.898,-1000.0,-552.246
1743150716.124,-1000.0,-1000.0,180.664,-1000.0
1743150716.128,-107.91,-153.32,999.512,3.906
1743150716.174,-350.098,-383.789,-1000.0,-354.492
1743150716.178,-1000.0,-1000.0,-597.656,-1000.0
1743150716.182,-800.781,-809.082,753.906,-777.832
1743150716.186,572.754,561.523,999.512,604.492
1743150716.19,999.512,999.512,-203.125,999.512
1743150716.194,-75.684,-89.355,-1000.0,-105.957
1743150716.198,-1000.0,-1000.0,-702.637,-1000.0
1743150716.201,-850.098,-851.562,653.809,-846.191
1743150716.205,519.531,523.926,999.512,518.066
1743150716.209,999.512,999.512,162.109,999.512
1743150716.213,172.852,119.629,-1000.0,179.199
1743150716.217,-1000.0,-1000.0,-807.617,-1000.0
1743150716.234,-867.188,-860.352,601.562,-870.117
1743150716.238,518.066,515.625,999.512,520.996
1743150716.242,999.512,999.512,560.059,999.512
1743150716.246,532.227,514.16,-836.914,504.883
1743150716.25,-901.855,-915.527,-980.957,-914.551
1743150716.254,-1000.0,-994.629,495.605,-998.047
1743150716.258,410.645,432.617,999.512,422.363
1743150716.261,999.512,999.512,511.719,999.512
1743150716.265,666.016,646.484,-832.52,657.227
1743150716.269,-751.953,-769.043,-1000.0,-764.16
1743150716.273,-1000.0,-1000.0,311.035,-1000.0
1743150716.277,250.488,250.0,999.512,266.113
1743150716.698,999.512,999.512,-198.73,999.512
1743150716.702,-138.672,-256.348,-1000.0,-135.742
1743150716.706,-1000.0,-1000.0,-630.859,-1000.0
1743150716.71,114.746,-15.625,716.797,217.285
1743150716.714,999.512,988.281,999.512,999.512
1743150716.718,999.512,999.512,45.898,999.512
1743150716.722,487.793,245.117,-1000.0,509.277
1743150716.725,-1000.0,-1000.0,-927.734,-1000.0
1743150716.729,-219.727,-442.871,594.727,-76.172
1743150716.733,983.887,883.301,999.512,999.512
1743150716.737,999.512,999.512,-523.926,999.512
1743150716.741,663.574,376.465,-1000.0,705.566
1743150717.028,-1000.0,-1000.0,-533.203,-1000.0
1743150717.032,-861.816,-807.617,810.547,-863.77
1743150717.036,618.164,680.664,999.512,616.699
1743150717.04,957.031,957.031,-396.484,958.496
1743150717.044,-614.258,-595.703,-1000.0,-614.258
1743150717.048,-1000.0,-1000.0,-442.871,-1000.0
1743150717.052,-862.793,-858.887,797.363,-870.117
1743150717.055,572.266,572.754,999.512,591.309
1743150717.059,999.512,999.512,-34.18,994.141
1743150717.063,-471.68,-453.613,-1000.0,-561.035
1743150717.067,-1000.0,-1000.0,-825.195,-1000.0
1743150717.071,-838.867,-837.402,663.086,-851.074
1743150717.119,675.781,676.27,-990.723,576.66
1743150717.123,-757.812,-774.414,-1000.0,-822.266
1743150717.127,-1000.0,-1000.0,-248.047,-1000.0
1743150717.131,310.059,368.164,999.512,221.191
1743150717.135,999.512,999.512,520.508,999.512
1743150717.139,786.133,784.668,-851.562,745.605
1743150717.143,-549.316,-548.828,-1000.0,-604.98
1743150717.146,-1000.0,-1000.0,50.293,-1000.0
1743150717.15,-157.227,-147.461,999.512,-190.43
1743150717.154,999.512,999.512,778.809,999.512
1743150717.158,828.613,829.59,-654.297,836.426
1743150717.162,-551.27,-551.758,-1000.0,-555.664
1743150717.3,-1000.0,-1000.0,145.02,-1000.0
1743150717.304,29.297,53.711,999.512,66.895
1743150717.308,999.512,999.512,349.609,999.512
1743150717.312,810.547,814.941,-898.926,799.805
1743150717.316,-545.898,-552.734,-1000.0,-554.199
1743150717.32,-1000.0,-1000.0,206.543,-1000.0
1743150717.324,-343.262,-216.309,999.512,-323.242
1743150717.327,995.117,999.512,463.867,999.512
1743150717.331,853.027,834.961,-782.227,851.074
1743150717.335,-563.965,-553.223,-1000.0,-562.012
1743150717.339,-1000.0,-1000.0,-273.926,-1000.0
1743150717.343,-646.484,-616.699,999.512,-636.719
1743150717.629,999.512,999.512,537.598,999.512
1743150717.633,45.898,254.883,-798.34,-81.543
1743150717.637,-1000.0,-966.309,-1000.0,-1000.0
1743150717.641,-1000.0,-1000.0,52.734,-1000.0
1743150717.645,-254.395,79.59,999.512,-278.32
1743150717.649,999.512,999.512,636.23,999.512
1743150717.653,474.121,566.895,-709.473,316.895
1743150717.656,-874.023,-790.039,-1000.0,-936.035
1743150717.66,-1000.0,-1000.0,-231.934,-1000.0
1743150717.664,-551.758,-289.062,999.512,-592.773
1743150717.668,931.152,999.512,778.32,934.082
1743150717.672,847.168,843.75,-648.926,792.48
1743150717.824,-586.914,-592.285,-1000.0,-602.051
1743150717.828,-1000.0,-1000.0,161.621,-1000.0
1743150717.832,330.566,240.234,999.512,413.574
1743150717.836,999.512,999.512,808.594,999.512
1743150717.84,788.086,789.551,-541.992,794.922
1743150717.844,-534.668,-534.18,-1000.0,-543.945
1743150717.848,-1000.0,-1000.0,-333.496,-1000.0
1743150717.851,-228.516,-309.082,949.219,-85.449
1743150717.855,999.512,999.512,912.109,999.512
1743150717.859,835.449,848.633,-501.465,817.383
1743150717.863,-555.176,-561.035,-1000.0,-544.922
1743150717.867,-1000.0,-1000.0,-440.918,-1000.0
1743150717.914,999.512,999.512,136.719,999.512
1743150717.918,126.953,91.309,-1000.0,112.305
1743150717.922,-1000.0,-1000.0,-854.492,-1000.0
1743150717.926,-863.281,-861.328,565.43,-854.004
1743150717.93,518.066,518.555,999.512,529.297
1743150717.934,999.512,999.512,335.449,999.512
1743150717.938,470.703,408.203,-950.195,445.801
1743150717.941,-962.402,-982.91,-976.562,-972.168
1743150717.945,-914.551,-920.41,398.438,-910.645
1743150717.949,542.969,513.184,999.512,541.504
1743150717.953,999.512,999.512,530.273,999.512
1743150717.957,610.84,593.75,-838.379,614.258
1743150718.378,-1000.0,-1000.0,-801.758,-1000.0
1743150718.382,-636.719,-646.973,648.926,-631.348
1743150718.386,786.133,789.062,796.875,792.48
1743150718.39,999.512,999.512,-731.934,999.512
1743150718.394,-325.195,-373.047,-1000.0,-348.633
1743150718.398,-1000.0,-1000.0,-764.648,-1000.0
1743150718.402,-573.73,-601.074,563.965,-519.531
1743150718.405,773.926,778.32,985.352,800.293
1743150718.409,999.512,999.512,-455.078,999.512
1743150718.413,96.68,-105.469,-1000.0,61.035
1743150718.417,-1000.0,-1000.0,-717.773,-1000.0
1743150718.421,-335.449,-338.867,632.812,-230.469
1743150718.426,907.715,899.414,999.512,937.012
1743150718.43,999.512,999.512,-49.316,999.512
1743150718.434,451.66,232.422,-1000.0,472.656
1743150718.438,-1000.0,-1000.0,-794.434,-1000.0
1743150718.442,-781.25,-787.598,668.457,-721.68
1743150718.446,683.594,627.441,999.512,737.305
1743150718.45,999.512,999.512,-291.992,999.512
1743150718.453,611.328,514.16,-1000.0,621.582
1743150718.457,-881.836,-941.895,-900.391,-879.395
1743150718.461,-940.43,-921.387,441.406,-936.035
1743150718.465,558.594,549.316,999.512,567.383
1743150718.469,999.512,999.512,-9.277,999.512
1743150718.799,154.297,-100.586,722.656,265.625
1743150718.803,999.512,999.512,999.512,999.512
1743150718.807,943.848,999.512,604.492,948.242
1743150718.811,889.648,734.375,-851.074,900.391
1743150718.815,-753.418,-911.621,-853.516,-689.453
1743150718.819,-390.137,-584.961,644.043,-107.91
1743150718.823,993.652,888.672,999.512,999.512
1743150718.826,997.07,999.512,590.82,952.637
1743150718.83,857.91,728.516,-757.324,897.949
1743150718.834,-672.363,-766.602,-1000.0,-653.32
1743150718.838,-994.141,-1000.0,251.953,-998.047
1743150718.842,585.938,483.887,999.512,587.402
1743150720.253,-582.031,-579.59,-1000.0,-560.059
1743150720.257,-1000.0,-1000.0,229.004,-1000.0
1743150720.261,-633.789,-576.66,999.512,-599.121
1743150720.265,789.551,829.102,854.98,816.406
1743150720.269,999.512,999.512,-529.785,999.512
1743150720.273,-343.262,-350.098,-1000.0,-352.051
1743150720.277,-1000.0,-1000.0,79.102,-1000.0
1743150720.28,-732.422,-774.902,999.512,-666.992
1743150720.284,682.617,667.48,914.551,729.004
1743150720.288,999.512,999.512,-407.227,999.512
1743150720.292,-240.234,-365.723,-1000.0,-166.504
1743150720.296,-1000.0,-1000.0,-181.152,-1000.0
1743150720.404,-572.754,-552.246,-972.656,-616.211
1743150720.408,-1000.0,-1000.0,445.312,-1000.0
1743150720.412,-379.395,-318.359,999.512,-395.02
1743150720.416,982.422,999.512,643.066,973.633
1743150720.42,859.375,850.586,-727.051,862.793
1743150720.424,-566.895,-561.523,-1000.0,-567.383
1743150720.428,-1000.0,-1000.0,216.797,-1000.0
1743150720.431,-636.23,-629.395,999.512,-625.488
1743150720.435,828.613,842.285,755.371,841.309
1743150720.439,963.379,944.336,-636.719,951.66
1743150720.443,-503.418,-530.762,-1000.0,-516.113
1743150720.447,-1000.0,-1000.0,-55.176,-1000.0
1743150720.599,33.691,-145.02,999.512,124.512
1743150720.603,999.512,999.512,657.227,999.512
1743150720.607,860.84,847.656,-715.82,857.422
1743150720.611,-491.211,-550.781,-1000.0,-497.559
1743150720.615,-1000.0,-1000.0,-181.641,-1000.0
1743150720.619,-168.457,-262.695,985.84,-58.594
1743150720.623,999.512,989.258,775.391,999.512
1743150720.626,951.66,930.176,-657.715,938.965
1743150720.63,-331.055,-414.551,-1000.0,-321.777
1743150720.634,-1000.0,-1000.0,-395.02,-1000.0
1743150720.638,-681.641,-712.891,875.0,-618.164
1743150720.642,720.215,701.172,860.352,765.137
1743150721.109,-1000.0,-1000.0,269.043,-1000.0
1743150721.113,-620.117,-562.988,999.512,-606.934
1743150721.117,852.539,887.207,710.938,862.305
1743150721.121,933.105,927.246,-692.383,923.34
1743150721.125,-544.434,-530.273,-1000.0,-554.688
1743150721.129,-1000.0,-1000.0,239.258,-1000.0
1743150721.133,-744.629,-713.379,999.512,-737.793
1743150721.136,687.012,717.285,861.816,698.242
1743150721.14,999.512,999.512,-462.402,999.512
1743150721.144,-359.863,-349.121,-1000.0,-379.395
1743150721.148,-1000.0,-1000.0,-201.66,-1000.0
1743150721.152,-838.867,-826.172,907.715,-829.102
1743150722.879,-843.262,-834.473,816.406,-841.309
1743150722.883,510.742,506.348,999.512,512.695
1743150722.887,999.512,999.512,255.371,999.512
1743150722.891,304.199,308.594,-1000.0,250.977
1743150722.895,-1000.0,-1000.0,-676.758,-1000.0
1743150722.899,-926.758,-908.203,734.863,-913.574
1743150722.903,468.262,500.977,999.512,477.539
1743150722.906,999.512,999.512,16.113,999.512
1743150722.91,550.293,520.996,-1000.0,507.324
1743150722.914,-864.258,-884.277,-717.773,-886.23
1743150722.918,-1000.0,-1000.0,633.789,-1000.0
1743150722.922,311.035,330.566,999.512,326.66
1743150723.628,798.828,802.734,-764.16,782.715
1743150723.632,-555.176,-573.73,-1000.0,-578.613
1743150723.636,-1000.0,-1000.0,132.324,-1000.0
1743150723.64,-102.051,44.434,999.512,-91.797
1743150723.644,999.512,999.512,467.773,999.512
1743150723.648,819.824,802.246,-797.363,819.824
1743150723.652,-545.898,-536.133,-1000.0,-546.387
1743150723.655,-1000.0,-1000.0,-266.602,-1000.0
1743150723.659,-539.062,-526.367,995.117,-512.695
1743150723.663,913.574,919.922,359.863,925.781
1743150723.667,886.23,884.766,-925.781,882.324
1743150723.671,-582.031,-580.566,-1000.0,-579.59
1743150724.109,-912.598,-872.07,749.512,-906.25
1743150724.113,402.832,439.941,999.512,406.738
1743150724.117,999.512,999.512,-20.508,999.512
1743150724.121,512.695,565.43,-1000.0,425.293
1743150724.125,-883.789,-854.492,-759.766,-918.457
1743150724.129,-1000.0,-1000.0,611.816,-1000.0
1743150724.133,278.32,313.965,999.512,262.695
1743150724.136,999.512,999.512,311.035,999.512
1743150724.14,628.418,644.043,-906.738,565.918
1743150724.144,-752.441,-747.559,-944.336,-795.41
1743150724.148,-1000.0,-1000.0,417.969,-1000.0
1743150724.152,-2.441,75.684,999.512,-27.344
1743150724.154,999.512,999.512,418.945,999.512
1743150724.158,729.98,767.578,-853.516,695.801
1743150724.162,-647.461,-597.168,-994.629,-686.035
1743150724.166,-1000.0,-1000.0,315.918,-1000.0
1743150724.17,-377.93,-287.109,999.512,-388.184
1743150724.174,982.422,999.512,689.941,979.492
1743150724.178,858.398,846.191,-691.895,853.027
1743150724.181,-566.406,-559.082,-1000.0,-577.637
1743150724.185,-1000.0,-1000.0,123.535,-1000.0
1743150724.189,-642.578,-593.262,999.512,-626.953
1743150724.193,847.656,881.836,699.707,858.398
1743150724.197,906.738,897.461,-689.453,904.297
1743150724.304,999.512,999.512,76.66,999.512
1743150724.308,706.543,685.547,-1000.0,698.242
1743150724.312,-729.004,-761.719,-784.668,-743.652
1743150724.316,-1000.0,-1000.0,590.82,-1000.0
1743150724.32,336.426,372.07,999.512,361.816
1743150724.324,999.512,999.512,409.668,999.512
1743150724.328,795.41,784.18,-863.281,789.062
1743150724.331,-562.5,-573.242,-975.098,-579.102
1743150724.335,-1000.0,-1000.0,391.602,-1000.0
1743150724.339,14.16,5.371,999.512,64.941
1743150724.343,999.512,999.512,524.902,999.512
1743150724.347,812.012,813.965,-796.875,809.082
1743150724.528,-498.535,-475.586,999.512,-467.773
1743150724.532,917.48,933.594,707.52,933.105
1743150724.536,916.992,902.832,-685.547,906.25
1743150724.54,-519.531,-542.48,-1000.0,-530.273
1743150724.544,-1000.0,-1000.0,138.672,-1000.0
1743150724.548,-604.98,-503.418,999.512,-562.988
1743150724.552,814.453,874.512,810.547,838.379
1743150724.555,999.512,999.512,-574.219,999.512
1743150724.559,-348.633,-370.605,-1000.0,-360.352
1743150724.563,-1000.0,-1000.0,-129.395,-1000.0
1743150724.567,-762.207,-772.949,955.566,-732.422
1743150724.571,625.0,625.977,903.32,658.691
1743150724.664,24.414,44.922,999.512,67.383
1743150724.668,999.512,999.512,490.234,999.512
1743150724.672,811.035,810.547,-804.688,808.105
1743150724.676,-545.41,-546.387,-1000.0,-544.922
1743150724.68,-1000.0,-1000.0,215.332,-1000.0
1743150724.684,-352.539,-315.43,999.512,-319.336
1743150724.688,991.699,999.512,457.031,999.512
1743150724.691,854.98,850.098,-823.242,850.586
1743150724.695,-564.941,-561.523,-1000.0,-562.012
1743150724.699,-1000.0,-1000.0,23.926,-1000.0
1743150724.703,-638.184,-630.859,999.512,-618.164
1743150724.707,827.148,836.914,666.992,843.75
1743150724.949,516.602,511.719,999.512,517.09
1743150724.953,999.512,999.512,-158.203,999.512
1743150724.957,412.109,420.898,-1000.0,364.258
1743150724.961,-962.402,-967.773,-451.172,-981.445
1743150724.965,-971.68,-950.684,776.367,-962.891
1743150724.969,432.617,471.191,999.512,435.547
1743150724.973,999.512,999.512,287.109,999.512
1743150724.976,565.43,568.359,-971.191,499.023
1743150724.98,-831.543,-831.543,-665.527,-869.629
1743150724.984,-1000.0,-1000.0,711.914,-1000.0
1743150724.988,212.402,228.027,999.512,233.887
1743150724.992,999.512,999.512,482.422,999.512
1743150724.994,706.055,723.633,-862.305,667.48
1743150724.998,-679.688,-672.363,-900.391,-715.82
1743150725.002,-1000.0,-1000.0,541.504,-1000.0
1743150725.006,-9.766,69.336,999.512,-1.465
1743150725.01,999.512,999.512,436.035,999.512
1743150725.014,713.379,707.52,-850.586,706.543
1743150725.018,-579.102,-577.148,-973.633,-590.332
1743150725.021,-1000.0,-1000.0,338.867,-1000.0
1743150725.025,-416.016,-348.145,999.512,-393.555
1743150725.029,973.145,999.023,592.773,979.492
1743150725.033,869.141,858.887,-755.371,866.699
1743150725.037,-575.684,-569.824,-1000.0,-573.73
1743150725.324,-1000.0,-1000.0,576.66,-1000.0
1743150725.328,383.789,364.258,999.512,414.551
1743150725.332,999.512,999.512,419.922,999.512
1743150725.336,768.555,752.93,-866.699,769.531
1743150725.34,-645.508,-675.293,-984.863,-653.32
1743150725.344,-1000.0,-1000.0,435.547,-1000.0
1743150725.348,267.09,301.27,999.512,310.547
1743150725.351,999.512,999.512,491.699,999.512
1743150725.355,794.922,793.457,-815.43,797.852
1743150725.359,-542.48,-540.527,-1000.0,-546.875
1743150725.363,-1000.0,-1000.0,284.18,-1000.0
1743150725.367,-167.969,-168.945,999.512,-92.285
1743150725.474,-880.371,-868.164,686.523,-877.93
1743150725.478,525.879,520.02,999.512,525.391
1743150725.482,999.512,999.512,125.0,999.512
1743150725.486,588.379,556.641,-1000.0,577.637
1743150725.49,-891.113,-911.621,-774.414,-896.484
1743150725.494,-838.379,-832.031,636.23,-836.426
1743150725.498,589.844,586.426,999.512,590.332
1743150725.501,999.512,999.512,223.145,999.512
1743150725.505,693.359,659.18,-979.98,702.637
1743150725.509,-750.488,-777.832,-946.289,-753.418
1743150725.513,-1000.0,-1000.0,450.684,-1000.0
1743150725.517,329.59,306.641,999.512,378.906
1743150725.878,-494.629,-342.773,999.512,-494.629
1743150725.882,932.617,995.605,687.5,935.059
1743150725.886,878.906,856.445,-662.598,873.047
1743150725.89,-575.684,-563.965,-1000.0,-583.984
1743150725.894,-1000.0,-1000.0,-224.121,-1000.0
1743150725.898,-655.273,-560.059,996.094,-669.434
1743150725.902,838.379,900.879,815.918,824.707
1743150725.905,910.156,891.113,-639.16,914.062
1743150725.909,-597.168,-588.379,-1000.0,-598.633
1743150725.913,-1000.0,-1000.0,-235.352,-1000.0
1743150725.917,-790.039,-767.578,932.129,-798.34
1743150725.921,640.137,662.109,925.293,640.625
1743150726.777,-1000.0,-1000.0,-1000.0,-1000.0
1743150726.781,-1000.0,-997.559,-728.516,-1000.0
1743150726.785,-1000.0,-928.711,740.723,-1000.0
1743150726.789,-1000.0,644.531,917.48,-1000.0
1743150726.793,-1000.0,-36.133,-609.375,-1000.0
1743150726.797,-1000.0,-1000.0,-1000.0,-1000.0
1743150726.801,-1000.0,-963.867,-833.008,-1000.0
1743150726.804,-1000.0,-990.723,613.77,-1000.0
1743150726.808,-1000.0,623.535,999.512,-1000.0
1743150726.812,-1000.0,570.312,-497.559,-1000.0
1743150726.816,-1000.0,-948.242,-1000.0,-1000.0
1743150726.82,-1000.0,-1000.0,-720.215,-1000.0
1743150730.663,999.512,999.512,850.586,999.512
1743150730.667,799.316,782.227,-402.832,779.785
1743150730.671,-556.152,-579.59,-1000.0,-582.031
1743150730.675,-1000.0,-1000.0,-222.656,-1000.0
1743150730.679,-179.688,-183.594,999.512,-181.641
1743150730.683,999.512,999.512,980.469,999.512
1743150730.687,999.512,999.512,-172.852,999.512
1743150730.69,-158.203,-207.52,-1000.0,-181.152
1743150730.694,-1000.0,-1000.0,-359.863,-1000.0
1743150730.698,-306.152,-270.508,925.293,-299.805
1743150730.702,945.312,961.914,999.512,949.219
1743150730.706,999.512,999.512,-41.016,999.512
1743150730.663,999.512,999.512,850.586,999.512
1743150730.667,799.316,782.227,-402.832,779.785
1743150730.671,-556.152,-579.59,-1000.0,-582.031
1743150730.675,-1000.0,-1000.0,-222.656,-1000.0
1743150730.679,-179.688,-183.594,999.512,-181.641
1743150730.683,999.512,999.512,980.469,999.512
1743150730.687,999.512,999.512,-172.852,999.512
1743150730.69,-158.203,-207.52,-1000.0,-181.152
1743150730.694,-1000.0,-1000.0,-359.863,-1000.0
1743150730.698,-306.152,-270.508,925.293,-299.805
1743150730.702,945.312,961.914,999.512,949.219
1743150730.706,999.512,999.512,-41.016,999.512
1743150731.173,-195.312,-204.59,999.512,-194.336
1743150731.177,999.512,999.512,958.496,999.512
1743150731.181,939.453,881.348,-247.07,940.918
1743150731.185,-336.914,-433.105,-1000.0,-330.566
1743150731.189,-1000.0,-1000.0,-155.762,-1000.0
1743150731.193,-174.805,-177.246,970.703,-175.781
1743150731.197,999.512,999.512,999.512,999.512
1743150731.2,999.512,999.512,-20.508,999.512
1743150731.204,-84.961,-130.859,-1000.0,-91.797
1743150731.208,-1000.0,-1000.0,-415.527,-1000.0
1743150731.212,-389.16,-371.582,900.391,-374.512
1743150731.216,906.25,921.875,999.512,913.086
1743150730.708,19.531,-6.348,-1000.0,10.254
1743150730.712,-1000.0,-1000.0,-500.977,-1000.0
1743150730.716,-479.492,-451.172,799.805,-479.004
1743150730.72,853.516,870.605,999.512,855.469
1743150730.724,999.512,999.512,88.379,999.512
1743150730.728,200.684,174.316,-1000.0,176.27
1743150730.732,-1000.0,-1000.0,-572.266,-1000.0
1743150730.735,-719.727,-684.082,747.559,-709.961
1743150730.739,670.41,702.148,999.512,671.387
1743150730.743,999.512,999.512,170.41,999.512
1743150730.747,161.621,166.016,-1000.0,164.062
1743150730.751,-1000.0,-1000.0,-804.688,-1000.0
1743150730.708,19.531,-6.348,-1000.0,10.254
1743150730.712,-1000.0,-1000.0,-500.977,-1000.0
1743150730.716,-479.492,-451.172,799.805,-479.004
1743150730.72,853.516,870.605,999.512,855.469
1743150730.724,999.512,999.512,88.379,999.512
1743150730.728,200.684,174.316,-1000.0,176.27
1743150730.732,-1000.0,-1000.0,-572.266,-1000.0
1743150730.735,-719.727,-684.082,747.559,-709.961
1743150730.739,670.41,702.148,999.512,671.387
1743150730.743,999.512,999.512,170.41,999.512
1743150730.747,161.621,166.016,-1000.0,164.062
1743150730.751,-1000.0,-1000.0,-804.688,-1000.0
1743150730.753,-975.586,-953.125,488.77,-962.402
1743150730.757,299.316,337.891,999.512,318.359
1743150730.761,999.512,999.512,237.793,999.512
1743150730.765,142.578,149.414,-1000.0,143.555
1743150730.769,-1000.0,-1000.0,-972.656,-1000.0
1743150730.773,-1000.0,-1000.0,249.023,-1000.0
1743150730.777,74.219,167.969,999.512,79.102
1743150730.78,999.512,999.512,338.379,999.512
1743150730.784,275.391,220.215,-944.336,268.066
1743150730.788,-970.215,-989.258,-1000.0,-975.098
1743150730.792,-1000.0,-1000.0,6.348,-1000.0
1743150730.796,-146.484,-123.047,999.512,-129.395
1743150730.753,-975.586,-953.125,488.77,-962.402
1743150730.757,299.316,337.891,999.512,318.359
1743150730.761,999.512,999.512,237.793,999.512
1743150730.765,142.578,149.414,-1000.0,143.555
1743150730.769,-1000.0,-1000.0,-972.656,-1000.0
1743150730.773,-1000.0,-1000.0,249.023,-1000.0
1743150730.777,74.219,167.969,999.512,79.102
1743150730.78,999.512,999.512,338.379,999.512
1743150730.784,275.391,220.215,-944.336,268.066
1743150730.788,-970.215,-989.258,-1000.0,-975.098
1743150730.792,-1000.0,-1000.0,6.348,-1000.0
1743150730.796,-146.484,-123.047,999.512,-129.395
1743150730.8,999.512,999.512,469.727,999.512
1743150730.804,477.539,440.918,-840.332,464.844
1743150730.808,-881.348,-900.879,-1000.0,-886.23
1743150730.812,-1000.0,-1000.0,-132.812,-1000.0
1743150730.816,-230.469,-229.492,999.512,-231.934
1743150730.82,999.512,999.512,777.344,999.512
1743150730.824,714.844,681.641,-500.0,697.266
1743150730.827,-666.504,-706.543,-1000.0,-686.035
1743150730.831,-1000.0,-1000.0,-245.605,-1000.0
1743150730.835,-199.219,-203.125,999.512,-202.148
1743150730.839,999.512,999.512,843.262,999.512
1743150730.843,905.762,881.836,-437.988,886.719
1743150730.8,999.512,999.512,469.727,999.512
1743150730.804,477.539,440.918,-840.332,464.844
1743150730.808,-881.348,-900.879,-1000.0,-886.23
1743150730.812,-1000.0,-1000.0,-132.812,-1000.0
1743150730.816,-230.469,-229.492,999.512,-231.934
1743150730.82,999.512,999.512,777.344,999.512
1743150730.824,714.844,681.641,-500.0,697.266
1743150730.827,-666.504,-706.543,-1000.0,-686.035
1743150730.831,-1000.0,-1000.0,-245.605,-1000.0
1743150730.835,-199.219,-203.125,999.512,-202.148
1743150730.839,999.512,999.512,843.262,999.512
1743150730.843,905.762,881.836,-437.988,886.719
1743150730.874,-384.766,-430.176,-1000.0,-416.016
1743150730.878,-1000.0,-1000.0,-222.168,-1000.0
1743150730.882,-242.676,-191.895,997.07,-235.84
1743150730.886,977.051,995.605,999.512,982.422
1743150730.89,999.512,999.512,-108.887,999.512
1743150730.894,-89.355,-98.633,-1000.0,-108.398
1743150730.898,-1000.0,-1000.0,-318.359,-1000.0
1743150730.901,-437.5,-405.273,934.57,-423.34
1743150730.905,879.883,899.414,999.512,887.207
1743150730.909,999.512,999.512,102.051,999.512
1743150730.913,73.73,53.223,-1000.0,64.453
1743150730.917,-1000.0,-1000.0,-444.336,-1000.0
1743150730.874,-384.766,-430.176,-1000.0,-416.016
1743150730.878,-1000.0,-1000.0,-222.168,-1000.0
1743150730.882,-242.676,-191.895,997.07,-235.84
1743150730.886,977.051,995.605,999.512,982.422
1743150730.89,999.512,999.512,-108.887,999.512
1743150730.894,-89.355,-98.633,-1000.0,-108.398
1743150730.898,-1000.0,-1000.0,-318.359,-1000.0
1743150730.901,-437.5,-405.273,934.57,-423.34
1743150730.905,879.883,899.414,999.512,887.207
1743150730.909,999.512,999.512,102.051,999.512
1743150730.913,73.73,53.223,-1000.0,64.453
1743150730.917,-1000.0,-1000.0,-444.336,-1000.0
1743150730.948,999.512,999.512,358.887,999.512
1743150730.952,202.148,144.531,-957.031,198.73
1743150730.956,-1000.0,-1000.0,-1000.0,-1000.0
1743150730.96,-1000.0,-1000.0,194.336,-1000.0
1743150730.964,-12.695,-1.465,999.512,3.418
1743150730.968,999.512,999.512,593.75,999.512
1743150730.972,410.645,372.559,-696.289,398.926
1743150730.975,-906.25,-924.805,-1000.0,-913.574
1743150730.979,-1000.0,-1000.0,-76.66,-1000.0
1743150730.983,-203.613,-210.449,999.512,-183.594
1743150730.987,999.512,999.512,629.395,999.512
1743150730.991,605.469,523.926,-691.406,599.609
1743150730.948,999.512,999.512,358.887,999.512
1743150730.952,202.148,144.531,-957.031,198.73
1743150730.956,-1000.0,-1000.0,-1000.0,-1000.0
1743150730.96,-1000.0,-1000.0,194.336,-1000.0
1743150730.964,-12.695,-1.465,999.512,3.418
1743150730.968,999.512,999.512,593.75,999.512
1743150730.972,410.645,372.559,-696.289,398.926
1743150730.975,-906.25,-924.805,-1000.0,-913.574
1743150730.979,-1000.0,-1000.0,-76.66,-1000.0
1743150730.983,-203.613,-210.449,999.512,-183.594
1743150730.987,999.512,999.512,629.395,999.512
1743150730.991,605.469,523.926,-691.406,599.609
1743150730.948,999.512,999.512,358.887,999.512
1743150730.952,202.148,144.531,-957.031,198.73
1743150730.956,-1000.0,-1000.0,-1000.0,-1000.0
1743150730.96,-1000.0,-1000.0,194.336,-1000.0
1743150730.964,-12.695,-1.465,999.512,3.418
1743150730.968,999.512,999.512,593.75,999.512
1743150730.972,410.645,372.559,-696.289,398.926
1743150730.975,-906.25,-924.805,-1000.0,-913.574
1743150730.979,-1000.0,-1000.0,-76.66,-1000.0
1743150730.983,-203.613,-210.449,999.512,-183.594
1743150730.987,999.512,999.512,629.395,999.512
1743150730.991,605.469,523.926,-691.406,599.609
1743150730.993,-782.715,-864.258,-1000.0,-782.715
1743150730.997,-1000.0,-1000.0,-149.902,-1000.0
1743150731.001,-211.914,-221.68,999.512,-211.426
1743150731.005,999.512,999.512,869.141,999.512
1743150731.009,835.449,775.391,-368.164,836.914
1743150731.013,-502.93,-588.379,-1000.0,-498.535
1743150731.017,-1000.0,-1000.0,-226.074,-1000.0
1743150731.02,-181.152,-187.5,999.512,-181.641
1743150731.024,999.512,999.512,929.688,999.512
1743150731.028,999.512,974.609,-276.855,999.512
1743150731.032,-177.734,-251.465,-1000.0,-186.523
1743150731.036,-1000.0,-1000.0,-356.445,-1000.0
1743150730.993,-782.715,-864.258,-1000.0,-782.715
1743150730.997,-1000.0,-1000.0,-149.902,-1000.0
1743150731.001,-211.914,-221.68,999.512,-211.426
1743150731.005,999.512,999.512,869.141,999.512
1743150731.009,835.449,775.391,-368.164,836.914
1743150731.013,-502.93,-588.379,-1000.0,-498.535
1743150731.017,-1000.0,-1000.0,-226.074,-1000.0
1743150731.02,-181.152,-187.5,999.512,-181.641
1743150731.024,999.512,999.512,929.688,999.512
1743150731.028,999.512,974.609,-276.855,999.512
1743150731.032,-177.734,-251.465,-1000.0,-186.523
1743150731.036,-1000.0,-1000.0,-356.445,-1000.0
1743150731.038,-301.27,-307.129,923.34,-286.133
1743150731.042,947.266,948.73,999.512,954.59
1743150731.046,999.512,999.512,-53.711,999.512
1743150731.05,9.277,-34.668,-1000.0,4.883
1743150731.054,-1000.0,-1000.0,-503.906,-1000.0
1743150731.058,-450.195,-416.504,809.082,-439.453
1743150731.062,871.094,889.648,999.512,878.418
1743150731.065,999.512,999.512,88.379,999.512
1743150731.069,191.406,144.531,-1000.0,179.688
1743150731.073,-1000.0,-1000.0,-632.324,-1000.0
1743150731.077,-695.312,-667.48,690.43,-671.387
1743150731.081,693.848,712.891,999.512,716.797
1743150731.038,-301.27,-307.129,923.34,-286.133
1743150731.042,947.266,948.73,999.512,954.59
1743150731.046,999.512,999.512,-53.711,999.512
1743150731.05,9.277,-34.668,-1000.0,4.883
1743150731.054,-1000.0,-1000.0,-503.906,-1000.0
1743150731.058,-450.195,-416.504,809.082,-439.453
1743150731.062,871.094,889.648,999.512,878.418
1743150731.065,999.512,999.512,88.379,999.512
1743150731.069,191.406,144.531,-1000.0,179.688
1743150731.073,-1000.0,-1000.0,-632.324,-1000.0
1743150731.077,-695.312,-667.48,690.43,-671.387
1743150731.081,693.848,712.891,999.512,716.797
1743150731.113,999.512,999.512,195.801,999.512
1743150731.117,171.875,175.293,-1000.0,173.828
1743150731.121,-1000.0,-1000.0,-832.031,-1000.0
1743150731.125,-899.414,-882.324,466.797,-894.043
1743150731.129,422.363,449.219,999.512,429.688
1743150731.133,999.512,999.512,270.508,999.512
1743150731.137,143.066,144.531,-999.023,154.785
1743150731.14,-1000.0,-1000.0,-1000.0,-1000.0
1743150731.144,-1000.0,-1000.0,126.953,-1000.0
1743150731.148,92.773,105.957,999.512,106.445
1743150731.152,999.512,999.512,333.496,999.512
1743150731.156,276.855,207.52,-945.801,274.902
1743150731.113,999.512,999.512,195.801,999.512
1743150731.117,171.875,175.293,-1000.0,173.828
1743150731.121,-1000.0,-1000.0,-832.031,-1000.0
1743150731.125,-899.414,-882.324,466.797,-894.043
1743150731.129,422.363,449.219,999.512,429.688
1743150731.133,999.512,999.512,270.508,999.512
1743150731.137,143.066,144.531,-999.023,154.785
1743150731.14,-1000.0,-1000.0,-1000.0,-1000.0
1743150731.144,-1000.0,-1000.0,126.953,-1000.0
1743150731.148,92.773,105.957,999.512,106.445
1743150731.152,999.512,999.512,333.496,999.512
1743150731.156,276.855,207.52,-945.801,274.902
1743150731.143,-972.656,-1000.0,-1000.0,-975.098
1743150731.147,-1000.0,-1000.0,-55.664,-1000.0
1743150731.151,-111.816,-77.637,999.512,-90.82
1743150731.155,999.512,999.512,584.473,999.512
1743150731.159,429.688,388.672,-744.629,446.777
1743150731.163,-905.762,-922.852,-1000.0,-892.578
1743150731.167,-1000.0,-1000.0,-111.328,-1000.0
1743150731.17,-234.863,-234.863,999.512,-222.656
1743150731.174,999.512,999.512,769.531,999.512
1743150731.178,707.52,642.09,-510.254,716.797
1743150731.182,-675.781,-750.977,-1000.0,-659.18
1743150731.186,-1000.0,-1000.0,-178.223,-1000.0
1743150731.143,-972.656,-1000.0,-1000.0,-975.098
1743150731.147,-1000.0,-1000.0,-55.664,-1000.0
1743150731.151,-111.816,-77.637,999.512,-90.82
1743150731.155,999.512,999.512,584.473,999.512
1743150731.159,429.688,388.672,-744.629,446.777
1743150731.163,-905.762,-922.852,-1000.0,-892.578
1743150731.167,-1000.0,-1000.0,-111.328,-1000.0
1743150731.17,-234.863,-234.863,999.512,-222.656
1743150731.174,999.512,999.512,769.531,999.512
1743150731.178,707.52,642.09,-510.254,716.797
1743150731.182,-675.781,-750.977,-1000.0,-659.18
1743150731.186,-1000.0,-1000.0,-178.223,-1000.0
1743150731.233,999.512,999.512,-14.16,999.512
1743150731.237,76.66,-1.953,-1000.0,72.266
1743150731.241,-1000.0,-1000.0,-587.402,-1000.0
1743150731.245,-559.082,-527.832,725.586,-552.246
1743150731.249,812.5,821.289,999.512,812.5
1743150731.253,999.512,999.512,125.977,999.512
1743150731.257,184.57,187.988,-1000.0,187.5
1743150731.26,-1000.0,-1000.0,-833.496,-1000.0
1743150731.264,-832.031,-819.824,456.055,-812.988
1743150731.268,523.438,540.527,999.512,548.828
1743150731.272,999.512,999.512,131.836,999.512
1743150731.276,154.297,156.738,-1000.0,154.785
1743150731.278,-1000.0,-1000.0,-977.539,-1000.0
1743150731.282,-1000.0,-993.652,184.082,-1000.0
1743150731.286,235.352,266.113,999.512,237.305
1743150731.29,999.512,999.512,229.98,999.512
1743150731.294,201.172,142.578,-1000.0,191.895
1743150731.298,-1000.0,-1000.0,-1000.0,-1000.0
1743150731.302,-1000.0,-1000.0,38.086,-1000.0
1743150731.305,32.715,54.688,999.512,20.996
1743150731.309,999.512,999.512,296.387,999.512
1743150731.313,385.254,300.781,-972.168,375.0
1743150731.317,-917.48,-957.031,-1000.0,-924.316
1743150731.321,-1000.0,-1000.0,-104.004,-1000.0
1743150731.278,-1000.0,-1000.0,-977.539,-1000.0
1743150731.282,-1000.0,-993.652,184.082,-1000.0
1743150731.286,235.352,266.113,999.512,237.305
1743150731.29,999.512,999.512,229.98,999.512
1743150731.294,201.172,142.578,-1000.0,191.895
1743150731.298,-1000.0,-1000.0,-1000.0,-1000.0
1743150731.302,-1000.0,-1000.0,38.086,-1000.0
1743150731.305,32.715,54.688,999.512,20.996
1743150731.309,999.512,999.512,296.387,999.512
1743150731.313,385.254,300.781,-972.168,375.0
1743150731.317,-917.48,-957.031,-1000.0,-924.316
1743150731.321,-1000.0,-1000.0,-104.004,-1000.0
1743150731.323,-177.734,-181.641,999.512,-176.758
1743150731.327,999.512,999.512,554.688,999.512
1743150731.331,585.449,508.301,-766.113,576.66
1743150731.335,-798.34,-868.164,-1000.0,-803.711
1743150731.339,-1000.0,-1000.0,-208.008,-1000.0
1743150731.343,-216.797,-226.562,999.512,-219.238
1743150731.347,999.512,999.512,770.508,999.512
1743150731.35,791.016,732.91,-539.551,773.926
1743150731.354,-566.895,-643.066,-1000.0,-589.844
1743150731.358,-1000.0,-1000.0,-230.957,-1000.0
1743150731.362,-187.988,-194.336,999.512,-188.477
1743150731.366,999.512,999.512,901.367,999.512
1743150731.323,-177.734,-181.641,999.512,-176.758
1743150731.327,999.512,999.512,554.688,999.512
1743150731.331,585.449,508.301,-766.113,576.66
1743150731.335,-798.34,-868.164,-1000.0,-803.711
1743150731.339,-1000.0,-1000.0,-208.008,-1000.0
1743150731.343,-216.797,-226.562,999.512,-219.238
1743150731.347,999.512,999.512,770.508,999.512
1743150731.35,791.016,732.91,-539.551,773.926
1743150731.354,-566.895,-643.066,-1000.0,-589.844
1743150731.358,-1000.0,-1000.0,-230.957,-1000.0
1743150731.362,-187.988,-194.336,999.512,-188.477
1743150731.366,999.512,999.512,901.367,999.512
1743150731.368,967.285,934.082,-336.426,964.844
1743150731.372,-260.742,-330.078,-1000.0,-267.09
1743150731.376,-1000.0,-1000.0,-336.914,-1000.0
1743150731.38,-342.773,-269.531,918.945,-332.52
1743150731.384,929.688,959.961,999.512,936.523
1743150731.388,999.512,999.512,6.348,999.512
1743150731.392,-23.438,-27.344,-1000.0,-35.645
1743150731.395,-1000.0,-1000.0,-530.762,-1000.0
1743150731.399,-513.184,-472.168,793.457,-502.441
1743150731.403,831.543,860.352,999.512,837.891
1743150731.407,999.512,999.512,0.488,999.512
1743150731.411,160.156,130.859,-1000.0,148.438
1743150731.368,967.285,934.082,-336.426,964.844
1743150731.372,-260.742,-330.078,-1000.0,-267.09
1743150731.376,-1000.0,-1000.0,-336.914,-1000.0
1743150731.38,-342.773,-269.531,918.945,-332.52
1743150731.384,929.688,959.961,999.512,936.523
1743150731.388,999.512,999.512,6.348,999.512
1743150731.392,-23.438,-27.344,-1000.0,-35.645
1743150731.395,-1000.0,-1000.0,-530.762,-1000.0
1743150731.399,-513.184,-472.168,793.457,-502.441
1743150731.403,831.543,860.352,999.512,837.891
1743150731.407,999.512,999.512,0.488,999.512
1743150731.411,160.156,130.859,-1000.0,148.438
1743150731.414,-1000.0,-1000.0,-763.672,-1000.0
1743150731.418,-724.121,-671.387,533.203,-724.609
1743150731.422,654.785,706.543,999.512,647.461
1743150731.426,999.512,999.512,91.797,999.512
1743150731.43,164.551,170.41,-1000.0,165.039
1743150731.434,-1000.0,-1000.0,-812.012,-1000.0
1743150731.438,-952.148,-920.41,471.191,-948.73
1743150731.441,341.309,390.625,999.512,343.262
1743150731.445,999.512,999.512,68.848,999.512
1743150731.449,139.648,142.578,-1000.0,140.625
1743150731.453,-1000.0,-1000.0,-958.496,-1000.0
1743150731.457,-1000.0,-1000.0,198.242,-1000.0
1743150731.414,-1000.0,-1000.0,-763.672,-1000.0
1743150731.418,-724.121,-671.387,533.203,-724.609
1743150731.422,654.785,706.543,999.512,647.461
1743150731.426,999.512,999.512,91.797,999.512
1743150731.43,164.551,170.41,-1000.0,165.039
1743150731.434,-1000.0,-1000.0,-812.012,-1000.0
1743150731.438,-952.148,-920.41,471.191,-948.73
1743150731.441,341.309,390.625,999.512,343.262
1743150731.445,999.512,999.512,68.848,999.512
1743150731.449,139.648,142.578,-1000.0,140.625
1743150731.453,-1000.0,-1000.0,-958.496,-1000.0
1743150731.457,-1000.0,-1000.0,198.242,-1000.0
1743150731.459,48.828,80.078,999.512,50.293
1743150731.463,999.512,999.512,223.145,999.512
1743150731.467,238.281,215.332,-1000.0,227.051
1743150731.471,-989.746,-1000.0,-1000.0,-993.164
1743150731.475,-1000.0,-1000.0,80.078,-1000.0
1743150731.479,-145.02,-92.285,999.512,-145.508
1743150731.483,999.512,999.512,443.848,999.512
1743150731.486,433.594,418.457,-858.887,414.551
1743150731.49,-907.715,-908.203,-1000.0,-917.969
1743150731.494,-1000.0,-1000.0,-144.043,-1000.0
1743150731.498,-245.605,-246.094,999.512,-246.582
1743150731.502,999.512,999.512,479.492,999.512
1743150731.459,48.828,80.078,999.512,50.293
1743150731.463,999.512,999.512,223.145,999.512
1743150731.467,238.281,215.332,-1000.0,227.051
1743150731.471,-989.746,-1000.0,-1000.0,-993.164
1743150731.475,-1000.0,-1000.0,80.078,-1000.0
1743150731.479,-145.02,-92.285,999.512,-145.508
1743150731.483,999.512,999.512,443.848,999.512
1743150731.486,433.594,418.457,-858.887,414.551
1743150731.49,-907.715,-908.203,-1000.0,-917.969
1743150731.494,-1000.0,-1000.0,-144.043,-1000.0
1743150731.498,-245.605,-246.094,999.512,-246.582
1743150731.502,999.512,999.512,479.492,999.512
1743150731.503,546.875,509.766,-834.961,520.02
1743150731.507,-855.469,-878.906,-1000.0,-871.582
1743150731.511,-1000.0,-1000.0,-218.75,-1000.0
1743150731.515,-220.215,-220.215,999.512,-238.77
1743150731.519,999.512,999.512,583.008,999.512
1743150731.523,772.461,810.547,-721.68,706.543
1743150731.527,-570.312,-539.062,-1000.0,-652.344
1743150731.53,-1000.0,-1000.0,-365.723,-1000.0
1743150731.534,-377.93,-224.121,977.051,-419.434
1743150731.538,997.07,999.512,858.887,999.512
1743150731.542,870.117,878.906,-417.48,800.781
1743150731.546,-474.609,-417.48,-1000.0,-581.543
1743150731.503,546.875,509.766,-834.961,520.02
1743150731.507,-855.469,-878.906,-1000.0,-871.582
1743150731.511,-1000.0,-1000.0,-218.75,-1000.0
1743150731.515,-220.215,-220.215,999.512,-238.77
1743150731.519,999.512,999.512,583.008,999.512
1743150731.523,772.461,810.547,-721.68,706.543
1743150731.527,-570.312,-539.062,-1000.0,-652.344
1743150731.53,-1000.0,-1000.0,-365.723,-1000.0
1743150731.534,-377.93,-224.121,977.051,-419.434
1743150731.538,997.07,999.512,858.887,999.512
1743150731.542,870.117,878.906,-417.48,800.781
1743150731.546,-474.609,-417.48,-1000.0,-581.543
1743150731.503,546.875,509.766,-834.961,520.02
1743150731.507,-855.469,-878.906,-1000.0,-871.582
1743150731.511,-1000.0,-1000.0,-218.75,-1000.0
1743150731.515,-220.215,-220.215,999.512,-238.77
1743150731.519,999.512,999.512,583.008,999.512
1743150731.523,772.461,810.547,-721.68,706.543
1743150731.527,-570.312,-539.062,-1000.0,-652.344
1743150731.53,-1000.0,-1000.0,-365.723,-1000.0
1743150731.534,-377.93,-224.121,977.051,-419.434
1743150731.538,997.07,999.512,858.887,999.512
1743150731.542,870.117,878.906,-417.48,800.781
1743150731.546,-474.609,-417.48,-1000.0,-581.543
1743150731.548,-1000.0,-1000.0,-298.34,-1000.0
1743150731.552,-530.273,-397.949,937.5,-576.66
1743150731.556,819.336,894.043,999.512,784.668
1743150731.56,999.512,999.512,54.199,999.512
1743150731.564,-49.805,-8.789,-1000.0,-121.094
1743150731.568,-1000.0,-1000.0,-393.066,-1000.0
1743150731.572,-613.281,-499.023,894.043,-628.906
1743150731.575,732.91,840.82,999.512,708.496
1743150731.579,999.512,999.512,141.602,999.512
1743150731.583,179.199,177.734,-1000.0,163.086
1743150731.587,-1000.0,-1000.0,-716.797,-1000.0
1743150731.591,-855.957,-809.082,588.379,-862.305
1743150731.548,-1000.0,-1000.0,-298.34,-1000.0
1743150731.552,-530.273,-397.949,937.5,-576.66
1743150731.556,819.336,894.043,999.512,784.668
1743150731.56,999.512,999.512,54.199,999.512
1743150731.564,-49.805,-8.789,-1000.0,-121.094
1743150731.568,-1000.0,-1000.0,-393.066,-1000.0
1743150731.572,-613.281,-499.023,894.043,-628.906
1743150731.575,732.91,840.82,999.512,708.496
1743150731.579,999.512,999.512,141.602,999.512
1743150731.583,179.199,177.734,-1000.0,163.086
1743150731.587,-1000.0,-1000.0,-716.797,-1000.0
1743150731.591,-855.957,-809.082,588.379,-862.305
1743150731.548,-1000.0,-1000.0,-298.34,-1000.0
1743150731.552,-530.273,-397.949,937.5,-576.66
1743150731.556,819.336,894.043,999.512,784.668
1743150731.56,999.512,999.512,54.199,999.512
1743150731.564,-49.805,-8.789,-1000.0,-121.094
1743150731.568,-1000.0,-1000.0,-393.066,-1000.0
1743150731.572,-613.281,-499.023,894.043,-628.906
1743150731.575,732.91,840.82,999.512,708.496
1743150731.579,999.512,999.512,141.602,999.512
1743150731.583,179.199,177.734,-1000.0,163.086
1743150731.587,-1000.0,-1000.0,-716.797,-1000.0
1743150731.591,-855.957,-809.082,588.379,-862.305
1743150732.077,-16.602,-41.504,-1000.0,-23.438
1743150732.081,-1000.0,-1000.0,-339.355,-1000.0
1743150732.085,-543.945,-493.164,967.285,-528.32
1743150732.089,817.871,845.215,962.891,828.613
1743150732.093,999.512,999.512,-181.152,999.512
1743150732.097,96.68,124.023,-1000.0,88.867
1743150732.101,-1000.0,-1000.0,-533.691,-1000.0
1743150732.104,-891.602,-785.156,781.738,-874.512
1743150732.108,411.621,567.871,999.512,438.965
1743150732.112,999.512,999.512,-16.602,999.512
1743150732.116,133.301,150.391,-1000.0,96.68
1743150732.12,-1000.0,-1000.0,-673.828,-1000.0
1743150732.121,59.57,239.746,999.512,54.199
1743150732.125,999.512,999.512,74.219,999.512
1743150732.129,137.207,144.531,-1000.0,96.68
1743150732.133,-1000.0,-1000.0,-800.293,-1000.0
1743150732.137,-1000.0,-1000.0,427.734,-1000.0
1743150732.141,-150.391,79.102,999.512,-182.129
1743150732.144,999.512,999.512,129.395,999.512
1743150732.148,104.98,131.348,-1000.0,35.156
1743150732.152,-1000.0,-1000.0,-972.168,-1000.0
1743150732.156,-1000.0,-1000.0,162.109,-1000.0
1743150732.16,-269.531,-132.324,999.512,-271.484
1743150732.121,59.57,239.746,999.512,54.199
1743150732.125,999.512,999.512,74.219,999.512
1743150732.129,137.207,144.531,-1000.0,96.68
1743150732.133,-1000.0,-1000.0,-800.293,-1000.0
1743150732.137,-1000.0,-1000.0,427.734,-1000.0
1743150732.141,-150.391,79.102,999.512,-182.129
1743150732.144,999.512,999.512,129.395,999.512
1743150732.148,104.98,131.348,-1000.0,35.156
1743150732.152,-1000.0,-1000.0,-972.168,-1000.0
1743150732.156,-1000.0,-1000.0,162.109,-1000.0
1743150732.16,-269.531,-132.324,999.512,-271.484
1743150732.121,59.57,239.746,999.512,54.199
1743150732.125,999.512,999.512,74.219,999.512
1743150732.129,137.207,144.531,-1000.0,96.68
1743150732.133,-1000.0,-1000.0,-800.293,-1000.0
1743150732.137,-1000.0,-1000.0,427.734,-1000.0
1743150732.141,-150.391,79.102,999.512,-182.129
1743150732.144,999.512,999.512,129.395,999.512
1743150732.148,104.98,131.348,-1000.0,35.156
1743150732.152,-1000.0,-1000.0,-972.168,-1000.0
1743150732.156,-1000.0,-1000.0,162.109,-1000.0
1743150732.16,-269.531,-132.324,999.512,-271.484
1743150732.162,999.512,999.512,184.57,999.512
1743150732.166,343.75,375.488,-1000.0,277.832
1743150732.17,-970.215,-936.523,-971.68,-996.094
1743150732.174,-1000.0,-1000.0,125.488,-1000.0
1743150732.178,-242.676,-233.887,999.512,-250.977
1743150732.182,999.512,999.512,437.5,999.512
1743150732.186,712.891,687.5,-879.395,671.387
1743150732.189,-669.434,-698.242,-1000.0,-716.797
1743150732.193,-1000.0,-1000.0,9.277,-1000.0
1743150732.197,-192.383,-199.707,999.512,-196.777
1743150732.201,999.512,999.512,631.348,999.512
1743150732.205,959.961,908.203,-674.805,937.012
1743150732.162,999.512,999.512,184.57,999.512
1743150732.166,343.75,375.488,-1000.0,277.832
1743150732.17,-970.215,-936.523,-971.68,-996.094
1743150732.174,-1000.0,-1000.0,125.488,-1000.0
1743150732.178,-242.676,-233.887,999.512,-250.977
1743150732.182,999.512,999.512,437.5,999.512
1743150732.186,712.891,687.5,-879.395,671.387
1743150732.189,-669.434,-698.242,-1000.0,-716.797
1743150732.193,-1000.0,-1000.0,9.277,-1000.0
1743150732.197,-192.383,-199.707,999.512,-196.777
1743150732.201,999.512,999.512,631.348,999.512
1743150732.205,959.961,908.203,-674.805,937.012
1743150732.209,-298.34,-391.602,-1000.0,-336.914
1743150732.213,-1000.0,-1000.0,-11.719,-1000.0
1743150732.217,-166.992,-169.434,999.512,-166.992
1743150732.221,987.305,993.164,794.922,988.77
1743150732.225,999.512,999.512,-435.059,999.512
1743150732.229,32.715,-35.156,-1000.0,18.066
1743150732.233,-1000.0,-1000.0,-79.59,-1000.0
1743150732.236,-178.223,-176.27,999.512,-176.758
1743150732.24,987.305,991.699,804.199,987.305
1743150732.244,999.512,999.512,-381.348,999.512
1743150732.248,222.168,129.395,-1000.0,222.656
1743150732.252,-1000.0,-1000.0,-194.336,-1000.0
1743150732.209,-298.34,-391.602,-1000.0,-336.914
1743150732.213,-1000.0,-1000.0,-11.719,-1000.0
1743150732.217,-166.992,-169.434,999.512,-166.992
1743150732.221,987.305,993.164,794.922,988.77
1743150732.225,999.512,999.512,-435.059,999.512
1743150732.229,32.715,-35.156,-1000.0,18.066
1743150732.233,-1000.0,-1000.0,-79.59,-1000.0
1743150732.236,-178.223,-176.27,999.512,-176.758
1743150732.24,987.305,991.699,804.199,987.305
1743150732.244,999.512,999.512,-381.348,999.512
1743150732.248,222.168,129.395,-1000.0,222.656
1743150732.252,-1000.0,-1000.0,-194.336,-1000.0
1743150732.253,-204.102,-190.43,989.258,-203.613
1743150732.257,999.512,995.117,999.512,999.512
1743150732.261,999.512,999.512,-41.992,999.512
1743150732.265,222.168,222.656,-1000.0,221.68
1743150732.269,-1000.0,-1000.0,-288.086,-1000.0
1743150732.273,-196.289,-203.613,920.41,-179.688
1743150732.277,993.164,999.512,999.512,996.582
1743150732.28,999.512,999.512,216.797,999.512
1743150732.284,377.441,222.656,-1000.0,418.945
1743150732.288,-1000.0,-1000.0,-415.039,-1000.0
1743150732.292,-216.797,-201.66,875.488,-209.473
1743150732.296,999.512,999.512,999.512,999.512
1743150732.253,-204.102,-190.43,989.258,-203.613
1743150732.257,999.512,995.117,999.512,999.512
1743150732.261,999.512,999.512,-41.992,999.512
1743150732.265,222.168,222.656,-1000.0,221.68
1743150732.269,-1000.0,-1000.0,-288.086,-1000.0
1743150732.273,-196.289,-203.613,920.41,-179.688
1743150732.277,993.164,999.512,999.512,996.582
1743150732.28,999.512,999.512,216.797,999.512
1743150732.284,377.441,222.656,-1000.0,418.945
1743150732.288,-1000.0,-1000.0,-415.039,-1000.0
1743150732.292,-216.797,-201.66,875.488,-209.473
1743150732.296,999.512,999.512,999.512,999.512
1743150732.253,-204.102,-190.43,989.258,-203.613
1743150732.257,999.512,995.117,999.512,999.512
1743150732.261,999.512,999.512,-41.992,999.512
1743150732.265,222.168,222.656,-1000.0,221.68
1743150732.269,-1000.0,-1000.0,-288.086,-1000.0
1743150732.273,-196.289,-203.613,920.41,-179.688
1743150732.277,993.164,999.512,999.512,996.582
1743150732.28,999.512,999.512,216.797,999.512
1743150732.284,377.441,222.656,-1000.0,418.945
1743150732.288,-1000.0,-1000.0,-415.039,-1000.0
1743150732.292,-216.797,-201.66,875.488,-209.473
1743150732.296,999.512,999.512,999.512,999.512
1743150732.298,999.512,999.512,279.297,999.512
1743150732.302,539.062,273.438,-1000.0,609.375
1743150732.306,-1000.0,-1000.0,-598.145,-1000.0
1743150732.31,-284.18,-364.258,715.332,-262.207
1743150732.314,999.512,932.617,999.512,999.512
1743150732.318,999.512,999.512,218.262,993.164
1743150732.322,697.266,437.5,-1000.0,793.457
1743150732.325,-843.75,-979.004,-995.605,-770.02
1743150732.329,-850.586,-971.68,142.578,-737.305
1743150732.333,638.184,359.863,999.512,790.039
1743150732.337,999.512,999.512,133.301,999.512
1743150732.341,707.031,476.074,-1000.0,781.738
1743150732.298,999.512,999.512,279.297,999.512
1743150732.302,539.062,273.438,-1000.0,609.375
1743150732.306,-1000.0,-1000.0,-598.145,-1000.0
1743150732.31,-284.18,-364.258,715.332,-262.207
1743150732.314,999.512,932.617,999.512,999.512
1743150732.318,999.512,999.512,218.262,993.164
1743150732.322,697.266,437.5,-1000.0,793.457
1743150732.325,-843.75,-979.004,-995.605,-770.02
1743150732.329,-850.586,-971.68,142.578,-737.305
1743150732.333,638.184,359.863,999.512,790.039
1743150732.337,999.512,999.512,133.301,999.512
1743150732.341,707.031,476.074,-1000.0,781.738
1743150732.36,-613.77,-852.051,-1000.0,-541.016
1743150732.364,-1000.0,-1000.0,-152.344,-1000.0
1743150732.368,38.086,-85.938,999.512,139.16
1743150732.372,999.512,999.512,313.965,999.512
1743150732.376,881.348,739.746,-1000.0,921.875
1743150732.38,-365.723,-598.633,-1000.0,-273.926
1743150732.384,-1000.0,-1000.0,89.355,-1000.0
1743150732.387,-177.246,-187.988,999.512,-178.223
1743150732.391,999.512,999.512,591.309,999.512
1743150732.395,999.512,972.656,-670.898,999.512
1743150732.399,-126.465,-256.348,-1000.0,-118.164
1743150732.403,-1000.0,-1000.0,-94.238,-1000.0
1743150732.36,-613.77,-852.051,-1000.0,-541.016
1743150732.364,-1000.0,-1000.0,-152.344,-1000.0
1743150732.368,38.086,-85.938,999.512,139.16
1743150732.372,999.512,999.512,313.965,999.512
1743150732.376,881.348,739.746,-1000.0,921.875
1743150732.38,-365.723,-598.633,-1000.0,-273.926
1743150732.384,-1000.0,-1000.0,89.355,-1000.0
1743150732.387,-177.246,-187.988,999.512,-178.223
1743150732.391,999.512,999.512,591.309,999.512
1743150732.395,999.512,972.656,-670.898,999.512
1743150732.399,-126.465,-256.348,-1000.0,-118.164
1743150732.403,-1000.0,-1000.0,-94.238,-1000.0
1743150732.403,-264.648,-300.293,999.512,-237.305
1743150732.407,962.891,950.195,771.484,972.656
1743150732.411,999.512,999.512,-444.336,999.512
1743150732.415,46.875,-25.879,-1000.0,54.688
1743150732.419,-1000.0,-1000.0,-297.852,-1000.0
1743150732.423,-449.707,-425.293,999.512,-434.57
1743150732.427,875.977,887.695,752.93,886.23
1743150732.43,999.512,999.512,-496.582,999.512
1743150732.434,187.988,128.418,-1000.0,181.641
1743150732.438,-1000.0,-1000.0,-342.285,-1000.0
1743150732.442,-725.586,-707.031,885.742,-696.777
1743150732.446,658.691,665.039,999.512,687.5
1743150732.403,-264.648,-300.293,999.512,-237.305
1743150732.407,962.891,950.195,771.484,972.656
1743150732.411,999.512,999.512,-444.336,999.512
1743150732.415,46.875,-25.879,-1000.0,54.688
1743150732.419,-1000.0,-1000.0,-297.852,-1000.0
1743150732.423,-449.707,-425.293,999.512,-434.57
1743150732.427,875.977,887.695,752.93,886.23
1743150732.43,999.512,999.512,-496.582,999.512
1743150732.434,187.988,128.418,-1000.0,181.641
1743150732.438,-1000.0,-1000.0,-342.285,-1000.0
1743150732.442,-725.586,-707.031,885.742,-696.777
1743150732.446,658.691,665.039,999.512,687.5
1743150732.448,999.512,999.512,93.75,999.512
1743150732.452,163.086,166.504,-1000.0,166.504
1743150732.456,-1000.0,-1000.0,-393.066,-1000.0
1743150732.46,-962.402,-942.871,879.883,-944.824
1743150732.464,323.73,356.445,999.512,349.609
1743150732.468,999.512,999.512,183.105,999.512
1743150732.472,138.184,138.672,-1000.0,140.137
1743150732.475,-1000.0,-1000.0,-634.277,-1000.0
1743150732.479,-1000.0,-1000.0,642.09,-1000.0
1743150732.483,21.484,26.855,999.512,39.551
1743150732.487,999.512,999.512,305.664,999.512
1743150732.491,258.789,221.68,-1000.0,254.883
1743150732.448,999.512,999.512,93.75,999.512
1743150732.452,163.086,166.504,-1000.0,166.504
1743150732.456,-1000.0,-1000.0,-393.066,-1000.0
1743150732.46,-962.402,-942.871,879.883,-944.824
1743150732.464,323.73,356.445,999.512,349.609
1743150732.468,999.512,999.512,183.105,999.512
1743150732.472,138.184,138.672,-1000.0,140.137
1743150732.475,-1000.0,-1000.0,-634.277,-1000.0
1743150732.479,-1000.0,-1000.0,642.09,-1000.0
1743150732.483,21.484,26.855,999.512,39.551
1743150732.487,999.512,999.512,305.664,999.512
1743150732.491,258.789,221.68,-1000.0,254.883
1743150732.448,999.512,999.512,93.75,999.512
1743150732.452,163.086,166.504,-1000.0,166.504
1743150732.456,-1000.0,-1000.0,-393.066,-1000.0
1743150732.46,-962.402,-942.871,879.883,-944.824
1743150732.464,323.73,356.445,999.512,349.609
1743150732.468,999.512,999.512,183.105,999.512
1743150732.472,138.184,138.672,-1000.0,140.137
1743150732.475,-1000.0,-1000.0,-634.277,-1000.0
1743150732.479,-1000.0,-1000.0,642.09,-1000.0
1743150732.483,21.484,26.855,999.512,39.551
1743150732.487,999.512,999.512,305.664,999.512
1743150732.491,258.789,221.68,-1000.0,254.883
1743150732.509,-983.398,-1000.0,-877.441,-984.863
1743150732.513,-1000.0,-1000.0,379.883,-1000.0
1743150732.517,-143.066,-107.91,999.512,-128.418
1743150732.521,999.512,999.512,203.125,999.512
1743150732.525,403.32,267.578,-1000.0,402.344
1743150732.529,-923.34,-980.957,-871.582,-922.363
1743150732.533,-1000.0,-1000.0,278.809,-1000.0
1743150732.536,-240.234,-254.883,999.512,-241.699
1743150732.54,999.512,999.512,152.832,999.512
1743150732.544,663.086,607.91,-1000.0,641.113
1743150732.548,-729.004,-790.039,-1000.0,-753.418
1743150732.552,-1000.0,-1000.0,-32.227,-1000.0
1743150732.539,-200.684,-206.055,999.512,-204.102
1743150732.543,999.512,999.512,411.621,999.512
1743150732.547,908.691,884.277,-906.738,886.719
1743150732.551,-381.836,-427.246,-1000.0,-416.992
1743150732.555,-1000.0,-1000.0,-19.043,-1000.0
1743150732.559,-234.375,-187.012,999.512,-233.887
1743150732.563,982.91,999.512,574.219,985.352
1743150732.566,999.512,999.512,-724.121,999.512
1743150732.57,-106.934,-145.508,-1000.0,-121.582
1743150732.574,-1000.0,-1000.0,-27.344,-1000.0
1743150732.578,-424.316,-383.789,999.512,-415.039
1743150732.582,885.742,906.738,880.371,891.113
1743150732.583,999.512,999.512,-264.648,999.512
1743150732.587,70.801,47.363,-1000.0,58.105
1743150732.591,-1000.0,-1000.0,-118.164,-1000.0
1743150732.595,-637.207,-568.848,977.051,-625.488
1743150732.599,729.004,792.969,999.512,737.793
1743150732.603,999.512,999.512,208.984,999.512
1743150732.607,170.898,179.199,-1000.0,172.363
1743150732.61,-1000.0,-1000.0,-339.355,-1000.0
1743150732.614,-922.363,-882.324,950.684,-901.855
1743150732.618,387.695,448.242,999.512,417.48
1743150732.622,999.512,999.512,82.52,999.512
1743150732.626,143.555,149.902,-1000.0,145.02
1743150732.583,999.512,999.512,-264.648,999.512
1743150732.587,70.801,47.363,-1000.0,58.105
1743150732.591,-1000.0,-1000.0,-118.164,-1000.0
1743150732.595,-637.207,-568.848,977.051,-625.488
1743150732.599,729.004,792.969,999.512,737.793
1743150732.603,999.512,999.512,208.984,999.512
1743150732.607,170.898,179.199,-1000.0,172.363
1743150732.61,-1000.0,-1000.0,-339.355,-1000.0
1743150732.614,-922.363,-882.324,950.684,-901.855
1743150732.618,387.695,448.242,999.512,417.48
1743150732.622,999.512,999.512,82.52,999.512
1743150732.626,143.555,149.902,-1000.0,145.02
1743150732.643,-1000.0,-1000.0,-582.031,-1000.0
1743150732.647,-1000.0,-1000.0,702.148,-1000.0
1743150732.651,104.492,180.664,999.512,118.652
1743150732.655,999.512,999.512,254.883,999.512
1743150732.659,135.742,135.742,-1000.0,136.719
1743150732.663,-1000.0,-1000.0,-628.906,-1000.0
1743150732.667,-1000.0,-1000.0,658.203,-1000.0
1743150732.67,-130.371,-68.848,999.512,-113.281
1743150732.674,999.512,999.512,380.859,999.512
1743150732.678,336.914,328.125,-962.891,316.895
1743150732.682,-954.59,-954.59,-948.73,-962.402
1743150732.686,-1000.0,-1000.0,272.461,-1000.0
1743150732.643,-1000.0,-1000.0,-582.031,-1000.0
1743150732.647,-1000.0,-1000.0,702.148,-1000.0
1743150732.651,104.492,180.664,999.512,118.652
1743150732.655,999.512,999.512,254.883,999.512
1743150732.659,135.742,135.742,-1000.0,136.719
1743150732.663,-1000.0,-1000.0,-628.906,-1000.0
1743150732.667,-1000.0,-1000.0,658.203,-1000.0
1743150732.67,-130.371,-68.848,999.512,-113.281
1743150732.674,999.512,999.512,380.859,999.512
1743150732.678,336.914,328.125,-962.891,316.895
1743150732.682,-954.59,-954.59,-948.73,-962.402
1743150732.686,-1000.0,-1000.0,272.461,-1000.0
1743150732.643,-1000.0,-1000.0,-582.031,-1000.0
1743150732.647,-1000.0,-1000.0,702.148,-1000.0
1743150732.651,104.492,180.664,999.512,118.652
1743150732.655,999.512,999.512,254.883,999.512
1743150732.659,135.742,135.742,-1000.0,136.719
1743150732.663,-1000.0,-1000.0,-628.906,-1000.0
1743150732.667,-1000.0,-1000.0,658.203,-1000.0
1743150732.67,-130.371,-68.848,999.512,-113.281
1743150732.674,999.512,999.512,380.859,999.512
1743150732.678,336.914,328.125,-962.891,316.895
1743150732.682,-954.59,-954.59,-948.73,-962.402
1743150732.686,-1000.0,-1000.0,272.461,-1000.0
1743150732.674,-253.418,-224.609,999.512,-245.605
1743150732.678,999.512,999.512,477.539,999.512
1743150732.682,527.344,512.695,-861.816,510.254
1743150732.686,-868.164,-872.559,-1000.0,-877.93
1743150732.69,-1000.0,-1000.0,149.414,-1000.0
1743150732.694,-220.703,-223.145,999.512,-224.121
1743150732.698,999.512,999.512,755.371,999.512
1743150732.701,790.527,773.438,-514.648,767.09
1743150732.705,-567.383,-590.332,-1000.0,-598.633
1743150732.709,-1000.0,-1000.0,-98.633,-1000.0
1743150732.713,-187.012,-191.406,999.512,-191.895
1743150732.717,999.512,999.512,823.242,999.512
1743150732.674,-253.418,-224.609,999.512,-245.605
1743150732.678,999.512,999.512,477.539,999.512
1743150732.682,527.344,512.695,-861.816,510.254
1743150732.686,-868.164,-872.559,-1000.0,-877.93
1743150732.69,-1000.0,-1000.0,149.414,-1000.0
1743150732.694,-220.703,-223.145,999.512,-224.121
1743150732.698,999.512,999.512,755.371,999.512
1743150732.701,790.527,773.438,-514.648,767.09
1743150732.705,-567.383,-590.332,-1000.0,-598.633
1743150732.709,-1000.0,-1000.0,-98.633,-1000.0
1743150732.713,-187.012,-191.406,999.512,-191.895
1743150732.717,999.512,999.512,823.242,999.512
1743150732.674,-253.418,-224.609,999.512,-245.605
1743150732.678,999.512,999.512,477.539,999.512
1743150732.682,527.344,512.695,-861.816,510.254
1743150732.686,-868.164,-872.559,-1000.0,-877.93
1743150732.69,-1000.0,-1000.0,149.414,-1000.0
1743150732.694,-220.703,-223.145,999.512,-224.121
1743150732.698,999.512,999.512,755.371,999.512
1743150732.701,790.527,773.438,-514.648,767.09
1743150732.705,-567.383,-590.332,-1000.0,-598.633
1743150732.709,-1000.0,-1000.0,-98.633,-1000.0
1743150732.713,-187.012,-191.406,999.512,-191.895
1743150732.717,999.512,999.512,823.242,999.512
1743150732.734,973.145,948.242,-382.812,962.891
1743150732.738,-248.047,-301.27,-1000.0,-270.996
1743150732.742,-1000.0,-1000.0,-177.246,-1000.0
1743150732.746,-345.215,-304.199,999.512,-335.449
1743150732.75,926.758,942.871,860.352,934.082
1743150732.754,999.512,999.512,-316.895,999.512
1743150732.758,-7.324,-5.371,-1000.0,-28.809
1743150732.761,-1000.0,-1000.0,-322.266,-1000.0
1743150732.765,-542.969,-525.879,920.898,-533.691
1743150732.769,816.895,830.566,999.512,819.336
1743150732.773,999.512,999.512,109.375,999.512
1743150732.777,135.254,126.953,-1000.0,122.07
1743150732.734,973.145,948.242,-382.812,962.891
1743150732.738,-248.047,-301.27,-1000.0,-270.996
1743150732.742,-1000.0,-1000.0,-177.246,-1000.0
1743150732.746,-345.215,-304.199,999.512,-335.449
1743150732.75,926.758,942.871,860.352,934.082
1743150732.754,999.512,999.512,-316.895,999.512
1743150732.758,-7.324,-5.371,-1000.0,-28.809
1743150732.761,-1000.0,-1000.0,-322.266,-1000.0
1743150732.765,-542.969,-525.879,920.898,-533.691
1743150732.769,816.895,830.566,999.512,819.336
1743150732.773,999.512,999.512,109.375,999.512
1743150732.777,135.254,126.953,-1000.0,122.07
1743150732.734,973.145,948.242,-382.812,962.891
1743150732.738,-248.047,-301.27,-1000.0,-270.996
1743150732.742,-1000.0,-1000.0,-177.246,-1000.0
1743150732.746,-345.215,-304.199,999.512,-335.449
1743150732.75,926.758,942.871,860.352,934.082
1743150732.754,999.512,999.512,-316.895,999.512
1743150732.758,-7.324,-5.371,-1000.0,-28.809
1743150732.761,-1000.0,-1000.0,-322.266,-1000.0
1743150732.765,-542.969,-525.879,920.898,-533.691
1743150732.769,816.895,830.566,999.512,819.336
1743150732.773,999.512,999.512,109.375,999.512
1743150732.777,135.254,126.953,-1000.0,122.07
1743150732.779,-1000.0,-1000.0,-351.074,-1000.0
1743150732.783,-772.461,-684.082,915.039,-761.719
1743150732.787,586.914,692.871,999.512,596.191
1743150732.791,999.512,999.512,292.969,999.512
1743150732.795,158.203,169.434,-1000.0,159.18
1743150732.799,-1000.0,-1000.0,-481.934,-1000.0
1743150732.803,-986.328,-926.758,848.633,-984.863
1743150732.806,278.809,381.348,999.512,278.809
1743150732.81,999.512,999.512,265.137,999.512
1743150732.814,138.184,141.602,-1000.0,139.16
1743150732.818,-1000.0,-1000.0,-761.719,-1000.0
1743150732.822,-1000.0,-1000.0,548.34,-1000.0
1743150732.823,7.324,67.871,999.512,15.137
1743150732.827,999.512,999.512,304.688,999.512
1743150732.831,242.676,218.75,-984.863,219.727
1743150732.835,-993.164,-1000.0,-1000.0,-1000.0
1743150732.839,-1000.0,-1000.0,138.672,-1000.0
1743150732.843,-138.184,-80.566,999.512,-131.836
1743150732.847,999.512,999.512,161.133,999.512
1743150732.85,441.406,407.227,-1000.0,419.922
1743150732.854,-902.832,-913.086,-1000.0,-913.086
1743150732.858,-1000.0,-1000.0,-122.559,-1000.0
1743150732.862,-235.84,-240.234,999.512,-239.258
1743150732.866,999.512,999.512,369.141,999.512
1743150732.823,7.324,67.871,999.512,15.137
1743150732.827,999.512,999.512,304.688,999.512
1743150732.831,242.676,218.75,-984.863,219.727
1743150732.835,-993.164,-1000.0,-1000.0,-1000.0
1743150732.839,-1000.0,-1000.0,138.672,-1000.0
1743150732.843,-138.184,-80.566,999.512,-131.836
1743150732.847,999.512,999.512,161.133,999.512
1743150732.85,441.406,407.227,-1000.0,419.922
1743150732.854,-902.832,-913.086,-1000.0,-913.086
1743150732.858,-1000.0,-1000.0,-122.559,-1000.0
1743150732.862,-235.84,-240.234,999.512,-239.258
1743150732.866,999.512,999.512,369.141,999.512
1743150732.883,686.035,652.344,-914.062,656.738
1743150732.887,-704.102,-741.211,-1000.0,-735.352
1743150732.891,-1000.0,-1000.0,-233.398,-1000.0
1743150732.895,-198.242,-201.66,999.512,-202.637
1743150732.899,999.512,999.512,564.941,999.512
1743150732.903,919.922,902.344,-743.652,894.043
1743150732.907,-363.77,-393.066,-1000.0,-404.785
1743150732.91,-1000.0,-1000.0,-195.801,-1000.0
1743150732.914,-241.211,-233.398,999.512,-233.398
1743150732.918,981.445,992.676,717.285,985.84
1743150732.922,999.512,999.512,-535.156,999.512
1743150732.926,-109.863,-161.621,-1000.0,-123.047
1743150732.913,-1000.0,-1000.0,-431.641,-1000.0
1743150732.917,-394.531,-354.492,928.711,-392.09
1743150732.921,897.461,916.016,840.332,900.391
1743150732.925,999.512,999.512,-454.102,999.512
1743150732.929,98.145,83.008,-1000.0,75.684
1743150732.933,-1000.0,-1000.0,-312.012,-1000.0
1743150732.937,-605.469,-545.898,999.512,-606.445
1743150732.94,768.066,822.754,887.695,760.254
1743150732.944,999.512,999.512,-352.539,999.512
1743150732.948,177.246,179.688,-1000.0,170.41
1743150732.952,-1000.0,-1000.0,-781.25,-1000.0
1743150732.956,-881.348,-829.102,369.629,-881.348
1743150732.958,450.684,524.902,999.512,446.777
1743150732.962,999.512,999.512,125.488,999.512
1743150732.966,147.949,152.832,-1000.0,148.438
1743150732.97,-1000.0,-1000.0,-455.566,-1000.0
1743150732.974,-1000.0,-1000.0,847.168,-1000.0
1743150732.978,160.156,216.797,999.512,161.133
1743150732.982,999.512,999.512,624.512,999.512
1743150732.985,150.391,138.184,-754.395,154.785
1743150732.989,-1000.0,-1000.0,-897.949,-1000.0
1743150732.993,-1000.0,-1000.0,491.699,-1000.0
1743150732.997,-47.363,-19.531,999.512,-35.645
1743150733.001,999.512,999.512,631.348,999.512
1743150732.958,450.684,524.902,999.512,446.777
1743150732.962,999.512,999.512,125.488,999.512
1743150732.966,147.949,152.832,-1000.0,148.438
1743150732.97,-1000.0,-1000.0,-455.566,-1000.0
1743150732.974,-1000.0,-1000.0,847.168,-1000.0
1743150732.978,160.156,216.797,999.512,161.133
1743150732.982,999.512,999.512,624.512,999.512
1743150732.985,150.391,138.184,-754.395,154.785
1743150732.989,-1000.0,-1000.0,-897.949,-1000.0
1743150732.993,-1000.0,-1000.0,491.699,-1000.0
1743150732.997,-47.363,-19.531,999.512,-35.645
1743150733.001,999.512,999.512,631.348,999.512
1743150733.006,365.234,352.051,-689.941,344.238
1743150733.01,-932.129,-938.965,-1000.0,-941.895
1743150733.014,-1000.0,-1000.0,222.168,-1000.0
1743150733.018,-227.051,-200.684,999.512,-218.262
1743150733.022,999.512,999.512,708.984,999.512
1743150733.026,573.242,547.363,-557.617,552.246
1743150733.03,-821.777,-840.82,-1000.0,-835.938
1743150733.033,-1000.0,-1000.0,-84.473,-1000.0
1743150733.037,-215.82,-220.215,999.512,-218.262
1743150733.041,999.512,999.512,539.551,999.512
1743150733.045,813.965,775.879,-768.066,796.387
1743150733.049,-536.133,-587.402,-1000.0,-557.617
1743150733.006,365.234,352.051,-689.941,344.238
1743150733.01,-932.129,-938.965,-1000.0,-941.895
1743150733.014,-1000.0,-1000.0,222.168,-1000.0
1743150733.018,-227.051,-200.684,999.512,-218.262
1743150733.022,999.512,999.512,708.984,999.512
1743150733.026,573.242,547.363,-557.617,552.246
1743150733.03,-821.777,-840.82,-1000.0,-835.938
1743150733.033,-1000.0,-1000.0,-84.473,-1000.0
1743150733.037,-215.82,-220.215,999.512,-218.262
1743150733.041,999.512,999.512,539.551,999.512
1743150733.045,813.965,775.879,-768.066,796.387
1743150733.049,-536.133,-587.402,-1000.0,-557.617
1743150733.048,-1000.0,-1000.0,-224.609,-1000.0
1743150733.052,-182.617,-188.477,999.512,-185.059
1743150733.056,999.512,999.512,634.277,999.512
1743150733.06,999.512,969.238,-676.27,990.723
1743150733.064,-197.266,-269.531,-1000.0,-226.074
1743150733.068,-1000.0,-1000.0,-200.195,-1000.0
1743150733.072,-272.949,-259.766,999.512,-274.902
1743150733.075,963.379,979.98,937.5,961.426
1743150733.079,999.512,999.512,-234.863,999.512
1743150733.083,-20.02,-110.84,-1000.0,-23.926
1743150733.087,-1000.0,-1000.0,-527.344,-1000.0
1743150733.091,-461.914,-438.965,891.113,-453.613
1743150733.048,-1000.0,-1000.0,-224.609,-1000.0
1743150733.052,-182.617,-188.477,999.512,-185.059
1743150733.056,999.512,999.512,634.277,999.512
1743150733.06,999.512,969.238,-676.27,990.723
1743150733.064,-197.266,-269.531,-1000.0,-226.074
1743150733.068,-1000.0,-1000.0,-200.195,-1000.0
1743150733.072,-272.949,-259.766,999.512,-274.902
1743150733.075,963.379,979.98,937.5,961.426
1743150733.079,999.512,999.512,-234.863,999.512
1743150733.083,-20.02,-110.84,-1000.0,-23.926
1743150733.087,-1000.0,-1000.0,-527.344,-1000.0
1743150733.091,-461.914,-438.965,891.113,-453.613
1743150733.108,861.328,868.652,810.059,866.699
1743150733.112,999.512,999.512,-549.316,999.512
1743150733.116,184.082,140.137,-1000.0,168.945
1743150733.12,-1000.0,-1000.0,-849.121,-1000.0
1743150733.124,-702.148,-692.383,355.469,-681.641
1743150733.128,685.059,685.547,999.512,704.102
1743150733.132,999.512,999.512,-249.023,999.512
1743150733.135,169.922,173.34,-1000.0,171.875
1743150733.139,-1000.0,-1000.0,-877.441,-1000.0
1743150733.143,-911.621,-889.648,352.539,-905.762
1743150733.147,403.809,437.988,999.512,413.574
1743150733.151,999.512,999.512,-96.68,999.512
1743150733.108,861.328,868.652,810.059,866.699
1743150733.112,999.512,999.512,-549.316,999.512
1743150733.116,184.082,140.137,-1000.0,168.945
1743150733.12,-1000.0,-1000.0,-849.121,-1000.0
1743150733.124,-702.148,-692.383,355.469,-681.641
1743150733.128,685.059,685.547,999.512,704.102
1743150733.132,999.512,999.512,-249.023,999.512
1743150733.135,169.922,173.34,-1000.0,171.875
1743150733.139,-1000.0,-1000.0,-877.441,-1000.0
1743150733.143,-911.621,-889.648,352.539,-905.762
1743150733.147,403.809,437.988,999.512,413.574
1743150733.151,999.512,999.512,-96.68,999.512
1743150733.153,143.066,145.02,-1000.0,144.043
1743150733.157,-1000.0,-1000.0,-829.102,-1000.0
1743150733.161,-1000.0,-1000.0,389.16,-1000.0
1743150733.165,89.844,109.375,999.512,101.074
1743150733.169,999.512,999.512,19.531,999.512
1743150733.173,309.082,266.602,-1000.0,286.133
1743150733.177,-963.867,-985.352,-934.57,-972.656
1743150733.18,-1000.0,-1000.0,185.547,-1000.0
1743150733.184,-71.289,-39.551,999.512,-75.684
1743150733.188,999.512,999.512,166.016,999.512
1743150733.192,451.172,394.531,-1000.0,448.73
1743150733.196,-887.207,-916.016,-1000.0,-889.648
1743150733.153,143.066,145.02,-1000.0,144.043
1743150733.157,-1000.0,-1000.0,-829.102,-1000.0
1743150733.161,-1000.0,-1000.0,389.16,-1000.0
1743150733.165,89.844,109.375,999.512,101.074
1743150733.169,999.512,999.512,19.531,999.512
1743150733.173,309.082,266.602,-1000.0,286.133
1743150733.177,-963.867,-985.352,-934.57,-972.656
1743150733.18,-1000.0,-1000.0,185.547,-1000.0
1743150733.184,-71.289,-39.551,999.512,-75.684
1743150733.188,999.512,999.512,166.016,999.512
1743150733.192,451.172,394.531,-1000.0,448.73
1743150733.196,-887.207,-916.016,-1000.0,-889.648
1743150733.153,143.066,145.02,-1000.0,144.043
1743150733.157,-1000.0,-1000.0,-829.102,-1000.0
1743150733.161,-1000.0,-1000.0,389.16,-1000.0
1743150733.165,89.844,109.375,999.512,101.074
1743150733.169,999.512,999.512,19.531,999.512
1743150733.173,309.082,266.602,-1000.0,286.133
1743150733.177,-963.867,-985.352,-934.57,-972.656
1743150733.18,-1000.0,-1000.0,185.547,-1000.0
1743150733.184,-71.289,-39.551,999.512,-75.684
1743150733.188,999.512,999.512,166.016,999.512
1743150733.192,451.172,394.531,-1000.0,448.73
1743150733.196,-887.207,-916.016,-1000.0,-889.648
1743150733.197,-1000.0,-1000.0,5.371,-1000.0
1743150733.201,-231.934,-229.98,999.512,-222.168
1743150733.205,999.512,999.512,284.18,999.512
1743150733.209,715.82,642.578,-1000.0,703.125
1743150733.213,-665.527,-749.512,-1000.0,-675.293
1743150733.217,-1000.0,-1000.0,15.137,-1000.0
1743150733.221,-199.707,-208.496,999.512,-201.66
1743150733.224,999.512,999.512,440.43,999.512
1743150733.228,903.32,848.633,-868.652,890.625
1743150733.232,-395.508,-483.398,-1000.0,-415.039
1743150733.236,-1000.0,-1000.0,-24.902,-1000.0
1743150733.24,-196.289,-178.711,999.512,-202.637
1743150733.197,-1000.0,-1000.0,5.371,-1000.0
1743150733.201,-231.934,-229.98,999.512,-222.168
1743150733.205,999.512,999.512,284.18,999.512
1743150733.209,715.82,642.578,-1000.0,703.125
1743150733.213,-665.527,-749.512,-1000.0,-675.293
1743150733.217,-1000.0,-1000.0,15.137,-1000.0
1743150733.221,-199.707,-208.496,999.512,-201.66
1743150733.224,999.512,999.512,440.43,999.512
1743150733.228,903.32,848.633,-868.652,890.625
1743150733.232,-395.508,-483.398,-1000.0,-415.039
1743150733.236,-1000.0,-1000.0,-24.902,-1000.0
1743150733.24,-196.289,-178.711,999.512,-202.637
1743150733.197,-1000.0,-1000.0,5.371,-1000.0
1743150733.201,-231.934,-229.98,999.512,-222.168
1743150733.205,999.512,999.512,284.18,999.512
1743150733.209,715.82,642.578,-1000.0,703.125
1743150733.213,-665.527,-749.512,-1000.0,-675.293
1743150733.217,-1000.0,-1000.0,15.137,-1000.0
1743150733.221,-199.707,-208.496,999.512,-201.66
1743150733.224,999.512,999.512,440.43,999.512
1743150733.228,903.32,848.633,-868.652,890.625
1743150733.232,-395.508,-483.398,-1000.0,-415.039
1743150733.236,-1000.0,-1000.0,-24.902,-1000.0
1743150733.24,-196.289,-178.711,999.512,-202.637
1743150733.244,995.117,999.512,545.41,995.117
1743150733.248,999.512,999.512,-711.426,999.512
1743150733.252,-103.027,-145.996,-1000.0,-115.723
1743150733.256,-1000.0,-1000.0,-266.602,-1000.0
1743150733.26,-399.902,-364.258,999.512,-386.23
1743150733.264,896.973,914.551,883.789,904.297
1743150733.268,999.512,999.512,-312.012,999.512
1743150733.271,85.938,63.965,-1000.0,71.289
1743150733.275,-1000.0,-1000.0,-532.715,-1000.0
1743150733.279,-587.402,-540.039,830.566,-581.055
1743150733.283,785.156,822.754,875.488,783.203
1743150733.287,999.512,999.512,-400.879,999.512
1743150733.244,995.117,999.512,545.41,995.117
1743150733.248,999.512,999.512,-711.426,999.512
1743150733.252,-103.027,-145.996,-1000.0,-115.723
1743150733.256,-1000.0,-1000.0,-266.602,-1000.0
1743150733.26,-399.902,-364.258,999.512,-386.23
1743150733.264,896.973,914.551,883.789,904.297
1743150733.268,999.512,999.512,-312.012,999.512
1743150733.271,85.938,63.965,-1000.0,71.289
1743150733.275,-1000.0,-1000.0,-532.715,-1000.0
1743150733.279,-587.402,-540.039,830.566,-581.055
1743150733.283,785.156,822.754,875.488,783.203
1743150733.287,999.512,999.512,-400.879,999.512
1743150733.244,995.117,999.512,545.41,995.117
1743150733.248,999.512,999.512,-711.426,999.512
1743150733.252,-103.027,-145.996,-1000.0,-115.723
1743150733.256,-1000.0,-1000.0,-266.602,-1000.0
1743150733.26,-399.902,-364.258,999.512,-386.23
1743150733.264,896.973,914.551,883.789,904.297
1743150733.268,999.512,999.512,-312.012,999.512
1743150733.271,85.938,63.965,-1000.0,71.289
1743150733.275,-1000.0,-1000.0,-532.715,-1000.0
1743150733.279,-587.402,-540.039,830.566,-581.055
1743150733.283,785.156,822.754,875.488,783.203
1743150733.287,999.512,999.512,-400.879,999.512
1743150733.291,183.105,189.941,-1000.0,186.035
1743150733.295,-1000.0,-1000.0,-534.18,-1000.0
1743150733.299,-834.473,-792.969,750.0,-815.918
1743150733.303,520.508,575.195,999.512,544.922
1743150733.307,999.512,999.512,-86.426,999.512
1743150733.311,149.414,154.785,-1000.0,152.832
1743150733.315,-1000.0,-1000.0,-725.098,-1000.0
1743150733.318,-1000.0,-1000.0,486.328,-1000.0
1743150733.322,181.152,231.445,999.512,211.426
1743150733.326,999.512,999.512,-83.984,999.512
1743150733.33,161.621,140.625,-1000.0,169.922
1743150733.334,-1000.0,-1000.0,-721.68,-1000.0
1743150733.291,183.105,189.941,-1000.0,186.035
1743150733.295,-1000.0,-1000.0,-534.18,-1000.0
1743150733.299,-834.473,-792.969,750.0,-815.918
1743150733.303,520.508,575.195,999.512,544.922
1743150733.307,999.512,999.512,-86.426,999.512
1743150733.311,149.414,154.785,-1000.0,152.832
1743150733.315,-1000.0,-1000.0,-725.098,-1000.0
1743150733.318,-1000.0,-1000.0,486.328,-1000.0
1743150733.322,181.152,231.445,999.512,211.426
1743150733.326,999.512,999.512,-83.984,999.512
1743150733.33,161.621,140.625,-1000.0,169.922
1743150733.334,-1000.0,-1000.0,-721.68,-1000.0
1743150733.799,999.512,999.512,205.078,999.512
1743150733.803,165.039,175.781,-1000.0,162.598
1743150733.807,-1000.0,-1000.0,-630.859,-1000.0
1743150733.811,-957.031,-913.574,687.988,-968.262
1743150733.815,333.496,401.855,999.512,308.105
1743150733.819,999.512,999.512,333.984,999.512
1743150733.823,140.137,142.09,-1000.0,142.09
1743150733.826,-1000.0,-1000.0,-908.203,-1000.0
1743150733.83,-1000.0,-1000.0,371.094,-1000.0
1743150733.834,50.781,75.684,999.512,54.199
1743150733.838,999.512,999.512,360.84,999.512
1743150733.842,269.531,224.121,-942.871,252.93
1743150733.333,-1000.0,-1000.0,458.984,-1000.0
1743150733.337,-28.809,15.625,999.512,-14.16
1743150733.341,999.512,999.512,145.02,999.512
1743150733.345,350.586,316.406,-1000.0,349.121
1743150733.349,-941.895,-960.449,-685.547,-941.406
1743150733.353,-1000.0,-1000.0,494.629,-1000.0
1743150733.357,-190.43,-129.883,999.512,-180.664
1743150733.36,999.512,999.512,328.613,999.512
1743150733.364,500.488,385.742,-1000.0,505.371
1743150733.368,-875.0,-930.664,-829.59,-870.605
1743150733.372,-1000.0,-1000.0,463.379,-1000.0
1743150733.376,-223.145,-234.863,999.512,-223.145
1743150733.378,999.512,999.512,915.039,999.512
1743150733.382,781.25,745.117,-263.184,771.973
1743150733.386,-579.59,-627.93,-1000.0,-592.285
1743150733.39,-1000.0,-1000.0,167.969,-1000.0
1743150733.394,-187.988,-191.895,999.512,-188.477
1743150733.398,999.512,999.512,999.512,999.512
1743150733.402,970.215,951.66,73.242,968.75
1743150733.405,-258.301,-302.734,-1000.0,-264.16
1743150733.409,-1000.0,-1000.0,-141.113,-1000.0
1743150733.413,-314.453,-253.906,999.512,-299.316
1743150733.417,944.824,971.68,999.512,951.66
1743150733.421,999.512,999.512,154.297,999.512
1743150733.378,999.512,999.512,915.039,999.512
1743150733.382,781.25,745.117,-263.184,771.973
1743150733.386,-579.59,-627.93,-1000.0,-592.285
1743150733.39,-1000.0,-1000.0,167.969,-1000.0
1743150733.394,-187.988,-191.895,999.512,-188.477
1743150733.398,999.512,999.512,999.512,999.512
1743150733.402,970.215,951.66,73.242,968.75
1743150733.405,-258.301,-302.734,-1000.0,-264.16
1743150733.409,-1000.0,-1000.0,-141.113,-1000.0
1743150733.413,-314.453,-253.906,999.512,-299.316
1743150733.417,944.824,971.68,999.512,951.66
1743150733.421,999.512,999.512,154.297,999.512
1743150733.378,999.512,999.512,915.039,999.512
1743150733.382,781.25,745.117,-263.184,771.973
1743150733.386,-579.59,-627.93,-1000.0,-592.285
1743150733.39,-1000.0,-1000.0,167.969,-1000.0
1743150733.394,-187.988,-191.895,999.512,-188.477
1743150733.398,999.512,999.512,999.512,999.512
1743150733.402,970.215,951.66,73.242,968.75
1743150733.405,-258.301,-302.734,-1000.0,-264.16
1743150733.409,-1000.0,-1000.0,-141.113,-1000.0
1743150733.413,-314.453,-253.906,999.512,-299.316
1743150733.417,944.824,971.68,999.512,951.66
1743150733.421,999.512,999.512,154.297,999.512
1743150733.423,-36.621,-57.129,-1000.0,-38.574
1743150733.427,-1000.0,-1000.0,-243.652,-1000.0
1743150733.431,-464.355,-425.781,979.98,-461.914
1743150733.435,861.816,881.836,999.512,863.77
1743150733.439,999.512,999.512,201.172,999.512
1743150733.443,150.879,142.578,-1000.0,140.137
1743150733.447,-1000.0,-1000.0,-389.648,-1000.0
1743150733.45,-709.473,-638.184,907.227,-689.941
1743150733.454,669.434,744.141,999.512,686.523
1743150733.458,999.512,999.512,235.84,999.512
1743150733.462,165.039,174.316,-1000.0,167.969
1743150733.466,-1000.0,-1000.0,-650.391,-1000.0
1743150733.423,-36.621,-57.129,-1000.0,-38.574
1743150733.427,-1000.0,-1000.0,-243.652,-1000.0
1743150733.431,-464.355,-425.781,979.98,-461.914
1743150733.435,861.816,881.836,999.512,863.77
1743150733.439,999.512,999.512,201.172,999.512
1743150733.443,150.879,142.578,-1000.0,140.137
1743150733.447,-1000.0,-1000.0,-389.648,-1000.0
1743150733.45,-709.473,-638.184,907.227,-689.941
1743150733.454,669.434,744.141,999.512,686.523
1743150733.458,999.512,999.512,235.84,999.512
1743150733.462,165.039,174.316,-1000.0,167.969
1743150733.466,-1000.0,-1000.0,-650.391,-1000.0
1743150733.483,-948.73,-903.32,680.664,-937.5
1743150733.487,346.68,417.48,999.512,362.793
1743150733.491,999.512,999.512,252.441,999.512
1743150733.495,142.09,150.391,-1000.0,143.066
1743150733.499,-1000.0,-1000.0,-881.836,-1000.0
1743150733.503,-1000.0,-1000.0,412.109,-1000.0
1743150733.507,77.637,185.059,999.512,85.449
1743150733.51,999.512,999.512,294.922,999.512
1743150733.514,223.145,182.129,-1000.0,211.426
1743150733.518,-993.164,-1000.0,-1000.0,-998.535
1743150733.522,-1000.0,-1000.0,182.129,-1000.0
1743150733.526,-141.113,-99.121,999.512,-126.465
1743150733.483,-948.73,-903.32,680.664,-937.5
1743150733.487,346.68,417.48,999.512,362.793
1743150733.491,999.512,999.512,252.441,999.512
1743150733.495,142.09,150.391,-1000.0,143.066
1743150733.499,-1000.0,-1000.0,-881.836,-1000.0
1743150733.503,-1000.0,-1000.0,412.109,-1000.0
1743150733.507,77.637,185.059,999.512,85.449
1743150733.51,999.512,999.512,294.922,999.512
1743150733.514,223.145,182.129,-1000.0,211.426
1743150733.518,-993.164,-1000.0,-1000.0,-998.535
1743150733.522,-1000.0,-1000.0,182.129,-1000.0
1743150733.526,-141.113,-99.121,999.512,-126.465
1743150733.483,-948.73,-903.32,680.664,-937.5
1743150733.487,346.68,417.48,999.512,362.793
1743150733.491,999.512,999.512,252.441,999.512
1743150733.495,142.09,150.391,-1000.0,143.066
1743150733.499,-1000.0,-1000.0,-881.836,-1000.0
1743150733.503,-1000.0,-1000.0,412.109,-1000.0
1743150733.507,77.637,185.059,999.512,85.449
1743150733.51,999.512,999.512,294.922,999.512
1743150733.514,223.145,182.129,-1000.0,211.426
1743150733.518,-993.164,-1000.0,-1000.0,-998.535
1743150733.522,-1000.0,-1000.0,182.129,-1000.0
1743150733.526,-141.113,-99.121,999.512,-126.465
1743150733.528,999.512,999.512,350.586,999.512
1743150733.532,438.965,411.621,-939.941,420.41
1743150733.536,-904.297,-913.574,-1000.0,-912.109
1743150733.54,-1000.0,-1000.0,-13.184,-1000.0
1743150733.544,-235.84,-229.492,999.512,-239.258
1743150733.548,999.512,999.512,731.445,999.512
1743150733.552,685.547,655.762,-553.223,657.227
1743150733.555,-704.59,-735.352,-1000.0,-734.863
1743150733.559,-1000.0,-1000.0,-178.223,-1000.0
1743150733.563,-200.684,-206.055,999.512,-204.102
1743150733.567,999.512,999.512,885.742,999.512
1743150733.571,898.438,863.77,-360.352,881.836
1743150733.528,999.512,999.512,350.586,999.512
1743150733.532,438.965,411.621,-939.941,420.41
1743150733.536,-904.297,-913.574,-1000.0,-912.109
1743150733.54,-1000.0,-1000.0,-13.184,-1000.0
1743150733.544,-235.84,-229.492,999.512,-239.258
1743150733.548,999.512,999.512,731.445,999.512
1743150733.552,685.547,655.762,-553.223,657.227
1743150733.555,-704.59,-735.352,-1000.0,-734.863
1743150733.559,-1000.0,-1000.0,-178.223,-1000.0
1743150733.563,-200.684,-206.055,999.512,-204.102
1743150733.567,999.512,999.512,885.742,999.512
1743150733.571,898.438,863.77,-360.352,881.836
1743150733.528,999.512,999.512,350.586,999.512
1743150733.532,438.965,411.621,-939.941,420.41
1743150733.536,-904.297,-913.574,-1000.0,-912.109
1743150733.54,-1000.0,-1000.0,-13.184,-1000.0
1743150733.544,-235.84,-229.492,999.512,-239.258
1743150733.548,999.512,999.512,731.445,999.512
1743150733.552,685.547,655.762,-553.223,657.227
1743150733.555,-704.59,-735.352,-1000.0,-734.863
1743150733.559,-1000.0,-1000.0,-178.223,-1000.0
1743150733.563,-200.684,-206.055,999.512,-204.102
1743150733.567,999.512,999.512,885.742,999.512
1743150733.571,898.438,863.77,-360.352,881.836
1743150733.574,-398.438,-458.984,-1000.0,-425.781
1743150733.578,-1000.0,-1000.0,-166.504,-1000.0
1743150733.582,-222.656,-186.035,999.512,-222.168
1743150733.586,984.863,999.512,943.359,988.281
1743150733.59,999.512,999.512,-223.145,999.512
1743150733.594,-99.121,-120.117,-1000.0,-116.211
1743150733.598,-1000.0,-1000.0,-408.203,-1000.0
1743150733.601,-397.949,-354.492,990.723,-391.113
1743150733.605,900.391,925.293,761.719,903.809
1743150733.609,999.512,999.512,-568.359,999.512
1743150733.613,72.266,39.551,-1000.0,61.523
1743150733.617,-1000.0,-1000.0,-699.707,-1000.0
1743150733.574,-398.438,-458.984,-1000.0,-425.781
1743150733.578,-1000.0,-1000.0,-166.504,-1000.0
1743150733.582,-222.656,-186.035,999.512,-222.168
1743150733.586,984.863,999.512,943.359,988.281
1743150733.59,999.512,999.512,-223.145,999.512
1743150733.594,-99.121,-120.117,-1000.0,-116.211
1743150733.598,-1000.0,-1000.0,-408.203,-1000.0
1743150733.601,-397.949,-354.492,990.723,-391.113
1743150733.605,900.391,925.293,761.719,903.809
1743150733.609,999.512,999.512,-568.359,999.512
1743150733.613,72.266,39.551,-1000.0,61.523
1743150733.617,-1000.0,-1000.0,-699.707,-1000.0
1743150733.618,-593.75,-547.363,598.633,-591.309
1743150733.622,775.391,813.477,973.145,771.973
1743150733.626,999.512,999.512,-308.105,999.512
1743150733.63,183.105,190.43,-1000.0,184.082
1743150733.634,-1000.0,-1000.0,-697.754,-1000.0
1743150733.638,-833.008,-781.25,582.031,-827.637
1743150733.642,522.461,590.332,999.512,528.32
1743150733.645,999.512,999.512,-20.02,999.512
1743150733.649,146.973,153.32,-1000.0,148.438
1743150733.653,-1000.0,-1000.0,-612.793,-1000.0
1743150733.657,-1000.0,-1000.0,661.133,-1000.0
1743150733.661,148.438,209.961,999.512,156.738
1743150733.618,-593.75,-547.363,598.633,-591.309
1743150733.622,775.391,813.477,973.145,771.973
1743150733.626,999.512,999.512,-308.105,999.512
1743150733.63,183.105,190.43,-1000.0,184.082
1743150733.634,-1000.0,-1000.0,-697.754,-1000.0
1743150733.638,-833.008,-781.25,582.031,-827.637
1743150733.642,522.461,590.332,999.512,528.32
1743150733.645,999.512,999.512,-20.02,999.512
1743150733.649,146.973,153.32,-1000.0,148.438
1743150733.653,-1000.0,-1000.0,-612.793,-1000.0
1743150733.657,-1000.0,-1000.0,661.133,-1000.0
1743150733.661,148.438,209.961,999.512,156.738
1743150733.663,999.512,999.512,304.688,999.512
1743150733.667,136.719,138.672,-1000.0,143.066
1743150733.671,-1000.0,-1000.0,-821.777,-1000.0
1743150733.675,-1000.0,-1000.0,474.121,-1000.0
1743150733.679,-58.594,-15.137,999.512,-57.617
1743150733.683,999.512,999.512,432.617,999.512
1743150733.687,336.426,326.172,-876.465,315.43
1743150733.69,-945.801,-949.219,-1000.0,-957.031
1743150733.694,-1000.0,-1000.0,79.102,-1000.0
1743150733.698,-252.441,-219.727,999.512,-236.328
1743150733.702,999.512,999.512,560.059,999.512
1743150733.706,525.391,508.301,-783.203,510.742
1743150733.709,-869.141,-875.0,-1000.0,-875.977
1743150733.713,-1000.0,-1000.0,52.246,-1000.0
1743150733.717,-223.633,-227.051,999.512,-225.586
1743150733.721,999.512,999.512,822.266,999.512
1743150733.725,759.277,731.445,-433.594,747.07
1743150733.729,-608.398,-645.02,-1000.0,-625.0
1743150733.733,-1000.0,-1000.0,-65.43,-1000.0
1743150733.736,-191.406,-194.824,999.512,-192.383
1743150733.74,999.512,999.512,838.867,999.512
1743150733.744,950.195,933.105,-376.953,941.895
1743150733.748,-291.504,-333.984,-1000.0,-307.129
1743150733.752,-1000.0,-1000.0,-215.332,-1000.0
1743150733.709,-869.141,-875.0,-1000.0,-875.977
1743150733.713,-1000.0,-1000.0,52.246,-1000.0
1743150733.717,-223.633,-227.051,999.512,-225.586
1743150733.721,999.512,999.512,822.266,999.512
1743150733.725,759.277,731.445,-433.594,747.07
1743150733.729,-608.398,-645.02,-1000.0,-625.0
1743150733.733,-1000.0,-1000.0,-65.43,-1000.0
1743150733.736,-191.406,-194.824,999.512,-192.383
1743150733.74,999.512,999.512,838.867,999.512
1743150733.744,950.195,933.105,-376.953,941.895
1743150733.748,-291.504,-333.984,-1000.0,-307.129
1743150733.752,-1000.0,-1000.0,-215.332,-1000.0
1743150733.753,-345.703,-275.879,999.023,-336.914
1743150733.757,930.664,960.938,999.512,937.988
1743150733.761,999.512,999.512,-92.285,999.512
1743150733.765,-46.387,-56.152,-1000.0,-65.918
1743150733.769,-1000.0,-1000.0,-383.301,-1000.0
1743150733.773,-464.355,-409.18,914.551,-488.281
1743150733.777,865.234,896.484,999.512,851.074
1743150733.78,999.512,999.512,-1.465,999.512
1743150733.784,120.117,102.051,-1000.0,87.402
1743150733.788,-1000.0,-1000.0,-431.641,-1000.0
1743150733.792,-687.988,-580.566,855.469,-718.262
1743150733.796,686.035,791.504,999.512,640.137
1743150733.753,-345.703,-275.879,999.023,-336.914
1743150733.757,930.664,960.938,999.512,937.988
1743150733.761,999.512,999.512,-92.285,999.512
1743150733.765,-46.387,-56.152,-1000.0,-65.918
1743150733.769,-1000.0,-1000.0,-383.301,-1000.0
1743150733.773,-464.355,-409.18,914.551,-488.281
1743150733.777,865.234,896.484,999.512,851.074
1743150733.78,999.512,999.512,-1.465,999.512
1743150733.784,120.117,102.051,-1000.0,87.402
1743150733.788,-1000.0,-1000.0,-431.641,-1000.0
1743150733.792,-687.988,-580.566,855.469,-718.262
1743150733.796,686.035,791.504,999.512,640.137
1743150733.753,-345.703,-275.879,999.023,-336.914
1743150733.757,930.664,960.938,999.512,937.988
1743150733.761,999.512,999.512,-92.285,999.512
1743150733.765,-46.387,-56.152,-1000.0,-65.918
1743150733.769,-1000.0,-1000.0,-383.301,-1000.0
1743150733.773,-464.355,-409.18,914.551,-488.281
1743150733.777,865.234,896.484,999.512,851.074
1743150733.78,999.512,999.512,-1.465,999.512
1743150733.784,120.117,102.051,-1000.0,87.402
1743150733.788,-1000.0,-1000.0,-431.641,-1000.0
1743150733.792,-687.988,-580.566,855.469,-718.262
1743150733.796,686.035,791.504,999.512,640.137
1743150733.844,-979.004,-1000.0,-1000.0,-985.84
1743150733.848,-1000.0,-1000.0,113.281,-1000.0
1743150733.852,-117.188,-75.195,999.512,-112.793
1743150733.856,999.512,999.512,439.941,999.512
1743150733.86,454.102,401.367,-879.883,449.219
1743150733.864,-892.09,-915.527,-1000.0,-894.043
1743150733.868,-1000.0,-1000.0,3.418,-1000.0
1743150733.871,-232.91,-240.723,999.512,-226.562
1743150733.875,999.512,999.512,625.488,999.512
1743150733.879,703.613,641.113,-678.711,700.684
1743150733.883,-681.152,-753.418,-1000.0,-679.688
1743150733.887,-1000.0,-1000.0,-131.836,-1000.0
1743150733.844,-979.004,-1000.0,-1000.0,-985.84
1743150733.848,-1000.0,-1000.0,113.281,-1000.0
1743150733.852,-117.188,-75.195,999.512,-112.793
1743150733.856,999.512,999.512,439.941,999.512
1743150733.86,454.102,401.367,-879.883,449.219
1743150733.864,-892.09,-915.527,-1000.0,-894.043
1743150733.868,-1000.0,-1000.0,3.418,-1000.0
1743150733.871,-232.91,-240.723,999.512,-226.562
1743150733.875,999.512,999.512,625.488,999.512
1743150733.879,703.613,641.113,-678.711,700.684
1743150733.883,-681.152,-753.418,-1000.0,-679.688
1743150733.887,-1000.0,-1000.0,-131.836,-1000.0
1743150733.844,-979.004,-1000.0,-1000.0,-985.84
1743150733.848,-1000.0,-1000.0,113.281,-1000.0
1743150733.852,-117.188,-75.195,999.512,-112.793
1743150733.856,999.512,999.512,439.941,999.512
1743150733.86,454.102,401.367,-879.883,449.219
1743150733.864,-892.09,-915.527,-1000.0,-894.043
1743150733.868,-1000.0,-1000.0,3.418,-1000.0
1743150733.871,-232.91,-240.723,999.512,-226.562
1743150733.875,999.512,999.512,625.488,999.512
1743150733.879,703.613,641.113,-678.711,700.684
1743150733.883,-681.152,-753.418,-1000.0,-679.688
1743150733.887,-1000.0,-1000.0,-131.836,-1000.0
1743150733.903,-196.289,-204.59,999.512,-195.801
1743150733.907,999.512,999.512,897.949,999.512
1743150733.911,933.105,883.789,-314.941,933.594
1743150733.915,-348.633,-429.688,-1000.0,-343.262
1743150733.919,-1000.0,-1000.0,-258.789,-1000.0
1743150733.923,-174.805,-178.223,999.512,-175.293
1743150733.927,999.512,999.512,684.082,999.512
1743150733.93,999.512,999.512,-613.77,999.512
1743150733.934,-84.473,-140.137,-1000.0,-85.449
1743150733.938,-1000.0,-1000.0,-441.406,-1000.0
1743150733.942,-359.375,-349.609,850.586,-338.867
1743150733.946,916.504,922.852,999.512,925.293
1743150733.903,-196.289,-204.59,999.512,-195.801
1743150733.907,999.512,999.512,897.949,999.512
1743150733.911,933.105,883.789,-314.941,933.594
1743150733.915,-348.633,-429.688,-1000.0,-343.262
1743150733.919,-1000.0,-1000.0,-258.789,-1000.0
1743150733.923,-174.805,-178.223,999.512,-175.293
1743150733.927,999.512,999.512,684.082,999.512
1743150733.93,999.512,999.512,-613.77,999.512
1743150733.934,-84.473,-140.137,-1000.0,-85.449
1743150733.938,-1000.0,-1000.0,-441.406,-1000.0
1743150733.942,-359.375,-349.609,850.586,-338.867
1743150733.946,916.504,922.852,999.512,925.293
1743150733.949,999.512,999.512,-92.773,999.512
1743150733.953,112.305,59.57,-1000.0,124.023
1743150733.957,-1000.0,-1000.0,-416.992,-1000.0
1743150733.961,-544.434,-524.902,907.715,-526.367
1743150733.965,827.148,832.031,999.512,840.82
1743150733.969,999.512,999.512,-43.945,999.512
1743150733.973,186.523,187.5,-1000.0,191.406
1743150733.976,-1000.0,-1000.0,-616.699,-1000.0
1743150733.98,-829.102,-833.496,670.898,-796.875
1743150733.984,527.832,522.461,999.512,569.824
1743150733.988,999.512,999.512,193.359,999.512
1743150733.992,152.344,155.273,-1000.0,157.227
1743150733.949,999.512,999.512,-92.773,999.512
1743150733.953,112.305,59.57,-1000.0,124.023
1743150733.957,-1000.0,-1000.0,-416.992,-1000.0
1743150733.961,-544.434,-524.902,907.715,-526.367
1743150733.965,827.148,832.031,999.512,840.82
1743150733.969,999.512,999.512,-43.945,999.512
1743150733.973,186.523,187.5,-1000.0,191.406
1743150733.976,-1000.0,-1000.0,-616.699,-1000.0
1743150733.98,-829.102,-833.496,670.898,-796.875
1743150733.984,527.832,522.461,999.512,569.824
1743150733.988,999.512,999.512,193.359,999.512
1743150733.992,152.344,155.273,-1000.0,157.227
1743150733.949,999.512,999.512,-92.773,999.512
1743150733.953,112.305,59.57,-1000.0,124.023
1743150733.957,-1000.0,-1000.0,-416.992,-1000.0
1743150733.961,-544.434,-524.902,907.715,-526.367
1743150733.965,827.148,832.031,999.512,840.82
1743150733.969,999.512,999.512,-43.945,999.512
1743150733.973,186.523,187.5,-1000.0,191.406
1743150733.976,-1000.0,-1000.0,-616.699,-1000.0
1743150733.98,-829.102,-833.496,670.898,-796.875
1743150733.984,527.832,522.461,999.512,569.824
1743150733.988,999.512,999.512,193.359,999.512
1743150733.992,152.344,155.273,-1000.0,157.227
1743150734.008,-1000.0,-1000.0,-930.664,-1000.0
1743150734.012,-1000.0,-1000.0,317.871,-990.723
1743150734.016,214.844,247.559,999.512,259.766
1743150734.02,999.512,999.512,124.023,999.512
1743150734.024,202.148,148.438,-1000.0,202.148
1743150734.028,-1000.0,-1000.0,-878.418,-1000.0
1743150734.032,-1000.0,-1000.0,311.523,-1000.0
1743150734.035,-14.16,22.949,999.512,6.836
1743150734.039,999.512,999.512,377.93,999.512
1743150734.043,326.66,265.137,-939.941,341.309
1743150734.047,-948.73,-974.121,-1000.0,-941.895
1743150734.051,-1000.0,-1000.0,96.191,-1000.0
1743150734.008,-1000.0,-1000.0,-930.664,-1000.0
1743150734.012,-1000.0,-1000.0,317.871,-990.723
1743150734.016,214.844,247.559,999.512,259.766
1743150734.02,999.512,999.512,124.023,999.512
1743150734.024,202.148,148.438,-1000.0,202.148
1743150734.028,-1000.0,-1000.0,-878.418,-1000.0
1743150734.032,-1000.0,-1000.0,311.523,-1000.0
1743150734.035,-14.16,22.949,999.512,6.836
1743150734.039,999.512,999.512,377.93,999.512
1743150734.043,326.66,265.137,-939.941,341.309
1743150734.047,-948.73,-974.121,-1000.0,-941.895
1743150734.051,-1000.0,-1000.0,96.191,-1000.0
1743150734.038,-223.145,-198.242,999.512,-194.824
1743150734.042,999.512,999.512,661.621,999.512
1743150734.046,542.48,511.719,-633.789,548.828
1743150734.05,-853.516,-868.652,-1000.0,-834.473
1743150734.054,-1000.0,-1000.0,-97.656,-1000.0
1743150734.058,-219.238,-225.098,999.512,-220.215
1743150734.062,999.512,999.512,797.363,999.512
1743150734.065,792.48,750.0,-494.629,778.32
1743150734.069,-564.941,-621.094,-1000.0,-583.984
1743150734.073,-1000.0,-1000.0,-168.945,-1000.0
1743150734.077,-183.594,-189.453,999.512,-185.547
1743150734.081,999.512,999.512,689.941,999.512
1743150734.038,-223.145,-198.242,999.512,-194.824
1743150734.042,999.512,999.512,661.621,999.512
1743150734.046,542.48,511.719,-633.789,548.828
1743150734.05,-853.516,-868.652,-1000.0,-834.473
1743150734.054,-1000.0,-1000.0,-97.656,-1000.0
1743150734.058,-219.238,-225.098,999.512,-220.215
1743150734.062,999.512,999.512,797.363,999.512
1743150734.065,792.48,750.0,-494.629,778.32
1743150734.069,-564.941,-621.094,-1000.0,-583.984
1743150734.073,-1000.0,-1000.0,-168.945,-1000.0
1743150734.077,-183.594,-189.453,999.512,-185.547
1743150734.081,999.512,999.512,689.941,999.512
1743150734.083,999.512,966.797,-622.559,987.305
1743150734.087,-206.543,-273.438,-1000.0,-231.445
1743150734.091,-1000.0,-1000.0,-703.613,-1000.0
1743150734.095,-277.832,-253.418,646.973,-274.414
1743150734.099,950.684,963.379,592.285,953.613
1743150734.103,999.512,999.512,-779.297,999.512
1743150734.107,50.293,10.254,-1000.0,29.297
1743150734.11,-1000.0,-1000.0,-517.09,-1000.0
1743150734.114,-488.77,-495.605,782.227,-472.168
1743150734.118,854.004,849.609,999.512,862.305
1743150734.122,999.512,999.512,-141.602,999.512
1743150734.126,191.895,148.438,-1000.0,177.246
1743150734.129,-1000.0,-1000.0,-397.461,-1000.0
1743150734.133,-655.762,-543.457,877.93,-650.879
1743150734.137,737.305,835.449,999.512,739.258
1743150734.141,999.512,999.512,142.578,999.512
1743150734.145,169.434,178.711,-1000.0,171.875
1743150734.149,-1000.0,-1000.0,-626.465,-1000.0
1743150734.153,-937.012,-909.18,710.449,-916.504
1743150734.156,364.258,408.203,999.512,396.973
1743150734.16,999.512,999.512,81.543,999.512
1743150734.164,141.602,144.043,-1000.0,143.555
1743150734.168,-1000.0,-1000.0,-807.617,-1000.0
1743150734.172,-1000.0,-1000.0,448.242,-1000.0
1743150734.129,-1000.0,-1000.0,-397.461,-1000.0
1743150734.133,-655.762,-543.457,877.93,-650.879
1743150734.137,737.305,835.449,999.512,739.258
1743150734.141,999.512,999.512,142.578,999.512
1743150734.145,169.434,178.711,-1000.0,171.875
1743150734.149,-1000.0,-1000.0,-626.465,-1000.0
1743150734.153,-937.012,-909.18,710.449,-916.504
1743150734.156,364.258,408.203,999.512,396.973
1743150734.16,999.512,999.512,81.543,999.512
1743150734.164,141.602,144.043,-1000.0,143.555
1743150734.168,-1000.0,-1000.0,-807.617,-1000.0
1743150734.172,-1000.0,-1000.0,448.242,-1000.0
1743150734.129,-1000.0,-1000.0,-397.461,-1000.0
1743150734.133,-655.762,-543.457,877.93,-650.879
1743150734.137,737.305,835.449,999.512,739.258
1743150734.141,999.512,999.512,142.578,999.512
1743150734.145,169.434,178.711,-1000.0,171.875
1743150734.149,-1000.0,-1000.0,-626.465,-1000.0
1743150734.153,-937.012,-909.18,710.449,-916.504
1743150734.156,364.258,408.203,999.512,396.973
1743150734.16,999.512,999.512,81.543,999.512
1743150734.164,141.602,144.043,-1000.0,143.555
1743150734.168,-1000.0,-1000.0,-807.617,-1000.0
1743150734.172,-1000.0,-1000.0,448.242,-1000.0
1743150734.173,72.266,98.633,999.512,89.355
1743150734.177,999.512,999.512,166.016,999.512
1743150734.181,305.176,248.047,-1000.0,296.387
1743150734.185,-966.797,-993.652,-963.379,-970.215
1743150734.189,-1000.0,-1000.0,182.617,-1000.0
1743150734.193,-76.66,-41.504,999.512,-68.848
1743150734.197,999.512,999.512,242.676,999.512
1743150734.2,473.145,407.227,-1000.0,471.68
1743150734.204,-874.023,-908.203,-1000.0,-874.512
1743150734.208,-1000.0,-1000.0,14.648,-1000.0
1743150734.212,-230.957,-242.188,999.512,-222.656
1743150734.216,999.512,999.512,314.453,999.512
1743150734.173,72.266,98.633,999.512,89.355
1743150734.177,999.512,999.512,166.016,999.512
1743150734.181,305.176,248.047,-1000.0,296.387
1743150734.185,-966.797,-993.652,-963.379,-970.215
1743150734.189,-1000.0,-1000.0,182.617,-1000.0
1743150734.193,-76.66,-41.504,999.512,-68.848
1743150734.197,999.512,999.512,242.676,999.512
1743150734.2,473.145,407.227,-1000.0,471.68
1743150734.204,-874.023,-908.203,-1000.0,-874.512
1743150734.208,-1000.0,-1000.0,14.648,-1000.0
1743150734.212,-230.957,-242.188,999.512,-222.656
1743150734.216,999.512,999.512,314.453,999.512
1743150734.234,704.59,613.281,-966.309,710.938
1743150734.238,-679.688,-783.691,-1000.0,-666.992
1743150734.242,-1000.0,-1000.0,-73.242,-1000.0
1743150734.246,-189.941,-200.684,999.512,-191.895
1743150734.25,999.512,999.512,404.785,999.512
1743150734.254,974.121,919.922,-898.438,958.496
1743150734.258,-263.672,-359.863,-1000.0,-293.945
1743150734.261,-1000.0,-1000.0,-42.48,-1000.0
1743150734.265,-227.051,-235.84,999.512,-210.938
1743150734.269,986.328,987.305,862.793,992.188
1743150734.273,999.512,999.512,-310.547,999.512
1743150734.277,-84.473,-125.977,-1000.0,-85.938
1743150734.234,704.59,613.281,-966.309,710.938
1743150734.238,-679.688,-783.691,-1000.0,-666.992
1743150734.242,-1000.0,-1000.0,-73.242,-1000.0
1743150734.246,-189.941,-200.684,999.512,-191.895
1743150734.25,999.512,999.512,404.785,999.512
1743150734.254,974.121,919.922,-898.438,958.496
1743150734.258,-263.672,-359.863,-1000.0,-293.945
1743150734.261,-1000.0,-1000.0,-42.48,-1000.0
1743150734.265,-227.051,-235.84,999.512,-210.938
1743150734.269,986.328,987.305,862.793,992.188
1743150734.273,999.512,999.512,-310.547,999.512
1743150734.277,-84.473,-125.977,-1000.0,-85.938
1743150734.278,-1000.0,-1000.0,-191.895,-1000.0
1743150734.282,-381.348,-350.586,982.422,-374.023
1743150734.286,907.715,922.852,999.512,912.598
1743150734.29,999.512,999.512,11.23,999.512
1743150734.294,96.68,69.336,-1000.0,81.543
1743150734.298,-1000.0,-1000.0,-200.684,-1000.0
1743150734.302,-563.965,-520.02,976.074,-566.895
1743150734.305,812.5,836.914,999.512,799.805
1743150734.309,999.512,999.512,215.332,999.512
1743150734.313,176.758,182.617,-1000.0,178.711
1743150734.317,-1000.0,-1000.0,-458.496,-1000.0
1743150734.321,-903.32,-843.262,853.027,-883.789
1743150734.278,-1000.0,-1000.0,-191.895,-1000.0
1743150734.282,-381.348,-350.586,982.422,-374.023
1743150734.286,907.715,922.852,999.512,912.598
1743150734.29,999.512,999.512,11.23,999.512
1743150734.294,96.68,69.336,-1000.0,81.543
1743150734.298,-1000.0,-1000.0,-200.684,-1000.0
1743150734.302,-563.965,-520.02,976.074,-566.895
1743150734.305,812.5,836.914,999.512,799.805
1743150734.309,999.512,999.512,215.332,999.512
1743150734.313,176.758,182.617,-1000.0,178.711
1743150734.317,-1000.0,-1000.0,-458.496,-1000.0
1743150734.321,-903.32,-843.262,853.027,-883.789
1743150734.323,416.992,505.859,999.512,444.824
1743150734.327,999.512,999.512,284.668,999.512
1743150734.331,145.996,154.297,-1000.0,147.461
1743150734.335,-1000.0,-1000.0,-660.645,-1000.0
1743150734.339,-1000.0,-1000.0,666.992,-1000.0
1743150734.343,139.16,232.422,999.512,151.367
1743150734.347,999.512,999.512,278.809,999.512
1743150734.35,135.742,137.695,-1000.0,143.555
1743150734.354,-1000.0,-1000.0,-930.664,-1000.0
1743150734.358,-1000.0,-1000.0,311.523,-1000.0
1743150734.362,-87.891,-25.879,999.512,-78.613
1743150734.366,999.512,999.512,381.348,999.512
1743150734.323,416.992,505.859,999.512,444.824
1743150734.327,999.512,999.512,284.668,999.512
1743150734.331,145.996,154.297,-1000.0,147.461
1743150734.335,-1000.0,-1000.0,-660.645,-1000.0
1743150734.339,-1000.0,-1000.0,666.992,-1000.0
1743150734.343,139.16,232.422,999.512,151.367
1743150734.347,999.512,999.512,278.809,999.512
1743150734.35,135.742,137.695,-1000.0,143.555
1743150734.354,-1000.0,-1000.0,-930.664,-1000.0
1743150734.358,-1000.0,-1000.0,311.523,-1000.0
1743150734.362,-87.891,-25.879,999.512,-78.613
1743150734.366,999.512,999.512,381.348,999.512
1743150734.323,416.992,505.859,999.512,444.824
1743150734.327,999.512,999.512,284.668,999.512
1743150734.331,145.996,154.297,-1000.0,147.461
1743150734.335,-1000.0,-1000.0,-660.645,-1000.0
1743150734.339,-1000.0,-1000.0,666.992,-1000.0
1743150734.343,139.16,232.422,999.512,151.367
1743150734.347,999.512,999.512,278.809,999.512
1743150734.35,135.742,137.695,-1000.0,143.555
1743150734.354,-1000.0,-1000.0,-930.664,-1000.0
1743150734.358,-1000.0,-1000.0,311.523,-1000.0
1743150734.362,-87.891,-25.879,999.512,-78.613
1743150734.366,999.512,999.512,381.348,999.512
1743150734.368,341.797,324.219,-953.613,322.266
1743150734.372,-947.266,-952.637,-1000.0,-957.031
1743150734.376,-1000.0,-1000.0,194.824,-1000.0
1743150734.38,-252.441,-207.031,999.512,-235.352
1743150734.384,999.512,999.512,529.297,999.512
1743150734.388,549.316,568.848,-781.738,541.016
1743150734.392,-853.027,-822.266,-1000.0,-850.098
1743150734.395,-1000.0,-1000.0,-2.441,-1000.0
1743150734.399,-218.75,-218.75,999.512,-221.191
1743150734.403,999.512,999.512,694.824,999.512
1743150734.407,794.922,779.297,-587.891,774.414
1743150734.411,-562.012,-583.008,-1000.0,-589.355
1743150734.368,341.797,324.219,-953.613,322.266
1743150734.372,-947.266,-952.637,-1000.0,-957.031
1743150734.376,-1000.0,-1000.0,194.824,-1000.0
1743150734.38,-252.441,-207.031,999.512,-235.352
1743150734.384,999.512,999.512,529.297,999.512
1743150734.388,549.316,568.848,-781.738,541.016
1743150734.392,-853.027,-822.266,-1000.0,-850.098
1743150734.395,-1000.0,-1000.0,-2.441,-1000.0
1743150734.399,-218.75,-218.75,999.512,-221.191
1743150734.403,999.512,999.512,694.824,999.512
1743150734.407,794.922,779.297,-587.891,774.414
1743150734.411,-562.012,-583.008,-1000.0,-589.355
1743150734.414,-1000.0,-1000.0,-131.348,-1000.0
1743150734.418,-183.105,-185.059,999.512,-185.059
1743150734.422,999.512,999.512,797.363,999.512
1743150734.426,999.512,992.188,-460.938,987.793
1743150734.43,-196.289,-227.539,-1000.0,-226.562
1743150734.434,-1000.0,-1000.0,-154.297,-1000.0
1743150734.438,-316.895,-245.117,999.512,-311.035
1743150734.441,939.941,971.191,932.617,943.848
1743150734.445,999.512,999.512,-203.613,999.512
1743150734.449,6.836,-9.766,-1000.0,-9.277
1743150734.453,-1000.0,-1000.0,-298.34,-1000.0
1743150734.457,-504.883,-457.52,973.633,-494.141
1743150734.414,-1000.0,-1000.0,-131.348,-1000.0
1743150734.418,-183.105,-185.059,999.512,-185.059
1743150734.422,999.512,999.512,797.363,999.512
1743150734.426,999.512,992.188,-460.938,987.793
1743150734.43,-196.289,-227.539,-1000.0,-226.562
1743150734.434,-1000.0,-1000.0,-154.297,-1000.0
1743150734.438,-316.895,-245.117,999.512,-311.035
1743150734.441,939.941,971.191,932.617,943.848
1743150734.445,999.512,999.512,-203.613,999.512
1743150734.449,6.836,-9.766,-1000.0,-9.277
1743150734.453,-1000.0,-1000.0,-298.34,-1000.0
1743150734.457,-504.883,-457.52,973.633,-494.141
1743150734.458,837.402,865.234,999.512,843.75
1743150734.462,999.512,999.512,-82.031,999.512
1743150734.466,188.965,181.641,-1000.0,172.852
1743150734.47,-1000.0,-1000.0,-479.004,-1000.0
1743150734.474,-718.75,-680.664,864.746,-711.426
1743150734.478,669.434,708.008,999.512,669.434
1743150734.482,999.512,999.512,-139.648,999.512
1743150734.485,165.039,167.969,-1000.0,167.969
1743150734.489,-1000.0,-1000.0,-967.285,-1000.0
1743150734.493,-949.707,-941.406,59.57,-932.617
1743150734.497,345.215,358.398,969.727,371.094
1743150734.501,999.512,999.512,-204.59,999.512
1743150734.52,142.09,143.066,-1000.0,148.438
1743150734.524,-1000.0,-1000.0,-702.148,-1000.0
1743150734.528,-1000.0,-1000.0,512.695,-1000.0
1743150734.532,75.195,84.473,999.512,107.422
1743150734.536,999.512,999.512,183.594,999.512
1743150734.54,366.211,335.449,-1000.0,348.633
1743150734.544,-933.105,-946.777,-817.871,-943.359
1743150734.547,-1000.0,-1000.0,408.691,-1000.0
1743150734.551,-99.609,-108.887,999.512,-67.383
1743150734.555,999.512,999.512,320.801,999.512
1743150734.559,519.531,490.234,-972.656,525.879
1743150734.563,-848.633,-868.652,-1000.0,-833.984
1743150734.52,142.09,143.066,-1000.0,148.438
1743150734.524,-1000.0,-1000.0,-702.148,-1000.0
1743150734.528,-1000.0,-1000.0,512.695,-1000.0
1743150734.532,75.195,84.473,999.512,107.422
1743150734.536,999.512,999.512,183.594,999.512
1743150734.54,366.211,335.449,-1000.0,348.633
1743150734.544,-933.105,-946.777,-817.871,-943.359
1743150734.547,-1000.0,-1000.0,408.691,-1000.0
1743150734.551,-99.609,-108.887,999.512,-67.383
1743150734.555,999.512,999.512,320.801,999.512
1743150734.559,519.531,490.234,-972.656,525.879
1743150734.563,-848.633,-868.652,-1000.0,-833.984
1743150734.52,142.09,143.066,-1000.0,148.438
1743150734.524,-1000.0,-1000.0,-702.148,-1000.0
1743150734.528,-1000.0,-1000.0,512.695,-1000.0
1743150734.532,75.195,84.473,999.512,107.422
1743150734.536,999.512,999.512,183.594,999.512
1743150734.54,366.211,335.449,-1000.0,348.633
1743150734.544,-933.105,-946.777,-817.871,-943.359
1743150734.547,-1000.0,-1000.0,408.691,-1000.0
1743150734.551,-99.609,-108.887,999.512,-67.383
1743150734.555,999.512,999.512,320.801,999.512
1743150734.559,519.531,490.234,-972.656,525.879
1743150734.563,-848.633,-868.652,-1000.0,-833.984
1743150734.548,-1000.0,-1000.0,97.656,-1000.0
1743150734.552,-227.051,-233.398,999.512,-204.102
1743150734.556,999.512,999.512,610.84,999.512
1743150734.56,733.887,690.918,-743.652,714.844
1743150734.564,-655.762,-716.309,-1000.0,-675.781
1743150734.568,-1000.0,-1000.0,125.488,-1000.0
1743150734.572,-199.219,-210.449,999.512,-195.312
1743150734.575,999.512,999.512,437.012,999.512
1743150734.579,889.648,535.156,-852.539,905.273
1743150734.583,-415.039,-839.355,-1000.0,-389.16
1743150734.587,-1000.0,-1000.0,-125.488,-1000.0
1743150734.591,-200.195,-225.586,999.512,-193.359
1743150734.548,-1000.0,-1000.0,97.656,-1000.0
1743150734.552,-227.051,-233.398,999.512,-204.102
1743150734.556,999.512,999.512,610.84,999.512
1743150734.56,733.887,690.918,-743.652,714.844
1743150734.564,-655.762,-716.309,-1000.0,-675.781
1743150734.568,-1000.0,-1000.0,125.488,-1000.0
1743150734.572,-199.219,-210.449,999.512,-195.312
1743150734.575,999.512,999.512,437.012,999.512
1743150734.579,889.648,535.156,-852.539,905.273
1743150734.583,-415.039,-839.355,-1000.0,-389.16
1743150734.587,-1000.0,-1000.0,-125.488,-1000.0
1743150734.591,-200.195,-225.586,999.512,-193.359
1743150734.593,979.004,977.539,741.699,985.352
1743150734.597,999.512,999.512,-495.117,999.512
1743150734.601,-14.16,-70.801,-1000.0,-28.32
1743150734.605,-1000.0,-1000.0,-245.117,-1000.0
1743150734.609,-365.723,-357.91,971.191,-336.914
1743150734.613,918.457,922.363,999.512,930.176
1743150734.617,999.512,999.512,-67.871,999.512
1743150734.62,138.184,87.402,-1000.0,137.207
1743150734.624,-1000.0,-1000.0,-429.199,-1000.0
1743150734.628,-592.285,-590.82,886.23,-578.125
1743150734.632,790.527,781.25,999.512,798.34
1743150734.636,999.512,999.512,-99.609,999.512
1743150734.593,979.004,977.539,741.699,985.352
1743150734.597,999.512,999.512,-495.117,999.512
1743150734.601,-14.16,-70.801,-1000.0,-28.32
1743150734.605,-1000.0,-1000.0,-245.117,-1000.0
1743150734.609,-365.723,-357.91,971.191,-336.914
1743150734.613,918.457,922.363,999.512,930.176
1743150734.617,999.512,999.512,-67.871,999.512
1743150734.62,138.184,87.402,-1000.0,137.207
1743150734.624,-1000.0,-1000.0,-429.199,-1000.0
1743150734.628,-592.285,-590.82,886.23,-578.125
1743150734.632,790.527,781.25,999.512,798.34
1743150734.636,999.512,999.512,-99.609,999.512
1743150734.593,979.004,977.539,741.699,985.352
1743150734.597,999.512,999.512,-495.117,999.512
1743150734.601,-14.16,-70.801,-1000.0,-28.32
1743150734.605,-1000.0,-1000.0,-245.117,-1000.0
1743150734.609,-365.723,-357.91,971.191,-336.914
1743150734.613,918.457,922.363,999.512,930.176
1743150734.617,999.512,999.512,-67.871,999.512
1743150734.62,138.184,87.402,-1000.0,137.207
1743150734.624,-1000.0,-1000.0,-429.199,-1000.0
1743150734.628,-592.285,-590.82,886.23,-578.125
1743150734.632,790.527,781.25,999.512,798.34
1743150734.636,999.512,999.512,-99.609,999.512
1743150734.653,179.688,181.152,-1000.0,183.105
1743150734.657,-1000.0,-1000.0,-526.855,-1000.0
1743150734.661,-867.188,-854.004,787.109,-848.145
1743150734.665,472.656,491.211,999.512,497.07
1743150734.669,999.512,999.512,-21.973,999.512
1743150734.673,144.531,145.508,-1000.0,147.949
1743150734.677,-1000.0,-1000.0,-674.316,-1000.0
1743150734.68,-1000.0,-1000.0,581.543,-1000.0
1743150734.684,116.699,120.117,999.512,149.902
1743150734.688,999.512,999.512,88.379,999.512
1743150734.692,216.309,188.477,-1000.0,202.637
1743150734.696,-1000.0,-1000.0,-769.531,-1000.0
1743150734.653,179.688,181.152,-1000.0,183.105
1743150734.657,-1000.0,-1000.0,-526.855,-1000.0
1743150734.661,-867.188,-854.004,787.109,-848.145
1743150734.665,472.656,491.211,999.512,497.07
1743150734.669,999.512,999.512,-21.973,999.512
1743150734.673,144.531,145.508,-1000.0,147.949
1743150734.677,-1000.0,-1000.0,-674.316,-1000.0
1743150734.68,-1000.0,-1000.0,581.543,-1000.0
1743150734.684,116.699,120.117,999.512,149.902
1743150734.688,999.512,999.512,88.379,999.512
1743150734.692,216.309,188.477,-1000.0,202.637
1743150734.696,-1000.0,-1000.0,-769.531,-1000.0
1743150734.699,-1000.0,-1000.0,431.152,-1000.0
1743150734.703,-72.266,-54.199,999.512,-59.57
1743150734.707,999.512,999.512,301.758,999.512
1743150734.711,409.668,392.09,-1000.0,396.484
1743150734.715,-918.457,-944.824,-844.727,-923.828
1743150734.719,-1000.0,-1000.0,429.199,-1000.0
1743150734.723,-172.852,-40.527,999.512,-176.758
1743150734.726,999.512,999.512,354.98,999.512
1743150734.73,550.293,464.844,-960.938,562.988
1743150734.734,-834.961,-874.512,-966.309,-817.871
1743150734.738,-1000.0,-1000.0,172.363,-1000.0
1743150734.742,-210.449,-219.727,999.512,-211.914
1743150734.699,-1000.0,-1000.0,431.152,-1000.0
1743150734.703,-72.266,-54.199,999.512,-59.57
1743150734.707,999.512,999.512,301.758,999.512
1743150734.711,409.668,392.09,-1000.0,396.484
1743150734.715,-918.457,-944.824,-844.727,-923.828
1743150734.719,-1000.0,-1000.0,429.199,-1000.0
1743150734.723,-172.852,-40.527,999.512,-176.758
1743150734.726,999.512,999.512,354.98,999.512
1743150734.73,550.293,464.844,-960.938,562.988
1743150734.734,-834.961,-874.512,-966.309,-817.871
1743150734.738,-1000.0,-1000.0,172.363,-1000.0
1743150734.742,-210.449,-219.727,999.512,-211.914
1743150734.743,999.512,999.512,350.586,999.512
1743150734.747,866.211,827.148,-944.824,848.633
1743150734.751,-455.566,-514.648,-1000.0,-481.445
1743150734.755,-1000.0,-1000.0,-11.719,-1000.0
1743150734.759,-177.734,-179.199,999.512,-179.688
1743150734.763,999.512,999.512,677.246,999.512
