timestamps,TP9,AF7,AF8,TP10
1743153671.434,-211.914,-10.254,-78.613,-85.938
1743153671.438,999.512,-25.391,-98.145,825.195
1743153671.442,-403.809,-70.801,-94.727,-652.832
1743153671.434,-211.914,-10.254,-78.613,-85.938
1743153671.438,999.512,-25.391,-98.145,825.195
1743153671.442,-403.809,-70.801,-94.727,-652.832
1743153671.434,-211.914,-10.254,-78.613,-85.938
1743153671.438,999.512,-25.391,-98.145,825.195
1743153671.442,-403.809,-70.801,-94.727,-652.832
1743153671.444,-1000.0,-63.477,-98.145,-1000.0
1743153671.448,-1000.0,-34.18,-85.938,-976.562
1743153671.452,0.488,-31.25,-93.75,126.465
1743153671.456,999.512,-70.312,-88.379,999.512
1743153671.46,206.055,-93.75,-54.199,57.129
1743153671.464,-1000.0,-73.242,-69.336,-1000.0
1743153671.468,-362.305,-18.555,-67.871,-313.965
1743153671.471,941.406,0.977,-52.734,947.754
1743153671.475,999.512,-60.059,-118.164,999.512
1743153671.479,209.473,-109.863,-135.254,173.34
1743153671.483,-1000.0,-94.727,-56.641,-1000.0
1743153671.487,-204.102,-37.109,8.301,-195.312
1743153671.444,-1000.0,-63.477,-98.145,-1000.0
1743153671.448,-1000.0,-34.18,-85.938,-976.562
1743153671.452,0.488,-31.25,-93.75,126.465
1743153671.456,999.512,-70.312,-88.379,999.512
1743153671.46,206.055,-93.75,-54.199,57.129
1743153671.464,-1000.0,-73.242,-69.336,-1000.0
1743153671.468,-362.305,-18.555,-67.871,-313.965
1743153671.471,941.406,0.977,-52.734,947.754
1743153671.475,999.512,-60.059,-118.164,999.512
1743153671.479,209.473,-109.863,-135.254,173.34
1743153671.483,-1000.0,-94.727,-56.641,-1000.0
1743153671.487,-204.102,-37.109,8.301,-195.312
1743153671.489,999.512,-18.555,31.25,999.512
1743153671.493,876.465,-30.762,19.531,895.02
1743153671.497,999.512,-30.273,-1.953,999.512
1743153671.501,-8.789,-56.641,-23.438,-109.375
1743153671.505,-497.07,-46.875,-64.453,-406.25
1743153671.509,989.258,-21.973,-88.379,999.512
1743153671.513,999.512,-58.105,-56.641,980.957
1743153671.516,918.457,-63.477,-29.785,929.199
1743153671.52,978.027,-65.43,-22.461,976.074
1743153671.524,966.309,-61.035,-21.973,967.285
1743153671.528,966.309,-41.016,7.812,967.285
1743153671.532,966.309,-36.133,20.996,966.797
1743153671.489,999.512,-18.555,31.25,999.512
1743153671.493,876.465,-30.762,19.531,895.02
1743153671.497,999.512,-30.273,-1.953,999.512
1743153671.501,-8.789,-56.641,-23.438,-109.375
1743153671.505,-497.07,-46.875,-64.453,-406.25
1743153671.509,989.258,-21.973,-88.379,999.512
1743153671.513,999.512,-58.105,-56.641,980.957
1743153671.516,918.457,-63.477,-29.785,929.199
1743153671.52,978.027,-65.43,-22.461,976.074
1743153671.524,966.309,-61.035,-21.973,967.285
1743153671.528,966.309,-41.016,7.812,967.285
1743153671.532,966.309,-36.133,20.996,966.797
1743153671.489,999.512,-18.555,31.25,999.512
1743153671.493,876.465,-30.762,19.531,895.02
1743153671.497,999.512,-30.273,-1.953,999.512
1743153671.501,-8.789,-56.641,-23.438,-109.375
1743153671.505,-497.07,-46.875,-64.453,-406.25
1743153671.509,989.258,-21.973,-88.379,999.512
1743153671.513,999.512,-58.105,-56.641,980.957
1743153671.516,918.457,-63.477,-29.785,929.199
1743153671.52,978.027,-65.43,-22.461,976.074
1743153671.524,966.309,-61.035,-21.973,967.285
1743153671.528,966.309,-41.016,7.812,967.285
1743153671.532,966.309,-36.133,20.996,966.797
1743153671.534,966.309,-48.828,9.766,966.797
1743153671.538,966.309,-32.227,4.883,966.797
1743153671.542,966.309,-22.949,-55.664,966.797
1743153671.546,966.309,-39.062,-81.055,966.797
1743153671.55,966.309,-42.48,10.742,966.797
1743153671.554,966.309,-66.895,46.875,966.797
1743153671.558,966.309,-54.199,13.184,966.797
1743153671.561,966.309,-18.555,1.953,966.797
1743153671.565,966.309,-41.504,26.367,967.285
1743153671.569,966.309,-36.621,26.855,966.797
1743153671.573,966.309,-0.977,-2.93,966.797
1743153671.577,966.309,-5.371,25.879,966.797
1743153671.534,966.309,-48.828,9.766,966.797
1743153671.538,966.309,-32.227,4.883,966.797
1743153671.542,966.309,-22.949,-55.664,966.797
1743153671.546,966.309,-39.062,-81.055,966.797
1743153671.55,966.309,-42.48,10.742,966.797
1743153671.554,966.309,-66.895,46.875,966.797
1743153671.558,966.309,-54.199,13.184,966.797
1743153671.561,966.309,-18.555,1.953,966.797
1743153671.565,966.309,-41.504,26.367,967.285
1743153671.569,966.309,-36.621,26.855,966.797
1743153671.573,966.309,-0.977,-2.93,966.797
1743153671.577,966.309,-5.371,25.879,966.797
1743153671.534,966.309,-48.828,9.766,966.797
1743153671.538,966.309,-32.227,4.883,966.797
1743153671.542,966.309,-22.949,-55.664,966.797
1743153671.546,966.309,-39.062,-81.055,966.797
1743153671.55,966.309,-42.48,10.742,966.797
1743153671.554,966.309,-66.895,46.875,966.797
1743153671.558,966.309,-54.199,13.184,966.797
1743153671.561,966.309,-18.555,1.953,966.797
1743153671.565,966.309,-41.504,26.367,967.285
1743153671.569,966.309,-36.621,26.855,966.797
1743153671.573,966.309,-0.977,-2.93,966.797
1743153671.577,966.309,-5.371,25.879,966.797
1743153671.609,966.797,19.043,34.668,967.285
1743153671.613,965.332,62.5,-29.297,970.703
1743153671.617,904.297,60.547,-34.18,895.508
1743153671.621,999.512,20.508,-25.879,999.512
1743153671.625,210.938,13.672,-74.219,269.043
1743153671.629,-1000.0,68.359,-46.875,-1000.0
1743153671.633,-27.832,125.977,10.742,135.742
1743153671.636,999.512,125.488,-12.695,999.512
1743153671.64,999.512,137.695,-56.152,999.512
1743153671.644,563.965,139.648,-58.594,554.199
1743153671.648,-1000.0,82.52,-21.484,-1000.0
1743153671.652,-431.641,122.07,69.336,-352.539
1743153671.609,966.797,19.043,34.668,967.285
1743153671.613,965.332,62.5,-29.297,970.703
1743153671.617,904.297,60.547,-34.18,895.508
1743153671.621,999.512,20.508,-25.879,999.512
1743153671.625,210.938,13.672,-74.219,269.043
1743153671.629,-1000.0,68.359,-46.875,-1000.0
1743153671.633,-27.832,125.977,10.742,135.742
1743153671.636,999.512,125.488,-12.695,999.512
1743153671.64,999.512,137.695,-56.152,999.512
1743153671.644,563.965,139.648,-58.594,554.199
1743153671.648,-1000.0,82.52,-21.484,-1000.0
1743153671.652,-431.641,122.07,69.336,-352.539
1743153671.624,999.512,165.039,86.914,999.512
1743153671.628,999.512,144.531,41.016,997.07
1743153671.632,-140.137,133.301,34.668,-232.91
1743153671.636,-1000.0,112.793,-1.465,-1000.0
1743153671.64,-1000.0,91.309,-1.465,-1000.0
1743153671.644,-329.102,93.75,13.184,-300.293
1743153671.648,999.512,73.73,-1.465,999.512
1743153671.651,42.969,63.965,-23.926,-120.117
1743153671.655,-1000.0,52.734,-30.762,-1000.0
1743153671.659,-956.543,5.859,25.391,-942.871
1743153671.663,-983.398,-47.363,-3.418,-993.164
1743153671.667,-1000.0,-81.543,-19.531,-1000.0
1743153671.624,999.512,165.039,86.914,999.512
1743153671.628,999.512,144.531,41.016,997.07
1743153671.632,-140.137,133.301,34.668,-232.91
1743153671.636,-1000.0,112.793,-1.465,-1000.0
1743153671.64,-1000.0,91.309,-1.465,-1000.0
1743153671.644,-329.102,93.75,13.184,-300.293
1743153671.648,999.512,73.73,-1.465,999.512
1743153671.651,42.969,63.965,-23.926,-120.117
1743153671.655,-1000.0,52.734,-30.762,-1000.0
1743153671.659,-956.543,5.859,25.391,-942.871
1743153671.663,-983.398,-47.363,-3.418,-993.164
1743153671.667,-1000.0,-81.543,-19.531,-1000.0
1743153671.624,999.512,165.039,86.914,999.512
1743153671.628,999.512,144.531,41.016,997.07
1743153671.632,-140.137,133.301,34.668,-232.91
1743153671.636,-1000.0,112.793,-1.465,-1000.0
1743153671.64,-1000.0,91.309,-1.465,-1000.0
1743153671.644,-329.102,93.75,13.184,-300.293
1743153671.648,999.512,73.73,-1.465,999.512
1743153671.651,42.969,63.965,-23.926,-120.117
1743153671.655,-1000.0,52.734,-30.762,-1000.0
1743153671.659,-956.543,5.859,25.391,-942.871
1743153671.663,-983.398,-47.363,-3.418,-993.164
1743153671.667,-1000.0,-81.543,-19.531,-1000.0
1743153671.669,-1000.0,-97.168,68.848,-1000.0
1743153671.673,-1000.0,-89.844,63.965,-1000.0
1743153671.677,-1000.0,-83.008,-16.113,-1000.0
1743153671.681,-1000.0,-108.887,-47.363,-1000.0
1743153671.685,-1000.0,-143.555,-49.316,-1000.0
1743153671.689,-1000.0,-181.641,-60.059,-1000.0
1743153671.693,-1000.0,-191.406,-56.641,-1000.0
1743153671.696,-1000.0,-177.246,-65.43,-1000.0
1743153671.7,-1000.0,-142.578,-133.789,-1000.0
1743153671.704,-1000.0,-126.953,-113.281,-1000.0
1743153671.708,-1000.0,-169.434,-30.762,-1000.0
1743153671.712,-1000.0,-160.156,10.742,-1000.0
1743153671.669,-1000.0,-97.168,68.848,-1000.0
1743153671.673,-1000.0,-89.844,63.965,-1000.0
1743153671.677,-1000.0,-83.008,-16.113,-1000.0
1743153671.681,-1000.0,-108.887,-47.363,-1000.0
1743153671.685,-1000.0,-143.555,-49.316,-1000.0
1743153671.689,-1000.0,-181.641,-60.059,-1000.0
1743153671.693,-1000.0,-191.406,-56.641,-1000.0
1743153671.696,-1000.0,-177.246,-65.43,-1000.0
1743153671.7,-1000.0,-142.578,-133.789,-1000.0
1743153671.704,-1000.0,-126.953,-113.281,-1000.0
1743153671.708,-1000.0,-169.434,-30.762,-1000.0
1743153671.712,-1000.0,-160.156,10.742,-1000.0
1743153671.715,-1000.0,-147.949,-20.508,-1000.0
1743153671.719,-1000.0,-177.246,-90.82,-1000.0
1743153671.723,-1000.0,-177.246,-112.793,-1000.0
1743153671.727,-1000.0,-180.176,-54.199,-1000.0
1743153671.731,-1000.0,-170.41,17.578,-1000.0
1743153671.735,-1000.0,-139.648,-1.953,-1000.0
1743153671.739,-1000.0,-118.652,-110.352,-1000.0
1743153671.742,-1000.0,-144.531,-112.793,-1000.0
1743153671.746,-1000.0,-183.594,-9.277,-1000.0
1743153671.75,-1000.0,-144.043,-24.414,-1000.0
1743153671.754,-1000.0,-113.281,-62.988,-1000.0
1743153671.758,-1000.0,-100.098,-16.113,-1000.0
1743153671.715,-1000.0,-147.949,-20.508,-1000.0
1743153671.719,-1000.0,-177.246,-90.82,-1000.0
1743153671.723,-1000.0,-177.246,-112.793,-1000.0
1743153671.727,-1000.0,-180.176,-54.199,-1000.0
1743153671.731,-1000.0,-170.41,17.578,-1000.0
1743153671.735,-1000.0,-139.648,-1.953,-1000.0
1743153671.739,-1000.0,-118.652,-110.352,-1000.0
1743153671.742,-1000.0,-144.531,-112.793,-1000.0
1743153671.746,-1000.0,-183.594,-9.277,-1000.0
1743153671.75,-1000.0,-144.043,-24.414,-1000.0
1743153671.754,-1000.0,-113.281,-62.988,-1000.0
1743153671.758,-1000.0,-100.098,-16.113,-1000.0
1743153671.715,-1000.0,-147.949,-20.508,-1000.0
1743153671.719,-1000.0,-177.246,-90.82,-1000.0
1743153671.723,-1000.0,-177.246,-112.793,-1000.0
1743153671.727,-1000.0,-180.176,-54.199,-1000.0
1743153671.731,-1000.0,-170.41,17.578,-1000.0
1743153671.735,-1000.0,-139.648,-1.953,-1000.0
1743153671.739,-1000.0,-118.652,-110.352,-1000.0
1743153671.742,-1000.0,-144.531,-112.793,-1000.0
1743153671.746,-1000.0,-183.594,-9.277,-1000.0
1743153671.75,-1000.0,-144.043,-24.414,-1000.0
1743153671.754,-1000.0,-113.281,-62.988,-1000.0
1743153671.758,-1000.0,-100.098,-16.113,-1000.0
1743153671.775,-1000.0,-112.305,-35.156,-1000.0
1743153671.779,-1000.0,-133.301,-71.777,-1000.0
1743153671.783,-939.453,-101.074,-43.457,-937.5
1743153671.787,-1000.0,-85.449,-48.828,-1000.0
1743153671.791,-211.426,-89.844,-76.66,-242.188
1743153671.795,995.605,-82.031,-45.41,999.512
1743153671.799,999.512,-109.375,-34.668,999.512
1743153671.802,60.547,-145.02,-27.832,-99.121
1743153671.806,-1000.0,-142.578,-6.348,-1000.0
1743153671.81,-621.094,-95.215,-11.719,-520.02
1743153671.814,787.109,-63.477,-21.973,829.59
1743153671.818,977.539,-80.566,-88.379,983.887
1743153671.775,-1000.0,-112.305,-35.156,-1000.0
1743153671.779,-1000.0,-133.301,-71.777,-1000.0
1743153671.783,-939.453,-101.074,-43.457,-937.5
1743153671.787,-1000.0,-85.449,-48.828,-1000.0
1743153671.791,-211.426,-89.844,-76.66,-242.188
1743153671.795,995.605,-82.031,-45.41,999.512
1743153671.799,999.512,-109.375,-34.668,999.512
1743153671.802,60.547,-145.02,-27.832,-99.121
1743153671.806,-1000.0,-142.578,-6.348,-1000.0
1743153671.81,-621.094,-95.215,-11.719,-520.02
1743153671.814,787.109,-63.477,-21.973,829.59
1743153671.818,977.539,-80.566,-88.379,983.887
1743153671.775,-1000.0,-112.305,-35.156,-1000.0
1743153671.779,-1000.0,-133.301,-71.777,-1000.0
1743153671.783,-939.453,-101.074,-43.457,-937.5
1743153671.787,-1000.0,-85.449,-48.828,-1000.0
1743153671.791,-211.426,-89.844,-76.66,-242.188
1743153671.795,995.605,-82.031,-45.41,999.512
1743153671.799,999.512,-109.375,-34.668,999.512
1743153671.802,60.547,-145.02,-27.832,-99.121
1743153671.806,-1000.0,-142.578,-6.348,-1000.0
1743153671.81,-621.094,-95.215,-11.719,-520.02
1743153671.814,787.109,-63.477,-21.973,829.59
1743153671.818,977.539,-80.566,-88.379,983.887
1743153671.819,999.512,-68.359,-142.09,999.512
1743153671.823,-127.93,-74.219,-65.43,-235.352
1743153671.827,-495.605,-61.523,40.527,-407.227
1743153671.831,999.512,-52.734,69.336,999.512
1743153671.835,990.234,-96.191,25.879,970.215
1743153671.839,923.828,-88.867,-17.09,931.641
1743153671.843,977.539,-62.5,-18.555,975.586
1743153671.846,966.309,-40.527,-54.199,966.797
1743153671.85,966.309,-57.617,-47.852,966.797
1743153671.854,966.309,-62.988,4.395,966.797
1743153671.858,966.309,-31.738,-15.137,966.797
1743153671.862,966.309,-42.48,-1.953,966.797
1743153671.819,999.512,-68.359,-142.09,999.512
1743153671.823,-127.93,-74.219,-65.43,-235.352
1743153671.827,-495.605,-61.523,40.527,-407.227
1743153671.831,999.512,-52.734,69.336,999.512
1743153671.835,990.234,-96.191,25.879,970.215
1743153671.839,923.828,-88.867,-17.09,931.641
1743153671.843,977.539,-62.5,-18.555,975.586
1743153671.846,966.309,-40.527,-54.199,966.797
1743153671.85,966.309,-57.617,-47.852,966.797
1743153671.854,966.309,-62.988,4.395,966.797
1743153671.858,966.309,-31.738,-15.137,966.797
1743153671.862,966.309,-42.48,-1.953,966.797
1743153671.819,999.512,-68.359,-142.09,999.512
1743153671.823,-127.93,-74.219,-65.43,-235.352
1743153671.827,-495.605,-61.523,40.527,-407.227
1743153671.831,999.512,-52.734,69.336,999.512
1743153671.835,990.234,-96.191,25.879,970.215
1743153671.839,923.828,-88.867,-17.09,931.641
1743153671.843,977.539,-62.5,-18.555,975.586
1743153671.846,966.309,-40.527,-54.199,966.797
1743153671.85,966.309,-57.617,-47.852,966.797
1743153671.854,966.309,-62.988,4.395,966.797
1743153671.858,966.309,-31.738,-15.137,966.797
1743153671.862,966.309,-42.48,-1.953,966.797
1743153671.864,966.309,-70.801,26.855,967.285
1743153671.868,966.309,-61.035,1.465,967.285
1743153671.872,966.309,-51.27,-27.832,966.797
1743153671.876,966.309,-63.477,-8.789,966.797
1743153671.88,966.309,-39.551,-15.137,966.797
1743153671.884,966.309,9.277,-10.254,966.797
1743153671.888,966.309,-7.812,33.203,966.797
1743153671.891,966.309,-42.48,33.691,967.285
1743153671.895,966.309,-55.664,0.977,966.797
1743153671.899,966.309,-71.777,-13.184,966.797
1743153671.903,966.309,-60.059,-2.93,966.797
1743153671.907,966.309,-9.766,0.0,967.285
1743153671.864,966.309,-70.801,26.855,967.285
1743153671.868,966.309,-61.035,1.465,967.285
1743153671.872,966.309,-51.27,-27.832,966.797
1743153671.876,966.309,-63.477,-8.789,966.797
1743153671.88,966.309,-39.551,-15.137,966.797
1743153671.884,966.309,9.277,-10.254,966.797
1743153671.888,966.309,-7.812,33.203,966.797
1743153671.891,966.309,-42.48,33.691,967.285
1743153671.895,966.309,-55.664,0.977,966.797
1743153671.899,966.309,-71.777,-13.184,966.797
1743153671.903,966.309,-60.059,-2.93,966.797
1743153671.907,966.309,-9.766,0.0,967.285
1743153671.864,966.309,-70.801,26.855,967.285
1743153671.868,966.309,-61.035,1.465,967.285
1743153671.872,966.309,-51.27,-27.832,966.797
1743153671.876,966.309,-63.477,-8.789,966.797
1743153671.88,966.309,-39.551,-15.137,966.797
1743153671.884,966.309,9.277,-10.254,966.797
1743153671.888,966.309,-7.812,33.203,966.797
1743153671.891,966.309,-42.48,33.691,967.285
1743153671.895,966.309,-55.664,0.977,966.797
1743153671.899,966.309,-71.777,-13.184,966.797
1743153671.903,966.309,-60.059,-2.93,966.797
1743153671.907,966.309,-9.766,0.0,967.285
1743153671.909,966.309,6.836,11.23,966.797
1743153671.913,966.309,-29.297,-6.836,966.797
1743153671.917,966.309,-36.621,-13.184,966.797
1743153671.921,966.309,-18.066,1.465,966.797
1743153671.925,966.309,-25.391,-9.766,966.797
1743153671.929,966.309,-55.664,-59.57,967.285
1743153671.933,966.309,-61.523,-73.73,966.797
1743153671.936,966.309,-54.688,0.977,966.797
1743153671.94,966.309,-35.645,62.988,966.797
1743153671.944,975.586,-15.625,68.848,972.656
1743153671.948,928.711,-23.438,29.297,942.383
1743153671.952,965.82,-25.879,-18.555,942.871
1743153671.909,966.309,6.836,11.23,966.797
1743153671.913,966.309,-29.297,-6.836,966.797
1743153671.917,966.309,-36.621,-13.184,966.797
1743153671.921,966.309,-18.066,1.465,966.797
1743153671.925,966.309,-25.391,-9.766,966.797
1743153671.929,966.309,-55.664,-59.57,967.285
1743153671.933,966.309,-61.523,-73.73,966.797
1743153671.936,966.309,-54.688,0.977,966.797
1743153671.94,966.309,-35.645,62.988,966.797
1743153671.944,975.586,-15.625,68.848,972.656
1743153671.948,928.711,-23.438,29.297,942.383
1743153671.952,965.82,-25.879,-18.555,942.871
1743153671.909,966.309,6.836,11.23,966.797
1743153671.913,966.309,-29.297,-6.836,966.797
1743153671.917,966.309,-36.621,-13.184,966.797
1743153671.921,966.309,-18.066,1.465,966.797
1743153671.925,966.309,-25.391,-9.766,966.797
1743153671.929,966.309,-55.664,-59.57,967.285
1743153671.933,966.309,-61.523,-73.73,966.797
1743153671.936,966.309,-54.688,0.977,966.797
1743153671.94,966.309,-35.645,62.988,966.797
1743153671.944,975.586,-15.625,68.848,972.656
1743153671.948,928.711,-23.438,29.297,942.383
1743153671.952,965.82,-25.879,-18.555,942.871
1743153671.953,999.512,-64.453,-50.781,999.512
1743153671.957,-494.141,-110.352,-30.273,-319.824
1743153671.961,-567.383,-55.664,20.996,-425.781
1743153671.965,949.707,1.465,87.402,999.512
1743153671.969,999.512,-41.504,54.688,999.512
1743153671.973,126.465,-84.473,-37.109,145.02
1743153671.977,-984.375,-71.777,-36.133,-988.77
1743153671.98,-1000.0,-39.062,-11.719,-1000.0
1743153671.984,-623.047,-25.879,-9.766,-519.043
1743153671.988,989.746,-29.297,23.926,999.512
1743153671.992,238.77,-81.543,41.992,163.574
1743153671.996,-1000.0,-81.543,36.133,-1000.0
1743153672.0,-968.262,-32.715,5.371,-963.379
1743153672.004,-973.145,-21.484,-23.926,-977.051
1743153672.008,-1000.0,-46.387,-34.668,-1000.0
1743153672.012,-991.211,-77.148,1.953,-1000.0
1743153672.016,-951.172,-71.777,31.738,-927.734
1743153672.02,-1000.0,-35.156,36.133,-1000.0
1743153672.024,-113.77,-0.488,53.711,-303.711
1743153672.027,999.512,-44.434,13.672,999.512
1743153672.031,-62.012,-97.168,-62.012,-212.891
1743153672.035,-1000.0,-63.965,-61.523,-1000.0
1743153672.039,-951.66,-60.059,-5.371,-935.059
1743153672.043,-988.77,-78.125,56.152,-998.535
1743153672.0,-968.262,-32.715,5.371,-963.379
1743153672.004,-973.145,-21.484,-23.926,-977.051
1743153672.008,-1000.0,-46.387,-34.668,-1000.0
1743153672.012,-991.211,-77.148,1.953,-1000.0
1743153672.016,-951.172,-71.777,31.738,-927.734
1743153672.02,-1000.0,-35.156,36.133,-1000.0
1743153672.024,-113.77,-0.488,53.711,-303.711
1743153672.027,999.512,-44.434,13.672,999.512
1743153672.031,-62.012,-97.168,-62.012,-212.891
1743153672.035,-1000.0,-63.965,-61.523,-1000.0
1743153672.039,-951.66,-60.059,-5.371,-935.059
1743153672.043,-988.77,-78.125,56.152,-998.535
1743153672.059,-1000.0,-64.453,60.547,-1000.0
1743153672.063,-1000.0,-58.594,8.789,-1000.0
1743153672.067,-1000.0,-57.129,-23.438,-1000.0
1743153672.071,-1000.0,-50.293,-27.344,-1000.0
1743153672.075,-1000.0,-42.48,-33.691,-1000.0
1743153672.079,-1000.0,-31.25,-22.461,-1000.0
1743153672.083,-1000.0,-58.105,-1.953,-1000.0
1743153672.086,-1000.0,-80.566,-4.395,-1000.0
1743153672.09,-1000.0,-49.316,9.766,-1000.0
1743153672.094,-1000.0,-41.504,12.695,-1000.0
1743153672.098,-1000.0,-41.016,-9.766,-1000.0
1743153672.102,-1000.0,-39.551,-9.277,-1000.0
1743153672.059,-1000.0,-64.453,60.547,-1000.0
1743153672.063,-1000.0,-58.594,8.789,-1000.0
1743153672.067,-1000.0,-57.129,-23.438,-1000.0
1743153672.071,-1000.0,-50.293,-27.344,-1000.0
1743153672.075,-1000.0,-42.48,-33.691,-1000.0
1743153672.079,-1000.0,-31.25,-22.461,-1000.0
1743153672.083,-1000.0,-58.105,-1.953,-1000.0
1743153672.086,-1000.0,-80.566,-4.395,-1000.0
1743153672.09,-1000.0,-49.316,9.766,-1000.0
1743153672.094,-1000.0,-41.504,12.695,-1000.0
1743153672.098,-1000.0,-41.016,-9.766,-1000.0
1743153672.102,-1000.0,-39.551,-9.277,-1000.0
1743153672.089,-936.523,-41.992,-16.602,-930.176
1743153672.093,-1000.0,-44.922,-13.184,-1000.0
1743153672.097,-308.594,-12.207,13.672,-653.809
1743153672.101,999.512,4.395,-1.465,967.773
1743153672.105,598.145,-56.641,-39.062,499.512
1743153672.109,-864.746,-86.914,-10.742,-1000.0
1743153672.113,-1000.0,-37.598,-1.953,-1000.0
1743153672.116,-940.43,-10.254,-29.785,-972.656
1743153672.12,-1000.0,-25.391,0.977,-953.613
1743153672.124,-1000.0,-60.059,35.156,-886.719
1743153672.128,-935.547,-79.59,29.785,-933.105
1743153672.132,-1000.0,-54.199,13.184,-1000.0
1743153672.089,-936.523,-41.992,-16.602,-930.176
1743153672.093,-1000.0,-44.922,-13.184,-1000.0
1743153672.097,-308.594,-12.207,13.672,-653.809
1743153672.101,999.512,4.395,-1.465,967.773
1743153672.105,598.145,-56.641,-39.062,499.512
1743153672.109,-864.746,-86.914,-10.742,-1000.0
1743153672.113,-1000.0,-37.598,-1.953,-1000.0
1743153672.116,-940.43,-10.254,-29.785,-972.656
1743153672.12,-1000.0,-25.391,0.977,-953.613
1743153672.124,-1000.0,-60.059,35.156,-886.719
1743153672.128,-935.547,-79.59,29.785,-933.105
1743153672.132,-1000.0,-54.199,13.184,-1000.0
1743153672.149,-250.977,-14.648,-13.184,-364.258
1743153672.153,963.867,-4.395,-54.688,923.828
1743153672.157,999.512,-34.668,-51.758,999.512
1743153672.161,162.109,-74.707,-43.945,97.168
1743153672.165,-1000.0,-73.242,-42.48,-1000.0
1743153672.169,-1000.0,-29.785,-20.02,-1000.0
1743153672.173,-163.574,4.883,-15.625,-105.957
1743153672.176,999.512,-3.906,-17.578,999.512
1743153672.18,216.797,-68.359,-9.766,186.035
1743153672.184,-1000.0,-85.938,-18.066,-1000.0
1743153672.188,-1000.0,-55.664,-52.734,-1000.0
1743153672.192,-321.289,-15.625,-81.055,-307.129
1743153672.149,-250.977,-14.648,-13.184,-364.258
1743153672.153,963.867,-4.395,-54.688,923.828
1743153672.157,999.512,-34.668,-51.758,999.512
1743153672.161,162.109,-74.707,-43.945,97.168
1743153672.165,-1000.0,-73.242,-42.48,-1000.0
1743153672.169,-1000.0,-29.785,-20.02,-1000.0
1743153672.173,-163.574,4.883,-15.625,-105.957
1743153672.176,999.512,-3.906,-17.578,999.512
1743153672.18,216.797,-68.359,-9.766,186.035
1743153672.184,-1000.0,-85.938,-18.066,-1000.0
1743153672.188,-1000.0,-55.664,-52.734,-1000.0
1743153672.192,-321.289,-15.625,-81.055,-307.129
1743153672.149,-250.977,-14.648,-13.184,-364.258
1743153672.153,963.867,-4.395,-54.688,923.828
1743153672.157,999.512,-34.668,-51.758,999.512
1743153672.161,162.109,-74.707,-43.945,97.168
1743153672.165,-1000.0,-73.242,-42.48,-1000.0
1743153672.169,-1000.0,-29.785,-20.02,-1000.0
1743153672.173,-163.574,4.883,-15.625,-105.957
1743153672.176,999.512,-3.906,-17.578,999.512
1743153672.18,216.797,-68.359,-9.766,186.035
1743153672.184,-1000.0,-85.938,-18.066,-1000.0
1743153672.188,-1000.0,-55.664,-52.734,-1000.0
1743153672.192,-321.289,-15.625,-81.055,-307.129
1743153672.194,999.512,-12.207,-79.102,999.512
1743153672.198,571.777,-74.707,-67.383,471.191
1743153672.202,-815.918,-86.426,-76.66,-878.906
1743153672.206,-1000.0,-29.785,-83.496,-1000.0
1743153672.21,-433.594,13.184,-86.914,-383.301
1743153672.214,970.215,19.043,-96.68,999.512
1743153672.218,893.555,-27.344,-100.586,761.23
1743153672.221,-552.734,-54.688,-98.633,-688.477
1743153672.225,-1000.0,-32.715,-92.773,-1000.0
1743153672.229,-1000.0,-27.344,-120.605,-1000.0
1743153672.233,-276.367,-9.277,-197.754,-230.469
1743153672.237,999.512,11.23,-205.078,999.512
1743153672.194,999.512,-12.207,-79.102,999.512
1743153672.198,571.777,-74.707,-67.383,471.191
1743153672.202,-815.918,-86.426,-76.66,-878.906
1743153672.206,-1000.0,-29.785,-83.496,-1000.0
1743153672.21,-433.594,13.184,-86.914,-383.301
1743153672.214,970.215,19.043,-96.68,999.512
1743153672.218,893.555,-27.344,-100.586,761.23
1743153672.221,-552.734,-54.688,-98.633,-688.477
1743153672.225,-1000.0,-32.715,-92.773,-1000.0
1743153672.229,-1000.0,-27.344,-120.605,-1000.0
1743153672.233,-276.367,-9.277,-197.754,-230.469
1743153672.237,999.512,11.23,-205.078,999.512
1743153672.194,999.512,-12.207,-79.102,999.512
1743153672.198,571.777,-74.707,-67.383,471.191
1743153672.202,-815.918,-86.426,-76.66,-878.906
1743153672.206,-1000.0,-29.785,-83.496,-1000.0
1743153672.21,-433.594,13.184,-86.914,-383.301
1743153672.214,970.215,19.043,-96.68,999.512
1743153672.218,893.555,-27.344,-100.586,761.23
1743153672.221,-552.734,-54.688,-98.633,-688.477
1743153672.225,-1000.0,-32.715,-92.773,-1000.0
1743153672.229,-1000.0,-27.344,-120.605,-1000.0
1743153672.233,-276.367,-9.277,-197.754,-230.469
1743153672.237,999.512,11.23,-205.078,999.512
1743153672.239,-11.23,-24.902,-110.84,-213.379
1743153672.243,-1000.0,-31.25,-37.598,-1000.0
1743153672.247,-953.125,-19.043,-40.527,-970.703
1743153672.251,-986.328,-41.504,-68.848,-852.539
1743153672.255,-1000.0,-54.199,-102.539,-843.75
1743153672.259,-1000.0,-47.852,-111.816,-1000.0
1743153672.263,-934.082,-31.25,-120.605,-922.363
1743153672.266,-1000.0,-18.066,-144.531,-1000.0
1743153672.27,-306.152,1.465,-132.324,-315.918
1743153672.274,999.512,1.953,-76.172,999.512
1743153672.278,33.691,-44.922,5.371,-182.617
1743153672.282,-1000.0,-44.434,35.645,-1000.0
1743153672.239,-11.23,-24.902,-110.84,-213.379
1743153672.243,-1000.0,-31.25,-37.598,-1000.0
1743153672.247,-953.125,-19.043,-40.527,-970.703
1743153672.251,-986.328,-41.504,-68.848,-852.539
1743153672.255,-1000.0,-54.199,-102.539,-843.75
1743153672.259,-1000.0,-47.852,-111.816,-1000.0
1743153672.263,-934.082,-31.25,-120.605,-922.363
1743153672.266,-1000.0,-18.066,-144.531,-1000.0
1743153672.27,-306.152,1.465,-132.324,-315.918
1743153672.274,999.512,1.953,-76.172,999.512
1743153672.278,33.691,-44.922,5.371,-182.617
1743153672.282,-1000.0,-44.434,35.645,-1000.0
1743153672.239,-11.23,-24.902,-110.84,-213.379
1743153672.243,-1000.0,-31.25,-37.598,-1000.0
1743153672.247,-953.125,-19.043,-40.527,-970.703
1743153672.251,-986.328,-41.504,-68.848,-852.539
1743153672.255,-1000.0,-54.199,-102.539,-843.75
1743153672.259,-1000.0,-47.852,-111.816,-1000.0
1743153672.263,-934.082,-31.25,-120.605,-922.363
1743153672.266,-1000.0,-18.066,-144.531,-1000.0
1743153672.27,-306.152,1.465,-132.324,-315.918
1743153672.274,999.512,1.953,-76.172,999.512
1743153672.278,33.691,-44.922,5.371,-182.617
1743153672.282,-1000.0,-44.434,35.645,-1000.0
1743153672.754,999.512,-7.812,-94.238,999.512
1743153672.758,500.977,-28.32,-97.168,438.477
1743153672.762,-1000.0,-86.914,-115.234,-1000.0
1743153672.766,-803.223,-68.848,-78.613,-666.504
1743153672.77,699.707,-21.973,-44.434,800.293
1743153672.774,999.023,-28.809,-99.609,989.258
1743153672.778,999.512,-31.25,-102.539,996.094
1743153672.781,37.109,-40.039,-77.637,-62.012
1743153672.785,-1000.0,-64.453,-71.289,-1000.0
1743153672.789,-227.051,-46.387,-15.137,-82.031
1743153672.793,999.512,-49.805,-115.723,999.512
1743153672.797,674.316,-63.477,-231.445,621.094
1743153672.286,-956.543,-16.602,-7.812,-937.988
1743153672.29,-983.887,-9.766,-70.801,-996.582
1743153672.294,-1000.0,-32.227,-101.562,-1000.0
1743153672.298,-1000.0,-46.387,-85.938,-1000.0
1743153672.302,-979.492,-43.945,-41.504,-982.422
1743153672.306,-971.68,-46.875,-50.781,-973.633
1743153672.31,-1000.0,-27.832,-101.562,-1000.0
1743153672.313,234.863,4.395,-68.848,174.316
1743153672.317,314.453,-45.41,-26.367,230.469
1743153672.321,-1000.0,-95.703,-26.367,-1000.0
1743153672.325,-989.258,-54.199,-25.391,-986.816
1743153672.329,-972.168,-22.949,-48.34,-974.609
1743153672.286,-956.543,-16.602,-7.812,-937.988
1743153672.29,-983.887,-9.766,-70.801,-996.582
1743153672.294,-1000.0,-32.227,-101.562,-1000.0
1743153672.298,-1000.0,-46.387,-85.938,-1000.0
1743153672.302,-979.492,-43.945,-41.504,-982.422
1743153672.306,-971.68,-46.875,-50.781,-973.633
1743153672.31,-1000.0,-27.832,-101.562,-1000.0
1743153672.313,234.863,4.395,-68.848,174.316
1743153672.317,314.453,-45.41,-26.367,230.469
1743153672.321,-1000.0,-95.703,-26.367,-1000.0
1743153672.325,-989.258,-54.199,-25.391,-986.816
1743153672.329,-972.168,-22.949,-48.34,-974.609
1743153672.33,-1000.0,-37.598,-83.496,-1000.0
1743153672.334,-1000.0,-39.062,-70.312,-1000.0
1743153672.338,-933.594,-25.879,-40.039,-942.383
1743153672.342,-1000.0,-32.715,-64.941,-1000.0
1743153672.346,-769.043,-23.438,-79.102,-869.141
1743153672.35,792.969,7.324,-58.105,712.891
1743153672.354,845.215,-28.32,-70.312,648.926
1743153672.357,-623.047,-78.125,-84.473,-838.867
1743153672.361,-1000.0,-45.898,-85.449,-1000.0
1743153672.365,-508.301,1.953,-62.988,-488.77
1743153672.369,794.922,6.348,-41.504,812.988
1743153672.373,999.512,-20.996,-40.527,999.512
1743153672.374,174.805,-39.551,-35.645,33.203
1743153672.378,-1000.0,-33.203,-29.297,-1000.0
1743153672.382,-193.359,-17.09,-52.734,-144.531
1743153672.386,999.512,-20.996,-69.336,999.512
1743153672.39,943.848,-45.41,-58.105,967.285
1743153672.394,999.512,-27.344,-62.012,937.5
1743153672.398,-444.336,-36.621,-82.031,-553.711
1743153672.401,-353.027,-25.391,-87.402,-316.895
1743153672.405,999.512,7.812,-48.34,999.512
1743153672.409,946.289,-21.484,-34.18,942.383
1743153672.413,938.965,-30.762,-38.086,940.918
1743153672.417,973.145,-37.598,-35.645,973.145
1743153672.374,174.805,-39.551,-35.645,33.203
1743153672.378,-1000.0,-33.203,-29.297,-1000.0
1743153672.382,-193.359,-17.09,-52.734,-144.531
1743153672.386,999.512,-20.996,-69.336,999.512
1743153672.39,943.848,-45.41,-58.105,967.285
1743153672.394,999.512,-27.344,-62.012,937.5
1743153672.398,-444.336,-36.621,-82.031,-553.711
1743153672.401,-353.027,-25.391,-87.402,-316.895
1743153672.405,999.512,7.812,-48.34,999.512
1743153672.409,946.289,-21.484,-34.18,942.383
1743153672.413,938.965,-30.762,-38.086,940.918
1743153672.417,973.145,-37.598,-35.645,973.145
1743153672.419,966.309,-40.039,-71.777,966.797
1743153672.423,966.309,-21.973,-77.148,966.797
1743153672.427,965.82,-25.879,-50.293,966.797
1743153672.431,966.309,-30.273,-33.203,967.285
1743153672.435,966.309,-19.531,-13.184,967.285
1743153672.439,966.309,-1.953,-5.371,966.797
1743153672.443,966.309,-13.672,-23.926,966.797
1743153672.446,966.309,-31.25,-61.523,966.797
1743153672.45,966.309,-33.691,-63.477,967.285
1743153672.454,966.309,-24.414,-19.531,966.797
1743153672.458,966.309,-15.625,-23.438,966.797
1743153672.462,966.309,-33.203,-43.457,966.797
1743153672.419,966.309,-40.039,-71.777,966.797
1743153672.423,966.309,-21.973,-77.148,966.797
1743153672.427,965.82,-25.879,-50.293,966.797
1743153672.431,966.309,-30.273,-33.203,967.285
1743153672.435,966.309,-19.531,-13.184,967.285
1743153672.439,966.309,-1.953,-5.371,966.797
1743153672.443,966.309,-13.672,-23.926,966.797
1743153672.446,966.309,-31.25,-61.523,966.797
1743153672.45,966.309,-33.691,-63.477,967.285
1743153672.454,966.309,-24.414,-19.531,966.797
1743153672.458,966.309,-15.625,-23.438,966.797
1743153672.462,966.309,-33.203,-43.457,966.797
1743153672.419,966.309,-40.039,-71.777,966.797
1743153672.423,966.309,-21.973,-77.148,966.797
1743153672.427,965.82,-25.879,-50.293,966.797
1743153672.431,966.309,-30.273,-33.203,967.285
1743153672.435,966.309,-19.531,-13.184,967.285
1743153672.439,966.309,-1.953,-5.371,966.797
1743153672.443,966.309,-13.672,-23.926,966.797
1743153672.446,966.309,-31.25,-61.523,966.797
1743153672.45,966.309,-33.691,-63.477,967.285
1743153672.454,966.309,-24.414,-19.531,966.797
1743153672.458,966.309,-15.625,-23.438,966.797
1743153672.462,966.309,-33.203,-43.457,966.797
1743153672.464,966.309,-41.504,-13.672,966.797
1743153672.468,966.309,-21.973,31.738,966.797
1743153672.472,966.309,-6.348,12.207,966.797
1743153672.476,966.309,-20.02,-8.789,966.797
1743153672.48,966.309,-20.508,2.93,966.797
1743153672.484,966.309,-17.578,-5.859,966.797
1743153672.488,966.309,-23.926,-33.203,966.797
1743153672.491,966.309,-23.438,-35.645,966.797
1743153672.495,966.309,-21.484,-12.207,966.797
1743153672.499,966.309,-1.465,-28.32,966.797
1743153672.503,966.309,0.0,-44.434,966.797
1743153672.507,966.309,-21.973,-37.109,967.285
1743153672.464,966.309,-41.504,-13.672,966.797
1743153672.468,966.309,-21.973,31.738,966.797
1743153672.472,966.309,-6.348,12.207,966.797
1743153672.476,966.309,-20.02,-8.789,966.797
1743153672.48,966.309,-20.508,2.93,966.797
1743153672.484,966.309,-17.578,-5.859,966.797
1743153672.488,966.309,-23.926,-33.203,966.797
1743153672.491,966.309,-23.438,-35.645,966.797
1743153672.495,966.309,-21.484,-12.207,966.797
1743153672.499,966.309,-1.465,-28.32,966.797
1743153672.503,966.309,0.0,-44.434,966.797
1743153672.507,966.309,-21.973,-37.109,967.285
1743153672.464,966.309,-41.504,-13.672,966.797
1743153672.468,966.309,-21.973,31.738,966.797
1743153672.472,966.309,-6.348,12.207,966.797
1743153672.476,966.309,-20.02,-8.789,966.797
1743153672.48,966.309,-20.508,2.93,966.797
1743153672.484,966.309,-17.578,-5.859,966.797
1743153672.488,966.309,-23.926,-33.203,966.797
1743153672.491,966.309,-23.438,-35.645,966.797
1743153672.495,966.309,-21.484,-12.207,966.797
1743153672.499,966.309,-1.465,-28.32,966.797
1743153672.503,966.309,0.0,-44.434,966.797
1743153672.507,966.309,-21.973,-37.109,967.285
1743153672.524,966.309,-20.02,-10.254,966.797
1743153672.528,966.309,-45.41,-28.32,966.797
1743153672.532,966.309,-20.02,-122.559,966.797
1743153672.536,966.309,28.809,-131.836,966.797
1743153672.54,966.309,-14.648,-18.555,966.797
1743153672.544,966.309,-43.457,4.883,967.285
1743153672.548,966.309,-38.086,-41.504,966.797
1743153672.551,978.027,-26.855,-52.246,981.445
1743153672.555,892.578,-29.297,6.836,895.02
1743153672.559,999.512,-50.781,25.391,999.512
1743153672.563,503.418,-40.039,-48.828,619.629
1743153672.567,-1000.0,-49.805,-95.215,-1000.0
1743153672.524,966.309,-20.02,-10.254,966.797
1743153672.528,966.309,-45.41,-28.32,966.797
1743153672.532,966.309,-20.02,-122.559,966.797
1743153672.536,966.309,28.809,-131.836,966.797
1743153672.54,966.309,-14.648,-18.555,966.797
1743153672.544,966.309,-43.457,4.883,967.285
1743153672.548,966.309,-38.086,-41.504,966.797
1743153672.551,978.027,-26.855,-52.246,981.445
1743153672.555,892.578,-29.297,6.836,895.02
1743153672.559,999.512,-50.781,25.391,999.512
1743153672.563,503.418,-40.039,-48.828,619.629
1743153672.567,-1000.0,-49.805,-95.215,-1000.0
1743153672.524,966.309,-20.02,-10.254,966.797
1743153672.528,966.309,-45.41,-28.32,966.797
1743153672.532,966.309,-20.02,-122.559,966.797
1743153672.536,966.309,28.809,-131.836,966.797
1743153672.54,966.309,-14.648,-18.555,966.797
1743153672.544,966.309,-43.457,4.883,967.285
1743153672.548,966.309,-38.086,-41.504,966.797
1743153672.551,978.027,-26.855,-52.246,981.445
1743153672.555,892.578,-29.297,6.836,895.02
1743153672.559,999.512,-50.781,25.391,999.512
1743153672.563,503.418,-40.039,-48.828,619.629
1743153672.567,-1000.0,-49.805,-95.215,-1000.0
1743153672.569,-243.164,-42.48,-43.945,-255.859
1743153672.573,999.512,-55.176,21.484,999.512
1743153672.577,999.512,-61.523,-14.16,999.512
1743153672.581,348.145,-79.59,-31.738,347.656
1743153672.585,-1000.0,-89.355,-28.32,-1000.0
1743153672.589,-1000.0,-33.203,-45.898,-873.047
1743153672.593,293.457,-5.859,-97.656,512.207
1743153672.596,999.512,-34.18,-83.008,999.512
1743153672.6,-6.836,-101.074,-1.953,-105.469
1743153672.604,-1000.0,-87.402,-28.809,-1000.0
1743153672.608,-1000.0,-61.523,-80.566,-1000.0
1743153672.612,-517.578,-59.57,-39.551,-494.141
1743153672.569,-243.164,-42.48,-43.945,-255.859
1743153672.573,999.512,-55.176,21.484,999.512
1743153672.577,999.512,-61.523,-14.16,999.512
1743153672.581,348.145,-79.59,-31.738,347.656
1743153672.585,-1000.0,-89.355,-28.32,-1000.0
1743153672.589,-1000.0,-33.203,-45.898,-873.047
1743153672.593,293.457,-5.859,-97.656,512.207
1743153672.596,999.512,-34.18,-83.008,999.512
1743153672.6,-6.836,-101.074,-1.953,-105.469
1743153672.604,-1000.0,-87.402,-28.809,-1000.0
1743153672.608,-1000.0,-61.523,-80.566,-1000.0
1743153672.612,-517.578,-59.57,-39.551,-494.141
1743153672.615,999.512,-45.898,12.695,999.512
1743153672.619,205.078,-62.012,-29.297,188.477
1743153672.623,-1000.0,-49.805,-133.789,-1000.0
1743153672.627,-1000.0,-49.805,-162.109,-1000.0
1743153672.631,-466.309,-38.086,-84.961,-459.473
1743153672.635,999.512,-37.598,-27.832,999.512
1743153672.639,520.02,-69.824,-25.391,356.445
1743153672.642,-947.266,-69.336,-51.758,-1000.0
1743153672.646,-990.234,-44.922,-67.383,-971.68
1743153672.65,-1000.0,-43.945,-69.824,-1000.0
1743153672.654,169.434,-46.387,-42.48,265.625
1743153672.658,907.227,-63.965,-19.043,678.711
1743153672.615,999.512,-45.898,12.695,999.512
1743153672.619,205.078,-62.012,-29.297,188.477
1743153672.623,-1000.0,-49.805,-133.789,-1000.0
1743153672.627,-1000.0,-49.805,-162.109,-1000.0
1743153672.631,-466.309,-38.086,-84.961,-459.473
1743153672.635,999.512,-37.598,-27.832,999.512
1743153672.639,520.02,-69.824,-25.391,356.445
1743153672.642,-947.266,-69.336,-51.758,-1000.0
1743153672.646,-990.234,-44.922,-67.383,-971.68
1743153672.65,-1000.0,-43.945,-69.824,-1000.0
1743153672.654,169.434,-46.387,-42.48,265.625
1743153672.658,907.227,-63.965,-19.043,678.711
1743153672.615,999.512,-45.898,12.695,999.512
1743153672.619,205.078,-62.012,-29.297,188.477
1743153672.623,-1000.0,-49.805,-133.789,-1000.0
1743153672.627,-1000.0,-49.805,-162.109,-1000.0
1743153672.631,-466.309,-38.086,-84.961,-459.473
1743153672.635,999.512,-37.598,-27.832,999.512
1743153672.639,520.02,-69.824,-25.391,356.445
1743153672.642,-947.266,-69.336,-51.758,-1000.0
1743153672.646,-990.234,-44.922,-67.383,-971.68
1743153672.65,-1000.0,-43.945,-69.824,-1000.0
1743153672.654,169.434,-46.387,-42.48,265.625
1743153672.658,907.227,-63.965,-19.043,678.711
1743153672.659,-638.672,-68.848,-66.406,-853.516
1743153672.663,-1000.0,-46.387,-116.699,-1000.0
1743153672.667,-874.512,-25.391,-81.543,-887.695
1743153672.671,458.008,-0.977,-35.645,523.438
1743153672.675,999.512,-29.785,-15.625,869.629
1743153672.679,-328.613,-80.078,-17.09,-624.023
1743153672.683,-1000.0,-91.309,-90.332,-1000.0
1743153672.686,-853.027,-74.707,-123.535,-808.594
1743153672.69,570.801,-33.203,-126.465,659.668
1743153672.694,946.777,-37.598,-95.215,740.234
1743153672.698,-536.133,-59.082,-49.805,-751.953
1743153672.702,-1000.0,-54.199,-46.875,-1000.0
1743153672.659,-638.672,-68.848,-66.406,-853.516
1743153672.663,-1000.0,-46.387,-116.699,-1000.0
1743153672.667,-874.512,-25.391,-81.543,-887.695
1743153672.671,458.008,-0.977,-35.645,523.438
1743153672.675,999.512,-29.785,-15.625,869.629
1743153672.679,-328.613,-80.078,-17.09,-624.023
1743153672.683,-1000.0,-91.309,-90.332,-1000.0
1743153672.686,-853.027,-74.707,-123.535,-808.594
1743153672.69,570.801,-33.203,-126.465,659.668
1743153672.694,946.777,-37.598,-95.215,740.234
1743153672.698,-536.133,-59.082,-49.805,-751.953
1743153672.702,-1000.0,-54.199,-46.875,-1000.0
1743153672.749,-335.449,-51.758,-35.156,-344.727
1743153672.753,923.34,-55.176,-78.613,950.195
1743153672.757,999.512,-46.875,-107.422,999.512
1743153672.761,-20.02,-58.594,-78.613,-188.477
1743153672.765,-1000.0,-72.754,-68.359,-1000.0
1743153672.769,-298.34,-30.273,-55.664,-269.043
1743153672.773,942.383,-40.527,-71.777,958.984
1743153672.776,999.512,-69.336,-73.73,999.512
1743153672.78,187.988,-94.727,-73.73,74.707
1743153672.784,-1000.0,-82.52,-80.078,-1000.0
1743153672.788,-456.543,-19.043,-71.289,-380.371
1743153672.792,872.07,-9.277,-85.938,896.484
1743153672.749,-335.449,-51.758,-35.156,-344.727
1743153672.753,923.34,-55.176,-78.613,950.195
1743153672.757,999.512,-46.875,-107.422,999.512
1743153672.761,-20.02,-58.594,-78.613,-188.477
1743153672.765,-1000.0,-72.754,-68.359,-1000.0
1743153672.769,-298.34,-30.273,-55.664,-269.043
1743153672.773,942.383,-40.527,-71.777,958.984
1743153672.776,999.512,-69.336,-73.73,999.512
1743153672.78,187.988,-94.727,-73.73,74.707
1743153672.784,-1000.0,-82.52,-80.078,-1000.0
1743153672.788,-456.543,-19.043,-71.289,-380.371
1743153672.792,872.07,-9.277,-85.938,896.484
1743153672.795,-746.094,-38.086,-73.73,-787.109
1743153672.799,-1000.0,-80.566,21.973,-1000.0
1743153672.803,9.277,-67.871,-39.062,186.035
1743153672.807,999.512,-26.855,-36.621,999.512
1743153672.811,629.395,-104.492,-100.586,614.746
1743153672.815,-711.426,-131.836,-156.25,-705.566
1743153672.819,-1000.0,-83.496,-75.195,-1000.0
1743153672.822,-213.379,-102.051,-24.414,-99.121
1743153672.826,999.512,-169.922,-97.656,999.512
1743153672.83,736.816,-192.383,-71.777,691.895
1743153672.834,-608.887,-160.156,20.996,-615.723
1743153672.838,-1000.0,-135.254,-61.035,-1000.0
1743153672.795,-746.094,-38.086,-73.73,-787.109
1743153672.799,-1000.0,-80.566,21.973,-1000.0
1743153672.803,9.277,-67.871,-39.062,186.035
1743153672.807,999.512,-26.855,-36.621,999.512
1743153672.811,629.395,-104.492,-100.586,614.746
1743153672.815,-711.426,-131.836,-156.25,-705.566
1743153672.819,-1000.0,-83.496,-75.195,-1000.0
1743153672.822,-213.379,-102.051,-24.414,-99.121
1743153672.826,999.512,-169.922,-97.656,999.512
1743153672.83,736.816,-192.383,-71.777,691.895
1743153672.834,-608.887,-160.156,20.996,-615.723
1743153672.838,-1000.0,-135.254,-61.035,-1000.0
1743153672.839,-667.48,-106.934,-145.508,-526.855
1743153672.843,757.812,-101.074,-94.238,892.578
1743153672.847,999.512,-113.77,-80.078,882.324
1743153672.851,-442.383,-116.699,-89.355,-544.922
1743153672.855,-1000.0,-82.031,-60.547,-1000.0
1743153672.859,-1000.0,-63.965,26.367,-1000.0
1743153672.863,36.133,-100.586,9.277,192.871
1743153672.866,999.512,-130.859,-59.57,879.395
1743153672.87,-529.785,-152.344,-16.113,-698.73
1743153672.874,-1000.0,-109.863,-2.441,-1000.0
1743153672.878,-1000.0,-75.195,-6.348,-1000.0
1743153672.882,-739.746,-62.012,12.207,-686.523
1743153672.839,-667.48,-106.934,-145.508,-526.855
1743153672.843,757.812,-101.074,-94.238,892.578
1743153672.847,999.512,-113.77,-80.078,882.324
1743153672.851,-442.383,-116.699,-89.355,-544.922
1743153672.855,-1000.0,-82.031,-60.547,-1000.0
1743153672.859,-1000.0,-63.965,26.367,-1000.0
1743153672.863,36.133,-100.586,9.277,192.871
1743153672.866,999.512,-130.859,-59.57,879.395
1743153672.87,-529.785,-152.344,-16.113,-698.73
1743153672.874,-1000.0,-109.863,-2.441,-1000.0
1743153672.878,-1000.0,-75.195,-6.348,-1000.0
1743153672.882,-739.746,-62.012,12.207,-686.523
1743153672.839,-667.48,-106.934,-145.508,-526.855
1743153672.843,757.812,-101.074,-94.238,892.578
1743153672.847,999.512,-113.77,-80.078,882.324
1743153672.851,-442.383,-116.699,-89.355,-544.922
1743153672.855,-1000.0,-82.031,-60.547,-1000.0
1743153672.859,-1000.0,-63.965,26.367,-1000.0
1743153672.863,36.133,-100.586,9.277,192.871
1743153672.866,999.512,-130.859,-59.57,879.395
1743153672.87,-529.785,-152.344,-16.113,-698.73
1743153672.874,-1000.0,-109.863,-2.441,-1000.0
1743153672.878,-1000.0,-75.195,-6.348,-1000.0
1743153672.882,-739.746,-62.012,12.207,-686.523
1743153672.899,915.039,-39.062,14.648,914.551
1743153672.903,253.418,-80.566,38.574,165.039
1743153672.907,-1000.0,-110.84,-33.691,-1000.0
1743153672.911,-914.551,-121.582,-48.34,-930.176
1743153672.915,-1000.0,-154.297,74.707,-1000.0
1743153672.919,42.48,-114.258,59.57,123.535
1743153672.923,342.285,-115.723,-33.691,250.0
1743153672.926,-1000.0,-119.141,-58.594,-1000.0
1743153672.93,-1000.0,-100.586,-31.25,-992.676
1743153672.934,-998.047,-163.086,131.348,-1000.0
1743153672.938,413.086,-164.062,391.602,401.855
1743153672.942,892.578,-150.879,561.523,612.305
1743153673.409,-1000.0,105.469,-19.531,-1000.0
1743153673.413,-1000.0,116.699,-10.742,-1000.0
1743153673.417,-1000.0,102.051,-32.715,-1000.0
1743153673.421,-1000.0,91.797,-62.5,-1000.0
1743153673.425,-1000.0,106.445,-38.574,-1000.0
1743153673.429,-1000.0,97.656,-9.766,-1000.0
1743153673.433,-1000.0,65.43,-39.551,-1000.0
1743153673.436,-1000.0,43.945,-15.137,-1000.0
1743153673.44,-1000.0,62.988,11.719,-1000.0
1743153673.444,-1000.0,101.562,1.953,-1000.0
1743153673.448,-1000.0,96.191,-19.531,-1000.0
1743153673.452,-1000.0,71.289,-42.48,-1000.0
1743153672.944,-627.93,-114.746,584.961,-895.02
1743153672.948,-1000.0,-89.355,470.703,-1000.0
1743153672.952,-564.941,-74.219,500.0,-611.328
1743153672.956,999.512,-69.336,477.539,956.055
1743153672.96,419.434,-127.441,278.32,319.824
1743153672.964,-994.141,-125.488,216.797,-1000.0
1743153672.968,-1000.0,-112.305,123.535,-1000.0
1743153672.971,-171.387,-95.215,65.43,-159.18
1743153672.975,999.512,-76.172,20.02,999.512
1743153672.979,999.512,-75.684,-26.367,874.512
1743153672.983,-190.918,-79.102,49.316,-470.703
1743153672.987,-1000.0,-67.383,40.527,-1000.0
1743153672.944,-627.93,-114.746,584.961,-895.02
1743153672.948,-1000.0,-89.355,470.703,-1000.0
1743153672.952,-564.941,-74.219,500.0,-611.328
1743153672.956,999.512,-69.336,477.539,956.055
1743153672.96,419.434,-127.441,278.32,319.824
1743153672.964,-994.141,-125.488,216.797,-1000.0
1743153672.968,-1000.0,-112.305,123.535,-1000.0
1743153672.971,-171.387,-95.215,65.43,-159.18
1743153672.975,999.512,-76.172,20.02,999.512
1743153672.979,999.512,-75.684,-26.367,874.512
1743153672.983,-190.918,-79.102,49.316,-470.703
1743153672.987,-1000.0,-67.383,40.527,-1000.0
1743153672.989,201.66,-54.199,-39.062,307.129
1743153672.993,999.512,-85.938,-50.781,999.512
1743153672.997,900.879,-89.355,-67.383,950.195
1743153673.001,999.512,-61.523,-79.59,901.855
1743153673.005,-400.391,-71.289,-125.0,-596.191
1743153673.009,-337.402,-12.207,-170.41,-185.547
1743153673.013,999.512,17.578,-180.664,999.512
1743153673.016,945.801,-37.598,-165.039,926.758
1743153673.02,939.941,-64.941,-65.918,949.707
1743153673.024,972.656,-63.965,-25.391,970.703
1743153673.028,979.004,-48.34,-92.285,978.027
1743153673.032,914.551,-55.664,-147.461,919.922
1743153672.989,201.66,-54.199,-39.062,307.129
1743153672.993,999.512,-85.938,-50.781,999.512
1743153672.997,900.879,-89.355,-67.383,950.195
1743153673.001,999.512,-61.523,-79.59,901.855
1743153673.005,-400.391,-71.289,-125.0,-596.191
1743153673.009,-337.402,-12.207,-170.41,-185.547
1743153673.013,999.512,17.578,-180.664,999.512
1743153673.016,945.801,-37.598,-165.039,926.758
1743153673.02,939.941,-64.941,-65.918,949.707
1743153673.024,972.656,-63.965,-25.391,970.703
1743153673.028,979.004,-48.34,-92.285,978.027
1743153673.032,914.551,-55.664,-147.461,919.922
1743153673.034,999.512,-40.039,-152.832,999.512
1743153673.038,911.133,-22.461,-143.555,930.176
1743153673.042,-677.246,-46.875,-89.355,-625.0
1743153673.046,-331.055,-11.23,-152.344,-319.336
1743153673.05,999.512,-1.465,-197.266,999.512
1743153673.054,938.965,-26.855,-85.938,943.848
1743153673.058,938.965,-30.762,-54.199,938.477
1743153673.061,973.145,-37.109,-81.543,925.781
1743153673.065,966.797,-31.25,-71.289,952.637
1743153673.069,903.32,-57.129,-58.105,912.109
1743153673.073,999.512,-11.23,-47.363,999.512
1743153673.077,244.141,108.887,-80.078,249.023
1743153673.034,999.512,-40.039,-152.832,999.512
1743153673.038,911.133,-22.461,-143.555,930.176
1743153673.042,-677.246,-46.875,-89.355,-625.0
1743153673.046,-331.055,-11.23,-152.344,-319.336
1743153673.05,999.512,-1.465,-197.266,999.512
1743153673.054,938.965,-26.855,-85.938,943.848
1743153673.058,938.965,-30.762,-54.199,938.477
1743153673.061,973.145,-37.109,-81.543,925.781
1743153673.065,966.797,-31.25,-71.289,952.637
1743153673.069,903.32,-57.129,-58.105,912.109
1743153673.073,999.512,-11.23,-47.363,999.512
1743153673.077,244.141,108.887,-80.078,249.023
1743153673.08,-1000.0,176.758,-125.0,-1000.0
1743153673.084,-806.641,227.051,-69.336,-669.434
1743153673.088,549.316,287.598,-11.23,690.43
1743153673.092,999.512,310.547,-16.602,999.512
1743153673.096,171.387,279.785,-48.34,170.898
1743153673.1,-967.285,264.16,-87.402,-971.68
1743153673.104,-1000.0,314.941,-104.98,-1000.0
1743153673.107,-407.715,369.141,-86.426,-367.676
1743153673.111,999.512,366.211,-71.777,999.512
1743153673.115,315.918,273.438,-55.176,239.258
1743153673.119,-1000.0,232.422,-13.672,-1000.0
1743153673.123,-933.105,301.27,-27.832,-936.035
1743153673.08,-1000.0,176.758,-125.0,-1000.0
1743153673.084,-806.641,227.051,-69.336,-669.434
1743153673.088,549.316,287.598,-11.23,690.43
1743153673.092,999.512,310.547,-16.602,999.512
1743153673.096,171.387,279.785,-48.34,170.898
1743153673.1,-967.285,264.16,-87.402,-971.68
1743153673.104,-1000.0,314.941,-104.98,-1000.0
1743153673.107,-407.715,369.141,-86.426,-367.676
1743153673.111,999.512,366.211,-71.777,999.512
1743153673.115,315.918,273.438,-55.176,239.258
1743153673.119,-1000.0,232.422,-13.672,-1000.0
1743153673.123,-933.105,301.27,-27.832,-936.035
1743153673.589,919.434,-2.93,-29.785,949.219
1743153673.593,976.562,-10.742,-57.129,969.727
1743153673.597,966.309,16.113,-69.824,966.797
1743153673.601,966.309,28.32,-88.867,966.797
1743153673.605,966.309,8.301,-67.871,966.797
1743153673.609,966.309,9.766,-30.762,966.797
1743153673.613,966.309,27.344,17.09,967.285
1743153673.616,975.098,17.578,22.949,967.285
1743153673.62,930.664,-14.648,-51.27,965.332
1743153673.624,967.285,-4.395,-78.125,896.973
1743153673.628,981.934,21.973,-41.504,999.512
1743153673.632,-312.5,-16.113,-63.965,124.023
1743153673.124,-1000.0,317.871,-87.402,-1000.0
1743153673.128,66.895,318.848,-87.402,132.812
1743153673.132,695.312,297.363,-46.875,511.23
1743153673.136,-905.762,239.258,-30.762,-1000.0
1743153673.14,-993.164,267.578,-21.973,-962.402
1743153673.144,-1000.0,293.457,8.301,-1000.0
1743153673.148,-134.766,280.762,-3.418,-75.684
1743153673.151,708.008,226.074,-37.598,513.672
1743153673.155,-827.637,178.223,-42.969,-980.469
1743153673.159,-1000.0,228.516,-20.508,-1000.0
1743153673.163,-932.617,240.723,1.465,-946.777
1743153673.167,-1000.0,201.66,15.137,-1000.0
1743153673.169,-998.047,198.73,-17.578,-1000.0
1743153673.173,-942.383,223.633,-117.676,-937.012
1743153673.177,-1000.0,209.473,-112.305,-1000.0
1743153673.181,-232.422,214.844,-16.602,-301.758
1743153673.185,999.512,242.676,17.09,999.512
1743153673.189,705.078,196.777,18.555,546.875
1743153673.193,-729.492,141.113,-5.371,-896.484
1743153673.196,-1000.0,159.668,-49.316,-1000.0
1743153673.2,-882.812,173.34,-74.707,-923.34
1743153673.204,-1000.0,179.199,-73.73,-1000.0
1743153673.208,124.023,211.426,-27.344,221.68
1743153673.212,547.852,157.227,12.695,347.656
1743153673.169,-998.047,198.73,-17.578,-1000.0
1743153673.173,-942.383,223.633,-117.676,-937.012
1743153673.177,-1000.0,209.473,-112.305,-1000.0
1743153673.181,-232.422,214.844,-16.602,-301.758
1743153673.185,999.512,242.676,17.09,999.512
1743153673.189,705.078,196.777,18.555,546.875
1743153673.193,-729.492,141.113,-5.371,-896.484
1743153673.196,-1000.0,159.668,-49.316,-1000.0
1743153673.2,-882.812,173.34,-74.707,-923.34
1743153673.204,-1000.0,179.199,-73.73,-1000.0
1743153673.208,124.023,211.426,-27.344,221.68
1743153673.212,547.852,157.227,12.695,347.656
1743153673.214,-941.895,110.352,-18.066,-1000.0
1743153673.218,-1000.0,140.625,-59.57,-1000.0
1743153673.222,-313.965,166.504,-43.457,-337.402
1743153673.226,999.512,172.852,-36.621,999.512
1743153673.23,246.094,114.746,-107.422,220.215
1743153673.234,-1000.0,86.426,-79.59,-1000.0
1743153673.238,-1000.0,123.535,19.043,-993.164
1743153673.241,126.465,152.832,-7.812,205.566
1743153673.245,999.512,135.742,-52.734,999.512
1743153673.249,119.629,111.816,-23.438,69.336
1743153673.253,-1000.0,104.98,-28.809,-1000.0
1743153673.257,-1000.0,75.684,-41.016,-1000.0
1743153673.274,-416.992,93.75,-12.695,-386.719
1743153673.278,999.512,134.277,-34.18,999.512
1743153673.282,336.426,80.078,-101.562,262.695
1743153673.286,-989.746,53.223,-109.863,-1000.0
1743153673.29,-1000.0,85.449,-42.48,-1000.0
1743153673.294,-325.684,104.98,0.488,-334.961
1743153673.298,999.512,116.699,-37.598,999.512
1743153673.301,244.141,73.73,-20.508,214.355
1743153673.305,-1000.0,24.414,26.367,-1000.0
1743153673.309,-907.715,14.648,30.762,-911.133
1743153673.313,-1000.0,7.324,50.293,-1000.0
1743153673.317,-144.531,15.137,49.805,-44.434
1743153673.274,-416.992,93.75,-12.695,-386.719
1743153673.278,999.512,134.277,-34.18,999.512
1743153673.282,336.426,80.078,-101.562,262.695
1743153673.286,-989.746,53.223,-109.863,-1000.0
1743153673.29,-1000.0,85.449,-42.48,-1000.0
1743153673.294,-325.684,104.98,0.488,-334.961
1743153673.298,999.512,116.699,-37.598,999.512
1743153673.301,244.141,73.73,-20.508,214.355
1743153673.305,-1000.0,24.414,26.367,-1000.0
1743153673.309,-907.715,14.648,30.762,-911.133
1743153673.313,-1000.0,7.324,50.293,-1000.0
1743153673.317,-144.531,15.137,49.805,-44.434
1743153673.274,-416.992,93.75,-12.695,-386.719
1743153673.278,999.512,134.277,-34.18,999.512
1743153673.282,336.426,80.078,-101.562,262.695
1743153673.286,-989.746,53.223,-109.863,-1000.0
1743153673.29,-1000.0,85.449,-42.48,-1000.0
1743153673.294,-325.684,104.98,0.488,-334.961
1743153673.298,999.512,116.699,-37.598,999.512
1743153673.301,244.141,73.73,-20.508,214.355
1743153673.305,-1000.0,24.414,26.367,-1000.0
1743153673.309,-907.715,14.648,30.762,-911.133
1743153673.313,-1000.0,7.324,50.293,-1000.0
1743153673.317,-144.531,15.137,49.805,-44.434
1743153673.319,802.734,-3.418,31.738,636.23
1743153673.323,-717.773,-37.109,16.113,-894.531
1743153673.327,-1000.0,-4.395,32.715,-1000.0
1743153673.331,-929.199,4.395,47.363,-940.43
1743153673.335,-1000.0,-5.859,23.438,-1000.0
1743153673.339,-1000.0,11.23,22.461,-1000.0
1743153673.343,-1000.0,-10.254,2.441,-1000.0
1743153673.346,-925.781,-36.133,17.578,-920.898
1743153673.35,-1000.0,-17.09,40.527,-1000.0
1743153673.354,-450.195,30.273,-7.324,-446.777
1743153673.358,999.512,44.922,-13.184,944.336
1743153673.362,-30.273,0.977,22.949,-271.484
1743153673.319,802.734,-3.418,31.738,636.23
1743153673.323,-717.773,-37.109,16.113,-894.531
1743153673.327,-1000.0,-4.395,32.715,-1000.0
1743153673.331,-929.199,4.395,47.363,-940.43
1743153673.335,-1000.0,-5.859,23.438,-1000.0
1743153673.339,-1000.0,11.23,22.461,-1000.0
1743153673.343,-1000.0,-10.254,2.441,-1000.0
1743153673.346,-925.781,-36.133,17.578,-920.898
1743153673.35,-1000.0,-17.09,40.527,-1000.0
1743153673.354,-450.195,30.273,-7.324,-446.777
1743153673.358,999.512,44.922,-13.184,944.336
1743153673.362,-30.273,0.977,22.949,-271.484
1743153673.319,802.734,-3.418,31.738,636.23
1743153673.323,-717.773,-37.109,16.113,-894.531
1743153673.327,-1000.0,-4.395,32.715,-1000.0
1743153673.331,-929.199,4.395,47.363,-940.43
1743153673.335,-1000.0,-5.859,23.438,-1000.0
1743153673.339,-1000.0,11.23,22.461,-1000.0
1743153673.343,-1000.0,-10.254,2.441,-1000.0
1743153673.346,-925.781,-36.133,17.578,-920.898
1743153673.35,-1000.0,-17.09,40.527,-1000.0
1743153673.354,-450.195,30.273,-7.324,-446.777
1743153673.358,999.512,44.922,-13.184,944.336
1743153673.362,-30.273,0.977,22.949,-271.484
1743153673.366,-1000.0,-5.859,38.086,-1000.0
1743153673.37,-941.895,10.254,50.293,-928.223
1743153673.374,-990.234,12.207,58.594,-1000.0
1743153673.378,-1000.0,-12.695,27.832,-1000.0
1743153673.382,-1000.0,-10.254,10.254,-1000.0
1743153673.386,-1000.0,17.578,-41.016,-1000.0
1743153673.39,-1000.0,47.363,-64.941,-1000.0
1743153673.393,-1000.0,73.242,-27.832,-1000.0
1743153673.397,-1000.0,70.312,-5.371,-1000.0
1743153673.401,-1000.0,67.383,28.32,-1000.0
1743153673.405,-1000.0,91.797,34.18,-1000.0
1743153673.409,-1000.0,104.492,-10.254,-1000.0
1743153673.366,-1000.0,-5.859,38.086,-1000.0
1743153673.37,-941.895,10.254,50.293,-928.223
1743153673.374,-990.234,12.207,58.594,-1000.0
1743153673.378,-1000.0,-12.695,27.832,-1000.0
1743153673.382,-1000.0,-10.254,10.254,-1000.0
1743153673.386,-1000.0,17.578,-41.016,-1000.0
1743153673.39,-1000.0,47.363,-64.941,-1000.0
1743153673.393,-1000.0,73.242,-27.832,-1000.0
1743153673.397,-1000.0,70.312,-5.371,-1000.0
1743153673.401,-1000.0,67.383,28.32,-1000.0
1743153673.405,-1000.0,91.797,34.18,-1000.0
1743153673.409,-1000.0,104.492,-10.254,-1000.0
1743153673.454,-1000.0,68.848,-35.645,-1000.0
1743153673.458,-926.758,75.195,-36.621,-929.688
1743153673.462,-1000.0,67.383,-69.336,-1000.0
1743153673.466,-530.273,82.52,-97.656,-651.367
1743153673.47,979.492,95.215,-64.941,929.199
1743153673.474,855.469,64.941,-27.832,701.172
1743153673.478,-610.84,40.039,-29.785,-805.176
1743153673.481,-1000.0,65.918,-15.137,-1000.0
1743153673.485,-1000.0,66.895,-41.016,-1000.0
1743153673.489,-145.996,65.918,-98.633,-35.156
1743153673.493,999.512,69.336,-104.004,999.512
1743153673.497,224.121,36.133,-41.016,131.348
1743153673.499,-1000.0,21.484,-2.93,-1000.0
1743153673.503,-448.242,62.5,-21.973,-350.098
1743153673.507,885.254,83.008,-27.832,920.898
1743153673.511,999.512,39.551,-43.457,999.512
1743153673.515,669.434,17.09,-40.039,629.883
1743153673.519,-923.34,18.555,-41.504,-942.383
1743153673.523,-447.754,66.406,-49.316,-344.238
1743153673.526,999.512,70.312,-25.391,999.512
1743153673.53,890.137,34.18,-8.301,887.207
1743153673.534,999.512,32.715,-29.785,999.512
1743153673.538,4.883,9.277,-71.777,-39.551
1743153673.542,-611.816,34.668,-96.68,-457.031
1743153673.499,-1000.0,21.484,-2.93,-1000.0
1743153673.503,-448.242,62.5,-21.973,-350.098
1743153673.507,885.254,83.008,-27.832,920.898
1743153673.511,999.512,39.551,-43.457,999.512
1743153673.515,669.434,17.09,-40.039,629.883
1743153673.519,-923.34,18.555,-41.504,-942.383
1743153673.523,-447.754,66.406,-49.316,-344.238
1743153673.526,999.512,70.312,-25.391,999.512
1743153673.53,890.137,34.18,-8.301,887.207
1743153673.534,999.512,32.715,-29.785,999.512
1743153673.538,4.883,9.277,-71.777,-39.551
1743153673.542,-611.816,34.668,-96.68,-457.031
1743153673.544,928.223,80.566,-68.848,999.512
1743153673.548,999.512,42.48,-58.594,996.094
1743153673.552,909.18,14.648,-75.684,923.34
1743153673.556,980.957,11.719,-36.133,977.539
1743153673.56,966.309,36.133,9.766,966.797
1743153673.564,972.168,28.32,-8.301,972.656
1743153673.568,891.602,9.766,-44.434,937.5
1743153673.571,999.512,9.277,-42.48,999.512
1743153673.575,151.367,-6.348,-18.555,744.629
1743153673.579,-374.512,22.949,-29.297,529.785
1743153673.583,989.746,50.293,-40.039,972.168
1743153673.587,999.512,21.484,-17.578,984.375
1743153673.635,-1000.0,-16.602,-53.223,-1000.0
1743153673.639,219.727,31.738,1.953,427.734
1743153673.643,999.512,5.371,-26.855,999.512
1743153673.647,906.25,-8.301,-77.637,896.484
1743153673.651,965.332,28.32,-119.629,974.609
1743153673.655,980.469,46.875,-101.562,976.074
1743153673.659,906.25,16.602,-78.125,930.664
1743153673.662,999.512,-6.348,-79.59,974.121
1743153673.666,734.863,-23.926,-97.168,954.59
1743153673.67,-590.82,-44.434,-140.625,-266.113
1743153673.674,-1000.0,-3.906,-119.141,-1000.0
1743153673.678,-458.008,44.434,-128.906,-347.168
1743153673.635,-1000.0,-16.602,-53.223,-1000.0
1743153673.639,219.727,31.738,1.953,427.734
1743153673.643,999.512,5.371,-26.855,999.512
1743153673.647,906.25,-8.301,-77.637,896.484
1743153673.651,965.332,28.32,-119.629,974.609
1743153673.655,980.469,46.875,-101.562,976.074
1743153673.659,906.25,16.602,-78.125,930.664
1743153673.662,999.512,-6.348,-79.59,974.121
1743153673.666,734.863,-23.926,-97.168,954.59
1743153673.67,-590.82,-44.434,-140.625,-266.113
1743153673.674,-1000.0,-3.906,-119.141,-1000.0
1743153673.678,-458.008,44.434,-128.906,-347.168
1743153673.635,-1000.0,-16.602,-53.223,-1000.0
1743153673.639,219.727,31.738,1.953,427.734
1743153673.643,999.512,5.371,-26.855,999.512
1743153673.647,906.25,-8.301,-77.637,896.484
1743153673.651,965.332,28.32,-119.629,974.609
1743153673.655,980.469,46.875,-101.562,976.074
1743153673.659,906.25,16.602,-78.125,930.664
1743153673.662,999.512,-6.348,-79.59,974.121
1743153673.666,734.863,-23.926,-97.168,954.59
1743153673.67,-590.82,-44.434,-140.625,-266.113
1743153673.674,-1000.0,-3.906,-119.141,-1000.0
1743153673.678,-458.008,44.434,-128.906,-347.168
1743153673.694,828.125,35.156,-150.879,894.043
1743153673.698,999.512,-20.02,-119.141,999.512
1743153673.702,134.766,-43.457,-85.449,123.535
1743153673.706,-994.629,-23.438,-101.074,-1000.0
1743153673.71,-1000.0,-1.953,-114.746,-1000.0
1743153673.714,-248.535,18.066,-62.5,-157.715
1743153673.718,999.512,14.648,-93.75,999.512
1743153673.721,165.527,-65.918,-136.23,93.75
1743153673.725,-1000.0,-56.152,-70.801,-1000.0
1743153673.729,-935.059,3.906,-33.691,-954.102
1743153673.733,-1000.0,-12.207,-79.102,-1000.0
1743153673.737,205.078,-12.207,-114.746,311.035
1743153673.694,828.125,35.156,-150.879,894.043
1743153673.698,999.512,-20.02,-119.141,999.512
1743153673.702,134.766,-43.457,-85.449,123.535
1743153673.706,-994.629,-23.438,-101.074,-1000.0
1743153673.71,-1000.0,-1.953,-114.746,-1000.0
1743153673.714,-248.535,18.066,-62.5,-157.715
1743153673.718,999.512,14.648,-93.75,999.512
1743153673.721,165.527,-65.918,-136.23,93.75
1743153673.725,-1000.0,-56.152,-70.801,-1000.0
1743153673.729,-935.059,3.906,-33.691,-954.102
1743153673.733,-1000.0,-12.207,-79.102,-1000.0
1743153673.737,205.078,-12.207,-114.746,311.035
1743153673.694,828.125,35.156,-150.879,894.043
1743153673.698,999.512,-20.02,-119.141,999.512
1743153673.702,134.766,-43.457,-85.449,123.535
1743153673.706,-994.629,-23.438,-101.074,-1000.0
1743153673.71,-1000.0,-1.953,-114.746,-1000.0
1743153673.714,-248.535,18.066,-62.5,-157.715
1743153673.718,999.512,14.648,-93.75,999.512
1743153673.721,165.527,-65.918,-136.23,93.75
1743153673.725,-1000.0,-56.152,-70.801,-1000.0
1743153673.729,-935.059,3.906,-33.691,-954.102
1743153673.733,-1000.0,-12.207,-79.102,-1000.0
1743153673.737,205.078,-12.207,-114.746,311.035
1743153673.739,521.973,-37.598,-99.609,386.23
1743153673.743,-1000.0,-57.617,-57.617,-1000.0
1743153673.747,-973.633,-16.602,-23.926,-960.449
1743153673.751,-1000.0,-20.996,-18.066,-1000.0
1743153673.755,119.629,-11.719,-77.148,187.988
1743153673.759,775.879,-4.395,-100.586,572.266
1743153673.763,-847.168,-45.41,-57.129,-993.652
1743153673.766,-1000.0,-32.715,-38.086,-963.379
1743153673.77,-1000.0,-11.719,-37.109,-1000.0
1743153673.774,-305.664,-9.766,-47.363,-275.391
1743153673.778,999.512,-19.531,-40.527,894.531
1743153673.782,-190.43,-36.621,-18.066,-502.441
1743153673.739,521.973,-37.598,-99.609,386.23
1743153673.743,-1000.0,-57.617,-57.617,-1000.0
1743153673.747,-973.633,-16.602,-23.926,-960.449
1743153673.751,-1000.0,-20.996,-18.066,-1000.0
1743153673.755,119.629,-11.719,-77.148,187.988
1743153673.759,775.879,-4.395,-100.586,572.266
1743153673.763,-847.168,-45.41,-57.129,-993.652
1743153673.766,-1000.0,-32.715,-38.086,-963.379
1743153673.77,-1000.0,-11.719,-37.109,-1000.0
1743153673.774,-305.664,-9.766,-47.363,-275.391
1743153673.778,999.512,-19.531,-40.527,894.531
1743153673.782,-190.43,-36.621,-18.066,-502.441
1743153673.784,-1000.0,-18.555,-39.062,-1000.0
1743153673.788,-1000.0,-8.301,-54.199,-1000.0
1743153673.792,-266.113,3.906,-56.152,-224.609
1743153673.796,999.512,-6.348,-65.918,999.512
1743153673.8,71.777,-52.734,-58.105,-180.664
1743153673.804,-1000.0,-42.969,-35.156,-1000.0
1743153673.808,-598.633,4.883,-11.23,-591.309
1743153673.811,765.625,19.043,-27.832,751.953
1743153673.815,999.512,14.16,-49.316,999.512
1743153673.819,69.824,-10.254,-35.645,-81.055
1743153673.823,-1000.0,-41.016,-37.598,-1000.0
1743153673.827,-961.426,-32.227,-40.039,-854.492
1743153673.784,-1000.0,-18.555,-39.062,-1000.0
1743153673.788,-1000.0,-8.301,-54.199,-1000.0
1743153673.792,-266.113,3.906,-56.152,-224.609
1743153673.796,999.512,-6.348,-65.918,999.512
1743153673.8,71.777,-52.734,-58.105,-180.664
1743153673.804,-1000.0,-42.969,-35.156,-1000.0
1743153673.808,-598.633,4.883,-11.23,-591.309
1743153673.811,765.625,19.043,-27.832,751.953
1743153673.815,999.512,14.16,-49.316,999.512
1743153673.819,69.824,-10.254,-35.645,-81.055
1743153673.823,-1000.0,-41.016,-37.598,-1000.0
1743153673.827,-961.426,-32.227,-40.039,-854.492
1743153674.294,161.621,-59.082,-36.621,35.645
1743153674.298,-1000.0,-55.664,-98.145,-1000.0
1743153674.302,-1000.0,-25.391,-72.754,-1000.0
1743153674.306,-256.836,-5.859,-12.207,-275.391
1743153674.31,999.512,1.953,20.508,999.512
1743153674.314,155.762,-52.734,6.836,136.719
1743153674.318,-1000.0,-70.801,-58.105,-1000.0
1743153674.321,-1000.0,-29.785,-66.895,-1000.0
1743153674.325,-792.969,-14.16,-4.883,-723.633
1743153674.329,811.035,-4.395,1.465,864.746
1743153674.333,318.359,-40.039,-35.645,260.254
1743153674.337,-1000.0,-51.27,-42.969,-1000.0
1743153673.784,-1000.0,-18.555,-39.062,-1000.0
1743153673.788,-1000.0,-8.301,-54.199,-1000.0
1743153673.792,-266.113,3.906,-56.152,-224.609
1743153673.796,999.512,-6.348,-65.918,999.512
1743153673.8,71.777,-52.734,-58.105,-180.664
1743153673.804,-1000.0,-42.969,-35.156,-1000.0
1743153673.808,-598.633,4.883,-11.23,-591.309
1743153673.811,765.625,19.043,-27.832,751.953
1743153673.815,999.512,14.16,-49.316,999.512
1743153673.819,69.824,-10.254,-35.645,-81.055
1743153673.823,-1000.0,-41.016,-37.598,-1000.0
1743153673.827,-961.426,-32.227,-40.039,-854.492
1743153673.829,287.109,-35.156,-34.668,404.297
1743153673.833,999.512,-24.902,-57.129,999.512
1743153673.837,195.312,-30.762,-94.727,133.789
1743153673.841,-1000.0,-32.715,-73.73,-1000.0
1743153673.845,-562.988,21.484,-21.484,-507.324
1743153673.849,817.383,23.438,1.465,831.055
1743153673.853,999.512,-21.484,-1.465,999.512
1743153673.856,268.555,-68.848,-19.043,245.117
1743153673.86,-974.609,-81.543,-40.039,-1000.0
1743153673.864,-1000.0,-28.32,-51.758,-1000.0
1743153673.868,23.438,5.859,-77.148,155.762
1743153673.872,999.512,-5.859,-84.473,999.512
1743153673.829,287.109,-35.156,-34.668,404.297
1743153673.833,999.512,-24.902,-57.129,999.512
1743153673.837,195.312,-30.762,-94.727,133.789
1743153673.841,-1000.0,-32.715,-73.73,-1000.0
1743153673.845,-562.988,21.484,-21.484,-507.324
1743153673.849,817.383,23.438,1.465,831.055
1743153673.853,999.512,-21.484,-1.465,999.512
1743153673.856,268.555,-68.848,-19.043,245.117
1743153673.86,-974.609,-81.543,-40.039,-1000.0
1743153673.864,-1000.0,-28.32,-51.758,-1000.0
1743153673.868,23.438,5.859,-77.148,155.762
1743153673.872,999.512,-5.859,-84.473,999.512
1743153673.889,781.25,-31.25,-55.176,669.922
1743153673.893,-511.719,-27.832,-57.129,-630.859
1743153673.897,-1000.0,-18.066,-112.305,-1000.0
1743153673.901,-171.875,6.348,-88.379,-89.355
1743153673.905,999.512,-5.859,-9.766,999.512
1743153673.909,999.512,-41.504,6.836,906.25
1743153673.913,-148.926,-52.246,-7.324,-316.895
1743153673.916,-1000.0,-36.621,-31.738,-1000.0
1743153673.92,-205.566,5.859,-34.18,-179.688
1743153673.924,999.512,11.719,-35.645,999.512
1743153673.928,904.297,-10.742,-54.199,805.176
1743153673.932,-392.578,-17.09,-115.234,-503.906
1743153673.889,781.25,-31.25,-55.176,669.922
1743153673.893,-511.719,-27.832,-57.129,-630.859
1743153673.897,-1000.0,-18.066,-112.305,-1000.0
1743153673.901,-171.875,6.348,-88.379,-89.355
1743153673.905,999.512,-5.859,-9.766,999.512
1743153673.909,999.512,-41.504,6.836,906.25
1743153673.913,-148.926,-52.246,-7.324,-316.895
1743153673.916,-1000.0,-36.621,-31.738,-1000.0
1743153673.92,-205.566,5.859,-34.18,-179.688
1743153673.924,999.512,11.719,-35.645,999.512
1743153673.928,904.297,-10.742,-54.199,805.176
1743153673.932,-392.578,-17.09,-115.234,-503.906
1743153673.889,781.25,-31.25,-55.176,669.922
1743153673.893,-511.719,-27.832,-57.129,-630.859
1743153673.897,-1000.0,-18.066,-112.305,-1000.0
1743153673.901,-171.875,6.348,-88.379,-89.355
1743153673.905,999.512,-5.859,-9.766,999.512
1743153673.909,999.512,-41.504,6.836,906.25
1743153673.913,-148.926,-52.246,-7.324,-316.895
1743153673.916,-1000.0,-36.621,-31.738,-1000.0
1743153673.92,-205.566,5.859,-34.18,-179.688
1743153673.924,999.512,11.719,-35.645,999.512
1743153673.928,904.297,-10.742,-54.199,805.176
1743153673.932,-392.578,-17.09,-115.234,-503.906
1743153673.934,-1000.0,-4.395,-117.676,-1000.0
1743153673.938,-190.43,9.277,-28.32,-190.43
1743153673.942,999.512,-4.883,-1.465,999.512
1743153673.946,949.219,-39.062,-40.039,853.027
1743153673.95,-291.504,-71.777,-85.449,-427.734
1743153673.954,-1000.0,-41.992,-99.609,-1000.0
1743153673.958,-354.98,12.207,-92.285,-312.5
1743153673.961,978.027,-7.324,-59.082,999.512
1743153673.965,969.727,-33.691,-20.996,847.656
1743153673.969,-331.543,-46.875,-74.219,-478.027
1743153673.973,-1000.0,-50.293,-90.82,-1000.0
1743153673.977,-839.844,-22.461,-50.781,-731.934
1743153673.934,-1000.0,-4.395,-117.676,-1000.0
1743153673.938,-190.43,9.277,-28.32,-190.43
1743153673.942,999.512,-4.883,-1.465,999.512
1743153673.946,949.219,-39.062,-40.039,853.027
1743153673.95,-291.504,-71.777,-85.449,-427.734
1743153673.954,-1000.0,-41.992,-99.609,-1000.0
1743153673.958,-354.98,12.207,-92.285,-312.5
1743153673.961,978.027,-7.324,-59.082,999.512
1743153673.965,969.727,-33.691,-20.996,847.656
1743153673.969,-331.543,-46.875,-74.219,-478.027
1743153673.973,-1000.0,-50.293,-90.82,-1000.0
1743153673.977,-839.844,-22.461,-50.781,-731.934
1743153673.934,-1000.0,-4.395,-117.676,-1000.0
1743153673.938,-190.43,9.277,-28.32,-190.43
1743153673.942,999.512,-4.883,-1.465,999.512
1743153673.946,949.219,-39.062,-40.039,853.027
1743153673.95,-291.504,-71.777,-85.449,-427.734
1743153673.954,-1000.0,-41.992,-99.609,-1000.0
1743153673.958,-354.98,12.207,-92.285,-312.5
1743153673.961,978.027,-7.324,-59.082,999.512
1743153673.965,969.727,-33.691,-20.996,847.656
1743153673.969,-331.543,-46.875,-74.219,-478.027
1743153673.973,-1000.0,-50.293,-90.82,-1000.0
1743153673.977,-839.844,-22.461,-50.781,-731.934
1743153673.964,443.359,0.488,-42.969,586.426
1743153673.968,999.512,-17.09,-12.207,999.512
1743153673.972,-46.875,-37.598,-42.969,-174.805
1743153673.976,-1000.0,-26.367,-106.445,-1000.0
1743153673.98,-945.801,-11.23,-86.426,-854.98
1743153673.984,285.645,4.883,-4.883,403.809
1743153673.988,999.512,-14.648,-14.16,999.512
1743153673.991,110.352,-48.34,-83.984,15.625
1743153673.995,-1000.0,-50.293,-63.477,-1000.0
1743153673.999,-1000.0,-39.062,-19.043,-1000.0
1743153674.003,-200.195,-20.508,-7.324,-103.027
1743153674.007,999.512,-1.465,6.348,999.512
1743153673.964,443.359,0.488,-42.969,586.426
1743153673.968,999.512,-17.09,-12.207,999.512
1743153673.972,-46.875,-37.598,-42.969,-174.805
1743153673.976,-1000.0,-26.367,-106.445,-1000.0
1743153673.98,-945.801,-11.23,-86.426,-854.98
1743153673.984,285.645,4.883,-4.883,403.809
1743153673.988,999.512,-14.648,-14.16,999.512
1743153673.991,110.352,-48.34,-83.984,15.625
1743153673.995,-1000.0,-50.293,-63.477,-1000.0
1743153673.999,-1000.0,-39.062,-19.043,-1000.0
1743153674.003,-200.195,-20.508,-7.324,-103.027
1743153674.007,999.512,-1.465,6.348,999.512
1743153674.024,197.754,-41.016,-40.527,189.941
1743153674.028,-1000.0,-45.898,-61.523,-1000.0
1743153674.032,-1000.0,-12.207,-58.594,-984.863
1743153674.036,91.797,7.324,-35.156,209.473
1743153674.04,999.512,-7.812,-20.02,999.512
1743153674.044,849.121,-58.594,-32.227,741.699
1743153674.048,-474.121,-73.242,-19.531,-639.648
1743153674.051,-1000.0,-9.277,-26.855,-1000.0
1743153674.055,215.82,33.203,-35.645,378.906
1743153674.059,999.512,-29.785,-61.523,999.512
1743153674.063,999.512,-56.152,-48.828,999.512
1743153674.067,239.258,-54.688,15.625,186.523
1743153674.069,-1000.0,-46.875,-19.043,-1000.0
1743153674.073,-99.609,10.254,-80.078,63.965
1743153674.077,999.512,3.906,-49.316,999.512
1743153674.081,999.512,-32.227,-5.859,999.512
1743153674.085,351.074,-46.875,16.113,313.965
1743153674.089,-1000.0,-21.484,15.137,-1000.0
1743153674.093,-118.164,11.719,-17.578,42.48
1743153674.096,999.512,-16.113,-74.707,999.512
1743153674.1,999.512,-37.598,-55.176,999.512
1743153674.104,499.512,-76.66,-16.113,483.887
1743153674.108,-1000.0,-91.309,-16.602,-1000.0
1743153674.112,-238.281,7.324,-30.273,-222.656
1743153674.069,-1000.0,-46.875,-19.043,-1000.0
1743153674.073,-99.609,10.254,-80.078,63.965
1743153674.077,999.512,3.906,-49.316,999.512
1743153674.081,999.512,-32.227,-5.859,999.512
1743153674.085,351.074,-46.875,16.113,313.965
1743153674.089,-1000.0,-21.484,15.137,-1000.0
1743153674.093,-118.164,11.719,-17.578,42.48
1743153674.096,999.512,-16.113,-74.707,999.512
1743153674.1,999.512,-37.598,-55.176,999.512
1743153674.104,499.512,-76.66,-16.113,483.887
1743153674.108,-1000.0,-91.309,-16.602,-1000.0
1743153674.112,-238.281,7.324,-30.273,-222.656
1743153674.069,-1000.0,-46.875,-19.043,-1000.0
1743153674.073,-99.609,10.254,-80.078,63.965
1743153674.077,999.512,3.906,-49.316,999.512
1743153674.081,999.512,-32.227,-5.859,999.512
1743153674.085,351.074,-46.875,16.113,313.965
1743153674.089,-1000.0,-21.484,15.137,-1000.0
1743153674.093,-118.164,11.719,-17.578,42.48
1743153674.096,999.512,-16.113,-74.707,999.512
1743153674.1,999.512,-37.598,-55.176,999.512
1743153674.104,499.512,-76.66,-16.113,483.887
1743153674.108,-1000.0,-91.309,-16.602,-1000.0
1743153674.112,-238.281,7.324,-30.273,-222.656
1743153674.114,999.512,24.414,-76.172,999.512
1743153674.118,997.559,-22.949,-74.707,999.512
1743153674.122,807.617,-21.973,5.859,745.605
1743153674.126,-789.062,-35.645,28.809,-839.844
1743153674.13,-445.312,-2.441,-16.113,-343.75
1743153674.134,975.098,0.0,-25.879,999.512
1743153674.138,999.512,-42.969,-18.066,999.512
1743153674.141,519.531,-53.711,-37.109,485.84
1743153674.145,-1000.0,-54.199,-45.41,-1000.0
1743153674.149,-661.621,-7.812,-34.668,-513.672
1743153674.153,786.133,8.301,-23.926,881.836
1743153674.157,999.512,4.883,-0.977,999.512
1743153674.114,999.512,24.414,-76.172,999.512
1743153674.118,997.559,-22.949,-74.707,999.512
1743153674.122,807.617,-21.973,5.859,745.605
1743153674.126,-789.062,-35.645,28.809,-839.844
1743153674.13,-445.312,-2.441,-16.113,-343.75
1743153674.134,975.098,0.0,-25.879,999.512
1743153674.138,999.512,-42.969,-18.066,999.512
1743153674.141,519.531,-53.711,-37.109,485.84
1743153674.145,-1000.0,-54.199,-45.41,-1000.0
1743153674.149,-661.621,-7.812,-34.668,-513.672
1743153674.153,786.133,8.301,-23.926,881.836
1743153674.157,999.512,4.883,-0.977,999.512
1743153674.159,454.102,-19.043,-9.766,419.922
1743153674.163,-879.395,-57.617,-55.664,-939.941
1743153674.167,-1000.0,-28.32,-78.125,-1000.0
1743153674.171,12.207,-2.93,-35.156,197.754
1743153674.175,999.512,-13.672,15.625,999.512
1743153674.179,377.441,-56.641,5.371,308.594
1743153674.183,-923.34,-51.27,-48.828,-961.426
1743153674.186,-1000.0,-19.043,-42.969,-1000.0
1743153674.19,-201.66,-25.391,-27.832,-72.754
1743153674.194,999.512,-15.137,-26.855,999.512
1743153674.198,329.59,-40.527,13.184,263.184
1743153674.202,-972.168,-71.289,-17.09,-995.117
1743153674.159,454.102,-19.043,-9.766,419.922
1743153674.163,-879.395,-57.617,-55.664,-939.941
1743153674.167,-1000.0,-28.32,-78.125,-1000.0
1743153674.171,12.207,-2.93,-35.156,197.754
1743153674.175,999.512,-13.672,15.625,999.512
1743153674.179,377.441,-56.641,5.371,308.594
1743153674.183,-923.34,-51.27,-48.828,-961.426
1743153674.186,-1000.0,-19.043,-42.969,-1000.0
1743153674.19,-201.66,-25.391,-27.832,-72.754
1743153674.194,999.512,-15.137,-26.855,999.512
1743153674.198,329.59,-40.527,13.184,263.184
1743153674.202,-972.168,-71.289,-17.09,-995.117
1743153674.205,-1000.0,-20.996,-47.852,-1000.0
1743153674.209,-233.887,5.371,-30.273,-148.926
1743153674.213,999.512,-10.742,-15.137,999.512
1743153674.217,429.688,-60.059,-37.109,345.703
1743153674.221,-941.406,-72.266,-45.898,-981.445
1743153674.225,-1000.0,-23.438,-8.301,-1000.0
1743153674.229,-80.566,3.418,-5.859,-14.648
1743153674.232,999.512,-28.809,-60.547,999.512
1743153674.236,811.523,-62.5,-72.266,692.383
1743153674.24,-493.652,-64.941,-32.227,-613.77
1743153674.244,-1000.0,-48.34,-20.996,-1000.0
1743153674.248,-178.711,-12.695,-29.297,-185.059
1743153674.205,-1000.0,-20.996,-47.852,-1000.0
1743153674.209,-233.887,5.371,-30.273,-148.926
1743153674.213,999.512,-10.742,-15.137,999.512
1743153674.217,429.688,-60.059,-37.109,345.703
1743153674.221,-941.406,-72.266,-45.898,-981.445
1743153674.225,-1000.0,-23.438,-8.301,-1000.0
1743153674.229,-80.566,3.418,-5.859,-14.648
1743153674.232,999.512,-28.809,-60.547,999.512
1743153674.236,811.523,-62.5,-72.266,692.383
1743153674.24,-493.652,-64.941,-32.227,-613.77
1743153674.244,-1000.0,-48.34,-20.996,-1000.0
1743153674.248,-178.711,-12.695,-29.297,-185.059
1743153674.205,-1000.0,-20.996,-47.852,-1000.0
1743153674.209,-233.887,5.371,-30.273,-148.926
1743153674.213,999.512,-10.742,-15.137,999.512
1743153674.217,429.688,-60.059,-37.109,345.703
1743153674.221,-941.406,-72.266,-45.898,-981.445
1743153674.225,-1000.0,-23.438,-8.301,-1000.0
1743153674.229,-80.566,3.418,-5.859,-14.648
1743153674.232,999.512,-28.809,-60.547,999.512
1743153674.236,811.523,-62.5,-72.266,692.383
1743153674.24,-493.652,-64.941,-32.227,-613.77
1743153674.244,-1000.0,-48.34,-20.996,-1000.0
1743153674.248,-178.711,-12.695,-29.297,-185.059
1743153674.249,999.512,2.93,-29.297,999.512
1743153674.253,999.512,-12.207,9.766,914.062
1743153674.257,-138.672,-43.945,-28.32,-304.199
1743153674.261,-1000.0,-56.641,-66.895,-1000.0
1743153674.265,-536.621,-12.695,-32.227,-479.492
1743153674.269,815.918,18.555,-20.508,856.934
1743153674.273,999.512,-14.16,-8.789,999.512
1743153674.276,-45.41,-52.734,9.766,-176.758
1743153674.28,-1000.0,-56.641,-48.828,-1000.0
1743153674.284,-1000.0,-28.809,-62.5,-1000.0
1743153674.288,-268.555,9.277,-4.395,-254.883
1743153674.292,999.512,6.348,6.836,999.512
1743153674.249,999.512,2.93,-29.297,999.512
1743153674.253,999.512,-12.207,9.766,914.062
1743153674.257,-138.672,-43.945,-28.32,-304.199
1743153674.261,-1000.0,-56.641,-66.895,-1000.0
1743153674.265,-536.621,-12.695,-32.227,-479.492
1743153674.269,815.918,18.555,-20.508,856.934
1743153674.273,999.512,-14.16,-8.789,999.512
1743153674.276,-45.41,-52.734,9.766,-176.758
1743153674.28,-1000.0,-56.641,-48.828,-1000.0
1743153674.284,-1000.0,-28.809,-62.5,-1000.0
1743153674.288,-268.555,9.277,-4.395,-254.883
1743153674.292,999.512,6.348,6.836,999.512
1743153674.249,999.512,2.93,-29.297,999.512
1743153674.253,999.512,-12.207,9.766,914.062
1743153674.257,-138.672,-43.945,-28.32,-304.199
1743153674.261,-1000.0,-56.641,-66.895,-1000.0
1743153674.265,-536.621,-12.695,-32.227,-479.492
1743153674.269,815.918,18.555,-20.508,856.934
1743153674.273,999.512,-14.16,-8.789,999.512
1743153674.276,-45.41,-52.734,9.766,-176.758
1743153674.28,-1000.0,-56.641,-48.828,-1000.0
1743153674.284,-1000.0,-28.809,-62.5,-1000.0
1743153674.288,-268.555,9.277,-4.395,-254.883
1743153674.292,999.512,6.348,6.836,999.512
1743153674.339,-1000.0,-13.184,-32.227,-1000.0
1743153674.343,-556.641,12.695,-20.508,-509.766
1743153674.347,999.512,21.973,-4.395,999.512
1743153674.351,364.258,-28.32,-8.301,272.949
1743153674.355,-1000.0,-43.945,-9.277,-1000.0
1743153674.359,-1000.0,-15.625,-5.371,-1000.0
1743153674.363,-295.41,22.461,-1.465,-312.5
1743153674.366,999.512,34.668,4.883,999.512
1743153674.37,178.223,-18.555,-0.977,175.293
1743153674.374,-1000.0,-25.879,-2.441,-1000.0
1743153674.378,-898.926,7.812,2.441,-909.18
1743153674.382,-1000.0,12.695,3.906,-1000.0
1743153674.339,-1000.0,-13.184,-32.227,-1000.0
1743153674.343,-556.641,12.695,-20.508,-509.766
1743153674.347,999.512,21.973,-4.395,999.512
1743153674.351,364.258,-28.32,-8.301,272.949
1743153674.355,-1000.0,-43.945,-9.277,-1000.0
1743153674.359,-1000.0,-15.625,-5.371,-1000.0
1743153674.363,-295.41,22.461,-1.465,-312.5
1743153674.366,999.512,34.668,4.883,999.512
1743153674.37,178.223,-18.555,-0.977,175.293
1743153674.374,-1000.0,-25.879,-2.441,-1000.0
1743153674.378,-898.926,7.812,2.441,-909.18
1743153674.382,-1000.0,12.695,3.906,-1000.0
1743153674.399,-110.352,46.387,3.418,-13.672
1743153674.403,724.121,43.945,-9.277,572.266
1743153674.407,-818.848,13.672,-8.301,-949.707
1743153674.411,-1000.0,66.406,16.602,-985.84
1743153674.415,-1000.0,76.66,-2.441,-1000.0
1743153674.419,-212.402,74.219,-17.09,-135.254
1743153674.423,990.234,73.73,36.621,813.965
1743153674.426,-463.867,40.527,36.133,-697.266
1743153674.43,-1000.0,41.992,-33.203,-1000.0
1743153674.434,-989.258,61.523,-21.973,-1000.0
1743153674.438,-887.695,94.238,50.781,-804.199
1743153674.442,728.516,126.953,87.891,715.332
1743153674.399,-110.352,46.387,3.418,-13.672
1743153674.403,724.121,43.945,-9.277,572.266
1743153674.407,-818.848,13.672,-8.301,-949.707
1743153674.411,-1000.0,66.406,16.602,-985.84
1743153674.415,-1000.0,76.66,-2.441,-1000.0
1743153674.419,-212.402,74.219,-17.09,-135.254
1743153674.423,990.234,73.73,36.621,813.965
1743153674.426,-463.867,40.527,36.133,-697.266
1743153674.43,-1000.0,41.992,-33.203,-1000.0
1743153674.434,-989.258,61.523,-21.973,-1000.0
1743153674.438,-887.695,94.238,50.781,-804.199
1743153674.442,728.516,126.953,87.891,715.332
1743153674.399,-110.352,46.387,3.418,-13.672
1743153674.403,724.121,43.945,-9.277,572.266
1743153674.407,-818.848,13.672,-8.301,-949.707
1743153674.411,-1000.0,66.406,16.602,-985.84
1743153674.415,-1000.0,76.66,-2.441,-1000.0
1743153674.419,-212.402,74.219,-17.09,-135.254
1743153674.423,990.234,73.73,36.621,813.965
1743153674.426,-463.867,40.527,36.133,-697.266
1743153674.43,-1000.0,41.992,-33.203,-1000.0
1743153674.434,-989.258,61.523,-21.973,-1000.0
1743153674.438,-887.695,94.238,50.781,-804.199
1743153674.442,728.516,126.953,87.891,715.332
1743153674.444,284.668,91.309,81.055,123.047
1743153674.448,-1000.0,74.707,35.645,-1000.0
1743153674.452,-971.68,106.934,3.418,-958.008
1743153674.456,-973.145,118.652,-9.766,-983.398
1743153674.46,-1000.0,104.004,25.391,-1000.0
1743153674.464,-925.781,82.031,83.496,-933.594
1743153674.468,-1000.0,82.52,71.289,-1000.0
1743153674.471,-557.129,105.469,31.738,-705.078
1743153674.475,863.281,102.051,22.949,758.789
1743153674.479,999.512,35.156,4.395,999.512
1743153674.483,-181.152,-16.113,-10.742,-371.582
1743153674.487,-1000.0,-4.395,-10.742,-1000.0
1743153674.444,284.668,91.309,81.055,123.047
1743153674.448,-1000.0,74.707,35.645,-1000.0
1743153674.452,-971.68,106.934,3.418,-958.008
1743153674.456,-973.145,118.652,-9.766,-983.398
1743153674.46,-1000.0,104.004,25.391,-1000.0
1743153674.464,-925.781,82.031,83.496,-933.594
1743153674.468,-1000.0,82.52,71.289,-1000.0
1743153674.471,-557.129,105.469,31.738,-705.078
1743153674.475,863.281,102.051,22.949,758.789
1743153674.479,999.512,35.156,4.395,999.512
1743153674.483,-181.152,-16.113,-10.742,-371.582
1743153674.487,-1000.0,-4.395,-10.742,-1000.0
1743153674.49,-1000.0,-7.324,-9.766,-1000.0
1743153674.494,-412.109,-24.902,-20.02,-385.254
1743153674.498,999.512,-18.555,-50.781,999.512
1743153674.502,455.566,-72.266,-71.777,348.633
1743153674.506,-949.707,-97.168,-63.965,-1000.0
1743153674.51,-1000.0,-54.688,-70.801,-1000.0
1743153674.514,-95.703,-52.734,-67.871,-31.25
1743153674.517,999.512,-75.195,-31.738,999.512
1743153674.521,790.527,-100.098,-30.273,684.57
1743153674.525,-582.031,-111.328,-67.871,-706.543
1743153674.529,-1000.0,-81.543,-68.359,-1000.0
1743153674.533,119.629,-54.688,-42.48,246.094
1743153674.49,-1000.0,-7.324,-9.766,-1000.0
1743153674.494,-412.109,-24.902,-20.02,-385.254
1743153674.498,999.512,-18.555,-50.781,999.512
1743153674.502,455.566,-72.266,-71.777,348.633
1743153674.506,-949.707,-97.168,-63.965,-1000.0
1743153674.51,-1000.0,-54.688,-70.801,-1000.0
1743153674.514,-95.703,-52.734,-67.871,-31.25
1743153674.517,999.512,-75.195,-31.738,999.512
1743153674.521,790.527,-100.098,-30.273,684.57
1743153674.525,-582.031,-111.328,-67.871,-706.543
1743153674.529,-1000.0,-81.543,-68.359,-1000.0
1743153674.533,119.629,-54.688,-42.48,246.094
1743153674.49,-1000.0,-7.324,-9.766,-1000.0
1743153674.494,-412.109,-24.902,-20.02,-385.254
1743153674.498,999.512,-18.555,-50.781,999.512
1743153674.502,455.566,-72.266,-71.777,348.633
1743153674.506,-949.707,-97.168,-63.965,-1000.0
1743153674.51,-1000.0,-54.688,-70.801,-1000.0
1743153674.514,-95.703,-52.734,-67.871,-31.25
1743153674.517,999.512,-75.195,-31.738,999.512
1743153674.521,790.527,-100.098,-30.273,684.57
1743153674.525,-582.031,-111.328,-67.871,-706.543
1743153674.529,-1000.0,-81.543,-68.359,-1000.0
1743153674.533,119.629,-54.688,-42.48,246.094
1743153674.534,999.512,-79.59,-31.25,999.512
1743153674.538,999.512,-102.539,-2.93,999.512
1743153674.542,225.098,-120.605,22.949,210.938
1743153674.546,-1000.0,-118.164,29.785,-1000.0
1743153674.55,-22.949,-62.988,38.574,145.02
1743153674.554,999.512,-78.125,14.648,999.512
1743153674.558,918.945,-104.492,-15.137,929.688
1743153674.561,952.637,-87.402,-10.742,899.902
1743153674.565,968.75,-85.449,-16.602,833.008
1743153674.569,978.027,-86.914,-11.23,976.562
1743153674.573,918.457,-80.566,3.418,934.082
1743153674.577,999.512,-81.055,-9.766,982.422
1743153674.534,999.512,-79.59,-31.25,999.512
1743153674.538,999.512,-102.539,-2.93,999.512
1743153674.542,225.098,-120.605,22.949,210.938
1743153674.546,-1000.0,-118.164,29.785,-1000.0
1743153674.55,-22.949,-62.988,38.574,145.02
1743153674.554,999.512,-78.125,14.648,999.512
1743153674.558,918.945,-104.492,-15.137,929.688
1743153674.561,952.637,-87.402,-10.742,899.902
1743153674.565,968.75,-85.449,-16.602,833.008
1743153674.569,978.027,-86.914,-11.23,976.562
1743153674.573,918.457,-80.566,3.418,934.082
1743153674.577,999.512,-81.055,-9.766,982.422
1743153674.579,943.848,-99.121,-4.883,994.629
1743153674.583,-625.0,-109.375,32.715,-461.914
1743153674.587,-325.684,-72.266,24.902,-158.691
1743153674.591,999.512,-54.688,-19.043,999.512
1743153674.595,938.965,-61.035,-31.25,923.828
1743153674.599,939.941,-68.848,-12.207,952.637
1743153674.603,972.656,-68.848,22.461,970.215
1743153674.606,966.309,-58.594,56.641,966.797
1743153674.61,966.309,-68.848,46.875,967.285
1743153674.614,966.309,-63.477,-1.953,966.797
1743153674.618,966.309,-55.176,-16.602,966.797
1743153674.622,966.309,-64.453,-31.738,967.285
1743153674.624,978.516,-62.012,-80.078,977.051
1743153674.628,895.996,-44.434,-37.598,926.27
1743153674.632,999.512,-50.293,30.273,984.375
1743153674.636,577.148,-78.125,-12.207,993.164
1743153674.64,-1000.0,-99.121,-40.527,-535.156
1743153674.644,-307.129,-38.086,-11.719,-340.332
1743153674.648,999.512,-2.93,-41.016,999.512
1743153674.651,870.605,-64.941,-31.738,885.254
1743153674.655,999.512,-83.984,26.855,999.512
1743153674.659,185.547,-87.402,46.387,64.941
1743153674.663,-1000.0,-75.684,-7.812,-834.473
1743153674.667,336.426,-35.156,-41.504,624.023
1743153674.624,978.516,-62.012,-80.078,977.051
1743153674.628,895.996,-44.434,-37.598,926.27
1743153674.632,999.512,-50.293,30.273,984.375
1743153674.636,577.148,-78.125,-12.207,993.164
1743153674.64,-1000.0,-99.121,-40.527,-535.156
1743153674.644,-307.129,-38.086,-11.719,-340.332
1743153674.648,999.512,-2.93,-41.016,999.512
1743153674.651,870.605,-64.941,-31.738,885.254
1743153674.655,999.512,-83.984,26.855,999.512
1743153674.659,185.547,-87.402,46.387,64.941
1743153674.663,-1000.0,-75.684,-7.812,-834.473
1743153674.667,336.426,-35.156,-41.504,624.023
1743153674.669,999.512,-41.992,-47.852,999.512
1743153674.673,999.512,-58.594,-55.176,999.512
1743153674.677,212.891,-75.195,-5.371,136.719
1743153674.681,-1000.0,-54.688,25.879,-1000.0
1743153674.685,-69.824,-6.348,17.578,108.887
1743153674.689,999.512,-4.395,6.348,999.512
1743153674.693,825.195,-45.898,-14.648,759.277
1743153674.696,-438.477,-72.266,-32.715,-477.539
1743153674.7,-1000.0,-52.246,-38.574,-1000.0
1743153674.704,-795.41,-29.785,-61.523,-644.043
1743153674.708,725.586,-8.301,-123.047,877.441
1743153674.712,719.727,-38.574,-114.746,575.684
1743153674.669,999.512,-41.992,-47.852,999.512
1743153674.673,999.512,-58.594,-55.176,999.512
1743153674.677,212.891,-75.195,-5.371,136.719
1743153674.681,-1000.0,-54.688,25.879,-1000.0
1743153674.685,-69.824,-6.348,17.578,108.887
1743153674.689,999.512,-4.395,6.348,999.512
1743153674.693,825.195,-45.898,-14.648,759.277
1743153674.696,-438.477,-72.266,-32.715,-477.539
1743153674.7,-1000.0,-52.246,-38.574,-1000.0
1743153674.704,-795.41,-29.785,-61.523,-644.043
1743153674.708,725.586,-8.301,-123.047,877.441
1743153674.712,719.727,-38.574,-114.746,575.684
1743153674.669,999.512,-41.992,-47.852,999.512
1743153674.673,999.512,-58.594,-55.176,999.512
1743153674.677,212.891,-75.195,-5.371,136.719
1743153674.681,-1000.0,-54.688,25.879,-1000.0
1743153674.685,-69.824,-6.348,17.578,108.887
1743153674.689,999.512,-4.395,6.348,999.512
1743153674.693,825.195,-45.898,-14.648,759.277
1743153674.696,-438.477,-72.266,-32.715,-477.539
1743153674.7,-1000.0,-52.246,-38.574,-1000.0
1743153674.704,-795.41,-29.785,-61.523,-644.043
1743153674.708,725.586,-8.301,-123.047,877.441
1743153674.712,719.727,-38.574,-114.746,575.684
1743153674.73,-885.742,-76.172,-29.297,-955.078
1743153674.734,-1000.0,-48.828,19.043,-1000.0
1743153674.738,-939.941,-26.367,0.977,-992.676
1743153674.742,-1000.0,-36.133,-29.297,-787.109
1743153674.746,-1000.0,-53.223,-43.945,-770.508
1743153674.75,-932.129,-49.316,-75.195,-967.773
1743153674.754,-1000.0,-30.273,-74.219,-1000.0
1743153674.757,-390.137,-4.883,-21.484,-561.523
1743153674.761,999.512,8.301,-9.766,999.512
1743153674.765,488.281,-49.316,-64.453,399.902
1743153674.769,-972.656,-102.051,-87.402,-1000.0
1743153674.773,-1000.0,-54.688,-36.621,-1000.0
1743153674.73,-885.742,-76.172,-29.297,-955.078
1743153674.734,-1000.0,-48.828,19.043,-1000.0
1743153674.738,-939.941,-26.367,0.977,-992.676
1743153674.742,-1000.0,-36.133,-29.297,-787.109
1743153674.746,-1000.0,-53.223,-43.945,-770.508
1743153674.75,-932.129,-49.316,-75.195,-967.773
1743153674.754,-1000.0,-30.273,-74.219,-1000.0
1743153674.757,-390.137,-4.883,-21.484,-561.523
1743153674.761,999.512,8.301,-9.766,999.512
1743153674.765,488.281,-49.316,-64.453,399.902
1743153674.769,-972.656,-102.051,-87.402,-1000.0
1743153674.773,-1000.0,-54.688,-36.621,-1000.0
1743153674.775,-948.73,-14.16,-14.16,-958.496
1743153674.779,-1000.0,-27.832,-30.762,-1000.0
1743153674.783,-1000.0,-38.574,-32.715,-1000.0
1743153674.787,-1000.0,-25.391,-34.668,-1000.0
1743153674.791,-925.781,-8.301,-51.758,-929.688
1743153674.795,-1000.0,-14.16,-76.66,-1000.0
1743153674.799,-584.473,-1.953,-88.379,-680.664
1743153674.802,999.512,7.324,-75.684,901.367
1743153674.806,218.75,-39.062,-62.988,74.219
1743153674.81,-1000.0,-54.199,-69.824,-1000.0
1743153674.814,-968.262,-32.715,-83.496,-948.73
1743153674.818,-973.633,-17.578,-89.355,-985.352
1743153674.775,-948.73,-14.16,-14.16,-958.496
1743153674.779,-1000.0,-27.832,-30.762,-1000.0
1743153674.783,-1000.0,-38.574,-32.715,-1000.0
1743153674.787,-1000.0,-25.391,-34.668,-1000.0
1743153674.791,-925.781,-8.301,-51.758,-929.688
1743153674.795,-1000.0,-14.16,-76.66,-1000.0
1743153674.799,-584.473,-1.953,-88.379,-680.664
1743153674.802,999.512,7.324,-75.684,901.367
1743153674.806,218.75,-39.062,-62.988,74.219
1743153674.81,-1000.0,-54.199,-69.824,-1000.0
1743153674.814,-968.262,-32.715,-83.496,-948.73
1743153674.818,-973.633,-17.578,-89.355,-985.352
1743153674.775,-948.73,-14.16,-14.16,-958.496
1743153674.779,-1000.0,-27.832,-30.762,-1000.0
1743153674.783,-1000.0,-38.574,-32.715,-1000.0
1743153674.787,-1000.0,-25.391,-34.668,-1000.0
1743153674.791,-925.781,-8.301,-51.758,-929.688
1743153674.795,-1000.0,-14.16,-76.66,-1000.0
1743153674.799,-584.473,-1.953,-88.379,-680.664
1743153674.802,999.512,7.324,-75.684,901.367
1743153674.806,218.75,-39.062,-62.988,74.219
1743153674.81,-1000.0,-54.199,-69.824,-1000.0
1743153674.814,-968.262,-32.715,-83.496,-948.73
1743153674.818,-973.633,-17.578,-89.355,-985.352
1743153674.819,-1000.0,-22.461,-97.656,-1000.0
1743153674.823,-999.023,-22.461,-92.773,-1000.0
1743153674.827,-939.941,-18.066,-83.008,-937.012
1743153674.831,-1000.0,-33.691,-114.746,-1000.0
1743153674.835,-253.906,-17.578,-120.117,-278.32
1743153674.839,999.512,-10.254,-102.051,999.512
1743153674.843,166.504,-59.082,-80.078,131.836
1743153674.846,-1000.0,-48.828,-33.203,-1000.0
1743153674.85,-978.027,-18.066,-33.691,-972.168
1743153674.854,-973.145,-31.738,-64.941,-976.074
1743153674.858,-1000.0,-26.367,-75.684,-1000.0
1743153674.862,-1000.0,-32.227,-106.934,-1000.0
1743153674.819,-1000.0,-22.461,-97.656,-1000.0
1743153674.823,-999.023,-22.461,-92.773,-1000.0
1743153674.827,-939.941,-18.066,-83.008,-937.012
1743153674.831,-1000.0,-33.691,-114.746,-1000.0
1743153674.835,-253.906,-17.578,-120.117,-278.32
1743153674.839,999.512,-10.254,-102.051,999.512
1743153674.843,166.504,-59.082,-80.078,131.836
1743153674.846,-1000.0,-48.828,-33.203,-1000.0
1743153674.85,-978.027,-18.066,-33.691,-972.168
1743153674.854,-973.145,-31.738,-64.941,-976.074
1743153674.858,-1000.0,-26.367,-75.684,-1000.0
1743153674.862,-1000.0,-32.227,-106.934,-1000.0
1743153674.864,-933.105,-38.574,-106.445,-942.383
1743153674.868,-1000.0,-41.992,-73.242,-1000.0
1743153674.872,-729.98,-33.203,-82.52,-835.449
1743153674.876,730.469,-11.719,-119.629,665.039
1743153674.88,999.512,-30.762,-118.164,908.203
1743153674.884,-260.742,-47.363,-118.652,-544.922
1743153674.888,-1000.0,-47.852,-99.609,-1000.0
1743153674.891,-157.227,-26.367,-31.738,-179.688
1743153674.895,958.496,-38.574,-2.93,949.219
1743153674.899,999.512,-43.457,-22.461,999.512
1743153674.903,432.129,-36.621,-43.457,363.77
1743153674.907,-1000.0,-57.617,-42.48,-1000.0
1743153674.864,-933.105,-38.574,-106.445,-942.383
1743153674.868,-1000.0,-41.992,-73.242,-1000.0
1743153674.872,-729.98,-33.203,-82.52,-835.449
1743153674.876,730.469,-11.719,-119.629,665.039
1743153674.88,999.512,-30.762,-118.164,908.203
1743153674.884,-260.742,-47.363,-118.652,-544.922
1743153674.888,-1000.0,-47.852,-99.609,-1000.0
1743153674.891,-157.227,-26.367,-31.738,-179.688
1743153674.895,958.496,-38.574,-2.93,949.219
1743153674.899,999.512,-43.457,-22.461,999.512
1743153674.903,432.129,-36.621,-43.457,363.77
1743153674.907,-1000.0,-57.617,-42.48,-1000.0
1743153674.864,-933.105,-38.574,-106.445,-942.383
1743153674.868,-1000.0,-41.992,-73.242,-1000.0
1743153674.872,-729.98,-33.203,-82.52,-835.449
1743153674.876,730.469,-11.719,-119.629,665.039
1743153674.88,999.512,-30.762,-118.164,908.203
1743153674.884,-260.742,-47.363,-118.652,-544.922
1743153674.888,-1000.0,-47.852,-99.609,-1000.0
1743153674.891,-157.227,-26.367,-31.738,-179.688
1743153674.895,958.496,-38.574,-2.93,949.219
1743153674.899,999.512,-43.457,-22.461,999.512
1743153674.903,432.129,-36.621,-43.457,363.77
1743153674.907,-1000.0,-57.617,-42.48,-1000.0
1743153674.909,-234.863,-23.926,-38.574,-214.355
1743153674.913,999.512,-17.09,-47.363,999.512
1743153674.917,915.039,-41.992,-64.941,933.594
1743153674.921,999.512,-48.34,-52.734,999.512
1743153674.925,-343.75,-68.359,-45.41,-405.762
1743153674.929,-447.754,-35.645,-45.898,-357.91
1743153674.933,994.629,-18.066,-32.227,999.512
1743153674.936,999.512,-43.457,-27.344,999.512
1743153674.94,738.77,-70.312,-57.129,798.34
1743153674.944,-780.273,-79.59,-96.68,-755.859
1743153674.948,-861.816,-34.18,-80.078,-638.184
1743153674.952,623.047,-19.531,-46.387,845.703
1743153674.909,-234.863,-23.926,-38.574,-214.355
1743153674.913,999.512,-17.09,-47.363,999.512
1743153674.917,915.039,-41.992,-64.941,933.594
1743153674.921,999.512,-48.34,-52.734,999.512
1743153674.925,-343.75,-68.359,-45.41,-405.762
1743153674.929,-447.754,-35.645,-45.898,-357.91
1743153674.933,994.629,-18.066,-32.227,999.512
1743153674.936,999.512,-43.457,-27.344,999.512
1743153674.94,738.77,-70.312,-57.129,798.34
1743153674.944,-780.273,-79.59,-96.68,-755.859
1743153674.948,-861.816,-34.18,-80.078,-638.184
1743153674.952,623.047,-19.531,-46.387,845.703
1743153674.954,999.512,-46.875,-12.695,999.512
1743153674.958,483.398,-70.312,-9.766,520.02
1743153674.962,-1000.0,-67.871,-23.438,-1000.0
1743153674.966,-787.109,-38.574,-36.133,-615.723
1743153674.97,736.816,-32.227,-62.5,897.461
1743153674.974,962.402,-45.898,-72.266,927.246
1743153674.978,999.512,-33.203,-77.148,999.512
1743153674.981,173.828,-50.781,-105.957,112.305
1743153674.985,-1000.0,-36.621,-99.121,-822.754
1743153674.989,432.617,-1.465,-38.086,680.664
1743153674.993,999.512,-41.504,3.418,999.512
1743153674.997,892.578,-75.684,37.109,898.926
1743153674.954,999.512,-46.875,-12.695,999.512
1743153674.958,483.398,-70.312,-9.766,520.02
1743153674.962,-1000.0,-67.871,-23.438,-1000.0
1743153674.966,-787.109,-38.574,-36.133,-615.723
1743153674.97,736.816,-32.227,-62.5,897.461
1743153674.974,962.402,-45.898,-72.266,927.246
1743153674.978,999.512,-33.203,-77.148,999.512
1743153674.981,173.828,-50.781,-105.957,112.305
1743153674.985,-1000.0,-36.621,-99.121,-822.754
1743153674.989,432.617,-1.465,-38.086,680.664
1743153674.993,999.512,-41.504,3.418,999.512
1743153674.997,892.578,-75.684,37.109,898.926
1743153675.464,9.277,-3.906,-38.086,143.555
1743153675.468,999.512,-31.25,-14.648,999.512
1743153675.472,999.512,-46.875,24.414,968.262
1743153675.476,-18.555,-57.129,16.602,-133.789
1743153675.48,-1000.0,-41.504,-31.25,-1000.0
1743153675.484,-207.031,3.906,-34.18,-125.977
1743153675.488,999.512,-14.648,-9.277,999.512
1743153675.491,961.426,-56.641,-10.742,870.117
1743153675.495,-276.855,-76.172,-26.367,-382.812
1743153675.499,-1000.0,-44.434,-35.156,-1000.0
1743153675.503,-245.605,0.977,-55.664,-224.609
1743153675.507,943.359,-10.742,-63.965,964.844
1743153675.0,974.609,-66.406,26.855,979.98
1743153675.004,966.309,-53.223,-49.316,967.285
1743153675.008,979.98,-37.109,-52.246,974.609
1743153675.012,898.926,-34.668,0.977,924.316
1743153675.016,999.512,-36.621,-13.672,999.512
1743153675.02,721.68,-38.574,-56.641,937.012
1743153675.024,-818.359,-44.922,-28.809,-217.773
1743153675.027,17.578,-5.859,-17.09,297.852
1743153675.031,999.512,-32.227,-31.25,999.512
1743153675.035,897.949,-62.988,0.488,902.832
1743153675.039,961.914,-53.223,16.113,973.633
1743153675.043,971.191,-41.504,3.418,967.285
1743153675.0,974.609,-66.406,26.855,979.98
1743153675.004,966.309,-53.223,-49.316,967.285
1743153675.008,979.98,-37.109,-52.246,974.609
1743153675.012,898.926,-34.668,0.977,924.316
1743153675.016,999.512,-36.621,-13.672,999.512
1743153675.02,721.68,-38.574,-56.641,937.012
1743153675.024,-818.359,-44.922,-28.809,-217.773
1743153675.027,17.578,-5.859,-17.09,297.852
1743153675.031,999.512,-32.227,-31.25,999.512
1743153675.035,897.949,-62.988,0.488,902.832
1743153675.039,961.914,-53.223,16.113,973.633
1743153675.043,971.191,-41.504,3.418,967.285
1743153675.0,974.609,-66.406,26.855,979.98
1743153675.004,966.309,-53.223,-49.316,967.285
1743153675.008,979.98,-37.109,-52.246,974.609
1743153675.012,898.926,-34.668,0.977,924.316
1743153675.016,999.512,-36.621,-13.672,999.512
1743153675.02,721.68,-38.574,-56.641,937.012
1743153675.024,-818.359,-44.922,-28.809,-217.773
1743153675.027,17.578,-5.859,-17.09,297.852
1743153675.031,999.512,-32.227,-31.25,999.512
1743153675.035,897.949,-62.988,0.488,902.832
1743153675.039,961.914,-53.223,16.113,973.633
1743153675.043,971.191,-41.504,3.418,967.285
1743153675.044,948.242,-13.184,-6.836,967.285
1743153675.048,935.547,-24.902,4.395,902.344
1743153675.052,999.512,-32.227,-11.719,999.512
1743153675.056,-34.18,-43.945,-83.496,226.562
1743153675.06,-1000.0,-61.035,-74.707,-1000.0
1743153675.064,-130.371,-15.137,28.809,-21.484
1743153675.068,983.887,-10.742,49.805,999.512
1743153675.071,999.512,-34.668,-1.953,999.512
1743153675.075,664.062,-37.598,-11.719,688.965
1743153675.079,-850.586,-54.688,-8.789,-874.512
1743153675.083,-941.895,-21.484,-9.766,-744.141
1743153675.087,518.066,8.301,-13.184,739.258
1743153675.044,948.242,-13.184,-6.836,967.285
1743153675.048,935.547,-24.902,4.395,902.344
1743153675.052,999.512,-32.227,-11.719,999.512
1743153675.056,-34.18,-43.945,-83.496,226.562
1743153675.06,-1000.0,-61.035,-74.707,-1000.0
1743153675.064,-130.371,-15.137,28.809,-21.484
1743153675.068,983.887,-10.742,49.805,999.512
1743153675.071,999.512,-34.668,-1.953,999.512
1743153675.075,664.062,-37.598,-11.719,688.965
1743153675.079,-850.586,-54.688,-8.789,-874.512
1743153675.083,-941.895,-21.484,-9.766,-744.141
1743153675.087,518.066,8.301,-13.184,739.258
1743153675.089,999.512,-15.137,-22.461,999.512
1743153675.093,135.742,-57.129,-42.969,133.301
1743153675.097,-1000.0,-57.617,-50.781,-1000.0
1743153675.101,-1000.0,-15.137,-30.273,-1000.0
1743153675.105,-7.812,10.254,-25.879,144.531
1743153675.109,999.512,4.883,-12.695,999.512
1743153675.113,190.43,-54.199,2.441,162.598
1743153675.116,-986.328,-87.891,-19.043,-989.258
1743153675.12,-1000.0,-46.387,-22.461,-1000.0
1743153675.124,-682.129,-25.879,-24.414,-594.238
1743153675.128,885.254,-19.043,-60.059,965.82
1743153675.132,730.957,-45.898,-39.551,546.387
1743153675.089,999.512,-15.137,-22.461,999.512
1743153675.093,135.742,-57.129,-42.969,133.301
1743153675.097,-1000.0,-57.617,-50.781,-1000.0
1743153675.101,-1000.0,-15.137,-30.273,-1000.0
1743153675.105,-7.812,10.254,-25.879,144.531
1743153675.109,999.512,4.883,-12.695,999.512
1743153675.113,190.43,-54.199,2.441,162.598
1743153675.116,-986.328,-87.891,-19.043,-989.258
1743153675.12,-1000.0,-46.387,-22.461,-1000.0
1743153675.124,-682.129,-25.879,-24.414,-594.238
1743153675.128,885.254,-19.043,-60.059,965.82
1743153675.132,730.957,-45.898,-39.551,546.387
1743153675.149,-774.414,-69.336,-15.625,-896.484
1743153675.153,-1000.0,-49.805,-28.809,-1000.0
1743153675.157,-228.027,-4.883,15.137,-220.703
1743153675.161,999.512,3.906,30.762,999.512
1743153675.165,626.953,-34.18,21.973,472.168
1743153675.169,-767.578,-46.387,40.527,-877.441
1743153675.173,-1000.0,-51.27,12.207,-1000.0
1743153675.176,-209.961,-27.832,10.742,-214.355
1743153675.18,999.512,-5.371,47.363,999.512
1743153675.184,848.145,-59.082,2.93,700.195
1743153675.188,-493.164,-84.961,-65.918,-666.992
1743153675.192,-1000.0,-41.992,-27.344,-1000.0
1743153675.149,-774.414,-69.336,-15.625,-896.484
1743153675.153,-1000.0,-49.805,-28.809,-1000.0
1743153675.157,-228.027,-4.883,15.137,-220.703
1743153675.161,999.512,3.906,30.762,999.512
1743153675.165,626.953,-34.18,21.973,472.168
1743153675.169,-767.578,-46.387,40.527,-877.441
1743153675.173,-1000.0,-51.27,12.207,-1000.0
1743153675.176,-209.961,-27.832,10.742,-214.355
1743153675.18,999.512,-5.371,47.363,999.512
1743153675.184,848.145,-59.082,2.93,700.195
1743153675.188,-493.164,-84.961,-65.918,-666.992
1743153675.192,-1000.0,-41.992,-27.344,-1000.0
1743153675.149,-774.414,-69.336,-15.625,-896.484
1743153675.153,-1000.0,-49.805,-28.809,-1000.0
1743153675.157,-228.027,-4.883,15.137,-220.703
1743153675.161,999.512,3.906,30.762,999.512
1743153675.165,626.953,-34.18,21.973,472.168
1743153675.169,-767.578,-46.387,40.527,-877.441
1743153675.173,-1000.0,-51.27,12.207,-1000.0
1743153675.176,-209.961,-27.832,10.742,-214.355
1743153675.18,999.512,-5.371,47.363,999.512
1743153675.184,848.145,-59.082,2.93,700.195
1743153675.188,-493.164,-84.961,-65.918,-666.992
1743153675.192,-1000.0,-41.992,-27.344,-1000.0
1743153675.194,-89.355,-9.277,50.781,-38.086
1743153675.198,992.188,-21.484,62.012,999.512
1743153675.202,999.512,-35.645,35.645,999.512
1743153675.206,119.629,-55.664,16.602,15.625
1743153675.21,-1000.0,-63.477,22.461,-1000.0
1743153675.214,-329.59,-10.742,31.738,-285.156
1743153675.218,987.305,0.977,31.738,999.512
1743153675.221,999.512,-23.438,9.277,961.914
1743153675.225,-158.203,-60.547,-52.734,-274.414
1743153675.229,-1000.0,-69.336,-54.199,-1000.0
1743153675.233,-948.73,-50.293,-20.508,-832.031
1743153675.237,260.742,-41.992,-22.949,433.105
1743153675.194,-89.355,-9.277,50.781,-38.086
1743153675.198,992.188,-21.484,62.012,999.512
1743153675.202,999.512,-35.645,35.645,999.512
1743153675.206,119.629,-55.664,16.602,15.625
1743153675.21,-1000.0,-63.477,22.461,-1000.0
1743153675.214,-329.59,-10.742,31.738,-285.156
1743153675.218,987.305,0.977,31.738,999.512
1743153675.221,999.512,-23.438,9.277,961.914
1743153675.225,-158.203,-60.547,-52.734,-274.414
1743153675.229,-1000.0,-69.336,-54.199,-1000.0
1743153675.233,-948.73,-50.293,-20.508,-832.031
1743153675.237,260.742,-41.992,-22.949,433.105
1743153675.239,999.512,-34.18,-5.371,999.512
1743153675.243,35.645,-56.641,-21.973,-92.773
1743153675.247,-1000.0,-57.617,-29.297,-1000.0
1743153675.251,-1000.0,-46.387,-2.93,-1000.0
1743153675.255,-243.652,-24.902,2.441,-150.391
1743153675.259,999.512,-12.207,22.461,999.512
1743153675.263,162.109,-76.172,28.32,70.312
1743153675.266,-1000.0,-83.984,14.16,-1000.0
1743153675.27,-946.777,-33.203,16.113,-967.773
1743153675.274,-1000.0,-20.508,-10.742,-1000.0
1743153675.278,276.367,5.371,-37.109,398.926
1743153675.282,496.582,-45.41,-10.254,364.746
1743153675.239,999.512,-34.18,-5.371,999.512
1743153675.243,35.645,-56.641,-21.973,-92.773
1743153675.247,-1000.0,-57.617,-29.297,-1000.0
1743153675.251,-1000.0,-46.387,-2.93,-1000.0
1743153675.255,-243.652,-24.902,2.441,-150.391
1743153675.259,999.512,-12.207,22.461,999.512
1743153675.263,162.109,-76.172,28.32,70.312
1743153675.266,-1000.0,-83.984,14.16,-1000.0
1743153675.27,-946.777,-33.203,16.113,-967.773
1743153675.274,-1000.0,-20.508,-10.742,-1000.0
1743153675.278,276.367,5.371,-37.109,398.926
1743153675.282,496.582,-45.41,-10.254,364.746
1743153675.239,999.512,-34.18,-5.371,999.512
1743153675.243,35.645,-56.641,-21.973,-92.773
1743153675.247,-1000.0,-57.617,-29.297,-1000.0
1743153675.251,-1000.0,-46.387,-2.93,-1000.0
1743153675.255,-243.652,-24.902,2.441,-150.391
1743153675.259,999.512,-12.207,22.461,999.512
1743153675.263,162.109,-76.172,28.32,70.312
1743153675.266,-1000.0,-83.984,14.16,-1000.0
1743153675.27,-946.777,-33.203,16.113,-967.773
1743153675.274,-1000.0,-20.508,-10.742,-1000.0
1743153675.278,276.367,5.371,-37.109,398.926
1743153675.282,496.582,-45.41,-10.254,364.746
1743153675.284,-1000.0,-67.871,32.715,-1000.0
1743153675.288,-994.629,-37.598,30.273,-999.023
1743153675.292,-1000.0,-42.48,-7.812,-1000.0
1743153675.296,339.844,-19.531,-12.695,454.59
1743153675.3,665.527,-49.805,33.691,494.629
1743153675.304,-908.203,-85.938,29.297,-983.887
1743153675.308,-1000.0,-51.27,-20.02,-1000.0
1743153675.311,-275.879,-6.348,-22.461,-298.828
1743153675.315,999.512,-18.066,-10.254,999.512
1743153675.319,291.992,-70.801,21.973,226.562
1743153675.323,-981.445,-81.543,69.336,-1000.0
1743153675.327,-1000.0,-52.246,96.68,-1000.0
1743153675.284,-1000.0,-67.871,32.715,-1000.0
1743153675.288,-994.629,-37.598,30.273,-999.023
1743153675.292,-1000.0,-42.48,-7.812,-1000.0
1743153675.296,339.844,-19.531,-12.695,454.59
1743153675.3,665.527,-49.805,33.691,494.629
1743153675.304,-908.203,-85.938,29.297,-983.887
1743153675.308,-1000.0,-51.27,-20.02,-1000.0
1743153675.311,-275.879,-6.348,-22.461,-298.828
1743153675.315,999.512,-18.066,-10.254,999.512
1743153675.319,291.992,-70.801,21.973,226.562
1743153675.323,-981.445,-81.543,69.336,-1000.0
1743153675.327,-1000.0,-52.246,96.68,-1000.0
1743153675.329,-473.145,-8.789,81.055,-457.031
1743153675.333,938.477,-4.883,38.086,991.699
1743153675.337,971.68,-38.086,-17.09,814.453
1743153675.341,-373.047,-54.199,-48.828,-572.754
1743153675.345,-1000.0,-41.016,-7.324,-1000.0
1743153675.349,-154.297,-7.324,38.574,-135.742
1743153675.353,968.262,-19.531,62.988,979.98
1743153675.356,999.512,-61.523,43.945,999.512
1743153675.36,222.168,-76.172,-5.371,142.09
1743153675.364,-1000.0,-61.035,-8.301,-1000.0
1743153675.368,-193.359,0.977,-18.066,-180.664
1743153675.372,991.211,10.254,-62.012,990.234
1743153675.329,-473.145,-8.789,81.055,-457.031
1743153675.333,938.477,-4.883,38.086,991.699
1743153675.337,971.68,-38.086,-17.09,814.453
1743153675.341,-373.047,-54.199,-48.828,-572.754
1743153675.345,-1000.0,-41.016,-7.324,-1000.0
1743153675.349,-154.297,-7.324,38.574,-135.742
1743153675.353,968.262,-19.531,62.988,979.98
1743153675.356,999.512,-61.523,43.945,999.512
1743153675.36,222.168,-76.172,-5.371,142.09
1743153675.364,-1000.0,-61.035,-8.301,-1000.0
1743153675.368,-193.359,0.977,-18.066,-180.664
1743153675.372,991.211,10.254,-62.012,990.234
1743153675.329,-473.145,-8.789,81.055,-457.031
1743153675.333,938.477,-4.883,38.086,991.699
1743153675.337,971.68,-38.086,-17.09,814.453
1743153675.341,-373.047,-54.199,-48.828,-572.754
1743153675.345,-1000.0,-41.016,-7.324,-1000.0
1743153675.349,-154.297,-7.324,38.574,-135.742
1743153675.353,968.262,-19.531,62.988,979.98
1743153675.356,999.512,-61.523,43.945,999.512
1743153675.36,222.168,-76.172,-5.371,142.09
1743153675.364,-1000.0,-61.035,-8.301,-1000.0
1743153675.368,-193.359,0.977,-18.066,-180.664
1743153675.372,991.211,10.254,-62.012,990.234
1743153675.374,999.512,-29.785,-45.898,999.512
1743153675.378,451.172,-54.199,13.184,398.438
1743153675.382,-1000.0,-59.57,41.504,-1000.0
1743153675.386,-397.461,-12.695,9.766,-304.688
1743153675.39,979.98,-12.207,-30.762,999.512
1743153675.394,969.727,-41.016,-27.344,972.656
1743153675.398,947.754,-39.062,-18.066,904.785
1743153675.401,-408.203,-67.871,7.324,-537.598
1743153675.405,-1000.0,-56.152,-8.789,-858.398
1743153675.409,465.82,-13.672,-15.625,686.523
1743153675.413,999.512,-12.695,-1.953,999.512
1743153675.417,999.512,-21.973,-5.371,985.352
1743153675.374,999.512,-29.785,-45.898,999.512
1743153675.378,451.172,-54.199,13.184,398.438
1743153675.382,-1000.0,-59.57,41.504,-1000.0
1743153675.386,-397.461,-12.695,9.766,-304.688
1743153675.39,979.98,-12.207,-30.762,999.512
1743153675.394,969.727,-41.016,-27.344,972.656
1743153675.398,947.754,-39.062,-18.066,904.785
1743153675.401,-408.203,-67.871,7.324,-537.598
1743153675.405,-1000.0,-56.152,-8.789,-858.398
1743153675.409,465.82,-13.672,-15.625,686.523
1743153675.413,999.512,-12.695,-1.953,999.512
1743153675.417,999.512,-21.973,-5.371,985.352
1743153675.374,999.512,-29.785,-45.898,999.512
1743153675.378,451.172,-54.199,13.184,398.438
1743153675.382,-1000.0,-59.57,41.504,-1000.0
1743153675.386,-397.461,-12.695,9.766,-304.688
1743153675.39,979.98,-12.207,-30.762,999.512
1743153675.394,969.727,-41.016,-27.344,972.656
1743153675.398,947.754,-39.062,-18.066,904.785
1743153675.401,-408.203,-67.871,7.324,-537.598
1743153675.405,-1000.0,-56.152,-8.789,-858.398
1743153675.409,465.82,-13.672,-15.625,686.523
1743153675.413,999.512,-12.695,-1.953,999.512
1743153675.417,999.512,-21.973,-5.371,985.352
1743153675.419,-137.695,-52.246,6.836,-273.926
1743153675.423,-1000.0,-49.805,-5.371,-983.398
1743153675.427,265.137,-20.996,-21.484,511.719
1743153675.431,999.512,-34.18,-18.066,999.512
1743153675.435,943.359,-57.129,-21.973,882.812
1743153675.439,-285.156,-77.637,-28.809,-415.039
1743153675.443,-1000.0,-48.828,-22.461,-1000.0
1743153675.446,114.746,-9.277,-40.039,344.238
1743153675.45,999.512,-8.789,-48.34,999.512
1743153675.454,555.664,-32.715,-33.203,516.113
1743153675.458,-800.781,-67.383,-33.691,-831.543
1743153675.462,-1000.0,-38.086,-42.969,-1000.0
1743153675.419,-137.695,-52.246,6.836,-273.926
1743153675.423,-1000.0,-49.805,-5.371,-983.398
1743153675.427,265.137,-20.996,-21.484,511.719
1743153675.431,999.512,-34.18,-18.066,999.512
1743153675.435,943.359,-57.129,-21.973,882.812
1743153675.439,-285.156,-77.637,-28.809,-415.039
1743153675.443,-1000.0,-48.828,-22.461,-1000.0
1743153675.446,114.746,-9.277,-40.039,344.238
1743153675.45,999.512,-8.789,-48.34,999.512
1743153675.454,555.664,-32.715,-33.203,516.113
1743153675.458,-800.781,-67.383,-33.691,-831.543
1743153675.462,-1000.0,-38.086,-42.969,-1000.0
1743153675.524,999.512,-42.969,-37.598,999.512
1743153675.528,176.27,-68.848,-12.207,69.824
1743153675.532,-1000.0,-79.102,-0.977,-1000.0
1743153675.536,-241.699,-18.555,1.465,-210.938
1743153675.54,968.262,7.324,-1.465,972.168
1743153675.544,999.512,-22.461,-20.02,999.512
1743153675.548,500.488,-51.27,-35.156,435.547
1743153675.551,-1000.0,-60.547,-46.387,-1000.0
1743153675.555,-560.547,-21.484,-74.219,-438.477
1743153675.559,893.066,-2.93,-107.91,936.523
1743153675.563,999.512,-11.719,-120.605,999.512
1743153675.567,896.973,-52.734,-79.102,804.688
1743153675.569,-608.398,-69.824,-1.465,-731.445
1743153675.573,-667.48,2.93,18.555,-529.297
1743153675.577,873.535,15.625,3.418,933.594
1743153675.581,999.512,-27.344,-18.066,999.512
1743153675.585,412.598,-62.012,-75.684,387.207
1743153675.589,-1000.0,-68.848,-85.449,-1000.0
1743153675.593,-670.898,-19.531,-47.363,-560.547
1743153675.596,755.371,-8.789,-31.25,831.543
1743153675.6,999.512,-33.203,-31.25,999.512
1743153675.604,399.902,-67.383,-45.898,378.906
1743153675.608,-945.801,-75.195,-27.344,-994.141
1743153675.612,-1000.0,-24.902,-0.977,-949.219
1743153675.569,-608.398,-69.824,-1.465,-731.445
1743153675.573,-667.48,2.93,18.555,-529.297
1743153675.577,873.535,15.625,3.418,933.594
1743153675.581,999.512,-27.344,-18.066,999.512
1743153675.585,412.598,-62.012,-75.684,387.207
1743153675.589,-1000.0,-68.848,-85.449,-1000.0
1743153675.593,-670.898,-19.531,-47.363,-560.547
1743153675.596,755.371,-8.789,-31.25,831.543
1743153675.6,999.512,-33.203,-31.25,999.512
1743153675.604,399.902,-67.383,-45.898,378.906
1743153675.608,-945.801,-75.195,-27.344,-994.141
1743153675.612,-1000.0,-24.902,-0.977,-949.219
1743153675.614,220.703,2.441,-3.418,375.0
1743153675.618,999.512,-16.602,-16.602,999.512
1743153675.622,805.176,-40.039,-19.043,714.844
1743153675.626,-489.746,-35.645,-23.926,-611.816
1743153675.63,-1000.0,-27.832,-47.852,-1000.0
1743153675.634,52.246,-1.953,-55.664,161.621
1743153675.638,999.512,-7.324,-66.406,999.512
1743153675.641,974.609,-50.781,-59.082,876.465
1743153675.645,-186.523,-74.707,-43.457,-324.707
1743153675.649,-1000.0,-48.828,-49.316,-1000.0
1743153675.653,-158.203,-4.395,-59.57,-98.633
1743153675.657,973.633,-9.766,-54.199,990.723
1743153675.614,220.703,2.441,-3.418,375.0
1743153675.618,999.512,-16.602,-16.602,999.512
1743153675.622,805.176,-40.039,-19.043,714.844
1743153675.626,-489.746,-35.645,-23.926,-611.816
1743153675.63,-1000.0,-27.832,-47.852,-1000.0
1743153675.634,52.246,-1.953,-55.664,161.621
1743153675.638,999.512,-7.324,-66.406,999.512
1743153675.641,974.609,-50.781,-59.082,876.465
1743153675.645,-186.523,-74.707,-43.457,-324.707
1743153675.649,-1000.0,-48.828,-49.316,-1000.0
1743153675.653,-158.203,-4.395,-59.57,-98.633
1743153675.657,973.633,-9.766,-54.199,990.723
1743153675.659,999.512,-35.645,-37.109,999.512
1743153675.663,222.168,-62.012,-49.316,168.457
1743153675.667,-1000.0,-54.199,-61.035,-1000.0
1743153675.671,-191.406,6.348,-36.133,-168.457
1743153675.675,990.234,-1.465,-17.578,994.141
1743153675.679,999.512,-26.367,-14.16,999.512
1743153675.683,516.113,-51.758,-6.348,452.148
1743153675.686,-1000.0,-75.684,-22.461,-1000.0
1743153675.69,-370.605,-11.23,-34.668,-292.969
1743153675.694,973.145,-5.371,-44.922,995.605
1743153675.698,999.512,-47.363,-91.797,999.512
1743153675.702,354.004,-64.453,-79.102,330.078
1743153675.659,999.512,-35.645,-37.109,999.512
1743153675.663,222.168,-62.012,-49.316,168.457
1743153675.667,-1000.0,-54.199,-61.035,-1000.0
1743153675.671,-191.406,6.348,-36.133,-168.457
1743153675.675,990.234,-1.465,-17.578,994.141
1743153675.679,999.512,-26.367,-14.16,999.512
1743153675.683,516.113,-51.758,-6.348,452.148
1743153675.686,-1000.0,-75.684,-22.461,-1000.0
1743153675.69,-370.605,-11.23,-34.668,-292.969
1743153675.694,973.145,-5.371,-44.922,995.605
1743153675.698,999.512,-47.363,-91.797,999.512
1743153675.702,354.004,-64.453,-79.102,330.078
1743153675.704,-1000.0,-60.059,-7.812,-1000.0
1743153675.708,-417.48,-8.789,18.555,-322.754
1743153675.712,926.758,2.441,13.672,963.867
1743153675.716,999.512,-28.32,-9.766,999.512
1743153675.72,710.938,-50.781,-23.438,641.113
1743153675.724,-853.516,-68.848,-14.16,-919.922
1743153675.728,-706.055,-36.133,-22.461,-562.012
1743153675.731,798.34,-12.695,-45.41,882.324
1743153675.735,999.512,-26.855,-53.711,999.512
1743153675.739,396.973,-57.617,-33.203,370.117
1743153675.743,-1000.0,-71.289,-36.621,-1000.0
1743153675.747,-925.293,-27.344,-42.969,-781.738
1743153675.704,-1000.0,-60.059,-7.812,-1000.0
1743153675.708,-417.48,-8.789,18.555,-322.754
1743153675.712,926.758,2.441,13.672,963.867
1743153675.716,999.512,-28.32,-9.766,999.512
1743153675.72,710.938,-50.781,-23.438,641.113
1743153675.724,-853.516,-68.848,-14.16,-919.922
1743153675.728,-706.055,-36.133,-22.461,-562.012
1743153675.731,798.34,-12.695,-45.41,882.324
1743153675.735,999.512,-26.855,-53.711,999.512
1743153675.739,396.973,-57.617,-33.203,370.117
1743153675.743,-1000.0,-71.289,-36.621,-1000.0
1743153675.747,-925.293,-27.344,-42.969,-781.738
1743153675.749,498.047,-25.391,-41.504,642.09
1743153675.753,999.512,-64.941,-34.668,999.512
1743153675.757,999.512,-62.988,-29.785,979.98
1743153675.761,-86.914,-52.246,-34.18,-257.324
1743153675.765,-1000.0,-25.879,-29.297,-1000.0
1743153675.769,295.41,-8.789,-41.504,478.516
1743153675.773,999.512,-20.996,-23.438,999.512
1743153675.776,996.582,-47.852,-21.973,930.176
1743153675.78,-72.266,-100.586,-42.969,-180.664
1743153675.784,-1000.0,-86.914,-41.992,-1000.0
1743153675.788,-185.059,-25.391,-42.969,-146.484
1743153675.792,999.512,-29.785,-49.316,999.512
1743153675.749,498.047,-25.391,-41.504,642.09
1743153675.753,999.512,-64.941,-34.668,999.512
1743153675.757,999.512,-62.988,-29.785,979.98
1743153675.761,-86.914,-52.246,-34.18,-257.324
1743153675.765,-1000.0,-25.879,-29.297,-1000.0
1743153675.769,295.41,-8.789,-41.504,478.516
1743153675.773,999.512,-20.996,-23.438,999.512
1743153675.776,996.582,-47.852,-21.973,930.176
1743153675.78,-72.266,-100.586,-42.969,-180.664
1743153675.784,-1000.0,-86.914,-41.992,-1000.0
1743153675.788,-185.059,-25.391,-42.969,-146.484
1743153675.792,999.512,-29.785,-49.316,999.512
1743153675.794,999.512,-68.848,-63.477,959.473
1743153675.798,-85.938,-91.797,-53.711,-225.586
1743153675.802,-1000.0,-75.195,-43.457,-1000.0
1743153675.806,-195.312,-8.789,-39.551,-194.336
1743153675.81,999.512,-8.301,-36.621,999.512
1743153675.814,989.258,-37.109,-40.039,873.047
1743153675.818,-193.359,-59.082,-42.969,-371.094
1743153675.821,-1000.0,-68.359,-38.086,-1000.0
1743153675.825,-589.844,-41.504,-34.18,-513.672
1743153675.829,789.062,-43.457,-54.688,868.164
1743153675.833,999.512,-62.012,-73.242,985.352
1743153675.837,-144.043,-74.707,-53.711,-316.406
1743153675.794,999.512,-68.848,-63.477,959.473
1743153675.798,-85.938,-91.797,-53.711,-225.586
1743153675.802,-1000.0,-75.195,-43.457,-1000.0
1743153675.806,-195.312,-8.789,-39.551,-194.336
1743153675.81,999.512,-8.301,-36.621,999.512
1743153675.814,989.258,-37.109,-40.039,873.047
1743153675.818,-193.359,-59.082,-42.969,-371.094
1743153675.821,-1000.0,-68.359,-38.086,-1000.0
1743153675.825,-589.844,-41.504,-34.18,-513.672
1743153675.829,789.062,-43.457,-54.688,868.164
1743153675.833,999.512,-62.012,-73.242,985.352
1743153675.837,-144.043,-74.707,-53.711,-316.406
1743153675.794,999.512,-68.848,-63.477,959.473
1743153675.798,-85.938,-91.797,-53.711,-225.586
1743153675.802,-1000.0,-75.195,-43.457,-1000.0
1743153675.806,-195.312,-8.789,-39.551,-194.336
1743153675.81,999.512,-8.301,-36.621,999.512
1743153675.814,989.258,-37.109,-40.039,873.047
1743153675.818,-193.359,-59.082,-42.969,-371.094
1743153675.821,-1000.0,-68.359,-38.086,-1000.0
1743153675.825,-589.844,-41.504,-34.18,-513.672
1743153675.829,789.062,-43.457,-54.688,868.164
1743153675.833,999.512,-62.012,-73.242,985.352
1743153675.837,-144.043,-74.707,-53.711,-316.406
1743153675.84,-1000.0,-65.918,-37.598,-1000.0
1743153675.844,-625.977,-28.809,-32.715,-572.754
1743153675.848,749.512,-23.438,-20.996,802.734
1743153675.852,999.512,-67.871,-27.832,999.512
1743153675.856,-95.215,-76.172,-57.617,-250.977
1743153675.86,-1000.0,-46.875,-64.941,-1000.0
1743153675.864,-749.023,-31.25,-47.363,-697.266
1743153675.867,574.707,-31.738,-30.273,623.047
1743153675.871,999.512,-76.66,-10.254,999.512
1743153675.875,86.914,-108.887,-5.859,-29.785
1743153675.879,-1000.0,-86.914,-32.227,-1000.0
1743153675.883,-1000.0,-52.246,-67.871,-921.875
1743153675.84,-1000.0,-65.918,-37.598,-1000.0
1743153675.844,-625.977,-28.809,-32.715,-572.754
1743153675.848,749.512,-23.438,-20.996,802.734
1743153675.852,999.512,-67.871,-27.832,999.512
1743153675.856,-95.215,-76.172,-57.617,-250.977
1743153675.86,-1000.0,-46.875,-64.941,-1000.0
1743153675.864,-749.023,-31.25,-47.363,-697.266
1743153675.867,574.707,-31.738,-30.273,623.047
1743153675.871,999.512,-76.66,-10.254,999.512
1743153675.875,86.914,-108.887,-5.859,-29.785
1743153675.879,-1000.0,-86.914,-32.227,-1000.0
1743153675.883,-1000.0,-52.246,-67.871,-921.875
1743153675.84,-1000.0,-65.918,-37.598,-1000.0
1743153675.844,-625.977,-28.809,-32.715,-572.754
1743153675.848,749.512,-23.438,-20.996,802.734
1743153675.852,999.512,-67.871,-27.832,999.512
1743153675.856,-95.215,-76.172,-57.617,-250.977
1743153675.86,-1000.0,-46.875,-64.941,-1000.0
1743153675.864,-749.023,-31.25,-47.363,-697.266
1743153675.867,574.707,-31.738,-30.273,623.047
1743153675.871,999.512,-76.66,-10.254,999.512
1743153675.875,86.914,-108.887,-5.859,-29.785
1743153675.879,-1000.0,-86.914,-32.227,-1000.0
1743153675.883,-1000.0,-52.246,-67.871,-921.875
1743153675.899,192.871,-32.715,-69.336,288.086
1743153675.903,999.512,-21.973,-47.852,999.512
1743153675.907,316.406,-58.105,-35.156,254.883
1743153675.911,-992.676,-83.008,-44.922,-1000.0
1743153675.915,-1000.0,-49.805,-32.227,-980.469
1743153675.919,162.598,-26.367,-14.16,269.531
1743153675.923,999.512,-50.781,-8.789,999.512
1743153675.926,387.207,-103.027,-9.766,318.848
1743153675.93,-936.035,-110.352,-18.066,-986.816
1743153675.934,-1000.0,-58.105,-22.949,-1000.0
1743153675.938,70.312,-28.32,-25.391,172.852
1743153675.942,999.512,-55.664,-16.113,999.512
1743153675.899,192.871,-32.715,-69.336,288.086
1743153675.903,999.512,-21.973,-47.852,999.512
