timestamps,TP9,AF7,AF8,TP10
1743153611.639,922.363,-75.684,-6.836,926.758
1743153611.643,999.512,-77.637,-5.371,999.512
1743153611.647,-374.023,-94.238,-4.395,-397.949
1743153611.651,-354.492,-60.547,-1.953,-299.805
1743153611.655,999.512,-25.391,-12.207,999.512
1743153611.659,948.73,-53.711,-24.414,944.336
1743153611.663,938.477,-69.824,-23.926,942.383
1743153611.666,974.609,-93.75,-26.367,974.121
1743153611.67,956.543,-16.113,-26.367,960.449
1743153611.674,918.945,54.688,-12.207,915.039
1743153611.678,999.512,-57.617,6.836,999.512
1743153611.682,92.773,-107.422,2.441,141.113
1743153611.471,844.727,166.016,-50.293,698.73
1743153611.475,-458.984,7.324,-47.852,-636.23
1743153611.479,-1000.0,-156.738,-30.762,-1000.0
1743153611.483,-682.129,-10.742,-25.391,-597.168
1743153611.487,763.672,40.527,-19.531,870.605
1743153611.471,844.727,166.016,-50.293,698.73
1743153611.475,-458.984,7.324,-47.852,-636.23
1743153611.479,-1000.0,-156.738,-30.762,-1000.0
1743153611.483,-682.129,-10.742,-25.391,-597.168
1743153611.487,763.672,40.527,-19.531,870.605
1743153611.489,971.68,-97.168,-10.254,796.875
1743153611.493,-534.18,-137.207,-21.484,-715.332
1743153611.497,-1000.0,-105.957,-66.895,-1000.0
1743153611.501,-1000.0,-91.797,-94.238,-1000.0
1743153611.505,-292.969,-73.73,-75.195,-237.793
1743153611.509,999.512,-72.266,-33.691,999.512
1743153611.513,195.801,-45.41,0.977,30.762
1743153611.516,-1000.0,-44.922,6.348,-1000.0
1743153611.52,-1000.0,-87.891,1.465,-953.613
1743153611.524,131.348,-65.43,-12.695,278.809
1743153611.528,999.512,-41.016,-45.41,999.512
1743153611.532,112.305,-88.379,-59.57,-30.762
1743153611.489,971.68,-97.168,-10.254,796.875
1743153611.493,-534.18,-137.207,-21.484,-715.332
1743153611.497,-1000.0,-105.957,-66.895,-1000.0
1743153611.501,-1000.0,-91.797,-94.238,-1000.0
1743153611.505,-292.969,-73.73,-75.195,-237.793
1743153611.509,999.512,-72.266,-33.691,999.512
1743153611.513,195.801,-45.41,0.977,30.762
1743153611.516,-1000.0,-44.922,6.348,-1000.0
1743153611.52,-1000.0,-87.891,1.465,-953.613
1743153611.524,131.348,-65.43,-12.695,278.809
1743153611.528,999.512,-41.016,-45.41,999.512
1743153611.532,112.305,-88.379,-59.57,-30.762
1743153611.534,-1000.0,-109.863,-45.41,-1000.0
1743153611.538,-1000.0,-58.594,-33.203,-963.379
1743153611.542,83.008,-49.316,-29.297,223.145
1743153611.546,999.512,-75.195,-50.781,999.512
1743153611.55,160.156,-131.836,-103.516,158.203
1743153611.554,-1000.0,-75.195,-93.75,-1000.0
1743153611.558,-1000.0,23.438,-34.18,-910.645
1743153611.561,186.035,-42.48,-7.812,357.422
1743153611.565,999.512,-114.258,-14.648,999.512
1743153611.569,329.102,-65.918,-37.598,271.973
1743153611.573,-1000.0,0.977,-40.527,-1000.0
1743153611.577,-977.539,-59.57,-29.297,-835.449
1743153611.534,-1000.0,-109.863,-45.41,-1000.0
1743153611.538,-1000.0,-58.594,-33.203,-963.379
1743153611.542,83.008,-49.316,-29.297,223.145
1743153611.546,999.512,-75.195,-50.781,999.512
1743153611.55,160.156,-131.836,-103.516,158.203
1743153611.554,-1000.0,-75.195,-93.75,-1000.0
1743153611.558,-1000.0,23.438,-34.18,-910.645
1743153611.561,186.035,-42.48,-7.812,357.422
1743153611.565,999.512,-114.258,-14.648,999.512
1743153611.569,329.102,-65.918,-37.598,271.973
1743153611.573,-1000.0,0.977,-40.527,-1000.0
1743153611.577,-977.539,-59.57,-29.297,-835.449
1743153611.534,-1000.0,-109.863,-45.41,-1000.0
1743153611.538,-1000.0,-58.594,-33.203,-963.379
1743153611.542,83.008,-49.316,-29.297,223.145
1743153611.546,999.512,-75.195,-50.781,999.512
1743153611.55,160.156,-131.836,-103.516,158.203
1743153611.554,-1000.0,-75.195,-93.75,-1000.0
1743153611.558,-1000.0,23.438,-34.18,-910.645
1743153611.561,186.035,-42.48,-7.812,357.422
1743153611.565,999.512,-114.258,-14.648,999.512
1743153611.569,329.102,-65.918,-37.598,271.973
1743153611.573,-1000.0,0.977,-40.527,-1000.0
1743153611.577,-977.539,-59.57,-29.297,-835.449
1743153611.594,417.969,-50.781,-29.785,589.355
1743153611.598,999.512,-41.016,-62.988,987.793
1743153611.602,999.512,-70.801,-83.984,999.512
1743153611.606,227.539,-106.934,-47.852,201.172
1743153611.61,-1000.0,-97.168,-29.297,-1000.0
1743153611.614,96.191,-24.414,-28.809,292.48
1743153611.618,999.512,-30.762,-28.32,999.512
1743153611.621,999.512,-74.219,-41.504,999.512
1743153611.625,684.57,-101.562,-17.09,686.523
1743153611.629,-954.102,-92.773,-0.977,-922.363
1743153611.633,-281.25,-35.645,-42.969,-212.402
1743153611.637,999.512,-42.969,-43.945,999.512
1743153611.594,417.969,-50.781,-29.785,589.355
1743153611.598,999.512,-41.016,-62.988,987.793
1743153611.602,999.512,-70.801,-83.984,999.512
1743153611.606,227.539,-106.934,-47.852,201.172
1743153611.61,-1000.0,-97.168,-29.297,-1000.0
1743153611.614,96.191,-24.414,-28.809,292.48
1743153611.618,999.512,-30.762,-28.32,999.512
1743153611.621,999.512,-74.219,-41.504,999.512
1743153611.625,684.57,-101.562,-17.09,686.523
1743153611.629,-954.102,-92.773,-0.977,-922.363
1743153611.633,-281.25,-35.645,-42.969,-212.402
1743153611.637,999.512,-42.969,-43.945,999.512
1743153611.594,417.969,-50.781,-29.785,589.355
1743153611.598,999.512,-41.016,-62.988,987.793
1743153611.602,999.512,-70.801,-83.984,999.512
1743153611.606,227.539,-106.934,-47.852,201.172
1743153611.61,-1000.0,-97.168,-29.297,-1000.0
1743153611.614,96.191,-24.414,-28.809,292.48
1743153611.618,999.512,-30.762,-28.32,999.512
1743153611.621,999.512,-74.219,-41.504,999.512
1743153611.625,684.57,-101.562,-17.09,686.523
1743153611.629,-954.102,-92.773,-0.977,-922.363
1743153611.633,-281.25,-35.645,-42.969,-212.402
1743153611.637,999.512,-42.969,-43.945,999.512
1743153611.684,-1000.0,-25.879,-5.859,-1000.0
1743153611.688,-304.199,27.344,0.488,-220.703
1743153611.692,999.512,-27.832,-14.648,999.512
1743153611.696,891.113,-64.453,-23.438,882.812
1743153611.7,999.512,-27.832,-32.227,999.512
1743153611.704,103.516,-42.48,-65.43,5.859
1743153611.708,-850.098,-75.195,-76.172,-640.137
1743153611.711,673.828,-57.129,-7.812,886.23
1743153611.715,999.512,43.457,24.414,959.473
1743153611.719,999.512,59.082,3.906,999.512
1743153611.723,181.641,-89.844,8.789,116.699
1743153611.727,-1000.0,-84.961,3.906,-833.984
1743153611.684,-1000.0,-25.879,-5.859,-1000.0
1743153611.688,-304.199,27.344,0.488,-220.703
1743153611.692,999.512,-27.832,-14.648,999.512
1743153611.696,891.113,-64.453,-23.438,882.812
1743153611.7,999.512,-27.832,-32.227,999.512
1743153611.704,103.516,-42.48,-65.43,5.859
1743153611.708,-850.098,-75.195,-76.172,-640.137
1743153611.711,673.828,-57.129,-7.812,886.23
1743153611.715,999.512,43.457,24.414,959.473
1743153611.719,999.512,59.082,3.906,999.512
1743153611.723,181.641,-89.844,8.789,116.699
1743153611.727,-1000.0,-84.961,3.906,-833.984
1743153611.684,-1000.0,-25.879,-5.859,-1000.0
1743153611.688,-304.199,27.344,0.488,-220.703
1743153611.692,999.512,-27.832,-14.648,999.512
1743153611.696,891.113,-64.453,-23.438,882.812
1743153611.7,999.512,-27.832,-32.227,999.512
1743153611.704,103.516,-42.48,-65.43,5.859
1743153611.708,-850.098,-75.195,-76.172,-640.137
1743153611.711,673.828,-57.129,-7.812,886.23
1743153611.715,999.512,43.457,24.414,959.473
1743153611.719,999.512,59.082,3.906,999.512
1743153611.723,181.641,-89.844,8.789,116.699
1743153611.727,-1000.0,-84.961,3.906,-833.984
1743153611.729,391.113,-32.227,-19.043,664.062
1743153611.733,999.512,-54.199,-25.879,999.512
1743153611.737,999.512,-80.078,-35.156,999.512
1743153611.741,232.91,-89.844,-49.316,157.715
1743153611.745,-1000.0,-83.984,-38.086,-1000.0
1743153611.749,25.879,-39.551,-10.742,230.957
1743153611.753,999.512,-66.895,-19.531,999.512
1743153611.756,999.512,1.953,-74.219,982.91
1743153611.76,65.918,66.406,-78.125,-50.781
1743153611.764,-1000.0,-48.828,-26.367,-1000.0
1743153611.768,-203.613,-67.383,-2.441,-101.562
1743153611.772,999.512,69.336,-7.324,999.512
1743153611.729,391.113,-32.227,-19.043,664.062
1743153611.733,999.512,-54.199,-25.879,999.512
1743153611.737,999.512,-80.078,-35.156,999.512
1743153611.741,232.91,-89.844,-49.316,157.715
1743153611.745,-1000.0,-83.984,-38.086,-1000.0
1743153611.749,25.879,-39.551,-10.742,230.957
1743153611.753,999.512,-66.895,-19.531,999.512
1743153611.756,999.512,1.953,-74.219,982.91
1743153611.76,65.918,66.406,-78.125,-50.781
1743153611.764,-1000.0,-48.828,-26.367,-1000.0
1743153611.768,-203.613,-67.383,-2.441,-101.562
1743153611.772,999.512,69.336,-7.324,999.512
1743153611.775,999.512,108.887,0.0,896.484
1743153611.779,-181.641,-97.168,-9.277,-334.961
1743153611.783,-1000.0,-104.98,-27.832,-1000.0
1743153611.787,-194.824,-28.32,-33.691,-188.477
1743153611.791,999.512,-26.855,-43.945,999.512
1743153611.795,959.473,-60.547,-43.945,830.078
1743153611.799,-274.902,-110.84,-32.227,-463.379
1743153611.802,-1000.0,20.508,-12.207,-1000.0
1743153611.806,-323.242,68.359,-4.395,-274.902
1743153611.81,952.148,-55.664,-17.09,999.512
1743153611.814,999.512,-71.289,-25.391,948.242
1743153611.818,-183.105,-51.758,-13.672,-358.398
1743153611.819,-1000.0,-56.152,-17.09,-1000.0
1743153611.823,-1000.0,-69.824,-45.898,-1000.0
1743153611.827,-204.102,-42.969,-33.203,-60.059
1743153611.831,999.512,-29.785,-13.672,999.512
1743153611.835,15.625,-77.637,-9.766,-159.668
1743153611.839,-1000.0,-88.867,-15.137,-1000.0
1743153611.843,-1000.0,-22.949,-20.02,-1000.0
1743153611.846,-662.598,96.191,-13.184,-614.746
1743153611.85,945.312,36.621,-37.598,904.785
1743153611.854,147.461,-95.215,-50.781,-37.109
1743153611.858,-1000.0,-70.312,-44.434,-1000.0
1743153611.862,-954.59,-44.434,-39.551,-938.477
1743153611.819,-1000.0,-56.152,-17.09,-1000.0
1743153611.823,-1000.0,-69.824,-45.898,-1000.0
1743153611.827,-204.102,-42.969,-33.203,-60.059
1743153611.831,999.512,-29.785,-13.672,999.512
1743153611.835,15.625,-77.637,-9.766,-159.668
1743153611.839,-1000.0,-88.867,-15.137,-1000.0
1743153611.843,-1000.0,-22.949,-20.02,-1000.0
1743153611.846,-662.598,96.191,-13.184,-614.746
1743153611.85,945.312,36.621,-37.598,904.785
1743153611.854,147.461,-95.215,-50.781,-37.109
1743153611.858,-1000.0,-70.312,-44.434,-1000.0
1743153611.862,-954.59,-44.434,-39.551,-938.477
1743153611.864,-980.469,-47.363,-41.992,-992.188
1743153611.868,-1000.0,-64.453,-57.617,-1000.0
1743153611.872,-1000.0,-72.266,-38.086,-1000.0
1743153611.876,-999.023,-64.941,-13.184,-1000.0
1743153611.88,-1000.0,-72.266,-2.93,-1000.0
1743153611.884,-1000.0,-62.5,0.488,-1000.0
1743153611.888,-974.609,-25.391,-18.066,-1000.0
1743153611.891,-990.723,-29.785,-28.809,-1000.0
1743153611.895,-940.43,-50.293,-24.414,-930.664
1743153611.899,-1000.0,-50.781,-42.969,-1000.0
1743153611.903,-275.879,-24.902,-49.805,-356.934
1743153611.907,999.512,-12.695,-44.434,999.512
1743153611.864,-980.469,-47.363,-41.992,-992.188
1743153611.868,-1000.0,-64.453,-57.617,-1000.0
1743153611.872,-1000.0,-72.266,-38.086,-1000.0
1743153611.876,-999.023,-64.941,-13.184,-1000.0
1743153611.88,-1000.0,-72.266,-2.93,-1000.0
1743153611.884,-1000.0,-62.5,0.488,-1000.0
1743153611.888,-974.609,-25.391,-18.066,-1000.0
1743153611.891,-990.723,-29.785,-28.809,-1000.0
1743153611.895,-940.43,-50.293,-24.414,-930.664
1743153611.899,-1000.0,-50.781,-42.969,-1000.0
1743153611.903,-275.879,-24.902,-49.805,-356.934
1743153611.907,999.512,-12.695,-44.434,999.512
1743153611.864,-980.469,-47.363,-41.992,-992.188
1743153611.868,-1000.0,-64.453,-57.617,-1000.0
1743153611.872,-1000.0,-72.266,-38.086,-1000.0
1743153611.876,-999.023,-64.941,-13.184,-1000.0
1743153611.88,-1000.0,-72.266,-2.93,-1000.0
1743153611.884,-1000.0,-62.5,0.488,-1000.0
1743153611.888,-974.609,-25.391,-18.066,-1000.0
1743153611.891,-990.723,-29.785,-28.809,-1000.0
1743153611.895,-940.43,-50.293,-24.414,-930.664
1743153611.899,-1000.0,-50.781,-42.969,-1000.0
1743153611.903,-275.879,-24.902,-49.805,-356.934
1743153611.907,999.512,-12.695,-44.434,999.512
1743153611.911,204.102,-79.59,-47.852,115.234
1743153611.915,-963.867,-84.961,-42.969,-1000.0
1743153611.919,-1000.0,-38.086,-40.527,-1000.0
1743153611.923,-554.199,-15.137,-26.855,-555.664
1743153611.927,814.453,-21.973,-18.555,853.027
1743153611.931,999.512,10.254,-24.414,999.512
1743153611.935,-23.926,14.648,-16.113,-273.926
1743153611.938,-1000.0,-74.219,-14.16,-1000.0
1743153611.942,-246.094,-52.246,-6.836,-216.309
1743153611.946,975.098,20.508,9.277,992.188
1743153611.95,999.512,40.039,1.465,999.512
1743153611.954,96.191,-45.898,-12.207,-33.203
1743153611.911,204.102,-79.59,-47.852,115.234
1743153611.915,-963.867,-84.961,-42.969,-1000.0
1743153611.919,-1000.0,-38.086,-40.527,-1000.0
1743153611.923,-554.199,-15.137,-26.855,-555.664
1743153611.927,814.453,-21.973,-18.555,853.027
1743153611.931,999.512,10.254,-24.414,999.512
1743153611.935,-23.926,14.648,-16.113,-273.926
1743153611.938,-1000.0,-74.219,-14.16,-1000.0
1743153611.942,-246.094,-52.246,-6.836,-216.309
1743153611.946,975.098,20.508,9.277,992.188
1743153611.95,999.512,40.039,1.465,999.512
1743153611.954,96.191,-45.898,-12.207,-33.203
1743153611.911,204.102,-79.59,-47.852,115.234
1743153611.915,-963.867,-84.961,-42.969,-1000.0
1743153611.919,-1000.0,-38.086,-40.527,-1000.0
1743153611.923,-554.199,-15.137,-26.855,-555.664
1743153611.927,814.453,-21.973,-18.555,853.027
1743153611.931,999.512,10.254,-24.414,999.512
1743153611.935,-23.926,14.648,-16.113,-273.926
1743153611.938,-1000.0,-74.219,-14.16,-1000.0
1743153611.942,-246.094,-52.246,-6.836,-216.309
1743153611.946,975.098,20.508,9.277,992.188
1743153611.95,999.512,40.039,1.465,999.512
1743153611.954,96.191,-45.898,-12.207,-33.203
1743153611.969,-1000.0,-81.055,-15.625,-1000.0
1743153611.973,-272.949,-46.387,-0.488,-209.961
1743153611.977,952.637,-21.973,10.742,967.285
1743153611.981,999.512,-20.02,-33.691,999.512
1743153611.985,344.727,-84.961,-45.41,307.129
1743153611.989,-1000.0,-7.324,6.836,-1000.0
1743153611.993,-323.242,88.867,20.02,-244.629
1743153611.996,962.891,-23.926,-6.836,990.234
1743153612.0,999.512,-47.852,-20.508,999.512
1743153612.004,434.57,-55.176,-22.461,391.113
1743153612.008,-1000.0,-87.402,-22.949,-1000.0
1743153612.012,-583.008,-51.758,-34.18,-440.43
1743153611.969,-1000.0,-81.055,-15.625,-1000.0
1743153611.973,-272.949,-46.387,-0.488,-209.961
1743153611.977,952.637,-21.973,10.742,967.285
1743153611.981,999.512,-20.02,-33.691,999.512
1743153611.985,344.727,-84.961,-45.41,307.129
1743153611.989,-1000.0,-7.324,6.836,-1000.0
1743153611.993,-323.242,88.867,20.02,-244.629
1743153611.996,962.891,-23.926,-6.836,990.234
1743153612.0,999.512,-47.852,-20.508,999.512
1743153612.004,434.57,-55.176,-22.461,391.113
1743153612.008,-1000.0,-87.402,-22.949,-1000.0
1743153612.012,-583.008,-51.758,-34.18,-440.43
1743153612.014,899.414,-9.277,-43.945,955.566
1743153612.018,958.984,-25.879,-28.32,960.938
1743153612.022,999.512,-53.711,-14.648,999.512
1743153612.026,-187.012,-69.336,-6.836,-354.492
1743153612.03,-955.078,-37.109,-19.043,-757.324
1743153612.034,651.855,-10.742,-30.273,844.727
1743153612.038,999.512,-40.039,-17.578,956.543
1743153612.041,999.512,-53.711,-25.391,999.512
1743153612.045,291.504,-25.391,-32.227,280.273
1743153612.049,-1000.0,88.379,-36.621,-1000.0
1743153612.053,-4.883,86.914,-48.828,206.543
1743153612.057,999.512,-30.762,-28.32,999.512
1743153612.014,899.414,-9.277,-43.945,955.566
1743153612.018,958.984,-25.879,-28.32,960.938
1743153612.022,999.512,-53.711,-14.648,999.512
1743153612.026,-187.012,-69.336,-6.836,-354.492
1743153612.03,-955.078,-37.109,-19.043,-757.324
1743153612.034,651.855,-10.742,-30.273,844.727
1743153612.038,999.512,-40.039,-17.578,956.543
1743153612.041,999.512,-53.711,-25.391,999.512
1743153612.045,291.504,-25.391,-32.227,280.273
1743153612.049,-1000.0,88.379,-36.621,-1000.0
1743153612.053,-4.883,86.914,-48.828,206.543
1743153612.057,999.512,-30.762,-28.32,999.512
1743153612.525,-1000.0,-63.965,-7.812,-1000.0
1743153612.529,-20.508,-28.809,1.953,167.48
1743153612.533,999.512,-39.551,-7.324,999.512
1743153612.537,999.512,-49.805,-21.973,999.512
1743153612.541,229.492,-62.012,-21.973,142.578
1743153612.545,-1000.0,-60.547,-15.137,-1000.0
1743153612.549,-231.934,-23.438,-10.742,-165.039
1743153612.552,999.512,3.418,-19.043,999.512
1743153612.556,999.512,-28.809,-35.156,900.879
1743153612.56,-199.219,-88.867,-41.016,-335.449
1743153612.564,-1000.0,-54.199,-14.16,-1000.0
1743153612.568,-181.641,-19.043,8.789,-190.43
1743153612.014,899.414,-9.277,-43.945,955.566
1743153612.018,958.984,-25.879,-28.32,960.938
1743153612.022,999.512,-53.711,-14.648,999.512
1743153612.026,-187.012,-69.336,-6.836,-354.492
1743153612.03,-955.078,-37.109,-19.043,-757.324
1743153612.034,651.855,-10.742,-30.273,844.727
1743153612.038,999.512,-40.039,-17.578,956.543
1743153612.041,999.512,-53.711,-25.391,999.512
1743153612.045,291.504,-25.391,-32.227,280.273
1743153612.049,-1000.0,88.379,-36.621,-1000.0
1743153612.053,-4.883,86.914,-48.828,206.543
1743153612.057,999.512,-30.762,-28.32,999.512
1743153612.06,999.512,-65.918,-18.066,997.559
1743153612.064,69.336,-86.426,-23.926,-19.043
1743153612.068,-1000.0,-68.848,-40.527,-1000.0
1743153612.072,-168.945,-6.348,-34.18,-6.348
1743153612.076,999.512,-16.113,-30.273,999.512
1743153612.08,999.512,-50.293,-57.617,968.75
1743153612.084,-36.621,-72.754,-41.016,-158.203
1743153612.087,-1000.0,-68.359,-7.324,-1000.0
1743153612.091,-220.703,62.988,-11.719,-184.57
1743153612.095,999.512,79.59,-14.648,999.512
1743153612.099,845.703,-59.57,-22.461,724.609
1743153612.103,-516.602,-89.844,-39.551,-633.301
1743153612.06,999.512,-65.918,-18.066,997.559
1743153612.064,69.336,-86.426,-23.926,-19.043
1743153612.068,-1000.0,-68.848,-40.527,-1000.0
1743153612.072,-168.945,-6.348,-34.18,-6.348
1743153612.076,999.512,-16.113,-30.273,999.512
1743153612.08,999.512,-50.293,-57.617,968.75
1743153612.084,-36.621,-72.754,-41.016,-158.203
1743153612.087,-1000.0,-68.359,-7.324,-1000.0
1743153612.091,-220.703,62.988,-11.719,-184.57
1743153612.095,999.512,79.59,-14.648,999.512
1743153612.099,845.703,-59.57,-22.461,724.609
1743153612.103,-516.602,-89.844,-39.551,-633.301
1743153612.06,999.512,-65.918,-18.066,997.559
1743153612.064,69.336,-86.426,-23.926,-19.043
1743153612.068,-1000.0,-68.848,-40.527,-1000.0
1743153612.072,-168.945,-6.348,-34.18,-6.348
1743153612.076,999.512,-16.113,-30.273,999.512
1743153612.08,999.512,-50.293,-57.617,968.75
1743153612.084,-36.621,-72.754,-41.016,-158.203
1743153612.087,-1000.0,-68.359,-7.324,-1000.0
1743153612.091,-220.703,62.988,-11.719,-184.57
1743153612.095,999.512,79.59,-14.648,999.512
1743153612.099,845.703,-59.57,-22.461,724.609
1743153612.103,-516.602,-89.844,-39.551,-633.301
1743153612.104,-1000.0,-46.875,-27.344,-1000.0
1743153612.108,-1000.0,-32.227,-52.734,-943.359
1743153612.112,76.66,-27.344,-71.777,310.547
1743153612.116,999.512,-36.133,-35.156,999.512
1743153612.12,-138.672,-70.801,-8.789,-342.285
1743153612.124,-1000.0,-73.73,-25.879,-1000.0
1743153612.128,-897.461,-41.504,-40.527,-799.805
1743153612.131,398.438,20.02,-9.766,545.898
1743153612.135,999.512,41.016,5.371,999.512
1743153612.139,-138.672,-20.508,-7.812,-314.941
1743153612.143,-1000.0,-62.988,-43.457,-1000.0
1743153612.147,-1000.0,-32.227,-60.547,-980.469
1743153612.104,-1000.0,-46.875,-27.344,-1000.0
1743153612.108,-1000.0,-32.227,-52.734,-943.359
1743153612.112,76.66,-27.344,-71.777,310.547
1743153612.116,999.512,-36.133,-35.156,999.512
1743153612.12,-138.672,-70.801,-8.789,-342.285
1743153612.124,-1000.0,-73.73,-25.879,-1000.0
1743153612.128,-897.461,-41.504,-40.527,-799.805
1743153612.131,398.438,20.02,-9.766,545.898
1743153612.135,999.512,41.016,5.371,999.512
1743153612.139,-138.672,-20.508,-7.812,-314.941
1743153612.143,-1000.0,-62.988,-43.457,-1000.0
1743153612.147,-1000.0,-32.227,-60.547,-980.469
1743153612.149,-18.555,-8.789,-48.828,144.043
1743153612.153,999.512,-31.25,-43.457,999.512
1743153612.157,133.301,-70.801,-37.109,-2.93
1743153612.161,-1000.0,-67.871,2.93,-1000.0
1743153612.165,-1000.0,-16.602,33.691,-1000.0
1743153612.169,5.859,10.742,-5.371,120.117
1743153612.173,999.512,-22.949,-21.973,999.512
1743153612.176,136.23,33.691,-28.32,104.492
1743153612.18,-1000.0,32.227,-80.566,-1000.0
1743153612.184,-1000.0,-50.781,-96.68,-1000.0
1743153612.188,-262.695,-1.953,-86.426,-191.895
1743153612.192,999.512,18.555,-87.402,999.512
1743153612.195,285.156,-46.387,-98.633,219.727
1743153612.199,-1000.0,-77.637,-114.258,-1000.0
1743153612.203,-1000.0,-8.301,-99.609,-1000.0
1743153612.207,-114.746,60.059,-61.523,-21.973
1743153612.211,999.512,4.395,-58.594,999.512
1743153612.215,603.027,-61.523,-90.82,430.664
1743153612.219,-733.887,-37.598,-106.934,-831.055
1743153612.222,-1000.0,76.66,-101.074,-1000.0
1743153612.226,-204.59,36.621,-72.266,-173.34
1743153612.23,999.512,-26.367,-62.012,999.512
1743153612.234,889.16,-28.809,-79.102,741.699
1743153612.238,-419.922,-65.918,-85.938,-590.82
1743153612.195,285.156,-46.387,-98.633,219.727
1743153612.199,-1000.0,-77.637,-114.258,-1000.0
1743153612.203,-1000.0,-8.301,-99.609,-1000.0
1743153612.207,-114.746,60.059,-61.523,-21.973
1743153612.211,999.512,4.395,-58.594,999.512
1743153612.215,603.027,-61.523,-90.82,430.664
1743153612.219,-733.887,-37.598,-106.934,-831.055
1743153612.222,-1000.0,76.66,-101.074,-1000.0
1743153612.226,-204.59,36.621,-72.266,-173.34
1743153612.23,999.512,-26.367,-62.012,999.512
1743153612.234,889.16,-28.809,-79.102,741.699
1743153612.238,-419.922,-65.918,-85.938,-590.82
1743153612.195,285.156,-46.387,-98.633,219.727
1743153612.199,-1000.0,-77.637,-114.258,-1000.0
1743153612.203,-1000.0,-8.301,-99.609,-1000.0
1743153612.207,-114.746,60.059,-61.523,-21.973
1743153612.211,999.512,4.395,-58.594,999.512
1743153612.215,603.027,-61.523,-90.82,430.664
1743153612.219,-733.887,-37.598,-106.934,-831.055
1743153612.222,-1000.0,76.66,-101.074,-1000.0
1743153612.226,-204.59,36.621,-72.266,-173.34
1743153612.23,999.512,-26.367,-62.012,999.512
1743153612.234,889.16,-28.809,-79.102,741.699
1743153612.238,-419.922,-65.918,-85.938,-590.82
1743153612.239,-1000.0,-66.406,-72.266,-1000.0
1743153612.243,-163.574,-22.461,-63.477,-173.828
1743153612.247,980.957,-14.16,-55.664,999.512
1743153612.251,999.512,-36.133,-43.457,999.512
1743153612.255,60.547,-67.871,-43.457,-92.285
1743153612.259,-1000.0,-83.496,-47.852,-1000.0
1743153612.263,-261.23,27.832,-66.406,-231.445
1743153612.266,993.652,54.688,-75.195,999.512
1743153612.27,999.512,-59.082,-57.129,983.887
1743153612.274,-23.926,-80.078,-55.664,-177.734
1743153612.278,-1000.0,-59.57,-75.684,-1000.0
1743153612.282,-510.254,-15.625,-59.082,-409.668
1743153612.239,-1000.0,-66.406,-72.266,-1000.0
1743153612.243,-163.574,-22.461,-63.477,-173.828
1743153612.247,980.957,-14.16,-55.664,999.512
1743153612.251,999.512,-36.133,-43.457,999.512
1743153612.255,60.547,-67.871,-43.457,-92.285
1743153612.259,-1000.0,-83.496,-47.852,-1000.0
1743153612.263,-261.23,27.832,-66.406,-231.445
1743153612.266,993.652,54.688,-75.195,999.512
1743153612.27,999.512,-59.082,-57.129,983.887
1743153612.274,-23.926,-80.078,-55.664,-177.734
1743153612.278,-1000.0,-59.57,-75.684,-1000.0
1743153612.282,-510.254,-15.625,-59.082,-409.668
1743153612.239,-1000.0,-66.406,-72.266,-1000.0
1743153612.243,-163.574,-22.461,-63.477,-173.828
1743153612.247,980.957,-14.16,-55.664,999.512
1743153612.251,999.512,-36.133,-43.457,999.512
1743153612.255,60.547,-67.871,-43.457,-92.285
1743153612.259,-1000.0,-83.496,-47.852,-1000.0
1743153612.263,-261.23,27.832,-66.406,-231.445
1743153612.266,993.652,54.688,-75.195,999.512
1743153612.27,999.512,-59.082,-57.129,983.887
1743153612.274,-23.926,-80.078,-55.664,-177.734
1743153612.278,-1000.0,-59.57,-75.684,-1000.0
1743153612.282,-510.254,-15.625,-59.082,-409.668
1743153612.284,827.637,-3.906,-36.621,880.371
1743153612.288,999.512,-23.438,-26.367,999.512
1743153612.292,187.988,-53.223,-41.016,108.887
1743153612.296,-1000.0,-73.73,-69.336,-1000.0
1743153612.3,-823.73,-36.133,-59.57,-687.5
1743153612.304,532.715,5.371,-29.785,661.621
1743153612.308,999.512,-4.395,-33.203,999.512
1743153612.311,123.535,-61.035,-51.758,101.562
1743153612.315,-1000.0,-92.773,-39.062,-1000.0
1743153612.319,-1000.0,-24.902,-28.32,-1000.0
1743153612.323,-188.477,77.637,-32.715,-66.895
1743153612.327,999.512,20.02,-46.875,999.512
1743153612.284,827.637,-3.906,-36.621,880.371
1743153612.288,999.512,-23.438,-26.367,999.512
1743153612.292,187.988,-53.223,-41.016,108.887
1743153612.296,-1000.0,-73.73,-69.336,-1000.0
1743153612.3,-823.73,-36.133,-59.57,-687.5
1743153612.304,532.715,5.371,-29.785,661.621
1743153612.308,999.512,-4.395,-33.203,999.512
1743153612.311,123.535,-61.035,-51.758,101.562
1743153612.315,-1000.0,-92.773,-39.062,-1000.0
1743153612.319,-1000.0,-24.902,-28.32,-1000.0
1743153612.323,-188.477,77.637,-32.715,-66.895
1743153612.327,999.512,20.02,-46.875,999.512
1743153612.344,160.645,-62.012,-51.27,143.555
1743153612.348,-1000.0,-44.922,-40.527,-1000.0
1743153612.352,-1000.0,-26.855,-43.457,-1000.0
1743153612.356,-258.789,-24.414,-58.105,-163.086
1743153612.36,999.512,-22.461,-61.523,999.512
1743153612.364,545.898,-41.992,-37.598,410.645
1743153612.368,-846.68,-70.801,-23.926,-916.016
1743153612.371,-1000.0,-70.801,-32.715,-1000.0
1743153612.375,-223.633,-47.363,-40.527,-218.75
1743153612.379,999.512,132.812,-41.992,999.512
1743153612.383,752.441,110.352,-46.387,611.816
1743153612.387,-620.605,-90.82,-57.129,-769.531
1743153612.344,160.645,-62.012,-51.27,143.555
1743153612.348,-1000.0,-44.922,-40.527,-1000.0
1743153612.352,-1000.0,-26.855,-43.457,-1000.0
1743153612.356,-258.789,-24.414,-58.105,-163.086
1743153612.36,999.512,-22.461,-61.523,999.512
1743153612.364,545.898,-41.992,-37.598,410.645
1743153612.368,-846.68,-70.801,-23.926,-916.016
1743153612.371,-1000.0,-70.801,-32.715,-1000.0
1743153612.375,-223.633,-47.363,-40.527,-218.75
1743153612.379,999.512,132.812,-41.992,999.512
1743153612.383,752.441,110.352,-46.387,611.816
1743153612.387,-620.605,-90.82,-57.129,-769.531
1743153612.344,160.645,-62.012,-51.27,143.555
1743153612.348,-1000.0,-44.922,-40.527,-1000.0
1743153612.352,-1000.0,-26.855,-43.457,-1000.0
1743153612.356,-258.789,-24.414,-58.105,-163.086
1743153612.36,999.512,-22.461,-61.523,999.512
1743153612.364,545.898,-41.992,-37.598,410.645
1743153612.368,-846.68,-70.801,-23.926,-916.016
1743153612.371,-1000.0,-70.801,-32.715,-1000.0
1743153612.375,-223.633,-47.363,-40.527,-218.75
1743153612.379,999.512,132.812,-41.992,999.512
1743153612.383,752.441,110.352,-46.387,611.816
1743153612.387,-620.605,-90.82,-57.129,-769.531
1743153612.39,-1000.0,-52.734,-45.898,-1000.0
1743153612.394,-124.023,-13.184,-30.762,-30.273
1743153612.398,969.238,-36.621,-27.832,995.117
1743153612.402,999.512,-49.316,-20.996,999.512
1743153612.406,224.609,-59.57,-29.297,164.062
1743153612.41,-1000.0,-68.848,-23.926,-1000.0
1743153612.414,-197.754,-39.551,-7.812,-128.418
1743153612.417,994.629,-61.523,-4.883,999.512
1743153612.421,999.512,-13.672,-5.371,999.512
1743153612.425,351.074,178.223,-0.488,314.453
1743153612.429,-1000.0,80.078,-13.672,-1000.0
1743153612.433,-244.629,-62.012,-20.996,-207.52
1743153612.39,-1000.0,-52.734,-45.898,-1000.0
1743153612.394,-124.023,-13.184,-30.762,-30.273
1743153612.398,969.238,-36.621,-27.832,995.117
1743153612.402,999.512,-49.316,-20.996,999.512
1743153612.406,224.609,-59.57,-29.297,164.062
1743153612.41,-1000.0,-68.848,-23.926,-1000.0
1743153612.414,-197.754,-39.551,-7.812,-128.418
1743153612.417,994.629,-61.523,-4.883,999.512
1743153612.421,999.512,-13.672,-5.371,999.512
1743153612.425,351.074,178.223,-0.488,314.453
1743153612.429,-1000.0,80.078,-13.672,-1000.0
1743153612.433,-244.629,-62.012,-20.996,-207.52
1743153612.435,988.77,-4.883,14.648,999.512
1743153612.439,999.512,-22.461,43.457,999.512
1743153612.443,558.594,-103.516,45.898,502.441
1743153612.447,-1000.0,-133.301,38.086,-1000.0
1743153612.451,-432.129,-70.801,47.363,-321.289
1743153612.455,999.512,-39.551,40.039,999.512
1743153612.459,897.461,-71.777,22.949,891.113
1743153612.462,999.512,-92.285,19.043,999.512
1743153612.466,-26.367,-24.902,27.344,-90.82
1743153612.47,-835.449,-6.348,38.574,-639.16
1743153612.474,744.141,-62.988,43.457,912.109
1743153612.478,993.164,-72.754,23.438,949.707
1743153612.435,988.77,-4.883,14.648,999.512
1743153612.439,999.512,-22.461,43.457,999.512
1743153612.443,558.594,-103.516,45.898,502.441
1743153612.447,-1000.0,-133.301,38.086,-1000.0
1743153612.451,-432.129,-70.801,47.363,-321.289
1743153612.455,999.512,-39.551,40.039,999.512
1743153612.459,897.461,-71.777,22.949,891.113
1743153612.462,999.512,-92.285,19.043,999.512
1743153612.466,-26.367,-24.902,27.344,-90.82
1743153612.47,-835.449,-6.348,38.574,-639.16
1743153612.474,744.141,-62.988,43.457,912.109
1743153612.478,993.164,-72.754,23.438,949.707
1743153612.48,999.512,-74.707,6.836,999.512
1743153612.484,202.148,-93.75,31.25,126.953
1743153612.488,-1000.0,-79.59,31.25,-869.629
1743153612.492,280.273,-18.066,16.602,606.445
1743153612.496,999.512,-27.832,19.531,999.512
1743153612.5,999.512,-56.641,4.883,999.512
1743153612.504,95.215,-81.055,-3.418,-33.691
1743153612.507,-1000.0,-44.922,0.0,-936.035
1743153612.511,286.133,30.762,4.395,571.777
1743153612.515,999.512,-32.715,6.348,999.512
1743153612.519,999.512,-73.73,-6.836,999.512
1743153612.523,200.684,-66.895,-18.066,93.262
1743153612.48,999.512,-74.707,6.836,999.512
1743153612.484,202.148,-93.75,31.25,126.953
1743153612.488,-1000.0,-79.59,31.25,-869.629
1743153612.492,280.273,-18.066,16.602,606.445
1743153612.496,999.512,-27.832,19.531,999.512
1743153612.5,999.512,-56.641,4.883,999.512
1743153612.504,95.215,-81.055,-3.418,-33.691
1743153612.507,-1000.0,-44.922,0.0,-936.035
1743153612.511,286.133,30.762,4.395,571.777
1743153612.515,999.512,-32.715,6.348,999.512
1743153612.519,999.512,-73.73,-6.836,999.512
1743153612.523,200.684,-66.895,-18.066,93.262
1743153612.48,999.512,-74.707,6.836,999.512
1743153612.484,202.148,-93.75,31.25,126.953
1743153612.488,-1000.0,-79.59,31.25,-869.629
1743153612.492,280.273,-18.066,16.602,606.445
1743153612.496,999.512,-27.832,19.531,999.512
1743153612.5,999.512,-56.641,4.883,999.512
1743153612.504,95.215,-81.055,-3.418,-33.691
1743153612.507,-1000.0,-44.922,0.0,-936.035
1743153612.511,286.133,30.762,4.395,571.777
1743153612.515,999.512,-32.715,6.348,999.512
1743153612.519,999.512,-73.73,-6.836,999.512
1743153612.523,200.684,-66.895,-18.066,93.262
1743153612.569,999.512,-30.762,2.441,999.512
1743153612.573,999.512,-53.711,-10.254,920.898
1743153612.577,-110.352,-49.316,-26.367,-296.387
1743153612.581,-1000.0,-35.645,-55.664,-1000.0
1743153612.585,-594.727,-10.742,-58.594,-489.746
1743153612.589,745.117,4.395,-59.082,830.566
1743153612.593,999.512,-28.32,-51.758,999.512
1743153612.596,70.801,-58.105,-20.996,-60.059
1743153612.6,-1000.0,-66.406,-30.762,-1000.0
1743153612.604,-1000.0,-41.504,-34.18,-1000.0
1743153612.608,-34.18,0.488,-6.348,85.449
1743153612.612,999.512,-6.836,-12.207,999.512
1743153612.569,999.512,-30.762,2.441,999.512
1743153612.573,999.512,-53.711,-10.254,920.898
1743153612.577,-110.352,-49.316,-26.367,-296.387
1743153612.581,-1000.0,-35.645,-55.664,-1000.0
1743153612.585,-594.727,-10.742,-58.594,-489.746
1743153612.589,745.117,4.395,-59.082,830.566
1743153612.593,999.512,-28.32,-51.758,999.512
1743153612.596,70.801,-58.105,-20.996,-60.059
1743153612.6,-1000.0,-66.406,-30.762,-1000.0
1743153612.604,-1000.0,-41.504,-34.18,-1000.0
1743153612.608,-34.18,0.488,-6.348,85.449
1743153612.612,999.512,-6.836,-12.207,999.512
1743153612.569,999.512,-30.762,2.441,999.512
1743153612.573,999.512,-53.711,-10.254,920.898
1743153612.577,-110.352,-49.316,-26.367,-296.387
1743153612.581,-1000.0,-35.645,-55.664,-1000.0
1743153612.585,-594.727,-10.742,-58.594,-489.746
1743153612.589,745.117,4.395,-59.082,830.566
1743153612.593,999.512,-28.32,-51.758,999.512
1743153612.596,70.801,-58.105,-20.996,-60.059
1743153612.6,-1000.0,-66.406,-30.762,-1000.0
1743153612.604,-1000.0,-41.504,-34.18,-1000.0
1743153612.608,-34.18,0.488,-6.348,85.449
1743153612.612,999.512,-6.836,-12.207,999.512
1743153612.614,133.301,-69.336,-42.969,14.648
1743153612.618,-1000.0,-66.895,-49.805,-1000.0
1743153612.622,-1000.0,-30.273,-32.227,-1000.0
1743153612.626,-238.281,-22.949,-31.25,-147.949
1743153612.63,999.512,-12.207,-31.738,999.512
1743153612.634,175.781,-44.922,-34.668,162.598
1743153612.638,-1000.0,-56.641,-52.734,-1000.0
1743153612.641,-1000.0,-30.273,-46.387,-1000.0
1743153612.645,-150.391,-13.672,-21.973,-50.293
1743153612.649,999.512,-6.348,-15.137,999.512
1743153612.653,315.918,-61.035,-36.621,239.258
1743153612.657,-1000.0,-79.59,-43.945,-1000.0
1743153612.614,133.301,-69.336,-42.969,14.648
1743153612.618,-1000.0,-66.895,-49.805,-1000.0
1743153612.622,-1000.0,-30.273,-32.227,-1000.0
1743153612.626,-238.281,-22.949,-31.25,-147.949
1743153612.63,999.512,-12.207,-31.738,999.512
1743153612.634,175.781,-44.922,-34.668,162.598
1743153612.638,-1000.0,-56.641,-52.734,-1000.0
1743153612.641,-1000.0,-30.273,-46.387,-1000.0
1743153612.645,-150.391,-13.672,-21.973,-50.293
1743153612.649,999.512,-6.348,-15.137,999.512
1743153612.653,315.918,-61.035,-36.621,239.258
1743153612.657,-1000.0,-79.59,-43.945,-1000.0
1743153612.614,133.301,-69.336,-42.969,14.648
1743153612.618,-1000.0,-66.895,-49.805,-1000.0
1743153612.622,-1000.0,-30.273,-32.227,-1000.0
1743153612.626,-238.281,-22.949,-31.25,-147.949
1743153612.63,999.512,-12.207,-31.738,999.512
1743153612.634,175.781,-44.922,-34.668,162.598
1743153612.638,-1000.0,-56.641,-52.734,-1000.0
1743153612.641,-1000.0,-30.273,-46.387,-1000.0
1743153612.645,-150.391,-13.672,-21.973,-50.293
1743153612.649,999.512,-6.348,-15.137,999.512
1743153612.653,315.918,-61.035,-36.621,239.258
1743153612.657,-1000.0,-79.59,-43.945,-1000.0
1743153612.659,-1000.0,-37.598,-7.812,-1000.0
1743153612.663,63.965,-9.277,3.418,168.945
1743153612.667,999.512,-33.203,15.137,999.512
1743153612.671,982.91,-75.195,20.996,846.68
1743153612.675,-192.383,-92.285,13.184,-415.039
1743153612.679,-1000.0,-86.914,33.203,-1000.0
1743153612.683,-22.949,-55.176,78.613,88.379
1743153612.686,999.512,-62.012,94.727,999.512
1743153612.69,999.512,-98.633,89.844,896.973
1743153612.694,-124.512,-90.82,99.609,-296.387
1743153612.698,-1000.0,-74.707,99.609,-1000.0
1743153612.702,-209.473,-28.32,99.121,-176.27
1743153612.659,-1000.0,-37.598,-7.812,-1000.0
1743153612.663,63.965,-9.277,3.418,168.945
1743153612.667,999.512,-33.203,15.137,999.512
1743153612.671,982.91,-75.195,20.996,846.68
1743153612.675,-192.383,-92.285,13.184,-415.039
1743153612.679,-1000.0,-86.914,33.203,-1000.0
1743153612.683,-22.949,-55.176,78.613,88.379
1743153612.686,999.512,-62.012,94.727,999.512
1743153612.69,999.512,-98.633,89.844,896.973
1743153612.694,-124.512,-90.82,99.609,-296.387
1743153612.698,-1000.0,-74.707,99.609,-1000.0
1743153612.702,-209.473,-28.32,99.121,-176.27
1743153612.659,-1000.0,-37.598,-7.812,-1000.0
1743153612.663,63.965,-9.277,3.418,168.945
1743153612.667,999.512,-33.203,15.137,999.512
1743153612.671,982.91,-75.195,20.996,846.68
1743153612.675,-192.383,-92.285,13.184,-415.039
1743153612.679,-1000.0,-86.914,33.203,-1000.0
1743153612.683,-22.949,-55.176,78.613,88.379
1743153612.686,999.512,-62.012,94.727,999.512
1743153612.69,999.512,-98.633,89.844,896.973
1743153612.694,-124.512,-90.82,99.609,-296.387
1743153612.698,-1000.0,-74.707,99.609,-1000.0
1743153612.702,-209.473,-28.32,99.121,-176.27
1743153612.72,999.512,-11.23,87.402,999.512
1743153612.724,876.953,-69.336,68.848,748.047
1743153612.728,-433.105,-101.562,81.055,-583.496
1743153612.732,-1000.0,-77.148,87.891,-1000.0
1743153612.736,-195.801,-30.762,73.73,-191.406
1743153612.74,968.75,2.441,77.637,991.699
1743153612.744,999.512,-25.391,62.988,999.512
1743153612.747,72.266,-64.453,25.879,-56.152
1743153612.751,-1000.0,-77.637,27.344,-1000.0
1743153612.755,-468.262,-23.438,58.594,-363.77
1743153612.759,865.723,-8.789,63.477,913.086
1743153612.763,999.512,-47.363,24.414,999.512
1743153612.72,999.512,-11.23,87.402,999.512
1743153612.724,876.953,-69.336,68.848,748.047
1743153612.728,-433.105,-101.562,81.055,-583.496
1743153612.732,-1000.0,-77.148,87.891,-1000.0
1743153612.736,-195.801,-30.762,73.73,-191.406
1743153612.74,968.75,2.441,77.637,991.699
1743153612.744,999.512,-25.391,62.988,999.512
1743153612.747,72.266,-64.453,25.879,-56.152
1743153612.751,-1000.0,-77.637,27.344,-1000.0
1743153612.755,-468.262,-23.438,58.594,-363.77
1743153612.759,865.723,-8.789,63.477,913.086
1743153612.763,999.512,-47.363,24.414,999.512
1743153613.23,-1000.0,51.27,-33.691,-927.734
1743153613.234,148.438,71.777,-27.344,298.828
1743153613.238,999.512,-64.941,-14.648,999.512
1743153613.242,16.602,-99.121,19.531,-128.418
1743153613.246,-1000.0,-89.355,52.734,-1000.0
1743153613.25,-1000.0,-73.242,43.457,-1000.0
1743153613.254,-240.723,-36.621,17.578,-170.898
1743153613.257,999.512,-34.668,-6.836,999.512
1743153613.261,166.504,-99.121,-24.414,101.562
1743153613.265,-1000.0,-94.238,-14.648,-1000.0
1743153613.269,-1000.0,-55.664,-13.184,-1000.0
1743153613.273,-256.348,-74.707,-14.648,-272.949
1743153612.72,999.512,-11.23,87.402,999.512
1743153612.724,876.953,-69.336,68.848,748.047
1743153612.728,-433.105,-101.562,81.055,-583.496
1743153612.732,-1000.0,-77.148,87.891,-1000.0
1743153612.736,-195.801,-30.762,73.73,-191.406
1743153612.74,968.75,2.441,77.637,991.699
1743153612.744,999.512,-25.391,62.988,999.512
1743153612.747,72.266,-64.453,25.879,-56.152
1743153612.751,-1000.0,-77.637,27.344,-1000.0
1743153612.755,-468.262,-23.438,58.594,-363.77
1743153612.759,865.723,-8.789,63.477,913.086
1743153612.763,999.512,-47.363,24.414,999.512
1743153612.78,210.938,-69.824,-12.695,141.602
1743153612.784,-1000.0,-76.66,1.465,-1000.0
1743153612.788,-529.297,-21.484,27.344,-413.086
1743153612.792,841.797,-8.301,12.207,895.02
1743153612.796,999.512,-23.438,16.602,999.512
1743153612.8,314.453,-37.598,19.531,285.645
1743153612.804,-1000.0,-62.988,7.324,-1000.0
1743153612.807,-969.727,-62.012,-1.953,-795.898
1743153612.811,324.707,-1.465,-27.832,549.805
1743153612.815,999.512,116.699,-15.137,999.512
1743153612.819,454.59,24.902,2.441,391.602
1743153612.823,-988.77,-79.59,-35.645,-1000.0
1743153612.78,210.938,-69.824,-12.695,141.602
1743153612.784,-1000.0,-76.66,1.465,-1000.0
1743153612.788,-529.297,-21.484,27.344,-413.086
1743153612.792,841.797,-8.301,12.207,895.02
1743153612.796,999.512,-23.438,16.602,999.512
1743153612.8,314.453,-37.598,19.531,285.645
1743153612.804,-1000.0,-62.988,7.324,-1000.0
1743153612.807,-969.727,-62.012,-1.953,-795.898
1743153612.811,324.707,-1.465,-27.832,549.805
1743153612.815,999.512,116.699,-15.137,999.512
1743153612.819,454.59,24.902,2.441,391.602
1743153612.823,-988.77,-79.59,-35.645,-1000.0
1743153612.78,210.938,-69.824,-12.695,141.602
1743153612.784,-1000.0,-76.66,1.465,-1000.0
1743153612.788,-529.297,-21.484,27.344,-413.086
1743153612.792,841.797,-8.301,12.207,895.02
1743153612.796,999.512,-23.438,16.602,999.512
1743153612.8,314.453,-37.598,19.531,285.645
1743153612.804,-1000.0,-62.988,7.324,-1000.0
1743153612.807,-969.727,-62.012,-1.953,-795.898
1743153612.811,324.707,-1.465,-27.832,549.805
1743153612.815,999.512,116.699,-15.137,999.512
1743153612.819,454.59,24.902,2.441,391.602
1743153612.823,-988.77,-79.59,-35.645,-1000.0
1743153612.809,-915.039,-36.621,-45.41,-742.676
1743153612.813,571.289,-17.578,2.93,750.977
1743153612.817,987.793,-44.434,-10.254,957.52
1743153612.821,999.512,-41.016,-35.156,999.512
1743153612.825,476.074,-55.664,-7.812,425.293
1743153612.829,-1000.0,-70.801,-6.836,-1000.0
1743153612.833,-100.098,-39.062,-27.832,100.098
1743153612.836,999.512,-48.34,-32.227,999.512
1743153612.84,999.512,-31.738,-57.617,999.512
1743153612.844,443.848,-44.434,-74.707,425.293
1743153612.848,-1000.0,-73.242,-28.32,-1000.0
1743153612.852,-111.328,-32.715,-2.93,73.73
1743153612.809,-915.039,-36.621,-45.41,-742.676
1743153612.813,571.289,-17.578,2.93,750.977
1743153612.817,987.793,-44.434,-10.254,957.52
1743153612.821,999.512,-41.016,-35.156,999.512
1743153612.825,476.074,-55.664,-7.812,425.293
1743153612.829,-1000.0,-70.801,-6.836,-1000.0
1743153612.833,-100.098,-39.062,-27.832,100.098
1743153612.836,999.512,-48.34,-32.227,999.512
1743153612.84,999.512,-31.738,-57.617,999.512
1743153612.844,443.848,-44.434,-74.707,425.293
1743153612.848,-1000.0,-73.242,-28.32,-1000.0
1743153612.852,-111.328,-32.715,-2.93,73.73
1743153612.809,-915.039,-36.621,-45.41,-742.676
1743153612.813,571.289,-17.578,2.93,750.977
1743153612.817,987.793,-44.434,-10.254,957.52
1743153612.821,999.512,-41.016,-35.156,999.512
1743153612.825,476.074,-55.664,-7.812,425.293
1743153612.829,-1000.0,-70.801,-6.836,-1000.0
1743153612.833,-100.098,-39.062,-27.832,100.098
1743153612.836,999.512,-48.34,-32.227,999.512
1743153612.84,999.512,-31.738,-57.617,999.512
1743153612.844,443.848,-44.434,-74.707,425.293
1743153612.848,-1000.0,-73.242,-28.32,-1000.0
1743153612.852,-111.328,-32.715,-2.93,73.73
1743153612.854,999.512,52.246,-42.969,999.512
1743153612.858,990.234,36.621,-67.383,975.586
1743153612.862,806.152,-60.547,-74.707,808.594
1743153612.866,-794.434,-69.824,-74.219,-763.184
1743153612.87,-314.941,-33.691,-52.734,-215.82
1743153612.874,999.512,-24.902,-49.316,999.512
1743153612.878,858.887,-55.176,-47.852,855.957
1743153612.881,999.512,-46.875,-51.27,999.512
1743153612.885,70.312,2.441,-74.707,246.094
1743153612.889,-633.789,27.832,-72.754,-309.082
1743153612.893,895.996,9.277,-54.199,959.961
1743153612.897,999.512,-29.297,-56.641,999.512
1743153612.854,999.512,52.246,-42.969,999.512
1743153612.858,990.234,36.621,-67.383,975.586
1743153612.862,806.152,-60.547,-74.707,808.594
1743153612.866,-794.434,-69.824,-74.219,-763.184
1743153612.87,-314.941,-33.691,-52.734,-215.82
1743153612.874,999.512,-24.902,-49.316,999.512
1743153612.878,858.887,-55.176,-47.852,855.957
1743153612.881,999.512,-46.875,-51.27,999.512
1743153612.885,70.312,2.441,-74.707,246.094
1743153612.889,-633.789,27.832,-72.754,-309.082
1743153612.893,895.996,9.277,-54.199,959.961
1743153612.897,999.512,-29.297,-56.641,999.512
1743153612.899,904.785,-43.945,-63.477,917.969
1743153612.903,981.934,-46.387,-57.129,977.539
1743153612.907,966.309,-39.062,-73.242,966.797
1743153612.911,966.309,-40.527,-88.867,966.797
1743153612.915,966.309,-48.34,-72.754,966.797
1743153612.919,966.309,-44.922,-75.684,966.797
1743153612.923,966.309,-43.457,-83.496,966.797
1743153612.926,966.309,-23.438,-84.473,966.797
1743153612.93,965.82,-19.531,-54.688,966.797
1743153612.934,966.797,-50.781,-35.645,966.797
1743153612.938,966.797,-56.641,-66.895,966.797
1743153612.942,955.078,-49.805,-47.363,966.797
1743153612.944,960.938,-45.898,-15.625,966.797
1743153612.948,977.051,-50.781,-12.695,979.98
1743153612.952,887.207,-44.922,4.883,882.324
1743153612.956,999.512,-38.086,27.344,999.512
1743153612.96,357.422,-82.52,40.039,448.242
1743153612.964,-1000.0,-108.398,51.27,-720.215
1743153612.968,221.68,-42.48,42.969,553.711
1743153612.971,999.512,-23.438,32.715,999.512
1743153612.975,999.512,-54.688,61.035,999.512
1743153612.979,622.07,-80.078,105.469,639.16
1743153612.983,-1000.0,-83.008,127.441,-889.648
1743153612.987,-164.551,-41.504,107.422,33.691
1743153612.944,960.938,-45.898,-15.625,966.797
1743153612.948,977.051,-50.781,-12.695,979.98
1743153612.952,887.207,-44.922,4.883,882.324
1743153612.956,999.512,-38.086,27.344,999.512
1743153612.96,357.422,-82.52,40.039,448.242
1743153612.964,-1000.0,-108.398,51.27,-720.215
1743153612.968,221.68,-42.48,42.969,553.711
1743153612.971,999.512,-23.438,32.715,999.512
1743153612.975,999.512,-54.688,61.035,999.512
1743153612.979,622.07,-80.078,105.469,639.16
1743153612.983,-1000.0,-83.008,127.441,-889.648
1743153612.987,-164.551,-41.504,107.422,33.691
1743153612.944,960.938,-45.898,-15.625,966.797
1743153612.948,977.051,-50.781,-12.695,979.98
1743153612.952,887.207,-44.922,4.883,882.324
1743153612.956,999.512,-38.086,27.344,999.512
1743153612.96,357.422,-82.52,40.039,448.242
1743153612.964,-1000.0,-108.398,51.27,-720.215
1743153612.968,221.68,-42.48,42.969,553.711
1743153612.971,999.512,-23.438,32.715,999.512
1743153612.975,999.512,-54.688,61.035,999.512
1743153612.979,622.07,-80.078,105.469,639.16
1743153612.983,-1000.0,-83.008,127.441,-889.648
1743153612.987,-164.551,-41.504,107.422,33.691
1743153612.99,999.512,-50.781,92.773,999.512
1743153612.994,999.512,-76.66,91.797,999.512
1743153612.998,140.137,-99.609,94.238,48.828
1743153613.002,-1000.0,-92.773,99.121,-1000.0
1743153613.006,-187.988,-36.621,81.543,-60.547
1743153613.01,999.512,-32.227,65.918,999.512
1743153613.014,999.512,-91.797,78.125,987.793
1743153613.017,7.812,-110.352,76.66,-119.629
1743153613.021,-1000.0,-60.059,72.266,-1000.0
1743153613.025,-183.105,3.418,54.688,-148.926
1743153613.029,996.582,-1.465,29.297,999.512
1743153613.033,999.512,-51.27,20.996,999.512
1743153612.99,999.512,-50.781,92.773,999.512
1743153612.994,999.512,-76.66,91.797,999.512
1743153612.998,140.137,-99.609,94.238,48.828
1743153613.002,-1000.0,-92.773,99.121,-1000.0
1743153613.006,-187.988,-36.621,81.543,-60.547
1743153613.01,999.512,-32.227,65.918,999.512
1743153613.014,999.512,-91.797,78.125,987.793
1743153613.017,7.812,-110.352,76.66,-119.629
1743153613.021,-1000.0,-60.059,72.266,-1000.0
1743153613.025,-183.105,3.418,54.688,-148.926
1743153613.029,996.582,-1.465,29.297,999.512
1743153613.033,999.512,-51.27,20.996,999.512
1743153612.99,999.512,-50.781,92.773,999.512
1743153612.994,999.512,-76.66,91.797,999.512
1743153612.998,140.137,-99.609,94.238,48.828
1743153613.002,-1000.0,-92.773,99.121,-1000.0
1743153613.006,-187.988,-36.621,81.543,-60.547
1743153613.01,999.512,-32.227,65.918,999.512
1743153613.014,999.512,-91.797,78.125,987.793
1743153613.017,7.812,-110.352,76.66,-119.629
1743153613.021,-1000.0,-60.059,72.266,-1000.0
1743153613.025,-183.105,3.418,54.688,-148.926
1743153613.029,996.582,-1.465,29.297,999.512
1743153613.033,999.512,-51.27,20.996,999.512
1743153613.035,100.586,-82.52,19.043,-27.832
1743153613.039,-1000.0,-70.312,30.273,-1000.0
1743153613.043,-190.918,-5.859,24.902,-182.129
1743153613.047,998.535,-28.809,16.602,999.512
1743153613.051,999.512,-61.523,10.742,999.512
1743153613.055,159.18,-50.293,-5.371,19.043
1743153613.059,-1000.0,-2.441,-14.648,-1000.0
1743153613.062,-663.574,14.16,-20.02,-548.828
1743153613.066,724.121,-16.602,-23.438,813.477
1743153613.07,999.512,18.066,-15.137,999.512
1743153613.074,113.281,5.371,-23.926,-14.16
1743153613.078,-1000.0,-60.059,-35.645,-1000.0
1743153613.035,100.586,-82.52,19.043,-27.832
1743153613.039,-1000.0,-70.312,30.273,-1000.0
1743153613.043,-190.918,-5.859,24.902,-182.129
1743153613.047,998.535,-28.809,16.602,999.512
1743153613.051,999.512,-61.523,10.742,999.512
1743153613.055,159.18,-50.293,-5.371,19.043
1743153613.059,-1000.0,-2.441,-14.648,-1000.0
1743153613.062,-663.574,14.16,-20.02,-548.828
1743153613.066,724.121,-16.602,-23.438,813.477
1743153613.07,999.512,18.066,-15.137,999.512
1743153613.074,113.281,5.371,-23.926,-14.16
1743153613.078,-1000.0,-60.059,-35.645,-1000.0
1743153613.11,-909.668,-39.062,-28.32,-796.387
1743153613.114,387.695,-1.465,-21.484,499.023
1743153613.118,999.512,-9.766,-12.207,999.512
1743153613.122,186.523,-57.617,-25.391,176.27
1743153613.126,-1000.0,-80.078,-55.176,-1000.0
1743153613.13,-883.301,8.301,-35.156,-777.344
1743153613.134,421.875,44.434,-22.461,548.828
1743153613.137,999.512,-25.879,-34.18,999.512
1743153613.141,575.684,-66.895,-34.18,458.984
1743153613.145,-814.941,-88.379,-67.871,-930.664
1743153613.149,-1000.0,-38.574,-71.289,-974.609
1743153613.153,212.402,-4.395,-24.902,361.816
1743153613.11,-909.668,-39.062,-28.32,-796.387
1743153613.114,387.695,-1.465,-21.484,499.023
1743153613.118,999.512,-9.766,-12.207,999.512
1743153613.122,186.523,-57.617,-25.391,176.27
1743153613.126,-1000.0,-80.078,-55.176,-1000.0
1743153613.13,-883.301,8.301,-35.156,-777.344
1743153613.134,421.875,44.434,-22.461,548.828
1743153613.137,999.512,-25.879,-34.18,999.512
1743153613.141,575.684,-66.895,-34.18,458.984
1743153613.145,-814.941,-88.379,-67.871,-930.664
1743153613.149,-1000.0,-38.574,-71.289,-974.609
1743153613.153,212.402,-4.395,-24.902,361.816
1743153613.155,999.512,-22.949,-16.113,999.512
1743153613.159,519.043,-60.059,-34.668,418.945
1743153613.163,-795.41,-76.172,-37.598,-860.84
1743153613.167,-1000.0,-49.316,-51.27,-1000.0
1743153613.171,-207.52,-20.508,-67.871,-143.066
1743153613.175,999.512,-17.09,-61.523,999.512
1743153613.179,513.184,-54.199,-55.664,337.402
1743153613.182,-731.445,-52.246,-62.5,-828.125
1743153613.186,-1000.0,-41.504,-57.617,-1000.0
1743153613.19,-664.551,-39.062,-37.109,-608.398
1743153613.194,748.047,-9.766,-53.223,850.586
1743153613.198,999.512,-56.641,-71.777,834.961
1743153613.155,999.512,-22.949,-16.113,999.512
1743153613.159,519.043,-60.059,-34.668,418.945
1743153613.163,-795.41,-76.172,-37.598,-860.84
1743153613.167,-1000.0,-49.316,-51.27,-1000.0
1743153613.171,-207.52,-20.508,-67.871,-143.066
1743153613.175,999.512,-17.09,-61.523,999.512
1743153613.179,513.184,-54.199,-55.664,337.402
1743153613.182,-731.445,-52.246,-62.5,-828.125
1743153613.186,-1000.0,-41.504,-57.617,-1000.0
1743153613.19,-664.551,-39.062,-37.109,-608.398
1743153613.194,748.047,-9.766,-53.223,850.586
1743153613.198,999.512,-56.641,-71.777,834.961
1743153613.155,999.512,-22.949,-16.113,999.512
1743153613.159,519.043,-60.059,-34.668,418.945
1743153613.163,-795.41,-76.172,-37.598,-860.84
1743153613.167,-1000.0,-49.316,-51.27,-1000.0
1743153613.171,-207.52,-20.508,-67.871,-143.066
1743153613.175,999.512,-17.09,-61.523,999.512
1743153613.179,513.184,-54.199,-55.664,337.402
1743153613.182,-731.445,-52.246,-62.5,-828.125
1743153613.186,-1000.0,-41.504,-57.617,-1000.0
1743153613.19,-664.551,-39.062,-37.109,-608.398
1743153613.194,748.047,-9.766,-53.223,850.586
1743153613.198,999.512,-56.641,-71.777,834.961
1743153613.199,-332.52,-37.109,-43.457,-598.145
1743153613.203,-1000.0,150.879,-41.016,-1000.0
1743153613.207,-165.527,145.02,-37.109,-189.453
1743153613.211,985.352,-16.113,-24.414,999.512
1743153613.215,999.512,-56.641,-40.527,997.559
1743153613.219,68.848,-60.547,-55.176,-123.047
1743153613.223,-1000.0,-61.523,-72.754,-1000.0
1743153613.226,-507.324,-44.434,-70.801,-423.34
1743153613.23,874.512,-40.039,-41.504,934.082
1743153613.234,999.512,-69.824,-20.996,999.512
1743153613.238,-80.078,-81.543,-25.879,-237.305
1743153613.242,-1000.0,-78.613,-32.227,-1000.0
1743153613.29,999.512,-107.91,-7.812,999.512
1743153613.294,170.41,-99.609,-3.418,160.156
1743153613.298,-1000.0,-64.453,-9.277,-1000.0
1743153613.302,-977.051,-36.133,-12.207,-975.098
1743153613.306,-973.145,-32.715,4.883,-974.121
1743153613.31,-1000.0,-29.297,-2.441,-1000.0
1743153613.314,-1000.0,-28.809,-8.789,-1000.0
1743153613.317,-1000.0,-56.641,-21.484,-1000.0
1743153613.321,-1000.0,-57.617,-36.133,-1000.0
1743153613.325,-1000.0,-51.27,-34.18,-1000.0
1743153613.329,-1000.0,-46.387,-47.852,-1000.0
1743153613.333,-1000.0,-37.598,-66.406,-1000.0
1743153613.29,999.512,-107.91,-7.812,999.512
1743153613.294,170.41,-99.609,-3.418,160.156
1743153613.298,-1000.0,-64.453,-9.277,-1000.0
1743153613.302,-977.051,-36.133,-12.207,-975.098
1743153613.306,-973.145,-32.715,4.883,-974.121
1743153613.31,-1000.0,-29.297,-2.441,-1000.0
1743153613.314,-1000.0,-28.809,-8.789,-1000.0
1743153613.317,-1000.0,-56.641,-21.484,-1000.0
1743153613.321,-1000.0,-57.617,-36.133,-1000.0
1743153613.325,-1000.0,-51.27,-34.18,-1000.0
1743153613.329,-1000.0,-46.387,-47.852,-1000.0
1743153613.333,-1000.0,-37.598,-66.406,-1000.0
1743153613.335,-950.195,-46.875,-34.668,-987.793
1743153613.339,-1000.0,-46.875,2.93,-952.637
1743153613.343,-927.734,-32.227,17.09,-1000.0
1743153613.347,642.09,-5.371,7.324,114.258
1743153613.351,548.828,-47.363,-23.438,394.043
1743153613.355,-1000.0,-98.145,-37.109,-1000.0
1743153613.359,-1000.0,-63.477,-56.641,-1000.0
1743153613.362,-952.148,-34.18,-71.777,-961.914
1743153613.366,-1000.0,-46.875,-69.824,-1000.0
1743153613.37,-1000.0,-43.457,-54.199,-1000.0
1743153613.374,-1000.0,-50.293,-33.203,-1000.0
1743153613.378,-1000.0,-41.504,-18.555,-1000.0
1743153613.335,-950.195,-46.875,-34.668,-987.793
1743153613.339,-1000.0,-46.875,2.93,-952.637
1743153613.343,-927.734,-32.227,17.09,-1000.0
1743153613.347,642.09,-5.371,7.324,114.258
1743153613.351,548.828,-47.363,-23.438,394.043
1743153613.355,-1000.0,-98.145,-37.109,-1000.0
1743153613.359,-1000.0,-63.477,-56.641,-1000.0
1743153613.362,-952.148,-34.18,-71.777,-961.914
1743153613.366,-1000.0,-46.875,-69.824,-1000.0
1743153613.37,-1000.0,-43.457,-54.199,-1000.0
1743153613.374,-1000.0,-50.293,-33.203,-1000.0
1743153613.378,-1000.0,-41.504,-18.555,-1000.0
1743153613.364,-1000.0,-13.672,4.395,-1000.0
1743153613.368,-1000.0,-30.762,3.906,-1000.0
1743153613.372,-1000.0,-40.527,-42.969,-1000.0
1743153613.376,-982.91,-37.598,-64.941,-991.211
1743153613.38,-961.426,-41.016,-33.691,-943.359
1743153613.384,-1000.0,-29.785,-19.531,-1000.0
1743153613.388,23.926,-1.465,-14.16,-52.734
1743153613.391,999.512,-23.926,-29.297,999.512
1743153613.395,-180.176,-79.102,-61.035,-411.133
1743153613.399,-1000.0,-63.965,-56.641,-1000.0
1743153613.403,-943.848,42.969,-32.227,-934.082
1743153613.407,-995.605,55.176,-23.926,-1000.0
1743153613.364,-1000.0,-13.672,4.395,-1000.0
1743153613.368,-1000.0,-30.762,3.906,-1000.0
1743153613.372,-1000.0,-40.527,-42.969,-1000.0
1743153613.376,-982.91,-37.598,-64.941,-991.211
1743153613.38,-961.426,-41.016,-33.691,-943.359
1743153613.384,-1000.0,-29.785,-19.531,-1000.0
1743153613.388,23.926,-1.465,-14.16,-52.734
1743153613.391,999.512,-23.926,-29.297,999.512
1743153613.395,-180.176,-79.102,-61.035,-411.133
1743153613.399,-1000.0,-63.965,-56.641,-1000.0
1743153613.403,-943.848,42.969,-32.227,-934.082
1743153613.407,-995.605,55.176,-23.926,-1000.0
1743153613.41,-1000.0,-24.414,-24.902,-1000.0
1743153613.414,-965.82,-37.109,-33.203,-968.262
1743153613.418,-1000.0,-43.945,-50.293,-998.047
1743153613.422,-1000.0,-36.133,-36.621,-1000.0
1743153613.426,211.426,-18.555,-22.461,186.523
1743153613.43,999.512,-14.16,-52.246,999.512
1743153613.434,272.949,-20.02,-60.059,183.105
1743153613.437,-948.242,-50.781,-40.527,-992.676
1743153613.441,-1000.0,-45.898,-41.016,-1000.0
1743153613.445,-219.727,-39.551,-44.922,-186.523
1743153613.449,999.512,-44.434,-54.199,999.512
1743153613.453,941.895,-52.246,-63.965,799.805
1743153613.41,-1000.0,-24.414,-24.902,-1000.0
1743153613.414,-965.82,-37.109,-33.203,-968.262
1743153613.418,-1000.0,-43.945,-50.293,-998.047
1743153613.422,-1000.0,-36.133,-36.621,-1000.0
1743153613.426,211.426,-18.555,-22.461,186.523
1743153613.43,999.512,-14.16,-52.246,999.512
1743153613.434,272.949,-20.02,-60.059,183.105
1743153613.437,-948.242,-50.781,-40.527,-992.676
1743153613.441,-1000.0,-45.898,-41.016,-1000.0
1743153613.445,-219.727,-39.551,-44.922,-186.523
1743153613.449,999.512,-44.434,-54.199,999.512
1743153613.453,941.895,-52.246,-63.965,799.805
1743153613.47,-328.613,-62.012,-43.945,-521.973
1743153613.474,-1000.0,-56.152,-37.598,-1000.0
1743153613.478,-166.016,-34.18,-35.645,-80.078
1743153613.482,999.512,-38.574,-11.23,999.512
1743153613.486,999.512,-51.27,-18.066,956.543
1743153613.49,-56.641,-69.336,-39.551,-202.637
1743153613.494,-1000.0,-56.641,-45.41,-1000.0
1743153613.497,-291.504,-17.578,-57.129,-235.352
1743153613.501,994.629,-20.996,-52.246,999.512
1743153613.505,999.512,-76.172,-36.133,915.039
1743153613.509,-207.52,-101.074,-26.855,-340.332
1743153613.513,-1000.0,-49.316,-32.227,-1000.0
1743153613.47,-328.613,-62.012,-43.945,-521.973
1743153613.474,-1000.0,-56.152,-37.598,-1000.0
1743153613.478,-166.016,-34.18,-35.645,-80.078
1743153613.482,999.512,-38.574,-11.23,999.512
1743153613.486,999.512,-51.27,-18.066,956.543
1743153613.49,-56.641,-69.336,-39.551,-202.637
1743153613.494,-1000.0,-56.641,-45.41,-1000.0
1743153613.497,-291.504,-17.578,-57.129,-235.352
1743153613.501,994.629,-20.996,-52.246,999.512
1743153613.505,999.512,-76.172,-36.133,915.039
1743153613.509,-207.52,-101.074,-26.855,-340.332
1743153613.513,-1000.0,-49.316,-32.227,-1000.0
1743153613.514,-922.363,-15.137,-41.504,-771.484
1743153613.518,389.16,-37.109,-41.016,615.723
1743153613.522,999.512,-46.875,-36.133,992.676
1743153613.526,-311.035,-41.016,-32.715,-476.074
1743153613.53,-1000.0,-30.273,-45.898,-1000.0
1743153613.534,-1000.0,-27.344,-51.758,-1000.0
1743153613.538,-127.93,-19.531,-42.48,20.996
1743153613.541,999.512,-31.25,-26.367,999.512
1743153613.545,32.227,-100.586,-11.23,-106.445
1743153613.549,-1000.0,-178.223,-20.996,-1000.0
1743153613.553,-1000.0,-89.844,-26.367,-1000.0
1743153613.557,-28.809,27.832,-27.344,103.027
1743153613.514,-922.363,-15.137,-41.504,-771.484
1743153613.518,389.16,-37.109,-41.016,615.723
1743153613.522,999.512,-46.875,-36.133,992.676
1743153613.526,-311.035,-41.016,-32.715,-476.074
1743153613.53,-1000.0,-30.273,-45.898,-1000.0
1743153613.534,-1000.0,-27.344,-51.758,-1000.0
1743153613.538,-127.93,-19.531,-42.48,20.996
1743153613.541,999.512,-31.25,-26.367,999.512
1743153613.545,32.227,-100.586,-11.23,-106.445
1743153613.549,-1000.0,-178.223,-20.996,-1000.0
1743153613.553,-1000.0,-89.844,-26.367,-1000.0
1743153613.557,-28.809,27.832,-27.344,103.027
1743153613.514,-922.363,-15.137,-41.504,-771.484
1743153613.518,389.16,-37.109,-41.016,615.723
1743153613.522,999.512,-46.875,-36.133,992.676
1743153613.526,-311.035,-41.016,-32.715,-476.074
1743153613.53,-1000.0,-30.273,-45.898,-1000.0
1743153613.534,-1000.0,-27.344,-51.758,-1000.0
1743153613.538,-127.93,-19.531,-42.48,20.996
1743153613.541,999.512,-31.25,-26.367,999.512
1743153613.545,32.227,-100.586,-11.23,-106.445
1743153613.549,-1000.0,-178.223,-20.996,-1000.0
1743153613.553,-1000.0,-89.844,-26.367,-1000.0
1743153613.557,-28.809,27.832,-27.344,103.027
1743153613.559,999.512,-24.902,-51.758,999.512
1743153613.563,137.695,-71.289,-32.715,70.801
1743153613.567,-1000.0,-26.855,-13.184,-1000.0
1743153613.571,-1000.0,-10.254,-32.227,-1000.0
1743153613.575,-279.785,-3.418,-21.484,-266.113
1743153613.579,999.512,-12.695,-13.672,999.512
1743153613.583,174.316,-64.453,-12.207,158.203
1743153613.586,-1000.0,-56.641,-12.207,-1000.0
1743153613.59,-903.809,-44.434,-27.344,-912.109
1743153613.594,-1000.0,-61.523,-35.645,-1000.0
1743153613.598,-615.723,-25.879,-48.828,-649.414
1743153613.602,999.512,-4.395,-55.664,836.426
1743153613.559,999.512,-24.902,-51.758,999.512
1743153613.563,137.695,-71.289,-32.715,70.801
1743153613.567,-1000.0,-26.855,-13.184,-1000.0
1743153613.571,-1000.0,-10.254,-32.227,-1000.0
1743153613.575,-279.785,-3.418,-21.484,-266.113
1743153613.579,999.512,-12.695,-13.672,999.512
1743153613.583,174.316,-64.453,-12.207,158.203
1743153613.586,-1000.0,-56.641,-12.207,-1000.0
1743153613.59,-903.809,-44.434,-27.344,-912.109
1743153613.594,-1000.0,-61.523,-35.645,-1000.0
1743153613.598,-615.723,-25.879,-48.828,-649.414
1743153613.602,999.512,-4.395,-55.664,836.426
1743153613.604,267.578,-59.082,-57.617,55.664
1743153613.608,-1000.0,-54.688,-45.41,-1000.0
1743153613.612,-230.957,5.859,-29.297,-177.734
1743153613.616,999.512,-17.578,-28.32,999.512
1743153613.62,891.113,-64.453,-9.766,730.957
1743153613.624,-416.016,-57.129,-6.836,-625.488
1743153613.628,-1000.0,-31.25,-39.551,-1000.0
1743153613.631,-100.098,-31.738,-74.219,8.301
1743153613.635,979.492,-134.766,-48.34,999.512
1743153613.639,999.512,-100.586,-20.996,999.512
1743153613.643,226.562,-37.598,-60.547,200.684
1743153613.647,-1000.0,-61.523,-62.5,-1000.0
1743153613.604,267.578,-59.082,-57.617,55.664
1743153613.608,-1000.0,-54.688,-45.41,-1000.0
1743153613.612,-230.957,5.859,-29.297,-177.734
1743153613.616,999.512,-17.578,-28.32,999.512
1743153613.62,891.113,-64.453,-9.766,730.957
1743153613.624,-416.016,-57.129,-6.836,-625.488
1743153613.628,-1000.0,-31.25,-39.551,-1000.0
1743153613.631,-100.098,-31.738,-74.219,8.301
1743153613.635,979.492,-134.766,-48.34,999.512
1743153613.639,999.512,-100.586,-20.996,999.512
1743153613.643,226.562,-37.598,-60.547,200.684
1743153613.647,-1000.0,-61.523,-62.5,-1000.0
1743153613.604,267.578,-59.082,-57.617,55.664
1743153613.608,-1000.0,-54.688,-45.41,-1000.0
1743153613.612,-230.957,5.859,-29.297,-177.734
1743153613.616,999.512,-17.578,-28.32,999.512
1743153613.62,891.113,-64.453,-9.766,730.957
1743153613.624,-416.016,-57.129,-6.836,-625.488
1743153613.628,-1000.0,-31.25,-39.551,-1000.0
1743153613.631,-100.098,-31.738,-74.219,8.301
1743153613.635,979.492,-134.766,-48.34,999.512
1743153613.639,999.512,-100.586,-20.996,999.512
1743153613.643,226.562,-37.598,-60.547,200.684
1743153613.647,-1000.0,-61.523,-62.5,-1000.0
1743153613.649,-192.383,-16.602,-21.973,-140.625
1743153613.653,999.512,-2.93,-10.742,999.512
1743153613.657,976.562,-13.184,-22.461,980.957
1743153613.661,920.41,-18.555,-49.805,870.605
1743153613.665,-618.652,-40.527,-59.082,-659.18
1743153613.669,-345.215,-2.93,-41.504,-319.824
1743153613.673,999.512,10.742,-46.387,999.512
1743153613.676,893.066,-36.621,-32.227,905.762
1743153613.68,999.512,-44.922,-16.602,999.512
1743153613.684,-197.266,-53.711,-31.738,-228.516
1743153613.688,-589.844,-20.508,-32.227,-435.547
1743153613.692,931.641,13.184,-22.949,996.094
1743153613.694,999.512,-21.973,-48.828,999.512
1743153613.698,909.668,-45.41,-70.312,868.164
1743153613.702,-596.68,-66.895,-56.152,-639.648
1743153613.706,-672.363,-17.578,-44.434,-512.695
1743153613.71,951.172,1.953,-39.062,999.512
1743153613.714,934.082,-35.645,-24.902,906.25
1743153613.718,999.512,-41.504,-2.93,999.512
1743153613.721,229.004,-173.34,15.625,143.066
1743153613.725,-1000.0,-151.367,13.184,-1000.0
1743153613.729,104.492,-5.859,5.859,358.887
1743153613.733,999.512,-30.273,-5.371,999.512
1743153613.737,990.234,-44.434,-1.465,910.645
1743153613.694,999.512,-21.973,-48.828,999.512
1743153613.698,909.668,-45.41,-70.312,868.164
1743153613.702,-596.68,-66.895,-56.152,-639.648
1743153613.706,-672.363,-17.578,-44.434,-512.695
1743153613.71,951.172,1.953,-39.062,999.512
1743153613.714,934.082,-35.645,-24.902,906.25
1743153613.718,999.512,-41.504,-2.93,999.512
1743153613.721,229.004,-173.34,15.625,143.066
1743153613.725,-1000.0,-151.367,13.184,-1000.0
1743153613.729,104.492,-5.859,5.859,358.887
1743153613.733,999.512,-30.273,-5.371,999.512
1743153613.737,990.234,-44.434,-1.465,910.645
1743153613.739,-191.895,-59.082,19.043,-354.004
1743153613.743,-1000.0,-62.988,49.805,-1000.0
1743153613.747,172.852,-21.973,80.078,382.812
1743153613.751,999.512,-23.926,82.52,999.512
1743153613.755,999.512,-38.086,78.613,990.723
1743153613.759,12.207,-75.684,56.641,-102.539
1743153613.763,-1000.0,-65.918,42.969,-1000.0
1743153613.766,-67.383,-16.113,44.434,97.168
1743153613.77,999.512,-28.809,12.207,999.512
1743153613.774,945.801,-47.363,-8.789,823.73
1743153613.778,-272.949,-56.641,19.531,-423.828
1743153613.782,-1000.0,-46.875,52.734,-1000.0
1743153613.739,-191.895,-59.082,19.043,-354.004
1743153613.743,-1000.0,-62.988,49.805,-1000.0
1743153613.747,172.852,-21.973,80.078,382.812
1743153613.751,999.512,-23.926,82.52,999.512
1743153613.755,999.512,-38.086,78.613,990.723
1743153613.759,12.207,-75.684,56.641,-102.539
1743153613.763,-1000.0,-65.918,42.969,-1000.0
1743153613.766,-67.383,-16.113,44.434,97.168
1743153613.77,999.512,-28.809,12.207,999.512
1743153613.774,945.801,-47.363,-8.789,823.73
1743153613.778,-272.949,-56.641,19.531,-423.828
1743153613.782,-1000.0,-46.875,52.734,-1000.0
1743153614.265,949.707,-49.316,-64.453,812.5
1743153614.269,-303.223,-82.52,-57.129,-497.559
1743153614.273,-1000.0,-90.82,-36.133,-1000.0
1743153614.277,-261.23,-36.621,-18.555,-249.023
1743153614.281,999.512,-21.973,-24.902,999.512
1743153614.285,983.887,-64.941,-47.852,852.539
1743153614.289,-316.895,-106.445,-41.016,-485.352
1743153614.292,-1000.0,-73.73,-17.09,-1000.0
1743153614.296,-1000.0,-57.129,-23.926,-954.59
1743153614.3,51.758,-77.148,-64.453,270.996
1743153614.304,999.512,-62.012,-89.355,999.512
1743153614.308,-146.973,-57.129,-54.199,-327.148
1743153614.309,-1000.0,-58.594,-22.461,-1000.0
1743153614.313,-995.117,-53.223,-9.277,-904.297
1743153614.317,162.109,-35.156,-15.137,285.645
1743153614.321,999.512,-38.086,-37.109,999.512
1743153614.325,192.871,-60.547,-52.734,148.926
1743153614.329,-1000.0,-80.078,-66.406,-1000.0
1743153614.333,-661.621,-48.34,-57.129,-564.453
1743153614.336,720.215,-15.137,-54.688,791.016
1743153614.34,999.512,-25.879,-82.52,999.512
1743153614.344,302.246,-54.199,-67.871,265.137
1743153614.348,-1000.0,-62.5,-30.762,-1000.0
1743153614.352,-843.262,-39.551,-30.273,-710.938
1743153614.309,-1000.0,-58.594,-22.461,-1000.0
1743153614.313,-995.117,-53.223,-9.277,-904.297
1743153614.317,162.109,-35.156,-15.137,285.645
1743153614.321,999.512,-38.086,-37.109,999.512
1743153614.325,192.871,-60.547,-52.734,148.926
1743153614.329,-1000.0,-80.078,-66.406,-1000.0
1743153614.333,-661.621,-48.34,-57.129,-564.453
1743153614.336,720.215,-15.137,-54.688,791.016
1743153614.34,999.512,-25.879,-82.52,999.512
1743153614.344,302.246,-54.199,-67.871,265.137
1743153614.348,-1000.0,-62.5,-30.762,-1000.0
1743153614.352,-843.262,-39.551,-30.273,-710.938
1743153614.309,-1000.0,-58.594,-22.461,-1000.0
1743153614.313,-995.117,-53.223,-9.277,-904.297
1743153614.317,162.109,-35.156,-15.137,285.645
1743153614.321,999.512,-38.086,-37.109,999.512
1743153614.325,192.871,-60.547,-52.734,148.926
1743153614.329,-1000.0,-80.078,-66.406,-1000.0
1743153614.333,-661.621,-48.34,-57.129,-564.453
1743153614.336,720.215,-15.137,-54.688,791.016
1743153614.34,999.512,-25.879,-82.52,999.512
1743153614.344,302.246,-54.199,-67.871,265.137
1743153614.348,-1000.0,-62.5,-30.762,-1000.0
1743153614.352,-843.262,-39.551,-30.273,-710.938
1743153614.354,598.145,-35.645,-39.062,717.773
1743153614.358,999.512,-42.969,-60.059,995.117
1743153614.362,999.512,-43.945,-69.824,999.512
1743153614.366,51.27,-56.641,-59.57,-119.141
1743153614.37,-1000.0,-40.527,-43.457,-960.449
1743153614.374,352.539,6.348,-36.133,573.242
1743153614.378,999.512,-12.695,-53.711,999.512
1743153614.381,999.512,-35.645,-63.965,999.512
1743153614.385,248.535,-38.574,-58.105,213.867
1743153614.389,-1000.0,-42.48,-52.734,-1000.0
1743153614.393,-130.859,-12.207,-43.457,35.156
1743153614.397,999.512,-9.766,-50.781,999.512
1743153614.354,598.145,-35.645,-39.062,717.773
1743153614.358,999.512,-42.969,-60.059,995.117
1743153614.362,999.512,-43.945,-69.824,999.512
1743153614.366,51.27,-56.641,-59.57,-119.141
1743153614.37,-1000.0,-40.527,-43.457,-960.449
1743153614.374,352.539,6.348,-36.133,573.242
1743153614.378,999.512,-12.695,-53.711,999.512
1743153614.381,999.512,-35.645,-63.965,999.512
1743153614.385,248.535,-38.574,-58.105,213.867
1743153614.389,-1000.0,-42.48,-52.734,-1000.0
1743153614.393,-130.859,-12.207,-43.457,35.156
1743153614.397,999.512,-9.766,-50.781,999.512
1743153614.4,999.512,-40.039,-63.965,999.512
1743153614.404,222.656,-58.105,-48.828,136.719
1743153614.408,-1000.0,-81.543,-50.781,-1000.0
1743153614.412,-189.453,-13.672,-58.105,-98.145
1743153614.416,989.258,15.625,-35.156,999.512
1743153614.42,999.512,-35.645,-42.969,999.512
1743153614.424,541.992,-62.012,-53.711,473.145
1743153614.427,-1000.0,-41.016,-25.879,-1000.0
1743153614.431,-257.812,10.254,-33.691,-241.211
1743153614.435,999.512,-20.996,-62.012,999.512
1743153614.439,999.512,-46.875,-43.457,999.512
1743153614.443,310.547,-70.312,-17.578,297.852
1743153614.4,999.512,-40.039,-63.965,999.512
1743153614.404,222.656,-58.105,-48.828,136.719
1743153614.408,-1000.0,-81.543,-50.781,-1000.0
1743153614.412,-189.453,-13.672,-58.105,-98.145
1743153614.416,989.258,15.625,-35.156,999.512
1743153614.42,999.512,-35.645,-42.969,999.512
1743153614.424,541.992,-62.012,-53.711,473.145
1743153614.427,-1000.0,-41.016,-25.879,-1000.0
1743153614.431,-257.812,10.254,-33.691,-241.211
1743153614.435,999.512,-20.996,-62.012,999.512
1743153614.439,999.512,-46.875,-43.457,999.512
1743153614.443,310.547,-70.312,-17.578,297.852
1743153614.444,-1000.0,-74.707,-29.785,-1000.0
1743153614.448,-331.055,-17.09,-30.273,-254.883
1743153614.452,967.285,-10.254,-24.902,996.582
1743153614.456,999.512,-35.645,-36.621,999.512
1743153614.46,224.609,-66.406,-57.617,213.867
1743153614.464,-1000.0,-85.938,-62.988,-1000.0
1743153614.468,-453.125,-14.648,-35.645,-355.469
1743153614.471,898.438,33.203,-34.668,943.848
1743153614.475,999.512,-10.254,-61.035,999.512
1743153614.479,208.008,-55.176,-46.875,187.012
1743153614.483,-1000.0,-65.918,-32.715,-1000.0
1743153614.487,-664.551,-17.578,-39.062,-550.781
1743153614.444,-1000.0,-74.707,-29.785,-1000.0
1743153614.448,-331.055,-17.09,-30.273,-254.883
1743153614.452,967.285,-10.254,-24.902,996.582
1743153614.456,999.512,-35.645,-36.621,999.512
1743153614.46,224.609,-66.406,-57.617,213.867
1743153614.464,-1000.0,-85.938,-62.988,-1000.0
1743153614.468,-453.125,-14.648,-35.645,-355.469
1743153614.471,898.438,33.203,-34.668,943.848
1743153614.475,999.512,-10.254,-61.035,999.512
1743153614.479,208.008,-55.176,-46.875,187.012
1743153614.483,-1000.0,-65.918,-32.715,-1000.0
1743153614.487,-664.551,-17.578,-39.062,-550.781
1743153614.49,769.531,2.93,-38.574,838.867
1743153614.494,987.305,-35.156,-36.621,998.047
1743153614.498,999.512,-51.27,-45.898,974.609
1743153614.502,-152.832,-71.289,-41.016,-359.375
1743153614.506,-989.258,-42.969,-36.133,-821.777
1743153614.51,571.777,-13.672,-54.688,742.188
1743153614.514,999.512,-10.742,-55.176,999.512
1743153614.517,999.512,-12.695,-25.879,973.145
1743153614.521,-47.852,-61.523,-2.93,-207.52
1743153614.525,-1000.0,-55.176,-11.719,-1000.0
1743153614.529,154.785,-0.977,-25.879,334.473
1743153614.533,999.512,-17.09,-41.992,999.512
1743153614.49,769.531,2.93,-38.574,838.867
1743153614.494,987.305,-35.156,-36.621,998.047
1743153614.498,999.512,-51.27,-45.898,974.609
1743153614.502,-152.832,-71.289,-41.016,-359.375
1743153614.506,-989.258,-42.969,-36.133,-821.777
1743153614.51,571.777,-13.672,-54.688,742.188
1743153614.514,999.512,-10.742,-55.176,999.512
1743153614.517,999.512,-12.695,-25.879,973.145
1743153614.521,-47.852,-61.523,-2.93,-207.52
1743153614.525,-1000.0,-55.176,-11.719,-1000.0
1743153614.529,154.785,-0.977,-25.879,334.473
1743153614.533,999.512,-17.09,-41.992,999.512
1743153614.49,769.531,2.93,-38.574,838.867
1743153614.494,987.305,-35.156,-36.621,998.047
1743153614.498,999.512,-51.27,-45.898,974.609
1743153614.502,-152.832,-71.289,-41.016,-359.375
1743153614.506,-989.258,-42.969,-36.133,-821.777
1743153614.51,571.777,-13.672,-54.688,742.188
1743153614.514,999.512,-10.742,-55.176,999.512
1743153614.517,999.512,-12.695,-25.879,973.145
1743153614.521,-47.852,-61.523,-2.93,-207.52
1743153614.525,-1000.0,-55.176,-11.719,-1000.0
1743153614.529,154.785,-0.977,-25.879,334.473
1743153614.533,999.512,-17.09,-41.992,999.512
1743153614.534,999.512,-46.875,-40.039,999.512
1743153614.538,266.602,-74.219,-35.156,238.281
1743153614.542,-1000.0,-67.871,-48.828,-1000.0
1743153614.546,1.953,-16.113,-65.43,168.457
1743153614.55,999.512,-33.691,-53.711,999.512
1743153614.554,914.062,-37.109,-37.109,903.32
1743153614.558,955.078,4.395,-34.668,964.355
1743153614.561,968.262,-24.902,-18.555,967.773
1743153614.565,966.309,-48.828,-23.926,967.285
1743153614.569,966.309,-21.973,-35.645,966.797
1743153614.573,966.309,-19.531,-43.945,966.797
1743153614.577,966.309,-42.48,-45.898,966.797
1743153614.534,999.512,-46.875,-40.039,999.512
1743153614.538,266.602,-74.219,-35.156,238.281
1743153614.542,-1000.0,-67.871,-48.828,-1000.0
1743153614.546,1.953,-16.113,-65.43,168.457
1743153614.55,999.512,-33.691,-53.711,999.512
1743153614.554,914.062,-37.109,-37.109,903.32
1743153614.558,955.078,4.395,-34.668,964.355
1743153614.561,968.262,-24.902,-18.555,967.773
1743153614.565,966.309,-48.828,-23.926,967.285
1743153614.569,966.309,-21.973,-35.645,966.797
1743153614.573,966.309,-19.531,-43.945,966.797
1743153614.577,966.309,-42.48,-45.898,966.797
1743153614.595,966.309,-39.062,-38.574,966.797
1743153614.599,966.309,-39.062,-38.574,966.797
1743153614.603,966.309,-40.039,-43.457,966.797
1743153614.607,966.309,-31.738,-42.969,966.797
1743153614.611,966.309,-36.621,-33.691,966.797
1743153614.615,966.309,-32.227,-53.223,966.797
1743153614.619,966.309,-28.809,-64.941,966.797
1743153614.622,966.309,-41.504,-49.805,966.797
1743153614.626,966.309,-47.363,-42.969,966.797
1743153614.63,966.309,-12.695,-36.621,966.797
1743153614.634,966.309,4.883,-19.043,966.797
1743153614.638,966.309,-22.949,-1.953,966.797
1743153614.595,966.309,-39.062,-38.574,966.797
1743153614.599,966.309,-39.062,-38.574,966.797
1743153614.603,966.309,-40.039,-43.457,966.797
1743153614.607,966.309,-31.738,-42.969,966.797
1743153614.611,966.309,-36.621,-33.691,966.797
1743153614.615,966.309,-32.227,-53.223,966.797
1743153614.619,966.309,-28.809,-64.941,966.797
1743153614.622,966.309,-41.504,-49.805,966.797
1743153614.626,966.309,-47.363,-42.969,966.797
1743153614.63,966.309,-12.695,-36.621,966.797
1743153614.634,966.309,4.883,-19.043,966.797
1743153614.638,966.309,-22.949,-1.953,966.797
1743153614.639,966.309,-24.902,-10.254,966.797
1743153614.643,966.309,11.23,-13.672,966.797
1743153614.647,966.309,-10.742,-13.672,966.797
1743153614.651,966.309,-37.109,-35.645,966.797
1743153614.655,966.309,-28.32,-37.109,966.797
1743153614.659,966.309,-18.066,-4.395,966.797
1743153614.663,966.309,-22.461,-3.418,966.797
1743153614.666,966.309,-48.828,-33.691,966.797
1743153614.67,966.309,-21.484,-28.809,966.797
1743153614.674,966.309,102.539,-22.461,967.285
1743153614.678,966.309,67.383,-33.203,966.797
1743153614.682,966.309,-33.691,-43.457,966.797
1743153614.639,966.309,-24.902,-10.254,966.797
1743153614.643,966.309,11.23,-13.672,966.797
1743153614.647,966.309,-10.742,-13.672,966.797
1743153614.651,966.309,-37.109,-35.645,966.797
1743153614.655,966.309,-28.32,-37.109,966.797
1743153614.659,966.309,-18.066,-4.395,966.797
1743153614.663,966.309,-22.461,-3.418,966.797
1743153614.666,966.309,-48.828,-33.691,966.797
1743153614.67,966.309,-21.484,-28.809,966.797
1743153614.674,966.309,102.539,-22.461,967.285
1743153614.678,966.309,67.383,-33.203,966.797
1743153614.682,966.309,-33.691,-43.457,966.797
1743153614.685,966.309,-34.668,-36.133,966.797
1743153614.689,966.309,-39.062,-11.719,967.285
1743153614.693,966.309,-28.32,-7.812,966.797
1743153614.697,966.309,-36.621,-25.879,966.797
1743153614.701,966.309,-25.391,-20.508,966.797
1743153614.705,966.309,-11.719,-12.207,966.797
1743153614.709,966.309,-38.574,-28.809,966.797
1743153614.712,966.309,-43.457,-40.039,966.797
1743153614.716,966.309,23.926,-28.809,966.797
1743153614.72,966.309,19.043,-15.137,966.797
1743153614.724,966.309,-55.664,-27.832,966.797
1743153614.728,966.309,-47.852,-27.832,966.797
1743153614.685,966.309,-34.668,-36.133,966.797
1743153614.689,966.309,-39.062,-11.719,967.285
1743153614.693,966.309,-28.32,-7.812,966.797
1743153614.697,966.309,-36.621,-25.879,966.797
1743153614.701,966.309,-25.391,-20.508,966.797
1743153614.705,966.309,-11.719,-12.207,966.797
1743153614.709,966.309,-38.574,-28.809,966.797
1743153614.712,966.309,-43.457,-40.039,966.797
1743153614.716,966.309,23.926,-28.809,966.797
1743153614.72,966.309,19.043,-15.137,966.797
1743153614.724,966.309,-55.664,-27.832,966.797
1743153614.728,966.309,-47.852,-27.832,966.797
1743153614.73,966.309,-33.691,-16.602,966.797
1743153614.734,966.309,-40.039,-24.902,967.285
1743153614.738,966.309,-51.758,-20.996,966.797
1743153614.742,966.309,-27.832,-17.578,966.797
1743153614.746,981.934,-13.672,-21.484,981.445
1743153614.75,897.949,-57.129,-28.809,899.414
1743153614.754,999.512,-56.152,-33.203,999.512
1743153614.757,661.621,-55.176,-32.227,628.906
1743153614.761,-784.18,-102.051,-40.039,-799.805
1743153614.765,-1000.0,-85.938,-18.555,-1000.0
1743153614.769,-937.988,-69.824,-13.672,-941.406
1743153614.773,-1000.0,-76.66,-46.875,-1000.0
1743153614.73,966.309,-33.691,-16.602,966.797
1743153614.734,966.309,-40.039,-24.902,967.285
1743153614.738,966.309,-51.758,-20.996,966.797
1743153614.742,966.309,-27.832,-17.578,966.797
1743153614.746,981.934,-13.672,-21.484,981.445
1743153614.75,897.949,-57.129,-28.809,899.414
1743153614.754,999.512,-56.152,-33.203,999.512
1743153614.757,661.621,-55.176,-32.227,628.906
1743153614.761,-784.18,-102.051,-40.039,-799.805
1743153614.765,-1000.0,-85.938,-18.555,-1000.0
1743153614.769,-937.988,-69.824,-13.672,-941.406
1743153614.773,-1000.0,-76.66,-46.875,-1000.0
1743153614.73,966.309,-33.691,-16.602,966.797
1743153614.734,966.309,-40.039,-24.902,967.285
1743153614.738,966.309,-51.758,-20.996,966.797
1743153614.742,966.309,-27.832,-17.578,966.797
1743153614.746,981.934,-13.672,-21.484,981.445
1743153614.75,897.949,-57.129,-28.809,899.414
1743153614.754,999.512,-56.152,-33.203,999.512
1743153614.757,661.621,-55.176,-32.227,628.906
1743153614.761,-784.18,-102.051,-40.039,-799.805
1743153614.765,-1000.0,-85.938,-18.555,-1000.0
1743153614.769,-937.988,-69.824,-13.672,-941.406
1743153614.773,-1000.0,-76.66,-46.875,-1000.0
1743153614.774,-1000.0,-76.66,-54.199,-1000.0
1743153614.778,-1000.0,-82.031,-28.809,-1000.0
1743153614.782,-1000.0,-80.566,-16.602,-1000.0
1743153614.786,-1000.0,-66.406,-35.645,-1000.0
1743153614.79,-1000.0,-58.594,-59.082,-1000.0
1743153614.794,-1000.0,-55.176,-67.383,-1000.0
1743153614.798,-1000.0,-51.27,-53.223,-1000.0
1743153614.801,-1000.0,-126.465,-30.273,-1000.0
1743153614.805,-1000.0,-133.789,-19.531,-1000.0
1743153614.809,-1000.0,-39.551,-13.672,-1000.0
1743153614.813,-1000.0,-47.363,-20.508,-1000.0
1743153614.817,-1000.0,-56.641,-40.527,-1000.0
1743153614.819,-1000.0,-51.27,-41.504,-1000.0
1743153614.823,-1000.0,-53.223,-25.879,-1000.0
1743153614.827,-1000.0,-28.809,-37.109,-1000.0
1743153614.831,-1000.0,-25.391,-80.566,-1000.0
1743153614.835,-1000.0,-40.039,-62.012,-1000.0
1743153614.839,-1000.0,-58.105,-6.348,-1000.0
1743153614.843,-1000.0,-49.805,-21.484,-1000.0
1743153614.846,-1000.0,32.227,-41.992,-1000.0
1743153614.85,-1000.0,31.738,-22.949,-1000.0
1743153614.854,-1000.0,-43.945,-22.461,-1000.0
1743153614.858,-1000.0,-34.18,-35.645,-1000.0
1743153614.862,-1000.0,-20.996,-38.086,-1000.0
1743153614.819,-1000.0,-51.27,-41.504,-1000.0
1743153614.823,-1000.0,-53.223,-25.879,-1000.0
1743153614.827,-1000.0,-28.809,-37.109,-1000.0
1743153614.831,-1000.0,-25.391,-80.566,-1000.0
1743153614.835,-1000.0,-40.039,-62.012,-1000.0
1743153614.839,-1000.0,-58.105,-6.348,-1000.0
1743153614.843,-1000.0,-49.805,-21.484,-1000.0
1743153614.846,-1000.0,32.227,-41.992,-1000.0
1743153614.85,-1000.0,31.738,-22.949,-1000.0
1743153614.854,-1000.0,-43.945,-22.461,-1000.0
1743153614.858,-1000.0,-34.18,-35.645,-1000.0
1743153614.862,-1000.0,-20.996,-38.086,-1000.0
1743153614.879,-1000.0,-30.762,-41.016,-1000.0
1743153614.883,-1000.0,-23.438,-35.156,-1000.0
1743153614.887,-1000.0,-28.809,-39.551,-1000.0
1743153614.891,-1000.0,-39.551,-54.199,-1000.0
1743153614.895,-938.477,-47.363,-23.438,-937.5
1743153614.899,-1000.0,-61.523,-8.301,-1000.0
1743153614.903,-253.418,56.641,-24.902,-278.32
1743153614.906,999.512,80.078,-29.297,999.512
1743153614.91,888.184,-75.195,-57.129,728.027
1743153614.914,-481.445,-91.309,-61.035,-689.941
1743153614.918,-1000.0,-60.547,-36.133,-1000.0
1743153614.922,-933.105,-45.898,-33.691,-937.5
1743153614.879,-1000.0,-30.762,-41.016,-1000.0
1743153614.883,-1000.0,-23.438,-35.156,-1000.0
1743153614.887,-1000.0,-28.809,-39.551,-1000.0
1743153614.891,-1000.0,-39.551,-54.199,-1000.0
1743153614.895,-938.477,-47.363,-23.438,-937.5
1743153614.899,-1000.0,-61.523,-8.301,-1000.0
1743153614.903,-253.418,56.641,-24.902,-278.32
1743153614.906,999.512,80.078,-29.297,999.512
1743153614.91,888.184,-75.195,-57.129,728.027
1743153614.914,-481.445,-91.309,-61.035,-689.941
1743153614.918,-1000.0,-60.547,-36.133,-1000.0
1743153614.922,-933.105,-45.898,-33.691,-937.5
1743153614.879,-1000.0,-30.762,-41.016,-1000.0
1743153614.883,-1000.0,-23.438,-35.156,-1000.0
1743153614.887,-1000.0,-28.809,-39.551,-1000.0
1743153614.891,-1000.0,-39.551,-54.199,-1000.0
1743153614.895,-938.477,-47.363,-23.438,-937.5
1743153614.899,-1000.0,-61.523,-8.301,-1000.0
1743153614.903,-253.418,56.641,-24.902,-278.32
1743153614.906,999.512,80.078,-29.297,999.512
1743153614.91,888.184,-75.195,-57.129,728.027
1743153614.914,-481.445,-91.309,-61.035,-689.941
1743153614.918,-1000.0,-60.547,-36.133,-1000.0
1743153614.922,-933.105,-45.898,-33.691,-937.5
1743153614.91,-1000.0,-57.129,-31.738,-1000.0
1743153614.914,-1000.0,-37.598,-29.785,-1000.0
1743153614.918,-932.617,19.043,-20.02,-936.035
1743153614.922,-1000.0,-37.109,-12.695,-1000.0
1743153614.926,-699.707,-51.758,-33.691,-717.285
1743153614.93,682.617,-31.25,-55.176,664.551
1743153614.934,999.512,-69.336,-53.223,999.512
1743153614.937,133.789,-101.074,-47.363,28.32
1743153614.941,-1000.0,-103.516,-7.324,-1000.0
1743153614.945,-1000.0,-25.879,13.672,-958.008
1743153614.949,99.609,93.262,-12.695,250.977
1743153614.953,999.512,41.504,-31.738,999.512
1743153614.91,-1000.0,-57.129,-31.738,-1000.0
1743153614.914,-1000.0,-37.598,-29.785,-1000.0
1743153614.918,-932.617,19.043,-20.02,-936.035
1743153614.922,-1000.0,-37.109,-12.695,-1000.0
1743153614.926,-699.707,-51.758,-33.691,-717.285
1743153614.93,682.617,-31.25,-55.176,664.551
1743153614.934,999.512,-69.336,-53.223,999.512
1743153614.937,133.789,-101.074,-47.363,28.32
1743153614.941,-1000.0,-103.516,-7.324,-1000.0
1743153614.945,-1000.0,-25.879,13.672,-958.008
1743153614.949,99.609,93.262,-12.695,250.977
1743153614.953,999.512,41.504,-31.738,999.512
1743153614.969,160.645,-75.195,-43.945,166.504
1743153614.973,-1000.0,-83.008,-47.363,-1000.0
1743153614.977,-1000.0,-67.383,-27.832,-899.902
1743153614.981,268.555,-35.645,7.324,442.871
1743153614.985,999.512,-90.332,-8.301,999.512
1743153614.989,999.512,87.402,-28.809,999.512
1743153614.993,161.621,188.965,-15.625,-30.273
1743153614.996,-1000.0,-49.316,-28.809,-1000.0
1743153615.0,167.48,-42.969,-20.02,423.828
1743153615.004,999.512,-41.992,-6.348,999.512
1743153615.008,912.109,-80.566,-10.254,911.133
1743153615.012,999.512,-81.055,-23.438,999.512
1743153614.969,160.645,-75.195,-43.945,166.504
1743153614.973,-1000.0,-83.008,-47.363,-1000.0
1743153614.977,-1000.0,-67.383,-27.832,-899.902
1743153614.981,268.555,-35.645,7.324,442.871
1743153614.985,999.512,-90.332,-8.301,999.512
1743153614.989,999.512,87.402,-28.809,999.512
1743153614.993,161.621,188.965,-15.625,-30.273
1743153614.996,-1000.0,-49.316,-28.809,-1000.0
1743153615.0,167.48,-42.969,-20.02,423.828
1743153615.004,999.512,-41.992,-6.348,999.512
1743153615.008,912.109,-80.566,-10.254,911.133
1743153615.012,999.512,-81.055,-23.438,999.512
1743153615.014,-498.535,-85.449,-61.523,-458.008
1743153615.018,-353.027,-69.824,-52.734,-258.789
1743153615.022,999.512,-64.941,-8.301,999.512
1743153615.026,999.512,-69.336,17.578,999.512
1743153615.03,145.02,-59.57,8.789,110.352
1743153615.034,-1000.0,-41.992,-20.02,-1000.0
1743153615.038,-384.277,-6.836,-27.344,-291.016
1743153615.041,999.512,-24.414,-48.828,999.512
1743153615.045,466.797,-21.484,-56.152,406.738
1743153615.049,-986.328,48.34,-19.043,-998.535
1743153615.053,-1000.0,-20.02,-12.207,-1000.0
1743153615.057,-950.195,-79.102,-36.133,-954.102
1743153615.014,-498.535,-85.449,-61.523,-458.008
1743153615.018,-353.027,-69.824,-52.734,-258.789
1743153615.022,999.512,-64.941,-8.301,999.512
1743153615.026,999.512,-69.336,17.578,999.512
1743153615.03,145.02,-59.57,8.789,110.352
1743153615.034,-1000.0,-41.992,-20.02,-1000.0
1743153615.038,-384.277,-6.836,-27.344,-291.016
1743153615.041,999.512,-24.414,-48.828,999.512
1743153615.045,466.797,-21.484,-56.152,406.738
1743153615.049,-986.328,48.34,-19.043,-998.535
1743153615.053,-1000.0,-20.02,-12.207,-1000.0
1743153615.057,-950.195,-79.102,-36.133,-954.102
1743153615.059,-1000.0,58.594,-33.691,-1000.0
1743153615.063,-1000.0,86.426,-36.621,-1000.0
1743153615.067,-1000.0,-56.152,-38.574,-1000.0
1743153615.071,-1000.0,-54.688,-27.344,-1000.0
1743153615.075,-1000.0,-18.066,-25.391,-1000.0
1743153615.079,-1000.0,-4.395,-16.602,-1000.0
1743153615.083,-1000.0,-48.34,-42.969,-1000.0
1743153615.086,-1000.0,-110.84,-55.176,-1000.0
1743153615.09,-1000.0,14.16,-30.273,-1000.0
1743153615.094,-1000.0,113.77,-28.32,-1000.0
1743153615.098,-1000.0,-41.504,-38.086,-1000.0
1743153615.102,-1000.0,-79.59,-29.785,-1000.0
1743153615.059,-1000.0,58.594,-33.691,-1000.0
1743153615.063,-1000.0,86.426,-36.621,-1000.0
1743153615.067,-1000.0,-56.152,-38.574,-1000.0
1743153615.071,-1000.0,-54.688,-27.344,-1000.0
1743153615.075,-1000.0,-18.066,-25.391,-1000.0
1743153615.079,-1000.0,-4.395,-16.602,-1000.0
1743153615.083,-1000.0,-48.34,-42.969,-1000.0
1743153615.086,-1000.0,-110.84,-55.176,-1000.0
1743153615.09,-1000.0,14.16,-30.273,-1000.0
1743153615.094,-1000.0,113.77,-28.32,-1000.0
1743153615.098,-1000.0,-41.504,-38.086,-1000.0
1743153615.102,-1000.0,-79.59,-29.785,-1000.0
1743153615.57,-1000.0,-63.477,-67.871,-1000.0
1743153615.574,-260.742,-65.43,-54.688,-190.918
1743153615.578,999.512,-50.293,-26.367,999.512
1743153615.582,238.281,-88.379,-24.902,191.895
1743153615.586,-1000.0,-90.82,-24.902,-1000.0
1743153615.59,-1000.0,-66.895,-24.902,-1000.0
1743153615.594,-256.836,-16.113,-26.367,-241.211
1743153615.597,999.512,263.184,-14.16,999.512
1743153615.601,252.441,203.613,-37.598,197.754
1743153615.605,-990.723,-87.402,-41.992,-1000.0
1743153615.609,-1000.0,-61.035,-22.949,-1000.0
1743153615.613,-625.0,-26.367,-32.715,-552.734
1743153615.059,-1000.0,58.594,-33.691,-1000.0
1743153615.063,-1000.0,86.426,-36.621,-1000.0
1743153615.067,-1000.0,-56.152,-38.574,-1000.0
1743153615.071,-1000.0,-54.688,-27.344,-1000.0
1743153615.075,-1000.0,-18.066,-25.391,-1000.0
1743153615.079,-1000.0,-4.395,-16.602,-1000.0
1743153615.083,-1000.0,-48.34,-42.969,-1000.0
1743153615.086,-1000.0,-110.84,-55.176,-1000.0
1743153615.09,-1000.0,14.16,-30.273,-1000.0
1743153615.094,-1000.0,113.77,-28.32,-1000.0
1743153615.098,-1000.0,-41.504,-38.086,-1000.0
1743153615.102,-1000.0,-79.59,-29.785,-1000.0
1743153615.104,-1000.0,-71.289,-47.363,-1000.0
1743153615.108,-1000.0,-93.262,-72.754,-1000.0
1743153615.112,-1000.0,-82.031,-53.711,-1000.0
1743153615.116,-1000.0,-48.34,-42.48,-1000.0
1743153615.12,-1000.0,-43.457,-47.363,-1000.0
1743153615.124,-1000.0,-51.758,-47.852,-1000.0
1743153615.128,-1000.0,-60.547,-39.551,-1000.0
1743153615.131,-1000.0,-35.156,-36.621,-1000.0
1743153615.135,-1000.0,136.23,-36.133,-1000.0
1743153615.139,-1000.0,95.215,-46.875,-1000.0
1743153615.143,-1000.0,-97.656,-62.988,-1000.0
1743153615.147,-1000.0,-48.828,-51.758,-1000.0
1743153615.104,-1000.0,-71.289,-47.363,-1000.0
1743153615.108,-1000.0,-93.262,-72.754,-1000.0
1743153615.112,-1000.0,-82.031,-53.711,-1000.0
1743153615.116,-1000.0,-48.34,-42.48,-1000.0
1743153615.12,-1000.0,-43.457,-47.363,-1000.0
1743153615.124,-1000.0,-51.758,-47.852,-1000.0
1743153615.128,-1000.0,-60.547,-39.551,-1000.0
1743153615.131,-1000.0,-35.156,-36.621,-1000.0
1743153615.135,-1000.0,136.23,-36.133,-1000.0
1743153615.139,-1000.0,95.215,-46.875,-1000.0
1743153615.143,-1000.0,-97.656,-62.988,-1000.0
1743153615.147,-1000.0,-48.828,-51.758,-1000.0
1743153615.104,-1000.0,-71.289,-47.363,-1000.0
1743153615.108,-1000.0,-93.262,-72.754,-1000.0
1743153615.112,-1000.0,-82.031,-53.711,-1000.0
1743153615.116,-1000.0,-48.34,-42.48,-1000.0
1743153615.12,-1000.0,-43.457,-47.363,-1000.0
1743153615.124,-1000.0,-51.758,-47.852,-1000.0
1743153615.128,-1000.0,-60.547,-39.551,-1000.0
1743153615.131,-1000.0,-35.156,-36.621,-1000.0
1743153615.135,-1000.0,136.23,-36.133,-1000.0
1743153615.139,-1000.0,95.215,-46.875,-1000.0
1743153615.143,-1000.0,-97.656,-62.988,-1000.0
1743153615.147,-1000.0,-48.828,-51.758,-1000.0
1743153615.149,-1000.0,-13.672,-46.387,-1000.0
1743153615.153,-1000.0,-70.312,-25.879,-1000.0
1743153615.157,-1000.0,-83.496,-6.836,-1000.0
1743153615.161,-1000.0,-69.336,-11.23,-1000.0
1743153615.165,-1000.0,-61.523,-30.273,-1000.0
1743153615.169,-1000.0,-54.688,-46.387,-1000.0
1743153615.173,-1000.0,-61.523,-37.109,-1000.0
1743153615.176,-1000.0,54.199,-48.828,-1000.0
1743153615.18,-1000.0,48.828,-60.059,-1000.0
1743153615.184,-1000.0,-100.586,-35.156,-1000.0
1743153615.188,-1000.0,-80.566,-25.879,-1000.0
1743153615.192,-1000.0,-52.734,-33.691,-1000.0
1743153615.149,-1000.0,-13.672,-46.387,-1000.0
1743153615.153,-1000.0,-70.312,-25.879,-1000.0
1743153615.157,-1000.0,-83.496,-6.836,-1000.0
1743153615.161,-1000.0,-69.336,-11.23,-1000.0
1743153615.165,-1000.0,-61.523,-30.273,-1000.0
1743153615.169,-1000.0,-54.688,-46.387,-1000.0
1743153615.173,-1000.0,-61.523,-37.109,-1000.0
1743153615.176,-1000.0,54.199,-48.828,-1000.0
1743153615.18,-1000.0,48.828,-60.059,-1000.0
1743153615.184,-1000.0,-100.586,-35.156,-1000.0
1743153615.188,-1000.0,-80.566,-25.879,-1000.0
1743153615.192,-1000.0,-52.734,-33.691,-1000.0
1743153615.194,-1000.0,-62.988,-47.852,-1000.0
1743153615.198,-1000.0,-81.055,-53.223,-1000.0
1743153615.202,-1000.0,-67.871,-51.758,-1000.0
1743153615.206,-1000.0,-47.363,-44.922,-1000.0
1743153615.21,-1000.0,-44.434,-26.367,-1000.0
1743153615.214,-1000.0,-71.777,-37.109,-1000.0
1743153615.218,-1000.0,-33.691,-58.105,-1000.0
1743153615.221,-933.594,105.957,-61.523,-932.617
1743153615.225,-1000.0,17.578,-36.621,-1000.0
1743153615.229,-277.344,-51.27,-10.254,-305.664
1743153615.233,943.359,-19.531,-22.461,936.523
1743153615.237,999.512,-45.898,-37.109,999.512
1743153615.194,-1000.0,-62.988,-47.852,-1000.0
1743153615.198,-1000.0,-81.055,-53.223,-1000.0
1743153615.202,-1000.0,-67.871,-51.758,-1000.0
1743153615.206,-1000.0,-47.363,-44.922,-1000.0
1743153615.21,-1000.0,-44.434,-26.367,-1000.0
1743153615.214,-1000.0,-71.777,-37.109,-1000.0
1743153615.218,-1000.0,-33.691,-58.105,-1000.0
1743153615.221,-933.594,105.957,-61.523,-932.617
1743153615.225,-1000.0,17.578,-36.621,-1000.0
1743153615.229,-277.344,-51.27,-10.254,-305.664
1743153615.233,943.359,-19.531,-22.461,936.523
1743153615.237,999.512,-45.898,-37.109,999.512
1743153615.194,-1000.0,-62.988,-47.852,-1000.0
1743153615.198,-1000.0,-81.055,-53.223,-1000.0
1743153615.202,-1000.0,-67.871,-51.758,-1000.0
1743153615.206,-1000.0,-47.363,-44.922,-1000.0
1743153615.21,-1000.0,-44.434,-26.367,-1000.0
1743153615.214,-1000.0,-71.777,-37.109,-1000.0
1743153615.218,-1000.0,-33.691,-58.105,-1000.0
1743153615.221,-933.594,105.957,-61.523,-932.617
1743153615.225,-1000.0,17.578,-36.621,-1000.0
1743153615.229,-277.344,-51.27,-10.254,-305.664
1743153615.233,943.359,-19.531,-22.461,936.523
1743153615.237,999.512,-45.898,-37.109,999.512
1743153615.24,393.555,-81.543,-42.969,325.195
1743153615.244,-1000.0,-110.352,-36.133,-1000.0
1743153615.248,-546.875,-39.062,-49.805,-410.156
1743153615.252,936.523,-10.254,-65.43,995.117
1743153615.256,995.605,-44.434,-48.34,974.609
1743153615.26,913.574,-77.637,-23.926,924.316
1743153615.264,981.445,18.066,0.977,978.516
1743153615.267,978.516,64.453,8.789,969.727
1743153615.271,914.062,-52.734,-3.418,953.613
1743153615.275,999.512,-58.594,-17.578,912.598
1743153615.279,858.887,-48.34,-20.508,999.512
1743153615.283,-603.027,-86.426,-15.625,-123.047
1743153615.24,393.555,-81.543,-42.969,325.195
1743153615.244,-1000.0,-110.352,-36.133,-1000.0
1743153615.248,-546.875,-39.062,-49.805,-410.156
1743153615.252,936.523,-10.254,-65.43,995.117
1743153615.256,995.605,-44.434,-48.34,974.609
1743153615.26,913.574,-77.637,-23.926,924.316
1743153615.264,981.445,18.066,0.977,978.516
1743153615.267,978.516,64.453,8.789,969.727
1743153615.271,914.062,-52.734,-3.418,953.613
1743153615.275,999.512,-58.594,-17.578,912.598
1743153615.279,858.887,-48.34,-20.508,999.512
1743153615.283,-603.027,-86.426,-15.625,-123.047
1743153615.284,-1000.0,-74.219,-21.973,-768.555
1743153615.288,530.762,-29.297,-29.785,812.012
1743153615.292,999.512,-55.664,-41.504,999.512
1743153615.296,882.324,-73.242,-27.832,862.793
1743153615.3,999.512,-62.988,-11.23,999.512
1743153615.304,-338.867,-55.664,-27.344,-55.664
1743153615.308,-346.191,84.961,-32.715,-195.801
1743153615.311,999.512,61.523,-25.391,999.512
1743153615.315,958.496,-85.449,-26.367,955.078
1743153615.319,929.199,-5.859,-37.598,943.359
1743153615.323,917.48,40.039,-40.527,971.68
1743153615.327,960.449,-44.922,-34.668,967.285
1743153615.284,-1000.0,-74.219,-21.973,-768.555
1743153615.288,530.762,-29.297,-29.785,812.012
1743153615.292,999.512,-55.664,-41.504,999.512
1743153615.296,882.324,-73.242,-27.832,862.793
1743153615.3,999.512,-62.988,-11.23,999.512
1743153615.304,-338.867,-55.664,-27.344,-55.664
1743153615.308,-346.191,84.961,-32.715,-195.801
1743153615.311,999.512,61.523,-25.391,999.512
1743153615.315,958.496,-85.449,-26.367,955.078
1743153615.319,929.199,-5.859,-37.598,943.359
1743153615.323,917.48,40.039,-40.527,971.68
1743153615.327,960.449,-44.922,-34.668,967.285
1743153615.284,-1000.0,-74.219,-21.973,-768.555
1743153615.288,530.762,-29.297,-29.785,812.012
1743153615.292,999.512,-55.664,-41.504,999.512
1743153615.296,882.324,-73.242,-27.832,862.793
1743153615.3,999.512,-62.988,-11.23,999.512
1743153615.304,-338.867,-55.664,-27.344,-55.664
1743153615.308,-346.191,84.961,-32.715,-195.801
1743153615.311,999.512,61.523,-25.391,999.512
1743153615.315,958.496,-85.449,-26.367,955.078
1743153615.319,929.199,-5.859,-37.598,943.359
1743153615.323,917.48,40.039,-40.527,971.68
1743153615.327,960.449,-44.922,-34.668,967.285
1743153615.344,953.613,-67.871,-17.09,964.844
1743153615.348,933.594,-70.312,-8.301,969.238
1743153615.352,999.512,-68.848,-15.625,966.797
1743153615.356,-234.863,-73.73,-9.277,923.828
1743153615.36,-311.523,-49.316,-9.277,950.684
1743153615.364,999.512,-31.738,-28.809,974.121
1743153615.368,954.102,-60.059,-55.176,963.379
1743153615.371,938.965,-64.941,-44.922,968.262
1743153615.375,972.168,-70.801,-18.066,966.797
1743153615.379,966.309,91.797,0.0,966.797
1743153615.383,966.309,125.977,-5.371,967.285
1743153615.387,966.309,-59.57,-31.738,967.285
1743153615.344,953.613,-67.871,-17.09,964.844
1743153615.348,933.594,-70.312,-8.301,969.238
1743153615.352,999.512,-68.848,-15.625,966.797
1743153615.356,-234.863,-73.73,-9.277,923.828
1743153615.36,-311.523,-49.316,-9.277,950.684
1743153615.364,999.512,-31.738,-28.809,974.121
1743153615.368,954.102,-60.059,-55.176,963.379
1743153615.371,938.965,-64.941,-44.922,968.262
1743153615.375,972.168,-70.801,-18.066,966.797
1743153615.379,966.309,91.797,0.0,966.797
1743153615.383,966.309,125.977,-5.371,967.285
1743153615.387,966.309,-59.57,-31.738,967.285
1743153615.389,966.309,-75.195,-49.316,966.797
1743153615.393,966.309,-59.082,-45.898,967.285
1743153615.397,966.309,-59.57,-41.016,967.285
1743153615.401,967.773,-52.246,-25.879,978.516
1743153615.405,890.625,-55.176,-19.043,882.324
1743153615.409,999.512,-64.453,-21.484,999.512
1743153615.413,172.852,-84.473,-24.414,359.375
1743153615.416,-995.605,-88.867,-35.645,-570.312
1743153615.42,456.543,-25.879,-39.551,761.719
1743153615.424,999.512,108.887,-31.25,996.094
1743153615.428,999.512,107.422,-23.438,999.512
1743153615.432,329.59,-68.848,-31.25,340.82
1743153615.389,966.309,-75.195,-49.316,966.797
1743153615.393,966.309,-59.082,-45.898,967.285
1743153615.397,966.309,-59.57,-41.016,967.285
1743153615.401,967.773,-52.246,-25.879,978.516
1743153615.405,890.625,-55.176,-19.043,882.324
1743153615.409,999.512,-64.453,-21.484,999.512
1743153615.413,172.852,-84.473,-24.414,359.375
1743153615.416,-995.605,-88.867,-35.645,-570.312
1743153615.42,456.543,-25.879,-39.551,761.719
1743153615.424,999.512,108.887,-31.25,996.094
1743153615.428,999.512,107.422,-23.438,999.512
1743153615.432,329.59,-68.848,-31.25,340.82
1743153615.434,-1000.0,-88.867,-49.805,-933.105
1743153615.438,129.883,-24.414,-41.504,415.039
1743153615.442,999.512,-60.059,-19.043,999.512
1743153615.446,999.512,-79.102,-4.395,999.512
1743153615.45,553.223,-73.73,3.418,552.734
1743153615.454,-1000.0,-83.984,-6.348,-1000.0
1743153615.458,-252.441,-41.016,-8.789,-79.102
1743153615.461,999.512,-75.195,-26.855,999.512
1743153615.465,999.512,98.633,-62.988,990.723
1743153615.469,4.395,125.488,-51.758,-57.617
1743153615.473,-1000.0,-91.797,-22.461,-1000.0
1743153615.477,-245.117,-33.691,-18.066,-225.586
1743153615.434,-1000.0,-88.867,-49.805,-933.105
1743153615.438,129.883,-24.414,-41.504,415.039
1743153615.442,999.512,-60.059,-19.043,999.512
1743153615.446,999.512,-79.102,-4.395,999.512
1743153615.45,553.223,-73.73,3.418,552.734
1743153615.454,-1000.0,-83.984,-6.348,-1000.0
1743153615.458,-252.441,-41.016,-8.789,-79.102
1743153615.461,999.512,-75.195,-26.855,999.512
1743153615.465,999.512,98.633,-62.988,990.723
1743153615.469,4.395,125.488,-51.758,-57.617
1743153615.473,-1000.0,-91.797,-22.461,-1000.0
1743153615.477,-245.117,-33.691,-18.066,-225.586
1743153615.479,999.512,-2.441,-35.645,999.512
1743153615.483,623.047,-86.426,-58.594,531.25
1743153615.487,-763.184,-130.371,-36.621,-830.078
1743153615.491,-1000.0,-90.82,-18.066,-1000.0
1743153615.495,-213.867,-22.461,-25.391,-208.984
1743153615.499,948.73,-16.113,-28.809,976.074
1743153615.503,999.512,-60.547,-23.438,999.512
1743153615.506,148.926,-74.707,-20.508,5.859
1743153615.51,-1000.0,67.383,-46.387,-1000.0
1743153615.514,-625.977,99.121,-50.781,-520.996
1743153615.518,782.227,-31.25,-19.531,863.77
1743153615.522,999.512,-52.246,11.23,999.512
1743153615.479,999.512,-2.441,-35.645,999.512
1743153615.483,623.047,-86.426,-58.594,531.25
1743153615.487,-763.184,-130.371,-36.621,-830.078
1743153615.491,-1000.0,-90.82,-18.066,-1000.0
1743153615.495,-213.867,-22.461,-25.391,-208.984
1743153615.499,948.73,-16.113,-28.809,976.074
1743153615.503,999.512,-60.547,-23.438,999.512
1743153615.506,148.926,-74.707,-20.508,5.859
1743153615.51,-1000.0,67.383,-46.387,-1000.0
1743153615.514,-625.977,99.121,-50.781,-520.996
1743153615.518,782.227,-31.25,-19.531,863.77
1743153615.522,999.512,-52.246,11.23,999.512
1743153615.99,966.309,73.242,-11.23,966.797
1743153615.994,966.309,-50.781,-1.953,967.285
1743153615.998,966.309,-58.594,-16.602,966.797
1743153616.002,966.309,-69.824,-8.789,967.285
1743153616.006,966.309,-78.125,-3.906,966.797
1743153616.01,966.309,-83.496,-20.996,966.797
1743153616.014,966.309,-20.996,-4.883,966.797
1743153616.017,966.309,-17.578,-3.906,966.797
1743153616.021,966.309,-102.539,-21.484,966.797
1743153616.025,966.309,-83.984,-19.531,966.797
1743153616.029,966.309,-50.781,-12.207,966.797
1743153616.033,966.309,-37.109,-9.766,966.797
1743153615.479,999.512,-2.441,-35.645,999.512
1743153615.483,623.047,-86.426,-58.594,531.25
1743153615.487,-763.184,-130.371,-36.621,-830.078
1743153615.491,-1000.0,-90.82,-18.066,-1000.0
1743153615.495,-213.867,-22.461,-25.391,-208.984
1743153615.499,948.73,-16.113,-28.809,976.074
1743153615.503,999.512,-60.547,-23.438,999.512
1743153615.506,148.926,-74.707,-20.508,5.859
1743153615.51,-1000.0,67.383,-46.387,-1000.0
1743153615.514,-625.977,99.121,-50.781,-520.996
1743153615.518,782.227,-31.25,-19.531,863.77
1743153615.522,999.512,-52.246,11.23,999.512
1743153615.525,-7.812,-93.262,-5.371,-149.414
1743153615.529,-1000.0,-106.934,-31.738,-1000.0
1743153615.533,-751.953,-62.5,-26.855,-637.695
1743153615.537,580.078,2.93,-52.246,691.406
1743153615.541,999.512,-20.996,-65.918,999.512
1743153615.545,137.207,-84.473,-30.273,32.715
1743153615.549,-1000.0,-108.887,0.0,-1000.0
1743153615.552,-1000.0,64.941,-10.254,-921.875
1743153615.556,190.918,136.23,-20.508,319.824
1743153615.56,999.512,-45.898,-28.809,999.512
1743153615.564,123.047,-100.098,-27.344,118.164
1743153615.568,-1000.0,-84.473,-39.062,-1000.0
1743153615.525,-7.812,-93.262,-5.371,-149.414
1743153615.529,-1000.0,-106.934,-31.738,-1000.0
1743153615.533,-751.953,-62.5,-26.855,-637.695
1743153615.537,580.078,2.93,-52.246,691.406
1743153615.541,999.512,-20.996,-65.918,999.512
1743153615.545,137.207,-84.473,-30.273,32.715
1743153615.549,-1000.0,-108.887,0.0,-1000.0
1743153615.552,-1000.0,64.941,-10.254,-921.875
1743153615.556,190.918,136.23,-20.508,319.824
1743153615.56,999.512,-45.898,-28.809,999.512
1743153615.564,123.047,-100.098,-27.344,118.164
1743153615.568,-1000.0,-84.473,-39.062,-1000.0
1743153615.614,939.941,-41.992,-54.199,996.582
1743153615.618,711.426,-81.543,-69.824,554.688
1743153615.622,-777.832,-79.102,-66.406,-881.836
1743153615.626,-1000.0,-42.969,-70.312,-1000.0
1743153615.63,-185.059,-19.043,-98.633,-200.195
1743153615.634,952.637,-73.242,-119.141,970.215
1743153615.638,999.512,143.555,-102.051,999.512
1743153615.641,208.008,213.867,-99.609,71.289
1743153615.645,-1000.0,-85.938,-126.953,-1000.0
1743153615.649,-426.758,-65.918,-136.719,-314.941
1743153615.653,908.203,26.855,-118.652,942.383
1743153615.657,999.512,-9.277,-107.91,999.512
1743153615.614,939.941,-41.992,-54.199,996.582
1743153615.618,711.426,-81.543,-69.824,554.688
1743153615.622,-777.832,-79.102,-66.406,-881.836
1743153615.626,-1000.0,-42.969,-70.312,-1000.0
1743153615.63,-185.059,-19.043,-98.633,-200.195
1743153615.634,952.637,-73.242,-119.141,970.215
1743153615.638,999.512,143.555,-102.051,999.512
1743153615.641,208.008,213.867,-99.609,71.289
1743153615.645,-1000.0,-85.938,-126.953,-1000.0
1743153615.649,-426.758,-65.918,-136.719,-314.941
1743153615.653,908.203,26.855,-118.652,942.383
1743153615.657,999.512,-9.277,-107.91,999.512
1743153615.614,939.941,-41.992,-54.199,996.582
1743153615.618,711.426,-81.543,-69.824,554.688
1743153615.622,-777.832,-79.102,-66.406,-881.836
1743153615.626,-1000.0,-42.969,-70.312,-1000.0
1743153615.63,-185.059,-19.043,-98.633,-200.195
1743153615.634,952.637,-73.242,-119.141,970.215
1743153615.638,999.512,143.555,-102.051,999.512
1743153615.641,208.008,213.867,-99.609,71.289
1743153615.645,-1000.0,-85.938,-126.953,-1000.0
1743153615.649,-426.758,-65.918,-136.719,-314.941
1743153615.653,908.203,26.855,-118.652,942.383
1743153615.657,999.512,-9.277,-107.91,999.512
1743153615.66,211.914,-107.91,-100.586,198.242
1743153615.664,-1000.0,-102.051,-88.867,-1000.0
1743153615.668,-337.891,-25.391,-92.285,-262.695
1743153615.672,937.5,-16.602,-101.074,968.262
1743153615.676,999.512,-63.965,-83.984,999.512
1743153615.68,450.684,-72.754,-63.477,391.602
1743153615.684,-1000.0,-25.391,-75.684,-1000.0
1743153615.687,-593.75,-9.766,-67.383,-455.566
1743153615.691,837.891,-46.387,-55.664,906.25
1743153615.695,999.512,-40.527,-72.266,999.512
1743153615.699,425.293,-0.977,-72.266,389.648
1743153615.703,-1000.0,-66.406,-70.801,-1000.0
1743153615.66,211.914,-107.91,-100.586,198.242
1743153615.664,-1000.0,-102.051,-88.867,-1000.0
1743153615.668,-337.891,-25.391,-92.285,-262.695
1743153615.672,937.5,-16.602,-101.074,968.262
1743153615.676,999.512,-63.965,-83.984,999.512
1743153615.68,450.684,-72.754,-63.477,391.602
1743153615.684,-1000.0,-25.391,-75.684,-1000.0
1743153615.687,-593.75,-9.766,-67.383,-455.566
1743153615.691,837.891,-46.387,-55.664,906.25
1743153615.695,999.512,-40.527,-72.266,999.512
1743153615.699,425.293,-0.977,-72.266,389.648
1743153615.703,-1000.0,-66.406,-70.801,-1000.0
1743153615.66,211.914,-107.91,-100.586,198.242
1743153615.664,-1000.0,-102.051,-88.867,-1000.0
1743153615.668,-337.891,-25.391,-92.285,-262.695
1743153615.672,937.5,-16.602,-101.074,968.262
1743153615.676,999.512,-63.965,-83.984,999.512
1743153615.68,450.684,-72.754,-63.477,391.602
1743153615.684,-1000.0,-25.391,-75.684,-1000.0
1743153615.687,-593.75,-9.766,-67.383,-455.566
1743153615.691,837.891,-46.387,-55.664,906.25
1743153615.695,999.512,-40.527,-72.266,999.512
1743153615.699,425.293,-0.977,-72.266,389.648
1743153615.703,-1000.0,-66.406,-70.801,-1000.0
1743153615.721,-826.66,-69.336,-68.359,-650.879
1743153615.725,619.141,-25.879,-66.895,775.879
1743153615.729,999.512,-60.547,-59.57,999.512
1743153615.733,951.66,-102.539,-59.082,878.906
1743153615.737,-356.934,-119.629,-56.152,-516.602
1743153615.741,-1000.0,-31.738,-27.344,-873.047
1743153615.745,498.535,17.09,-31.738,707.031
1743153615.748,999.512,-59.57,-54.688,982.422
1743153615.752,999.512,-76.172,-50.293,999.512
1743153615.756,245.117,-45.41,-29.297,186.523
1743153615.76,-1000.0,-36.133,-20.508,-1000.0
1743153615.764,-52.246,-14.648,-44.434,155.273
1743153615.721,-826.66,-69.336,-68.359,-650.879
1743153615.725,619.141,-25.879,-66.895,775.879
1743153615.729,999.512,-60.547,-59.57,999.512
1743153615.733,951.66,-102.539,-59.082,878.906
1743153615.737,-356.934,-119.629,-56.152,-516.602
1743153615.741,-1000.0,-31.738,-27.344,-873.047
1743153615.745,498.535,17.09,-31.738,707.031
1743153615.748,999.512,-59.57,-54.688,982.422
1743153615.752,999.512,-76.172,-50.293,999.512
1743153615.756,245.117,-45.41,-29.297,186.523
1743153615.76,-1000.0,-36.133,-20.508,-1000.0
1743153615.764,-52.246,-14.648,-44.434,155.273
1743153615.764,999.512,-21.973,-67.383,999.512
1743153615.768,999.512,-13.672,-59.082,999.512
1743153615.772,226.074,-50.293,-41.992,208.496
1743153615.776,-1000.0,-93.75,-32.715,-1000.0
1743153615.78,-102.051,-53.223,-23.926,64.453
1743153615.784,999.512,-41.992,-18.555,999.512
1743153615.788,959.961,-60.547,-41.992,943.848
1743153615.791,940.43,-85.449,-40.039,940.918
1743153615.795,-599.609,-91.309,-30.273,-587.891
1743153615.799,-336.914,25.879,-50.781,-307.617
1743153615.803,999.512,35.645,-42.48,999.512
1743153615.807,900.391,-46.875,-36.621,905.762
1743153615.764,999.512,-21.973,-67.383,999.512
1743153615.768,999.512,-13.672,-59.082,999.512
1743153615.772,226.074,-50.293,-41.992,208.496
1743153615.776,-1000.0,-93.75,-32.715,-1000.0
1743153615.78,-102.051,-53.223,-23.926,64.453
1743153615.784,999.512,-41.992,-18.555,999.512
1743153615.788,959.961,-60.547,-41.992,943.848
1743153615.791,940.43,-85.449,-40.039,940.918
1743153615.795,-599.609,-91.309,-30.273,-587.891
1743153615.799,-336.914,25.879,-50.781,-307.617
1743153615.803,999.512,35.645,-42.48,999.512
1743153615.807,900.391,-46.875,-36.621,905.762
1743153615.764,999.512,-21.973,-67.383,999.512
1743153615.768,999.512,-13.672,-59.082,999.512
1743153615.772,226.074,-50.293,-41.992,208.496
1743153615.776,-1000.0,-93.75,-32.715,-1000.0
1743153615.78,-102.051,-53.223,-23.926,64.453
1743153615.784,999.512,-41.992,-18.555,999.512
1743153615.788,959.961,-60.547,-41.992,943.848
1743153615.791,940.43,-85.449,-40.039,940.918
1743153615.795,-599.609,-91.309,-30.273,-587.891
1743153615.799,-336.914,25.879,-50.781,-307.617
1743153615.803,999.512,35.645,-42.48,999.512
1743153615.807,900.391,-46.875,-36.621,905.762
1743153615.81,999.512,-49.316,-51.758,999.512
1743153615.814,-183.105,-69.824,-30.273,-197.754
1743153615.818,-359.375,-48.34,-20.996,-328.613
1743153615.822,999.512,-38.086,-22.949,999.512
1743153615.826,962.402,-20.508,-1.465,960.449
1743153615.83,936.035,-26.367,0.977,937.5
1743153615.834,973.633,-80.566,-28.32,973.633
1743153615.837,966.309,-77.148,-38.574,966.797
1743153615.841,966.309,-29.785,-13.184,966.797
1743153615.845,966.309,-19.043,-11.719,966.797
1743153615.849,966.309,-59.082,-31.738,966.797
1743153615.853,966.309,-46.387,-26.367,967.285
1743153615.854,968.262,8.789,-44.922,968.75
1743153615.858,959.961,-20.508,-58.594,961.426
1743153615.862,909.668,-61.523,-24.902,907.227
1743153615.866,999.512,-59.57,7.324,999.512
1743153615.87,62.988,-97.168,20.02,19.043
1743153615.874,-977.051,-80.078,6.836,-718.262
1743153615.878,473.633,-18.066,-16.602,773.438
1743153615.881,999.512,-7.812,-23.438,999.512
1743153615.885,892.578,104.004,-15.137,900.879
1743153615.889,976.074,99.121,-15.625,980.957
1743153615.893,966.309,-36.133,-27.344,966.797
1743153615.897,977.051,-48.34,-41.504,973.145
1743153615.854,968.262,8.789,-44.922,968.75
1743153615.858,959.961,-20.508,-58.594,961.426
1743153615.862,909.668,-61.523,-24.902,907.227
1743153615.866,999.512,-59.57,7.324,999.512
1743153615.87,62.988,-97.168,20.02,19.043
1743153615.874,-977.051,-80.078,6.836,-718.262
1743153615.878,473.633,-18.066,-16.602,773.438
1743153615.881,999.512,-7.812,-23.438,999.512
1743153615.885,892.578,104.004,-15.137,900.879
1743153615.889,976.074,99.121,-15.625,980.957
1743153615.893,966.309,-36.133,-27.344,966.797
1743153615.897,977.051,-48.34,-41.504,973.145
1743153615.914,920.898,-59.57,-23.926,935.547
1743153615.918,996.582,-83.008,-9.766,975.098
1743153615.922,957.52,-80.566,-11.23,999.512
1743153615.926,-590.82,-85.449,-0.977,-323.242
1743153615.93,-306.152,-52.734,-12.695,-75.684
1743153615.934,999.512,-24.414,-35.156,999.512
1743153615.938,937.012,-92.773,-35.645,923.34
1743153615.941,941.406,27.344,-25.391,956.543
1743153615.945,972.168,126.953,12.695,969.238
1743153615.949,978.027,-51.27,30.273,979.492
1743153615.953,892.578,-103.027,9.277,894.043
1743153615.957,999.512,-92.285,23.438,999.512
1743153615.914,920.898,-59.57,-23.926,935.547
1743153615.918,996.582,-83.008,-9.766,975.098
1743153615.922,957.52,-80.566,-11.23,999.512
1743153615.926,-590.82,-85.449,-0.977,-323.242
1743153615.93,-306.152,-52.734,-12.695,-75.684
1743153615.934,999.512,-24.414,-35.156,999.512
1743153615.938,937.012,-92.773,-35.645,923.34
1743153615.941,941.406,27.344,-25.391,956.543
1743153615.945,972.168,126.953,12.695,969.238
1743153615.949,978.027,-51.27,30.273,979.492
1743153615.953,892.578,-103.027,9.277,894.043
1743153615.957,999.512,-92.285,23.438,999.512
1743153615.944,482.422,-100.586,29.785,540.039
1743153615.948,-1000.0,-99.609,15.625,-1000.0
1743153615.952,-245.605,-60.059,0.488,-163.086
1743153615.956,999.512,-54.199,-3.906,999.512
1743153615.96,937.012,-74.707,3.906,923.828
1743153615.964,938.965,-82.031,0.977,946.777
1743153615.968,973.145,-71.777,-1.953,971.68
1743153615.971,966.309,-57.129,8.789,966.797
1743153615.975,966.309,-65.43,5.859,966.797
1743153615.979,966.309,-92.285,1.953,966.797
1743153615.983,966.309,-78.613,13.672,966.797
1743153615.987,966.309,63.965,-2.441,966.797
1743153615.944,482.422,-100.586,29.785,540.039
1743153615.948,-1000.0,-99.609,15.625,-1000.0
1743153615.952,-245.605,-60.059,0.488,-163.086
1743153615.956,999.512,-54.199,-3.906,999.512
1743153615.96,937.012,-74.707,3.906,923.828
1743153615.964,938.965,-82.031,0.977,946.777
1743153615.968,973.145,-71.777,-1.953,971.68
1743153615.971,966.309,-57.129,8.789,966.797
1743153615.975,966.309,-65.43,5.859,966.797
1743153615.979,966.309,-92.285,1.953,966.797
1743153615.983,966.309,-78.613,13.672,966.797
1743153615.987,966.309,63.965,-2.441,966.797
1743153615.944,482.422,-100.586,29.785,540.039
1743153615.948,-1000.0,-99.609,15.625,-1000.0
1743153615.952,-245.605,-60.059,0.488,-163.086
1743153615.956,999.512,-54.199,-3.906,999.512
1743153615.96,937.012,-74.707,3.906,923.828
1743153615.964,938.965,-82.031,0.977,946.777
1743153615.968,973.145,-71.777,-1.953,971.68
1743153615.971,966.309,-57.129,8.789,966.797
1743153615.975,966.309,-65.43,5.859,966.797
1743153615.979,966.309,-92.285,1.953,966.797
1743153615.983,966.309,-78.613,13.672,966.797
1743153615.987,966.309,63.965,-2.441,966.797
1743153616.035,966.309,-48.34,-26.367,967.285
1743153616.039,966.309,-60.547,-32.715,966.797
1743153616.043,966.309,-50.781,-7.324,966.797
1743153616.047,966.309,-60.059,-6.836,966.797
1743153616.051,966.309,-92.773,-26.855,966.797
1743153616.055,966.309,-77.637,-43.945,967.285
1743153616.059,966.309,-14.16,-26.855,966.797
1743153616.062,966.309,-37.109,0.0,966.797
1743153616.066,966.309,-77.637,-17.578,967.285
1743153616.07,966.309,-18.555,-25.879,966.797
1743153616.074,966.309,6.836,-17.09,966.797
1743153616.078,966.309,-46.387,-0.977,966.797
1743153616.035,966.309,-48.34,-26.367,967.285
1743153616.039,966.309,-60.547,-32.715,966.797
1743153616.043,966.309,-50.781,-7.324,966.797
1743153616.047,966.309,-60.059,-6.836,966.797
1743153616.051,966.309,-92.773,-26.855,966.797
1743153616.055,966.309,-77.637,-43.945,967.285
1743153616.059,966.309,-14.16,-26.855,966.797
1743153616.062,966.309,-37.109,0.0,966.797
1743153616.066,966.309,-77.637,-17.578,967.285
1743153616.07,966.309,-18.555,-25.879,966.797
1743153616.074,966.309,6.836,-17.09,966.797
1743153616.078,966.309,-46.387,-0.977,966.797
1743153616.035,966.309,-48.34,-26.367,967.285
1743153616.039,966.309,-60.547,-32.715,966.797
1743153616.043,966.309,-50.781,-7.324,966.797
1743153616.047,966.309,-60.059,-6.836,966.797
1743153616.051,966.309,-92.773,-26.855,966.797
1743153616.055,966.309,-77.637,-43.945,967.285
1743153616.059,966.309,-14.16,-26.855,966.797
1743153616.062,966.309,-37.109,0.0,966.797
1743153616.066,966.309,-77.637,-17.578,967.285
1743153616.07,966.309,-18.555,-25.879,966.797
1743153616.074,966.309,6.836,-17.09,966.797
1743153616.078,966.309,-46.387,-0.977,966.797
1743153616.109,966.309,-65.918,7.812,966.797
1743153616.113,966.309,-32.227,-18.555,966.797
1743153616.117,966.309,-1.953,-33.691,966.797
1743153616.121,966.309,-46.875,-23.438,966.797
1743153616.125,966.309,-86.914,-19.531,967.285
1743153616.129,966.309,-65.43,-21.484,966.797
1743153616.133,966.309,-36.133,-23.926,966.797
1743153616.136,966.309,-44.434,-18.555,967.285
1743153616.14,966.309,-34.18,-10.254,967.285
1743153616.144,966.309,-29.297,-12.695,966.797
1743153616.148,966.309,-50.293,-13.672,966.797
1743153616.152,966.309,-47.852,-17.578,966.797
1743153616.109,966.309,-65.918,7.812,966.797
1743153616.113,966.309,-32.227,-18.555,966.797
1743153616.117,966.309,-1.953,-33.691,966.797
1743153616.121,966.309,-46.875,-23.438,966.797
1743153616.125,966.309,-86.914,-19.531,967.285
1743153616.129,966.309,-65.43,-21.484,966.797
1743153616.133,966.309,-36.133,-23.926,966.797
1743153616.136,966.309,-44.434,-18.555,967.285
1743153616.14,966.309,-34.18,-10.254,967.285
1743153616.144,966.309,-29.297,-12.695,966.797
1743153616.148,966.309,-50.293,-13.672,966.797
1743153616.152,966.309,-47.852,-17.578,966.797
1743153616.109,966.309,-65.918,7.812,966.797
1743153616.113,966.309,-32.227,-18.555,966.797
1743153616.117,966.309,-1.953,-33.691,966.797
1743153616.121,966.309,-46.875,-23.438,966.797
1743153616.125,966.309,-86.914,-19.531,967.285
1743153616.129,966.309,-65.43,-21.484,966.797
1743153616.133,966.309,-36.133,-23.926,966.797
1743153616.136,966.309,-44.434,-18.555,967.285
1743153616.14,966.309,-34.18,-10.254,967.285
1743153616.144,966.309,-29.297,-12.695,966.797
1743153616.148,966.309,-50.293,-13.672,966.797
1743153616.152,966.309,-47.852,-17.578,966.797
1743153616.14,966.309,-41.016,-39.062,966.797
1743153616.144,966.309,-52.734,-22.949,966.797
1743153616.148,966.309,-44.434,-15.137,966.797
1743153616.152,966.309,-39.551,-41.504,966.797
1743153616.156,966.309,-46.875,-40.527,966.797
1743153616.16,966.309,-38.574,-14.16,966.797
1743153616.164,965.82,-55.664,-19.043,966.797
1743153616.167,966.309,-66.895,-41.016,966.797
1743153616.171,966.309,-31.738,-57.129,966.797
1743153616.175,966.309,-22.949,-48.828,967.285
1743153616.179,966.309,-49.805,-34.18,966.797
1743153616.183,966.309,-63.965,-40.527,966.797
1743153616.14,966.309,-41.016,-39.062,966.797
1743153616.144,966.309,-52.734,-22.949,966.797
1743153616.148,966.309,-44.434,-15.137,966.797
1743153616.152,966.309,-39.551,-41.504,966.797
1743153616.156,966.309,-46.875,-40.527,966.797
1743153616.16,966.309,-38.574,-14.16,966.797
1743153616.164,965.82,-55.664,-19.043,966.797
1743153616.167,966.309,-66.895,-41.016,966.797
1743153616.171,966.309,-31.738,-57.129,966.797
1743153616.175,966.309,-22.949,-48.828,967.285
1743153616.179,966.309,-49.805,-34.18,966.797
1743153616.183,966.309,-63.965,-40.527,966.797
1743153616.14,966.309,-41.016,-39.062,966.797
1743153616.144,966.309,-52.734,-22.949,966.797
1743153616.148,966.309,-44.434,-15.137,966.797
1743153616.152,966.309,-39.551,-41.504,966.797
1743153616.156,966.309,-46.875,-40.527,966.797
1743153616.16,966.309,-38.574,-14.16,966.797
1743153616.164,965.82,-55.664,-19.043,966.797
1743153616.167,966.309,-66.895,-41.016,966.797
1743153616.171,966.309,-31.738,-57.129,966.797
1743153616.175,966.309,-22.949,-48.828,967.285
1743153616.179,966.309,-49.805,-34.18,966.797
1743153616.183,966.309,-63.965,-40.527,966.797
1743153616.184,966.309,-22.461,-41.992,967.285
1743153616.188,966.309,78.613,-40.039,967.285
1743153616.192,966.309,21.973,-23.438,966.797
1743153616.196,966.309,-71.289,-42.48,966.797
1743153616.2,978.516,-65.918,-65.918,976.562
1743153616.204,917.48,-63.477,-30.762,924.805
1743153616.208,999.512,-62.5,-4.395,992.188
1743153616.211,869.141,-94.727,-10.742,894.531
1743153616.215,-508.301,10.742,-20.02,-428.711
1743153616.219,-1000.0,83.496,-21.973,-1000.0
1743153616.223,-948.73,-59.082,-21.484,-953.125
1743153616.227,-935.547,-78.125,-44.922,-935.547
1743153616.184,966.309,-22.461,-41.992,967.285
1743153616.188,966.309,78.613,-40.039,967.285
1743153616.192,966.309,21.973,-23.438,966.797
1743153616.196,966.309,-71.289,-42.48,966.797
1743153616.2,978.516,-65.918,-65.918,976.562
1743153616.204,917.48,-63.477,-30.762,924.805
1743153616.208,999.512,-62.5,-4.395,992.188
1743153616.211,869.141,-94.727,-10.742,894.531
1743153616.215,-508.301,10.742,-20.02,-428.711
1743153616.219,-1000.0,83.496,-21.973,-1000.0
1743153616.223,-948.73,-59.082,-21.484,-953.125
1743153616.227,-935.547,-78.125,-44.922,-935.547
1743153616.184,966.309,-22.461,-41.992,967.285
1743153616.188,966.309,78.613,-40.039,967.285
1743153616.192,966.309,21.973,-23.438,966.797
1743153616.196,966.309,-71.289,-42.48,966.797
1743153616.2,978.516,-65.918,-65.918,976.562
1743153616.204,917.48,-63.477,-30.762,924.805
1743153616.208,999.512,-62.5,-4.395,992.188
1743153616.211,869.141,-94.727,-10.742,894.531
1743153616.215,-508.301,10.742,-20.02,-428.711
1743153616.219,-1000.0,83.496,-21.973,-1000.0
1743153616.223,-948.73,-59.082,-21.484,-953.125
1743153616.227,-935.547,-78.125,-44.922,-935.547
1743153616.229,-1000.0,-71.777,-76.66,-1000.0
1743153616.233,-563.965,-67.871,-27.832,-626.465
1743153616.237,822.266,-40.039,-0.977,775.391
1743153616.241,999.512,-66.406,-21.484,999.512
1743153616.245,73.73,-107.91,-1.953,-60.547
1743153616.249,-1000.0,-111.328,-3.906,-1000.0
1743153616.253,-975.586,-104.492,-25.391,-959.473
1743153616.256,-977.539,-74.707,-60.059,-986.816
1743153616.26,-1000.0,26.367,-91.797,-1000.0
1743153616.264,-1000.0,-44.922,-77.148,-1000.0
1743153616.268,-1000.0,-162.109,-29.297,-1000.0
1743153616.272,-1000.0,-114.746,17.09,-1000.0
1743153616.229,-1000.0,-71.777,-76.66,-1000.0
1743153616.233,-563.965,-67.871,-27.832,-626.465
1743153616.237,822.266,-40.039,-0.977,775.391
1743153616.241,999.512,-66.406,-21.484,999.512
1743153616.245,73.73,-107.91,-1.953,-60.547
1743153616.249,-1000.0,-111.328,-3.906,-1000.0
1743153616.253,-975.586,-104.492,-25.391,-959.473
1743153616.256,-977.539,-74.707,-60.059,-986.816
1743153616.26,-1000.0,26.367,-91.797,-1000.0
1743153616.264,-1000.0,-44.922,-77.148,-1000.0
1743153616.268,-1000.0,-162.109,-29.297,-1000.0
1743153616.272,-1000.0,-114.746,17.09,-1000.0
1743153616.274,-1000.0,-76.66,23.926,-1000.0
1743153616.278,-1000.0,-92.285,15.137,-1000.0
1743153616.282,-1000.0,-109.863,-11.23,-1000.0
1743153616.286,-1000.0,-102.539,-37.109,-1000.0
1743153616.29,-1000.0,-67.383,-7.324,-1000.0
1743153616.294,-1000.0,-79.102,30.273,-1000.0
1743153616.298,-1000.0,-97.168,39.062,-1000.0
1743153616.301,-1000.0,-99.121,50.781,-1000.0
1743153616.305,-1000.0,-103.516,51.758,-1000.0
1743153616.309,-1000.0,-81.055,41.992,-1000.0
1743153616.313,-1000.0,-57.129,38.086,-1000.0
1743153616.317,-1000.0,-77.637,20.996,-1000.0
1743153616.32,-1000.0,-86.426,16.113,-1000.0
1743153616.324,-1000.0,-101.074,35.645,-1000.0
1743153616.328,-1000.0,-91.797,55.176,-1000.0
1743153616.332,-1000.0,-21.973,23.926,-1000.0
1743153616.336,-1000.0,-43.945,6.348,-1000.0
1743153616.34,-1000.0,-81.543,22.461,-1000.0
1743153616.344,-1000.0,-54.199,7.812,-1000.0
1743153616.347,-1000.0,71.777,10.254,-1000.0
1743153616.351,-1000.0,35.156,20.02,-1000.0
1743153616.355,-1000.0,-88.379,-9.766,-1000.0
1743153616.359,-1000.0,-103.516,-39.551,-1000.0
1743153616.363,-1000.0,-107.91,-30.273,-1000.0
1743153616.32,-1000.0,-86.426,16.113,-1000.0
1743153616.324,-1000.0,-101.074,35.645,-1000.0
1743153616.328,-1000.0,-91.797,55.176,-1000.0
1743153616.332,-1000.0,-21.973,23.926,-1000.0
1743153616.336,-1000.0,-43.945,6.348,-1000.0
1743153616.34,-1000.0,-81.543,22.461,-1000.0
1743153616.344,-1000.0,-54.199,7.812,-1000.0
1743153616.347,-1000.0,71.777,10.254,-1000.0
1743153616.351,-1000.0,35.156,20.02,-1000.0
1743153616.355,-1000.0,-88.379,-9.766,-1000.0
1743153616.359,-1000.0,-103.516,-39.551,-1000.0
1743153616.363,-1000.0,-107.91,-30.273,-1000.0
1743153616.364,-1000.0,-103.027,1.465,-1000.0
1743153616.368,-1000.0,-92.773,16.113,-1000.0
1743153616.372,-1000.0,-60.059,0.977,-1000.0
1743153616.376,-1000.0,-54.688,-35.645,-1000.0
1743153616.38,-1000.0,-74.707,-57.129,-1000.0
1743153616.384,-1000.0,-102.051,-42.969,-1000.0
1743153616.388,-1000.0,-15.137,-27.344,-1000.0
1743153616.391,-1000.0,30.273,-49.316,-1000.0
1743153616.395,-1000.0,-83.984,-83.496,-1000.0
1743153616.399,-1000.0,-96.68,-48.828,-1000.0
1743153616.403,-1000.0,-112.793,-11.23,-1000.0
1743153616.407,-1000.0,-104.492,-18.066,-1000.0
1743153616.364,-1000.0,-103.027,1.465,-1000.0
1743153616.368,-1000.0,-92.773,16.113,-1000.0
