timestamps,TP9,AF7,AF8,TP10
1745827436.319,-696.289,233.887,-50.293,-662.109
1745827436.323,668.945,324.219,-46.875,703.125
1745827436.327,999.512,292.48,-54.688,999.512
1745827436.33,452.637,-213.379,-46.875,378.906
1745827436.334,-1000.0,-913.086,-46.875,-1000.0
1745827436.338,-818.359,-280.762,-46.387,-715.332
1745827436.342,684.57,431.641,-29.785,760.254
1745827436.346,972.168,-152.344,-20.02,970.703
1745827436.319,-696.289,233.887,-50.293,-662.109
1745827436.323,668.945,324.219,-46.875,703.125
1745827436.327,999.512,292.48,-54.688,999.512
1745827436.33,452.637,-213.379,-46.875,378.906
1745827436.334,-1000.0,-913.086,-46.875,-1000.0
1745827436.338,-818.359,-280.762,-46.387,-715.332
1745827436.342,684.57,431.641,-29.785,760.254
1745827436.346,972.168,-152.344,-20.02,970.703
1745827436.348,999.512,-251.953,-39.551,999.512
1745827436.352,88.379,115.234,-50.781,-61.523
1745827436.356,-910.645,156.738,-46.875,-792.48
1745827436.36,615.234,359.863,-45.41,779.785
1745827436.364,999.512,217.773,-34.18,982.422
1745827436.368,999.512,120.605,-38.574,999.512
1745827436.372,289.551,136.23,-46.387,248.047
1745827436.375,-1000.0,-474.609,-46.387,-1000.0
1745827436.379,32.227,-374.512,-43.945,229.004
1745827436.383,999.512,244.141,-39.551,999.512
1745827436.387,999.512,87.891,-38.574,999.512
1745827436.391,228.516,-45.41,-48.34,234.863
1745827436.393,-1000.0,24.902,-43.457,-1000.0
1745827436.397,-74.219,231.445,-26.855,64.453
1745827436.401,999.512,182.129,-32.715,999.512
1745827436.405,999.512,30.762,-37.598,999.512
1745827436.409,231.934,-62.5,-32.715,225.098
1745827436.413,-1000.0,89.355,-20.996,-1000.0
1745827436.417,-204.102,-143.066,-17.578,-134.277
1745827436.42,999.512,-718.75,-22.461,999.512
1745827436.424,999.512,-244.141,-19.531,999.512
1745827436.428,226.562,99.121,-20.02,249.023
1745827436.432,-1000.0,-179.688,-16.602,-1000.0
1745827436.436,-271.973,29.297,-10.254,-214.844
1745827436.393,-1000.0,24.902,-43.457,-1000.0
1745827436.397,-74.219,231.445,-26.855,64.453
1745827436.401,999.512,182.129,-32.715,999.512
1745827436.405,999.512,30.762,-37.598,999.512
1745827436.409,231.934,-62.5,-32.715,225.098
1745827436.413,-1000.0,89.355,-20.996,-1000.0
1745827436.417,-204.102,-143.066,-17.578,-134.277
1745827436.42,999.512,-718.75,-22.461,999.512
1745827436.424,999.512,-244.141,-19.531,999.512
1745827436.428,226.562,99.121,-20.02,249.023
1745827436.432,-1000.0,-179.688,-16.602,-1000.0
1745827436.436,-271.973,29.297,-10.254,-214.844
1745827436.438,978.516,312.988,-8.789,999.512
1745827436.442,999.512,156.25,-7.812,999.512
1745827436.446,229.004,-11.23,-5.371,223.633
1745827436.45,-1000.0,-24.902,-6.348,-1000.0
1745827436.454,-542.48,250.488,-1.953,-409.668
1745827436.458,846.191,330.566,0.977,916.504
1745827436.462,999.512,-437.988,-2.441,999.512
1745827436.465,178.223,-447.754,2.441,203.613
1745827436.469,-1000.0,101.562,8.301,-1000.0
1745827436.473,-915.039,183.105,4.395,-764.16
1745827436.477,398.926,262.207,1.465,602.539
1745827436.481,999.512,191.895,-3.418,999.512
1745827436.438,978.516,312.988,-8.789,999.512
1745827436.442,999.512,156.25,-7.812,999.512
1745827436.446,229.004,-11.23,-5.371,223.633
1745827436.45,-1000.0,-24.902,-6.348,-1000.0
1745827436.454,-542.48,250.488,-1.953,-409.668
1745827436.458,846.191,330.566,0.977,916.504
1745827436.462,999.512,-437.988,-2.441,999.512
1745827436.465,178.223,-447.754,2.441,203.613
1745827436.469,-1000.0,101.562,8.301,-1000.0
1745827436.473,-915.039,183.105,4.395,-764.16
1745827436.477,398.926,262.207,1.465,602.539
1745827436.481,999.512,191.895,-3.418,999.512
1745827436.484,136.719,76.172,-5.371,151.367
1745827436.488,-1000.0,-138.672,-11.23,-1000.0
1745827436.492,-1000.0,-204.59,-9.277,-1000.0
1745827436.496,5.859,175.781,-6.836,150.879
1745827436.5,999.512,285.645,-8.301,999.512
1745827436.504,293.945,-250.0,-5.859,269.043
1745827436.508,-964.844,-428.711,-2.441,-979.004
1745827436.511,-1000.0,59.082,-2.441,-1000.0
1745827436.515,-184.082,305.176,-7.324,-59.082
1745827436.519,999.512,-332.52,-11.23,999.512
1745827436.523,469.727,-671.387,-21.973,435.547
1745827436.527,-914.062,26.367,-22.949,-921.875
1745827436.484,136.719,76.172,-5.371,151.367
1745827436.488,-1000.0,-138.672,-11.23,-1000.0
1745827436.492,-1000.0,-204.59,-9.277,-1000.0
1745827436.496,5.859,175.781,-6.836,150.879
1745827436.5,999.512,285.645,-8.301,999.512
1745827436.504,293.945,-250.0,-5.859,269.043
1745827436.508,-964.844,-428.711,-2.441,-979.004
1745827436.511,-1000.0,59.082,-2.441,-1000.0
1745827436.515,-184.082,305.176,-7.324,-59.082
1745827436.519,999.512,-332.52,-11.23,999.512
1745827436.523,469.727,-671.387,-21.973,435.547
1745827436.527,-914.062,26.367,-22.949,-921.875
1745827437.01,999.512,359.375,-35.645,999.512
1745827437.014,453.125,198.242,-33.691,370.605
1745827437.018,-892.578,-221.68,-36.133,-936.035
1745827437.022,-1000.0,-94.238,-32.715,-1000.0
1745827437.026,-97.168,26.367,-36.621,-43.457
1745827437.03,999.512,25.391,-45.898,999.512
1745827437.034,758.789,-168.457,-46.875,667.48
1745827437.037,-575.195,-267.09,-42.969,-672.852
1745827437.041,-1000.0,314.453,-43.457,-1000.0
1745827437.045,-186.035,380.371,-36.621,-156.25
1745827437.049,999.512,-82.031,-30.273,999.512
1745827437.053,992.676,-67.383,-32.715,902.344
1745827436.544,-1000.0,201.172,-17.09,-1000.0
1745827436.548,-132.324,310.547,-11.23,-73.242
1745827436.552,999.512,312.012,-13.672,999.512
1745827436.556,833.984,122.07,-26.855,773.926
1745827436.56,-500.0,124.512,-26.855,-559.082
1745827436.564,-1000.0,-348.633,-20.02,-1000.0
1745827436.568,-180.664,-294.922,-16.602,-178.711
1745827436.571,999.512,293.945,-15.137,999.512
1745827436.575,999.512,99.121,-20.02,971.68
1745827436.579,-177.246,-55.664,-28.809,-250.488
1745827436.583,-1000.0,74.219,-24.902,-1000.0
1745827436.587,-168.457,297.852,-11.23,-171.387
1745827436.544,-1000.0,201.172,-17.09,-1000.0
1745827436.548,-132.324,310.547,-11.23,-73.242
1745827436.552,999.512,312.012,-13.672,999.512
1745827436.556,833.984,122.07,-26.855,773.926
1745827436.56,-500.0,124.512,-26.855,-559.082
1745827436.564,-1000.0,-348.633,-20.02,-1000.0
1745827436.568,-180.664,-294.922,-16.602,-178.711
1745827436.571,999.512,293.945,-15.137,999.512
1745827436.575,999.512,99.121,-20.02,971.68
1745827436.579,-177.246,-55.664,-28.809,-250.488
1745827436.583,-1000.0,74.219,-24.902,-1000.0
1745827436.587,-168.457,297.852,-11.23,-171.387
1745827436.588,988.281,237.305,-9.277,993.164
1745827436.592,999.512,58.105,-18.066,999.512
1745827436.596,82.52,30.273,-25.879,27.832
1745827436.6,-1000.0,55.664,-18.555,-1000.0
1745827436.604,-305.664,137.207,-19.531,-225.098
1745827436.608,946.777,181.152,-22.949,974.609
1745827436.612,999.512,96.68,-26.855,999.512
1745827436.615,222.168,87.891,-34.668,212.402
1745827436.619,-1000.0,-445.312,-30.273,-1000.0
1745827436.623,-608.398,-668.457,-23.926,-502.93
1745827436.627,789.062,98.633,-24.414,866.699
1745827436.631,999.512,205.078,-31.25,999.512
1745827436.633,188.965,-135.254,-38.574,196.289
1745827436.637,-1000.0,-122.07,-40.039,-1000.0
1745827436.641,-765.625,187.012,-33.203,-655.273
1745827436.645,600.098,250.0,-32.715,722.168
1745827436.649,999.512,124.023,-35.645,999.512
1745827436.653,224.121,-47.363,-31.25,222.656
1745827436.657,-1000.0,-30.273,-34.18,-1000.0
1745827436.66,-1000.0,56.152,-32.227,-947.266
1745827436.664,144.043,-685.059,-37.109,330.078
1745827436.668,999.512,-592.773,-48.828,999.512
1745827436.672,402.832,90.82,-40.527,335.938
1745827436.676,-927.734,-68.359,-40.039,-964.844
1745827436.633,188.965,-135.254,-38.574,196.289
1745827436.637,-1000.0,-122.07,-40.039,-1000.0
1745827436.641,-765.625,187.012,-33.203,-655.273
1745827436.645,600.098,250.0,-32.715,722.168
1745827436.649,999.512,124.023,-35.645,999.512
1745827436.653,224.121,-47.363,-31.25,222.656
1745827436.657,-1000.0,-30.273,-34.18,-1000.0
1745827436.66,-1000.0,56.152,-32.227,-947.266
1745827436.664,144.043,-685.059,-37.109,330.078
1745827436.668,999.512,-592.773,-48.828,999.512
1745827436.672,402.832,90.82,-40.527,335.938
1745827436.676,-927.734,-68.359,-40.039,-964.844
1745827436.678,-1000.0,-2.441,-41.016,-1000.0
1745827436.682,29.297,268.555,-27.832,104.004
1745827436.686,999.512,245.117,-33.691,999.512
1745827436.69,483.398,-35.156,-39.062,424.316
1745827436.694,-860.352,-115.723,-35.645,-895.02
1745827436.698,-1000.0,78.125,-35.645,-1000.0
1745827436.702,-189.941,351.074,-35.645,-119.141
1745827436.705,999.512,-189.453,-44.434,999.512
1745827436.709,453.613,-984.375,-51.758,387.695
1745827436.713,-905.273,-332.52,-47.852,-925.781
1745827436.717,-1000.0,238.77,-43.457,-1000.0
1745827436.721,-216.309,31.738,-45.898,-229.492
1745827436.678,-1000.0,-2.441,-41.016,-1000.0
1745827436.682,29.297,268.555,-27.832,104.004
1745827436.686,999.512,245.117,-33.691,999.512
1745827436.69,483.398,-35.156,-39.062,424.316
1745827436.694,-860.352,-115.723,-35.645,-895.02
1745827436.698,-1000.0,78.125,-35.645,-1000.0
1745827436.702,-189.941,351.074,-35.645,-119.141
1745827436.705,999.512,-189.453,-44.434,999.512
1745827436.709,453.613,-984.375,-51.758,387.695
1745827436.713,-905.273,-332.52,-47.852,-925.781
1745827436.717,-1000.0,238.77,-43.457,-1000.0
1745827436.721,-216.309,31.738,-45.898,-229.492
1745827436.723,999.512,16.113,-46.387,999.512
1745827436.727,877.441,174.316,-43.457,785.645
1745827436.731,-425.781,85.449,-45.41,-555.176
1745827436.735,-1000.0,134.766,-43.457,-1000.0
1745827436.739,-285.645,280.762,-33.203,-253.906
1745827436.743,999.512,322.266,-30.762,999.512
1745827436.747,923.34,117.676,-40.039,810.059
1745827436.75,-359.375,17.578,-47.852,-508.301
1745827436.754,-1000.0,125.0,-41.992,-1000.0
1745827436.758,-577.148,203.613,-32.715,-521.973
1745827436.762,874.512,231.445,-36.621,950.684
1745827436.766,947.266,82.52,-37.598,787.109
1745827436.769,-494.141,-68.848,-38.086,-656.25
1745827436.773,-1000.0,54.688,-35.156,-1000.0
1745827436.777,-1000.0,-48.828,-27.832,-958.496
1745827436.781,198.73,-137.207,-26.855,404.785
1745827436.785,999.512,25.879,-30.762,923.828
1745827436.789,-447.266,73.242,-32.715,-634.277
1745827436.793,-1000.0,-378.418,-29.785,-1000.0
1745827436.796,-1000.0,-833.496,-26.367,-1000.0
1745827436.8,-35.645,-71.289,-24.902,62.012
1745827436.804,999.512,226.562,-28.809,999.512
1745827436.808,-177.734,-46.875,-38.574,-350.098
1745827436.812,-1000.0,-13.184,-38.086,-1000.0
1745827436.769,-494.141,-68.848,-38.086,-656.25
1745827436.773,-1000.0,54.688,-35.156,-1000.0
1745827436.777,-1000.0,-48.828,-27.832,-958.496
1745827436.781,198.73,-137.207,-26.855,404.785
1745827436.785,999.512,25.879,-30.762,923.828
1745827436.789,-447.266,73.242,-32.715,-634.277
1745827436.793,-1000.0,-378.418,-29.785,-1000.0
1745827436.796,-1000.0,-833.496,-26.367,-1000.0
1745827436.8,-35.645,-71.289,-24.902,62.012
1745827436.804,999.512,226.562,-28.809,999.512
1745827436.808,-177.734,-46.875,-38.574,-350.098
1745827436.812,-1000.0,-13.184,-38.086,-1000.0
1745827436.814,-1000.0,156.25,-30.273,-1000.0
1745827436.818,-240.723,232.422,-31.738,-168.945
1745827436.822,999.512,161.621,-31.25,999.512
1745827436.826,76.172,-46.875,-30.273,-71.777
1745827436.83,-1000.0,-28.32,-36.133,-1000.0
1745827436.834,-1000.0,203.125,-29.785,-1000.0
1745827436.838,-263.184,-535.156,-34.18,-265.137
1745827436.841,999.512,-652.832,-34.18,999.512
1745827436.845,169.922,54.199,-19.043,122.07
1745827436.849,-1000.0,59.082,-21.484,-1000.0
1745827436.853,-1000.0,148.438,-20.02,-1000.0
1745827436.857,-256.348,293.945,-16.113,-259.766
1745827436.814,-1000.0,156.25,-30.273,-1000.0
1745827436.818,-240.723,232.422,-31.738,-168.945
1745827436.822,999.512,161.621,-31.25,999.512
1745827436.826,76.172,-46.875,-30.273,-71.777
1745827436.83,-1000.0,-28.32,-36.133,-1000.0
1745827436.834,-1000.0,203.125,-29.785,-1000.0
1745827436.838,-263.184,-535.156,-34.18,-265.137
1745827436.841,999.512,-652.832,-34.18,999.512
1745827436.845,169.922,54.199,-19.043,122.07
1745827436.849,-1000.0,59.082,-21.484,-1000.0
1745827436.853,-1000.0,148.438,-20.02,-1000.0
1745827436.857,-256.348,293.945,-16.113,-259.766
1745827436.858,999.512,284.18,-16.113,999.512
1745827436.862,168.945,24.902,-21.484,168.945
1745827436.866,-1000.0,-38.086,-32.227,-1000.0
1745827436.87,-1000.0,61.523,-33.691,-1000.0
1745827436.874,-281.738,327.148,-31.738,-289.062
1745827436.878,999.512,-173.34,-34.18,999.512
1745827436.882,506.348,-641.602,-31.738,359.375
1745827436.885,-868.164,-49.316,-32.227,-948.73
1745827436.889,-1000.0,93.75,-35.156,-1000.0
1745827436.893,-410.156,144.531,-26.855,-399.902
1745827436.897,999.512,214.355,-21.484,999.512
1745827436.901,827.148,75.684,-24.902,636.23
1745827436.858,999.512,284.18,-16.113,999.512
1745827436.862,168.945,24.902,-21.484,168.945
1745827436.866,-1000.0,-38.086,-32.227,-1000.0
1745827436.87,-1000.0,61.523,-33.691,-1000.0
1745827436.874,-281.738,327.148,-31.738,-289.062
1745827436.878,999.512,-173.34,-34.18,999.512
1745827436.882,506.348,-641.602,-31.738,359.375
1745827436.885,-868.164,-49.316,-32.227,-948.73
1745827436.889,-1000.0,93.75,-35.156,-1000.0
1745827436.893,-410.156,144.531,-26.855,-399.902
1745827436.897,999.512,214.355,-21.484,999.512
1745827436.901,827.148,75.684,-24.902,636.23
1745827436.918,-547.363,63.477,-29.297,-750.977
1745827436.922,-1000.0,-471.191,-33.691,-1000.0
1745827436.926,-456.543,-441.406,-30.762,-447.754
1745827436.93,878.906,295.898,-31.738,932.129
1745827436.934,999.512,111.816,-33.203,949.707
1745827436.938,-128.906,-224.121,-38.086,-346.191
1745827436.942,-1000.0,-99.121,-39.551,-1000.0
1745827436.945,-523.926,280.762,-36.133,-511.23
1745827436.949,809.082,178.711,-45.41,807.617
1745827436.953,999.512,-392.09,-59.082,999.512
1745827436.957,179.199,-195.312,-67.871,99.609
1745827436.961,-1000.0,103.516,-62.012,-1000.0
1745827436.918,-547.363,63.477,-29.297,-750.977
1745827436.922,-1000.0,-471.191,-33.691,-1000.0
1745827436.926,-456.543,-441.406,-30.762,-447.754
1745827436.93,878.906,295.898,-31.738,932.129
1745827436.934,999.512,111.816,-33.203,949.707
1745827436.938,-128.906,-224.121,-38.086,-346.191
1745827436.942,-1000.0,-99.121,-39.551,-1000.0
1745827436.945,-523.926,280.762,-36.133,-511.23
1745827436.949,809.082,178.711,-45.41,807.617
1745827436.953,999.512,-392.09,-59.082,999.512
1745827436.957,179.199,-195.312,-67.871,99.609
1745827436.961,-1000.0,103.516,-62.012,-1000.0
1745827436.918,-547.363,63.477,-29.297,-750.977
1745827436.922,-1000.0,-471.191,-33.691,-1000.0
1745827436.926,-456.543,-441.406,-30.762,-447.754
1745827436.93,878.906,295.898,-31.738,932.129
1745827436.934,999.512,111.816,-33.203,949.707
1745827436.938,-128.906,-224.121,-38.086,-346.191
1745827436.942,-1000.0,-99.121,-39.551,-1000.0
1745827436.945,-523.926,280.762,-36.133,-511.23
1745827436.949,809.082,178.711,-45.41,807.617
1745827436.953,999.512,-392.09,-59.082,999.512
1745827436.957,179.199,-195.312,-67.871,99.609
1745827436.961,-1000.0,103.516,-62.012,-1000.0
1745827436.963,-785.645,149.902,-44.434,-706.543
1745827436.967,581.543,211.914,-37.598,650.391
1745827436.971,999.512,160.156,-43.945,999.512
1745827436.975,162.598,2.441,-49.805,171.387
1745827436.979,-1000.0,-11.719,-52.246,-1000.0
1745827436.983,-945.312,152.832,-53.711,-899.902
1745827436.987,328.613,285.645,-47.852,405.273
1745827436.99,999.512,26.367,-45.41,999.512
1745827436.994,284.668,414.551,-53.223,201.172
1745827436.998,-970.703,665.527,-56.641,-1000.0
1745827437.002,-1000.0,46.387,-48.34,-1000.0
1745827437.006,-8.301,19.531,-41.992,70.801
1745827437.053,-237.305,-87.402,-34.18,-369.141
1745827437.057,-1000.0,-198.242,-31.738,-1000.0
1745827437.061,-174.316,6.348,-29.297,-180.664
1745827437.065,999.512,-83.984,-31.738,999.512
1745827437.069,999.512,-271.484,-34.18,999.512
1745827437.073,-47.852,-182.129,-40.527,-147.461
1745827437.077,-1000.0,-197.266,-38.086,-1000.0
1745827437.08,-227.051,262.695,-32.715,-208.008
1745827437.084,982.91,538.574,-34.668,991.699
1745827437.088,999.512,22.461,-33.203,999.512
1745827437.092,52.734,-237.305,-30.273,-3.906
1745827437.096,-1000.0,-196.289,-29.297,-1000.0
1745827437.053,-237.305,-87.402,-34.18,-369.141
1745827437.057,-1000.0,-198.242,-31.738,-1000.0
1745827437.061,-174.316,6.348,-29.297,-180.664
1745827437.065,999.512,-83.984,-31.738,999.512
1745827437.069,999.512,-271.484,-34.18,999.512
1745827437.073,-47.852,-182.129,-40.527,-147.461
1745827437.077,-1000.0,-197.266,-38.086,-1000.0
1745827437.08,-227.051,262.695,-32.715,-208.008
1745827437.084,982.91,538.574,-34.668,991.699
1745827437.088,999.512,22.461,-33.203,999.512
1745827437.092,52.734,-237.305,-30.273,-3.906
1745827437.096,-1000.0,-196.289,-29.297,-1000.0
1745827437.053,-237.305,-87.402,-34.18,-369.141
1745827437.057,-1000.0,-198.242,-31.738,-1000.0
1745827437.061,-174.316,6.348,-29.297,-180.664
1745827437.065,999.512,-83.984,-31.738,999.512
1745827437.069,999.512,-271.484,-34.18,999.512
1745827437.073,-47.852,-182.129,-40.527,-147.461
1745827437.077,-1000.0,-197.266,-38.086,-1000.0
1745827437.08,-227.051,262.695,-32.715,-208.008
1745827437.084,982.91,538.574,-34.668,991.699
1745827437.088,999.512,22.461,-33.203,999.512
1745827437.092,52.734,-237.305,-30.273,-3.906
1745827437.096,-1000.0,-196.289,-29.297,-1000.0
1745827437.101,-559.57,-21.484,-19.531,-474.121
1745827437.105,801.27,36.133,-11.23,854.492
1745827437.109,999.512,-85.449,-22.461,999.512
1745827437.113,184.082,199.219,-30.273,162.109
1745827437.117,-1000.0,77.637,-22.461,-1000.0
1745827437.121,-836.426,-105.957,-14.648,-740.723
1745827437.125,515.625,12.695,-13.672,637.695
1745827437.128,999.512,118.164,-20.996,999.512
1745827437.132,142.578,-55.176,-24.414,75.684
1745827437.136,-1000.0,-261.23,-20.508,-1000.0
1745827437.14,-1000.0,-114.746,-15.625,-1000.0
1745827437.144,90.82,-30.273,-13.184,209.961
1745827437.101,-559.57,-21.484,-19.531,-474.121
1745827437.105,801.27,36.133,-11.23,854.492
1745827437.109,999.512,-85.449,-22.461,999.512
1745827437.113,184.082,199.219,-30.273,162.109
1745827437.117,-1000.0,77.637,-22.461,-1000.0
1745827437.121,-836.426,-105.957,-14.648,-740.723
1745827437.125,515.625,12.695,-13.672,637.695
1745827437.128,999.512,118.164,-20.996,999.512
1745827437.132,142.578,-55.176,-24.414,75.684
1745827437.136,-1000.0,-261.23,-20.508,-1000.0
1745827437.14,-1000.0,-114.746,-15.625,-1000.0
1745827437.144,90.82,-30.273,-13.184,209.961
1745827437.143,999.512,-74.219,-15.137,999.512
1745827437.147,142.09,-239.746,-19.531,126.465
1745827437.151,-1000.0,-214.844,-15.137,-1000.0
1745827437.155,-1000.0,-83.008,-9.277,-1000.0
1745827437.159,-46.387,13.184,-5.859,33.691
1745827437.163,999.512,26.367,-13.184,999.512
1745827437.167,211.914,-338.867,-23.926,175.293
1745827437.17,-996.094,-486.328,-22.461,-1000.0
1745827437.174,-1000.0,-164.551,-16.602,-1000.0
1745827437.178,-259.766,2.441,-9.277,-208.496
1745827437.182,999.512,46.875,-10.254,999.512
1745827437.186,338.379,-141.602,-15.625,249.512
1745827437.143,999.512,-74.219,-15.137,999.512
1745827437.147,142.09,-239.746,-19.531,126.465
1745827437.151,-1000.0,-214.844,-15.137,-1000.0
1745827437.155,-1000.0,-83.008,-9.277,-1000.0
1745827437.159,-46.387,13.184,-5.859,33.691
1745827437.163,999.512,26.367,-13.184,999.512
1745827437.167,211.914,-338.867,-23.926,175.293
1745827437.17,-996.094,-486.328,-22.461,-1000.0
1745827437.174,-1000.0,-164.551,-16.602,-1000.0
1745827437.178,-259.766,2.441,-9.277,-208.496
1745827437.182,999.512,46.875,-10.254,999.512
1745827437.186,338.379,-141.602,-15.625,249.512
1745827437.143,999.512,-74.219,-15.137,999.512
1745827437.147,142.09,-239.746,-19.531,126.465
1745827437.151,-1000.0,-214.844,-15.137,-1000.0
1745827437.155,-1000.0,-83.008,-9.277,-1000.0
1745827437.159,-46.387,13.184,-5.859,33.691
1745827437.163,999.512,26.367,-13.184,999.512
1745827437.167,211.914,-338.867,-23.926,175.293
1745827437.17,-996.094,-486.328,-22.461,-1000.0
1745827437.174,-1000.0,-164.551,-16.602,-1000.0
1745827437.178,-259.766,2.441,-9.277,-208.496
1745827437.182,999.512,46.875,-10.254,999.512
1745827437.186,338.379,-141.602,-15.625,249.512
1745827437.188,-972.168,-210.449,-19.531,-1000.0
1745827437.192,-1000.0,-71.777,-18.555,-1000.0
1745827437.196,-251.953,5.859,-18.555,-254.883
1745827437.2,999.512,-2.441,-22.461,999.512
1745827437.204,586.426,-125.977,-20.996,465.82
1745827437.208,-809.57,-144.531,-21.484,-895.02
1745827437.212,-1000.0,-569.336,-17.578,-1000.0
1745827437.215,-200.684,-365.234,-10.254,-218.262
1745827437.219,999.512,168.945,-16.602,999.512
1745827437.223,927.734,-140.625,-22.461,840.82
1745827437.227,-333.008,-449.219,-15.625,-467.285
1745827437.231,-1000.0,-177.246,-11.719,-1000.0
1745827437.188,-972.168,-210.449,-19.531,-1000.0
1745827437.192,-1000.0,-71.777,-18.555,-1000.0
1745827437.196,-251.953,5.859,-18.555,-254.883
1745827437.2,999.512,-2.441,-22.461,999.512
1745827437.204,586.426,-125.977,-20.996,465.82
1745827437.208,-809.57,-144.531,-21.484,-895.02
1745827437.212,-1000.0,-569.336,-17.578,-1000.0
1745827437.215,-200.684,-365.234,-10.254,-218.262
1745827437.219,999.512,168.945,-16.602,999.512
1745827437.223,927.734,-140.625,-22.461,840.82
1745827437.227,-333.008,-449.219,-15.625,-467.285
1745827437.231,-1000.0,-177.246,-11.719,-1000.0
1745827437.233,-318.359,126.465,-13.672,-270.996
1745827437.237,935.547,154.297,-19.043,966.797
1745827437.241,999.512,37.598,-27.344,999.512
1745827437.245,-10.254,-138.184,-31.25,-97.168
1745827437.249,-1000.0,-16.602,-26.367,-1000.0
1745827437.253,-476.562,-182.617,-24.414,-411.133
1745827437.257,855.469,-413.574,-26.367,892.578
1745827437.26,999.512,-93.75,-28.32,999.512
1745827437.264,157.715,-6.836,-28.32,81.055
1745827437.268,-1000.0,-576.172,-23.438,-1000.0
1745827437.272,-751.465,-681.641,-16.113,-655.762
1745827437.276,616.699,182.129,-15.625,703.125
1745827437.233,-318.359,126.465,-13.672,-270.996
1745827437.237,935.547,154.297,-19.043,966.797
1745827437.241,999.512,37.598,-27.344,999.512
1745827437.245,-10.254,-138.184,-31.25,-97.168
1745827437.249,-1000.0,-16.602,-26.367,-1000.0
1745827437.253,-476.562,-182.617,-24.414,-411.133
1745827437.257,855.469,-413.574,-26.367,892.578
1745827437.26,999.512,-93.75,-28.32,999.512
1745827437.264,157.715,-6.836,-28.32,81.055
1745827437.268,-1000.0,-576.172,-23.438,-1000.0
1745827437.272,-751.465,-681.641,-16.113,-655.762
1745827437.276,616.699,182.129,-15.625,703.125
1745827437.293,999.512,243.164,-18.555,999.512
1745827437.297,163.086,-30.273,-20.508,163.086
1745827437.301,-1000.0,-3.906,-21.973,-1000.0
1745827437.305,-954.102,219.727,-17.578,-885.254
1745827437.309,330.078,279.785,-16.602,430.176
1745827437.313,999.512,119.629,-21.484,999.512
1745827437.317,167.969,-27.832,-17.09,152.344
1745827437.32,-1000.0,-4.883,-9.766,-1000.0
1745827437.324,-1000.0,105.469,-11.23,-1000.0
1745827437.328,-15.625,98.633,-14.648,74.707
1745827437.332,999.512,70.312,-19.043,999.512
1745827437.336,341.309,71.777,-24.414,266.113
1745827437.293,999.512,243.164,-18.555,999.512
1745827437.297,163.086,-30.273,-20.508,163.086
1745827437.301,-1000.0,-3.906,-21.973,-1000.0
1745827437.305,-954.102,219.727,-17.578,-885.254
1745827437.309,330.078,279.785,-16.602,430.176
1745827437.313,999.512,119.629,-21.484,999.512
1745827437.317,167.969,-27.832,-17.09,152.344
1745827437.32,-1000.0,-4.883,-9.766,-1000.0
1745827437.324,-1000.0,105.469,-11.23,-1000.0
1745827437.328,-15.625,98.633,-14.648,74.707
1745827437.332,999.512,70.312,-19.043,999.512
1745827437.336,341.309,71.777,-24.414,266.113
1745827437.339,-951.66,-249.512,-21.973,-984.375
1745827437.343,-1000.0,-332.52,-21.484,-1000.0
1745827437.347,-131.836,147.949,-21.973,-72.266
1745827437.351,999.512,256.348,-21.484,999.512
1745827437.355,475.586,-266.602,-26.855,426.27
1745827437.359,-885.742,-386.23,-25.391,-911.621
1745827437.363,-1000.0,63.965,-20.996,-1000.0
1745827437.366,-181.641,334.473,-6.348,-130.859
1745827437.37,999.512,-246.094,-0.977,999.512
1745827437.374,767.578,-962.891,-14.648,680.176
1745827437.378,-585.938,-284.668,-17.578,-673.828
1745827437.382,-1000.0,196.777,-12.695,-1000.0
1745827437.339,-951.66,-249.512,-21.973,-984.375
1745827437.343,-1000.0,-332.52,-21.484,-1000.0
1745827437.347,-131.836,147.949,-21.973,-72.266
1745827437.351,999.512,256.348,-21.484,999.512
1745827437.355,475.586,-266.602,-26.855,426.27
1745827437.359,-885.742,-386.23,-25.391,-911.621
1745827437.363,-1000.0,63.965,-20.996,-1000.0
1745827437.366,-181.641,334.473,-6.348,-130.859
1745827437.37,999.512,-246.094,-0.977,999.512
1745827437.374,767.578,-962.891,-14.648,680.176
1745827437.378,-585.938,-284.668,-17.578,-673.828
1745827437.382,-1000.0,196.777,-12.695,-1000.0
1745827437.383,-167.969,231.934,-4.883,-167.48
1745827437.387,982.422,247.559,-7.812,997.559
1745827437.391,999.512,192.871,-17.09,999.512
1745827437.395,3.906,107.91,-16.602,-82.52
1745827437.399,-1000.0,104.004,-18.555,-1000.0
1745827437.403,-190.918,270.508,-13.184,-187.5
1745827437.407,999.512,321.289,-7.324,999.512
1745827437.41,999.512,112.793,-19.531,999.512
1745827437.414,-13.184,-729.492,-26.855,-66.895
1745827437.418,-1000.0,-561.523,-23.438,-1000.0
1745827437.422,-276.367,389.648,-13.184,-223.633
1745827437.426,947.754,359.863,-12.207,964.844
1745827437.383,-167.969,231.934,-4.883,-167.48
1745827437.387,982.422,247.559,-7.812,997.559
1745827437.391,999.512,192.871,-17.09,999.512
1745827437.395,3.906,107.91,-16.602,-82.52
1745827437.399,-1000.0,104.004,-18.555,-1000.0
1745827437.403,-190.918,270.508,-13.184,-187.5
1745827437.407,999.512,321.289,-7.324,999.512
1745827437.41,999.512,112.793,-19.531,999.512
1745827437.414,-13.184,-729.492,-26.855,-66.895
1745827437.418,-1000.0,-561.523,-23.438,-1000.0
1745827437.422,-276.367,389.648,-13.184,-223.633
1745827437.426,947.754,359.863,-12.207,964.844
1745827437.383,-167.969,231.934,-4.883,-167.48
1745827437.387,982.422,247.559,-7.812,997.559
1745827437.391,999.512,192.871,-17.09,999.512
1745827437.395,3.906,107.91,-16.602,-82.52
1745827437.399,-1000.0,104.004,-18.555,-1000.0
1745827437.403,-190.918,270.508,-13.184,-187.5
1745827437.407,999.512,321.289,-7.324,999.512
1745827437.41,999.512,112.793,-19.531,999.512
1745827437.414,-13.184,-729.492,-26.855,-66.895
1745827437.418,-1000.0,-561.523,-23.438,-1000.0
1745827437.422,-276.367,389.648,-13.184,-223.633
1745827437.426,947.754,359.863,-12.207,964.844
1745827437.429,999.512,161.621,-16.113,999.512
1745827437.433,226.074,147.461,-13.184,211.426
1745827437.437,-1000.0,154.297,-11.719,-1000.0
1745827437.441,-512.695,293.945,-12.207,-430.664
1745827437.445,864.258,356.934,-15.625,905.273
1745827437.449,999.512,198.242,-20.02,999.512
1745827437.453,169.434,137.695,-24.414,191.895
1745827437.456,-1000.0,-199.707,-20.02,-1000.0
1745827437.46,-997.559,-950.684,-12.695,-863.77
1745827437.464,251.953,-430.176,-12.207,461.914
1745827437.468,999.512,371.582,-8.301,999.512
1745827437.472,196.289,149.902,-8.301,186.035
1745827437.429,999.512,161.621,-16.113,999.512
1745827437.433,226.074,147.461,-13.184,211.426
1745827437.437,-1000.0,154.297,-11.719,-1000.0
1745827437.441,-512.695,293.945,-12.207,-430.664
1745827437.445,864.258,356.934,-15.625,905.273
1745827437.449,999.512,198.242,-20.02,999.512
1745827437.453,169.434,137.695,-24.414,191.895
1745827437.456,-1000.0,-199.707,-20.02,-1000.0
1745827437.46,-997.559,-950.684,-12.695,-863.77
1745827437.464,251.953,-430.176,-12.207,461.914
1745827437.468,999.512,371.582,-8.301,999.512
1745827437.472,196.289,149.902,-8.301,186.035
1745827437.473,-1000.0,93.75,-7.812,-1000.0
1745827437.477,-997.07,322.754,0.488,-913.086
1745827437.481,241.211,419.922,1.953,374.023
1745827437.485,999.512,259.277,-1.953,999.512
1745827437.489,376.465,79.102,-2.441,312.988
1745827437.493,-915.527,132.324,-0.488,-956.055
1745827437.497,-1000.0,251.465,-3.906,-1000.0
1745827437.5,-102.051,-307.617,-10.254,0.0
1745827437.504,999.512,-297.852,-14.16,999.512
1745827437.508,571.289,260.742,-13.184,478.516
1745827437.512,-794.922,-143.066,-15.625,-854.98
1745827437.516,-1000.0,-481.445,-17.578,-1000.0
1745827437.518,-212.891,190.918,-17.578,-170.898
1745827437.522,999.512,395.508,-27.832,999.512
1745827437.526,777.832,107.422,-34.18,680.664
1745827437.53,-582.52,15.625,-38.574,-681.152
1745827437.534,-1000.0,107.422,-41.016,-1000.0
1745827437.538,-185.547,420.41,-31.25,-196.777
1745827437.542,999.512,-112.305,-34.18,999.512
1745827437.545,992.676,-580.566,-47.363,909.18
1745827437.549,-228.516,-70.801,-43.457,-369.141
1745827437.553,-1000.0,210.449,-40.527,-1000.0
1745827437.557,-223.633,-85.938,-41.016,-199.707
1745827437.561,977.051,-843.262,-43.945,996.094
1745827437.578,999.512,-287.598,-45.41,999.512
1745827437.582,-2.441,180.664,-35.156,-90.332
1745827437.586,-1000.0,101.074,-29.297,-1000.0
1745827437.59,-391.113,311.035,-29.785,-334.473
1745827437.594,900.879,381.348,-26.367,926.27
1745827437.598,999.512,303.711,-24.902,999.512
1745827437.602,183.594,-255.859,-30.273,121.582
1745827437.605,-1000.0,-308.105,-26.855,-1000.0
1745827437.609,-640.137,298.828,-18.555,-550.781
1745827437.613,750.488,303.223,-20.02,812.988
1745827437.617,999.512,113.77,-34.18,999.512
1745827437.621,172.363,39.551,-47.363,171.387
1745827437.578,999.512,-287.598,-45.41,999.512
1745827437.582,-2.441,180.664,-35.156,-90.332
1745827437.586,-1000.0,101.074,-29.297,-1000.0
1745827437.59,-391.113,311.035,-29.785,-334.473
1745827437.594,900.879,381.348,-26.367,926.27
1745827437.598,999.512,303.711,-24.902,999.512
1745827437.602,183.594,-255.859,-30.273,121.582
1745827437.605,-1000.0,-308.105,-26.855,-1000.0
1745827437.609,-640.137,298.828,-18.555,-550.781
1745827437.613,750.488,303.223,-20.02,812.988
1745827437.617,999.512,113.77,-34.18,999.512
1745827437.621,172.363,39.551,-47.363,171.387
1745827437.578,999.512,-287.598,-45.41,999.512
1745827437.582,-2.441,180.664,-35.156,-90.332
1745827437.586,-1000.0,101.074,-29.297,-1000.0
1745827437.59,-391.113,311.035,-29.785,-334.473
1745827437.594,900.879,381.348,-26.367,926.27
1745827437.598,999.512,303.711,-24.902,999.512
1745827437.602,183.594,-255.859,-30.273,121.582
1745827437.605,-1000.0,-308.105,-26.855,-1000.0
1745827437.609,-640.137,298.828,-18.555,-550.781
1745827437.613,750.488,303.223,-20.02,812.988
1745827437.617,999.512,113.77,-34.18,999.512
1745827437.621,172.363,39.551,-47.363,171.387
1745827437.609,-1000.0,45.898,-49.316,-1000.0
1745827437.613,-913.574,178.223,-49.316,-817.871
1745827437.617,400.879,275.879,-50.293,526.855
1745827437.621,999.512,195.801,-50.293,999.512
1745827437.625,145.996,32.227,-54.688,157.227
1745827437.629,-1000.0,-85.449,-57.129,-1000.0
1745827437.633,-1000.0,30.273,-48.828,-986.816
1745827437.636,136.719,270.508,-48.34,256.348
1745827437.64,999.512,60.059,-52.734,999.512
1745827437.644,206.543,181.641,-52.734,178.223
1745827437.648,-994.141,726.074,-52.734,-1000.0
1745827437.652,-1000.0,319.824,-47.363,-1000.0
1745827437.609,-1000.0,45.898,-49.316,-1000.0
1745827437.613,-913.574,178.223,-49.316,-817.871
1745827437.617,400.879,275.879,-50.293,526.855
1745827437.621,999.512,195.801,-50.293,999.512
1745827437.625,145.996,32.227,-54.688,157.227
1745827437.629,-1000.0,-85.449,-57.129,-1000.0
1745827437.633,-1000.0,30.273,-48.828,-986.816
1745827437.636,136.719,270.508,-48.34,256.348
1745827437.64,999.512,60.059,-52.734,999.512
1745827437.644,206.543,181.641,-52.734,178.223
1745827437.648,-994.141,726.074,-52.734,-1000.0
1745827437.652,-1000.0,319.824,-47.363,-1000.0
1745827437.609,-1000.0,45.898,-49.316,-1000.0
1745827437.613,-913.574,178.223,-49.316,-817.871
1745827437.617,400.879,275.879,-50.293,526.855
1745827437.621,999.512,195.801,-50.293,999.512
1745827437.625,145.996,32.227,-54.688,157.227
1745827437.629,-1000.0,-85.449,-57.129,-1000.0
1745827437.633,-1000.0,30.273,-48.828,-986.816
1745827437.636,136.719,270.508,-48.34,256.348
1745827437.64,999.512,60.059,-52.734,999.512
1745827437.644,206.543,181.641,-52.734,178.223
1745827437.648,-994.141,726.074,-52.734,-1000.0
1745827437.652,-1000.0,319.824,-47.363,-1000.0
1745827437.668,-139.16,45.898,-39.551,-65.918
1745827437.672,999.512,104.98,-40.039,999.512
1745827437.676,400.391,-88.867,-48.828,319.336
1745827437.68,-925.781,-144.531,-49.805,-958.496
1745827437.684,-1000.0,-121.582,-45.898,-1000.0
1745827437.688,-230.469,488.281,-43.457,-190.918
1745827437.692,999.512,549.316,-48.34,999.512
1745827437.695,589.844,-191.406,-52.246,511.719
1745827437.699,-801.758,-258.301,-47.852,-853.027
1745827437.703,-1000.0,-120.117,-47.852,-1000.0
1745827437.707,-208.984,14.648,-43.457,-221.191
1745827437.711,999.512,49.805,-45.898,999.512
1745827437.668,-139.16,45.898,-39.551,-65.918
1745827437.672,999.512,104.98,-40.039,999.512
1745827437.676,400.391,-88.867,-48.828,319.336
1745827437.68,-925.781,-144.531,-49.805,-958.496
1745827437.684,-1000.0,-121.582,-45.898,-1000.0
1745827437.688,-230.469,488.281,-43.457,-190.918
1745827437.692,999.512,549.316,-48.34,999.512
1745827437.695,589.844,-191.406,-52.246,511.719
1745827437.699,-801.758,-258.301,-47.852,-853.027
1745827437.703,-1000.0,-120.117,-47.852,-1000.0
1745827437.707,-208.984,14.648,-43.457,-221.191
1745827437.711,999.512,49.805,-45.898,999.512
1745827437.668,-139.16,45.898,-39.551,-65.918
1745827437.672,999.512,104.98,-40.039,999.512
1745827437.676,400.391,-88.867,-48.828,319.336
1745827437.68,-925.781,-144.531,-49.805,-958.496
1745827437.684,-1000.0,-121.582,-45.898,-1000.0
1745827437.688,-230.469,488.281,-43.457,-190.918
1745827437.692,999.512,549.316,-48.34,999.512
1745827437.695,589.844,-191.406,-52.246,511.719
1745827437.699,-801.758,-258.301,-47.852,-853.027
1745827437.703,-1000.0,-120.117,-47.852,-1000.0
1745827437.707,-208.984,14.648,-43.457,-221.191
1745827437.711,999.512,49.805,-45.898,999.512
1745827437.713,866.699,-266.113,-57.129,791.016
1745827437.717,-450.684,-443.848,-56.641,-554.199
1745827437.721,-1000.0,-154.297,-52.246,-1000.0
1745827437.725,-193.848,50.293,-44.922,-185.059
1745827437.729,978.516,45.898,-44.922,996.582
1745827437.733,999.512,-72.266,-49.805,999.512
1745827437.737,-1.465,-124.512,-55.664,-92.773
1745827437.74,-1000.0,-202.637,-50.781,-1000.0
1745827437.744,-341.797,319.824,-35.645,-293.945
1745827437.748,936.035,999.512,-40.039,956.543
1745827437.752,999.512,479.492,-52.734,999.512
1745827437.756,91.797,-283.203,-43.945,32.227
1745827438.226,956.055,123.535,-10.742,981.445
1745827438.23,999.512,4.395,-17.578,999.512
1745827438.234,0.488,-109.863,-25.879,-82.031
1745827438.238,-1000.0,-62.5,-20.996,-1000.0
1745827438.242,-498.047,122.559,-11.719,-432.129
1745827438.246,846.191,157.227,-12.695,886.23
1745827438.25,999.512,30.273,-17.578,999.512
1745827438.253,135.742,-120.117,-21.973,53.711
1745827438.257,-1000.0,-161.621,-18.066,-1000.0
1745827438.261,-736.328,54.688,-13.184,-645.02
1745827438.265,630.859,149.414,-12.207,710.938
1745827438.269,999.512,33.203,-5.859,999.512
1745827437.758,-1000.0,-224.121,-41.992,-1000.0
1745827437.762,-625.488,-37.598,-45.898,-534.668
1745827437.766,744.629,-56.641,-41.992,812.988
1745827437.77,999.512,-198.242,-45.898,999.512
1745827437.774,183.105,-343.75,-48.828,155.762
1745827437.778,-1000.0,-294.434,-44.434,-1000.0
1745827437.782,-817.871,-135.254,-41.504,-721.191
1745827437.785,542.48,-40.039,-39.062,646.484
1745827437.789,999.512,-205.566,-49.805,999.512
1745827437.793,149.902,-374.023,-56.641,164.062
1745827437.797,-1000.0,-265.137,-44.434,-1000.0
1745827437.801,-1000.0,-138.184,-34.18,-955.078
1745827437.758,-1000.0,-224.121,-41.992,-1000.0
1745827437.762,-625.488,-37.598,-45.898,-534.668
1745827437.766,744.629,-56.641,-41.992,812.988
1745827437.77,999.512,-198.242,-45.898,999.512
1745827437.774,183.105,-343.75,-48.828,155.762
1745827437.778,-1000.0,-294.434,-44.434,-1000.0
1745827437.782,-817.871,-135.254,-41.504,-721.191
1745827437.785,542.48,-40.039,-39.062,646.484
1745827437.789,999.512,-205.566,-49.805,999.512
1745827437.793,149.902,-374.023,-56.641,164.062
1745827437.797,-1000.0,-265.137,-44.434,-1000.0
1745827437.801,-1000.0,-138.184,-34.18,-955.078
1745827437.758,-1000.0,-224.121,-41.992,-1000.0
1745827437.762,-625.488,-37.598,-45.898,-534.668
1745827437.766,744.629,-56.641,-41.992,812.988
1745827437.77,999.512,-198.242,-45.898,999.512
1745827437.774,183.105,-343.75,-48.828,155.762
1745827437.778,-1000.0,-294.434,-44.434,-1000.0
1745827437.782,-817.871,-135.254,-41.504,-721.191
1745827437.785,542.48,-40.039,-39.062,646.484
1745827437.789,999.512,-205.566,-49.805,999.512
1745827437.793,149.902,-374.023,-56.641,164.062
1745827437.797,-1000.0,-265.137,-44.434,-1000.0
1745827437.801,-1000.0,-138.184,-34.18,-955.078
1745827437.803,178.223,-176.27,-36.133,314.453
1745827437.807,999.512,-162.109,-38.574,999.512
1745827437.811,216.797,-214.355,-43.457,196.289
1745827437.815,-1000.0,-301.27,-42.48,-1000.0
1745827437.819,-1000.0,-162.598,-33.691,-1000.0
1745827437.823,-34.18,15.137,-27.344,120.117
1745827437.827,999.512,71.777,-24.414,999.512
1745827437.83,342.285,-470.703,-26.367,300.293
1745827437.834,-939.453,-970.215,-32.227,-953.613
1745827437.838,-1000.0,-349.121,-35.645,-1000.0
1745827437.842,-251.953,217.773,-27.832,-202.148
1745827437.846,999.512,-92.285,-30.273,999.512
1745827437.803,178.223,-176.27,-36.133,314.453
1745827437.807,999.512,-162.109,-38.574,999.512
1745827437.811,216.797,-214.355,-43.457,196.289
1745827437.815,-1000.0,-301.27,-42.48,-1000.0
1745827437.819,-1000.0,-162.598,-33.691,-1000.0
1745827437.823,-34.18,15.137,-27.344,120.117
1745827437.827,999.512,71.777,-24.414,999.512
1745827437.83,342.285,-470.703,-26.367,300.293
1745827437.834,-939.453,-970.215,-32.227,-953.613
1745827437.838,-1000.0,-349.121,-35.645,-1000.0
1745827437.842,-251.953,217.773,-27.832,-202.148
1745827437.846,999.512,-92.285,-30.273,999.512
1745827437.803,178.223,-176.27,-36.133,314.453
1745827437.807,999.512,-162.109,-38.574,999.512
1745827437.811,216.797,-214.355,-43.457,196.289
1745827437.815,-1000.0,-301.27,-42.48,-1000.0
1745827437.819,-1000.0,-162.598,-33.691,-1000.0
1745827437.823,-34.18,15.137,-27.344,120.117
1745827437.827,999.512,71.777,-24.414,999.512
1745827437.83,342.285,-470.703,-26.367,300.293
1745827437.834,-939.453,-970.215,-32.227,-953.613
1745827437.838,-1000.0,-349.121,-35.645,-1000.0
1745827437.842,-251.953,217.773,-27.832,-202.148
1745827437.846,999.512,-92.285,-30.273,999.512
1745827437.848,477.051,-315.918,-37.109,388.184
1745827437.852,-899.414,-82.52,-33.203,-936.035
1745827437.856,-1000.0,22.461,-31.25,-1000.0
1745827437.86,-218.75,145.508,-31.25,-233.887
1745827437.864,999.512,155.762,-31.738,999.512
1745827437.868,844.727,0.977,-35.645,746.094
1745827437.872,-477.051,-88.867,-40.527,-610.84
1745827437.875,-1000.0,-267.578,-41.992,-1000.0
1745827437.879,-259.766,-123.047,-42.969,-242.188
1745827437.883,999.512,159.18,-42.48,999.512
1745827437.887,930.664,-33.691,-45.41,818.848
1745827437.891,-346.68,-169.922,-43.945,-501.465
1745827437.894,-1000.0,-83.984,-34.668,-1000.0
1745827437.898,-358.887,184.57,-29.785,-316.406
1745827437.902,905.273,33.203,-30.273,933.105
1745827437.906,999.512,-410.156,-32.227,999.512
1745827437.91,69.824,-213.867,-32.227,-19.531
1745827437.914,-1000.0,24.902,-28.32,-1000.0
1745827437.918,-525.879,-56.152,-26.855,-449.707
1745827437.921,832.52,-214.355,-34.668,870.117
1745827437.925,999.512,-65.918,-43.457,999.512
1745827437.929,191.895,-70.312,-39.551,145.02
1745827437.933,-1000.0,-1.465,-37.109,-1000.0
1745827437.937,-777.344,173.828,-29.297,-706.055
1745827437.894,-1000.0,-83.984,-34.668,-1000.0
1745827437.898,-358.887,184.57,-29.785,-316.406
1745827437.902,905.273,33.203,-30.273,933.105
1745827437.906,999.512,-410.156,-32.227,999.512
1745827437.91,69.824,-213.867,-32.227,-19.531
1745827437.914,-1000.0,24.902,-28.32,-1000.0
1745827437.918,-525.879,-56.152,-26.855,-449.707
1745827437.921,832.52,-214.355,-34.668,870.117
1745827437.925,999.512,-65.918,-43.457,999.512
1745827437.929,191.895,-70.312,-39.551,145.02
1745827437.933,-1000.0,-1.465,-37.109,-1000.0
1745827437.937,-777.344,173.828,-29.297,-706.055
1745827437.894,-1000.0,-83.984,-34.668,-1000.0
1745827437.898,-358.887,184.57,-29.785,-316.406
1745827437.902,905.273,33.203,-30.273,933.105
1745827437.906,999.512,-410.156,-32.227,999.512
1745827437.91,69.824,-213.867,-32.227,-19.531
1745827437.914,-1000.0,24.902,-28.32,-1000.0
1745827437.918,-525.879,-56.152,-26.855,-449.707
1745827437.921,832.52,-214.355,-34.668,870.117
1745827437.925,999.512,-65.918,-43.457,999.512
1745827437.929,191.895,-70.312,-39.551,145.02
1745827437.933,-1000.0,-1.465,-37.109,-1000.0
1745827437.937,-777.344,173.828,-29.297,-706.055
1745827437.938,594.238,168.457,-20.996,660.645
1745827437.942,999.512,65.918,-20.996,999.512
1745827437.946,163.086,-94.727,-19.043,172.363
1745827437.95,-1000.0,-106.445,-18.066,-1000.0
1745827437.954,-943.359,22.949,-21.484,-890.137
1745827437.958,329.102,228.027,-21.973,416.016
1745827437.962,999.512,-456.543,-23.926,999.512
1745827437.965,324.219,-787.109,-32.715,268.555
1745827437.969,-988.281,-110.84,-24.902,-1000.0
1745827437.973,-1000.0,83.496,-16.113,-972.656
1745827437.977,190.918,193.848,-18.066,299.805
1745827437.981,999.512,152.832,-26.855,999.512
1745827437.938,594.238,168.457,-20.996,660.645
1745827437.942,999.512,65.918,-20.996,999.512
1745827437.946,163.086,-94.727,-19.043,172.363
1745827437.95,-1000.0,-106.445,-18.066,-1000.0
1745827437.954,-943.359,22.949,-21.484,-890.137
1745827437.958,329.102,228.027,-21.973,416.016
1745827437.962,999.512,-456.543,-23.926,999.512
1745827437.965,324.219,-787.109,-32.715,268.555
1745827437.969,-988.281,-110.84,-24.902,-1000.0
1745827437.973,-1000.0,83.496,-16.113,-972.656
1745827437.977,190.918,193.848,-18.066,299.805
1745827437.981,999.512,152.832,-26.855,999.512
1745827437.938,594.238,168.457,-20.996,660.645
1745827437.942,999.512,65.918,-20.996,999.512
1745827437.946,163.086,-94.727,-19.043,172.363
1745827437.95,-1000.0,-106.445,-18.066,-1000.0
1745827437.954,-943.359,22.949,-21.484,-890.137
1745827437.958,329.102,228.027,-21.973,416.016
1745827437.962,999.512,-456.543,-23.926,999.512
1745827437.965,324.219,-787.109,-32.715,268.555
1745827437.969,-988.281,-110.84,-24.902,-1000.0
1745827437.973,-1000.0,83.496,-16.113,-972.656
1745827437.977,190.918,193.848,-18.066,299.805
1745827437.981,999.512,152.832,-26.855,999.512
1745827437.983,556.152,-41.992,-33.203,487.305
1745827437.987,-804.688,-84.473,-32.715,-874.023
1745827437.991,-1000.0,64.941,-30.762,-1000.0
1745827437.995,72.266,187.012,-24.414,174.316
1745827437.999,999.512,193.848,-19.043,999.512
1745827438.003,999.512,-155.273,-11.23,976.562
1745827438.007,-137.207,-341.309,-10.254,-242.676
1745827438.01,-1000.0,53.223,-14.16,-1000.0
1745827438.014,117.676,127.93,-15.137,273.926
1745827438.018,999.512,355.469,-12.207,999.512
1745827438.022,999.512,530.273,-13.184,999.512
1745827438.026,125.488,14.648,-12.695,85.938
1745827437.983,556.152,-41.992,-33.203,487.305
1745827437.987,-804.688,-84.473,-32.715,-874.023
1745827437.991,-1000.0,64.941,-30.762,-1000.0
1745827437.995,72.266,187.012,-24.414,174.316
1745827437.999,999.512,193.848,-19.043,999.512
1745827438.003,999.512,-155.273,-11.23,976.562
1745827438.007,-137.207,-341.309,-10.254,-242.676
1745827438.01,-1000.0,53.223,-14.16,-1000.0
1745827438.014,117.676,127.93,-15.137,273.926
1745827438.018,999.512,355.469,-12.207,999.512
1745827438.022,999.512,530.273,-13.184,999.512
1745827438.026,125.488,14.648,-12.695,85.938
1745827438.06,-1000.0,-76.172,-19.043,-1000.0
1745827438.064,-195.801,130.859,-18.066,-140.625
1745827438.068,999.512,124.512,-8.789,999.512
1745827438.072,999.512,-10.254,-10.742,999.512
1745827438.076,84.473,-99.121,-16.113,48.34
1745827438.08,-1000.0,-77.637,-18.555,-1000.0
1745827438.084,-185.547,100.586,-17.09,-173.828
1745827438.087,992.188,86.426,-22.461,994.629
1745827438.091,999.512,24.414,-23.926,999.512
1745827438.095,219.727,-462.402,-29.785,195.801
1745827438.099,-1000.0,-477.051,-37.598,-1000.0
1745827438.103,-359.375,123.535,-30.762,-276.855
1745827438.06,-1000.0,-76.172,-19.043,-1000.0
1745827438.064,-195.801,130.859,-18.066,-140.625
1745827438.068,999.512,124.512,-8.789,999.512
1745827438.072,999.512,-10.254,-10.742,999.512
1745827438.076,84.473,-99.121,-16.113,48.34
1745827438.08,-1000.0,-77.637,-18.555,-1000.0
1745827438.084,-185.547,100.586,-17.09,-173.828
1745827438.087,992.188,86.426,-22.461,994.629
1745827438.091,999.512,24.414,-23.926,999.512
1745827438.095,219.727,-462.402,-29.785,195.801
1745827438.099,-1000.0,-477.051,-37.598,-1000.0
1745827438.103,-359.375,123.535,-30.762,-276.855
1745827438.06,-1000.0,-76.172,-19.043,-1000.0
1745827438.064,-195.801,130.859,-18.066,-140.625
1745827438.068,999.512,124.512,-8.789,999.512
1745827438.072,999.512,-10.254,-10.742,999.512
1745827438.076,84.473,-99.121,-16.113,48.34
1745827438.08,-1000.0,-77.637,-18.555,-1000.0
1745827438.084,-185.547,100.586,-17.09,-173.828
1745827438.087,992.188,86.426,-22.461,994.629
1745827438.091,999.512,24.414,-23.926,999.512
1745827438.095,219.727,-462.402,-29.785,195.801
1745827438.099,-1000.0,-477.051,-37.598,-1000.0
1745827438.103,-359.375,123.535,-30.762,-276.855
1745827438.088,942.383,181.641,-25.391,974.609
1745827438.092,999.512,79.102,-26.855,999.512
1745827438.096,215.332,-82.031,-27.344,205.078
1745827438.1,-1000.0,-94.238,-20.508,-1000.0
1745827438.104,-674.805,36.133,-11.719,-574.707
1745827438.108,719.238,109.375,-15.137,805.176
1745827438.112,999.512,59.082,-17.09,999.512
1745827438.115,163.086,-92.285,-14.16,180.664
1745827438.119,-1000.0,-137.207,-15.137,-1000.0
1745827438.123,-969.727,18.066,-9.766,-879.883
1745827438.127,292.969,160.156,-9.277,441.895
1745827438.131,999.512,69.824,-13.672,999.512
1745827438.088,942.383,181.641,-25.391,974.609
1745827438.092,999.512,79.102,-26.855,999.512
1745827438.096,215.332,-82.031,-27.344,205.078
1745827438.1,-1000.0,-94.238,-20.508,-1000.0
1745827438.104,-674.805,36.133,-11.719,-574.707
1745827438.108,719.238,109.375,-15.137,805.176
1745827438.112,999.512,59.082,-17.09,999.512
1745827438.115,163.086,-92.285,-14.16,180.664
1745827438.119,-1000.0,-137.207,-15.137,-1000.0
1745827438.123,-969.727,18.066,-9.766,-879.883
1745827438.127,292.969,160.156,-9.277,441.895
1745827438.131,999.512,69.824,-13.672,999.512
1745827438.088,942.383,181.641,-25.391,974.609
1745827438.092,999.512,79.102,-26.855,999.512
1745827438.096,215.332,-82.031,-27.344,205.078
1745827438.1,-1000.0,-94.238,-20.508,-1000.0
1745827438.104,-674.805,36.133,-11.719,-574.707
1745827438.108,719.238,109.375,-15.137,805.176
1745827438.112,999.512,59.082,-17.09,999.512
1745827438.115,163.086,-92.285,-14.16,180.664
1745827438.119,-1000.0,-137.207,-15.137,-1000.0
1745827438.123,-969.727,18.066,-9.766,-879.883
1745827438.127,292.969,160.156,-9.277,441.895
1745827438.131,999.512,69.824,-13.672,999.512
1745827438.133,138.184,-120.117,-20.996,144.531
1745827438.137,-1000.0,-71.289,-22.949,-1000.0
1745827438.141,-1000.0,33.203,-18.555,-1000.0
1745827438.145,-19.043,184.082,-15.137,82.031
1745827438.149,999.512,-247.07,-22.461,999.512
1745827438.153,334.961,-492.188,-25.391,275.879
1745827438.157,-955.566,-110.84,-23.438,-979.004
1745827438.16,-1000.0,6.836,-22.949,-1000.0
1745827438.164,-127.93,397.949,-11.23,-70.312
1745827438.168,999.512,317.383,-13.184,999.512
1745827438.172,415.039,-75.684,-14.648,354.004
1745827438.176,-916.016,-178.223,-12.695,-938.477
1745827438.133,138.184,-120.117,-20.996,144.531
1745827438.137,-1000.0,-71.289,-22.949,-1000.0
1745827438.141,-1000.0,33.203,-18.555,-1000.0
1745827438.145,-19.043,184.082,-15.137,82.031
1745827438.149,999.512,-247.07,-22.461,999.512
1745827438.153,334.961,-492.188,-25.391,275.879
1745827438.157,-955.566,-110.84,-23.438,-979.004
1745827438.16,-1000.0,6.836,-22.949,-1000.0
1745827438.164,-127.93,397.949,-11.23,-70.312
1745827438.168,999.512,317.383,-13.184,999.512
1745827438.172,415.039,-75.684,-14.648,354.004
1745827438.176,-916.016,-178.223,-12.695,-938.477
1745827438.133,138.184,-120.117,-20.996,144.531
1745827438.137,-1000.0,-71.289,-22.949,-1000.0
1745827438.141,-1000.0,33.203,-18.555,-1000.0
1745827438.145,-19.043,184.082,-15.137,82.031
1745827438.149,999.512,-247.07,-22.461,999.512
1745827438.153,334.961,-492.188,-25.391,275.879
1745827438.157,-955.566,-110.84,-23.438,-979.004
1745827438.16,-1000.0,6.836,-22.949,-1000.0
1745827438.164,-127.93,397.949,-11.23,-70.312
1745827438.168,999.512,317.383,-13.184,999.512
1745827438.172,415.039,-75.684,-14.648,354.004
1745827438.176,-916.016,-178.223,-12.695,-938.477
1745827438.181,-1000.0,-119.629,-15.625,-1000.0
1745827438.185,-245.605,97.656,-10.254,-237.305
1745827438.189,999.512,192.383,-12.695,999.512
1745827438.193,561.523,-323.242,-15.137,480.469
1745827438.197,-834.961,-625.977,-15.137,-885.254
1745827438.201,-1000.0,-70.312,-15.625,-1000.0
1745827438.205,-205.078,180.664,-5.859,-218.75
1745827438.208,999.512,125.488,-7.324,999.512
1745827438.212,908.203,-184.57,-22.949,828.125
1745827438.216,-373.535,-220.215,-25.879,-491.211
1745827438.22,-1000.0,-33.203,-18.066,-1000.0
1745827438.224,-262.207,92.773,-12.207,-227.539
1745827438.181,-1000.0,-119.629,-15.625,-1000.0
1745827438.185,-245.605,97.656,-10.254,-237.305
1745827438.189,999.512,192.383,-12.695,999.512
1745827438.193,561.523,-323.242,-15.137,480.469
1745827438.197,-834.961,-625.977,-15.137,-885.254
1745827438.201,-1000.0,-70.312,-15.625,-1000.0
1745827438.205,-205.078,180.664,-5.859,-218.75
1745827438.208,999.512,125.488,-7.324,999.512
1745827438.212,908.203,-184.57,-22.949,828.125
1745827438.216,-373.535,-220.215,-25.879,-491.211
1745827438.22,-1000.0,-33.203,-18.066,-1000.0
1745827438.224,-262.207,92.773,-12.207,-227.539
1745827438.268,153.32,-132.324,-7.812,155.273
1745827438.272,-1000.0,-105.957,-9.766,-1000.0
1745827438.276,-1000.0,-20.996,-1.465,-959.473
1745827438.28,202.148,31.25,1.953,313.477
1745827438.284,999.512,81.055,-0.488,999.512
1745827438.288,137.695,-133.301,-5.859,133.789
1745827438.292,-1000.0,-76.66,-8.789,-1000.0
1745827438.295,-1000.0,233.398,-9.766,-1000.0
1745827438.299,-17.09,109.863,-2.93,60.547
1745827438.303,999.512,-66.406,-3.906,999.512
1745827438.307,155.762,132.812,-14.16,133.789
1745827438.311,-1000.0,147.949,-14.648,-1000.0
1745827438.268,153.32,-132.324,-7.812,155.273
1745827438.272,-1000.0,-105.957,-9.766,-1000.0
1745827438.276,-1000.0,-20.996,-1.465,-959.473
1745827438.28,202.148,31.25,1.953,313.477
1745827438.284,999.512,81.055,-0.488,999.512
1745827438.288,137.695,-133.301,-5.859,133.789
1745827438.292,-1000.0,-76.66,-8.789,-1000.0
1745827438.295,-1000.0,233.398,-9.766,-1000.0
1745827438.299,-17.09,109.863,-2.93,60.547
1745827438.303,999.512,-66.406,-3.906,999.512
1745827438.307,155.762,132.812,-14.16,133.789
1745827438.311,-1000.0,147.949,-14.648,-1000.0
1745827438.328,-1000.0,-95.703,-9.277,-1000.0
1745827438.332,-250.488,31.25,-8.301,-190.918
1745827438.336,999.512,-1.953,-11.719,999.512
1745827438.34,221.191,-211.426,-12.207,177.246
1745827438.344,-1000.0,-213.867,-17.09,-1000.0
1745827438.348,-1000.0,-20.996,-14.16,-1000.0
1745827438.352,-264.16,-417.969,-4.883,-263.672
1745827438.355,999.512,-423.828,-10.742,999.512
1745827438.359,500.0,-41.992,-13.184,373.535
1745827438.363,-885.742,-278.809,-15.137,-950.195
1745827438.367,-1000.0,-510.742,-9.766,-1000.0
1745827438.371,-226.562,-38.086,-2.93,-245.605
1745827438.328,-1000.0,-95.703,-9.277,-1000.0
1745827438.332,-250.488,31.25,-8.301,-190.918
1745827438.336,999.512,-1.953,-11.719,999.512
1745827438.34,221.191,-211.426,-12.207,177.246
1745827438.344,-1000.0,-213.867,-17.09,-1000.0
1745827438.348,-1000.0,-20.996,-14.16,-1000.0
1745827438.352,-264.16,-417.969,-4.883,-263.672
1745827438.355,999.512,-423.828,-10.742,999.512
1745827438.359,500.0,-41.992,-13.184,373.535
1745827438.363,-885.742,-278.809,-15.137,-950.195
1745827438.367,-1000.0,-510.742,-9.766,-1000.0
1745827438.371,-226.562,-38.086,-2.93,-245.605
1745827438.328,-1000.0,-95.703,-9.277,-1000.0
1745827438.332,-250.488,31.25,-8.301,-190.918
1745827438.336,999.512,-1.953,-11.719,999.512
1745827438.34,221.191,-211.426,-12.207,177.246
1745827438.344,-1000.0,-213.867,-17.09,-1000.0
1745827438.348,-1000.0,-20.996,-14.16,-1000.0
1745827438.352,-264.16,-417.969,-4.883,-263.672
1745827438.355,999.512,-423.828,-10.742,999.512
1745827438.359,500.0,-41.992,-13.184,373.535
1745827438.363,-885.742,-278.809,-15.137,-950.195
1745827438.367,-1000.0,-510.742,-9.766,-1000.0
1745827438.371,-226.562,-38.086,-2.93,-245.605
1745827438.358,999.512,184.082,-10.254,999.512
1745827438.362,758.789,-54.688,-20.508,586.914
1745827438.366,-651.855,-121.582,-25.879,-827.637
1745827438.37,-1000.0,-11.719,-20.02,-1000.0
1745827438.374,-104.492,136.719,-3.906,-103.027
1745827438.378,948.73,271.973,-4.395,987.793
1745827438.382,999.512,196.777,-12.207,933.594
1745827438.385,-149.902,-83.496,-13.672,-319.824
1745827438.389,-1000.0,-72.754,-20.02,-1000.0
1745827438.393,-427.246,-15.625,-11.719,-370.117
1745827438.397,865.234,-5.371,-1.953,895.02
1745827438.401,999.512,9.766,-0.488,999.512
1745827438.358,999.512,184.082,-10.254,999.512
1745827438.362,758.789,-54.688,-20.508,586.914
1745827438.366,-651.855,-121.582,-25.879,-827.637
1745827438.37,-1000.0,-11.719,-20.02,-1000.0
1745827438.374,-104.492,136.719,-3.906,-103.027
1745827438.378,948.73,271.973,-4.395,987.793
1745827438.382,999.512,196.777,-12.207,933.594
1745827438.385,-149.902,-83.496,-13.672,-319.824
1745827438.389,-1000.0,-72.754,-20.02,-1000.0
1745827438.393,-427.246,-15.625,-11.719,-370.117
1745827438.397,865.234,-5.371,-1.953,895.02
1745827438.401,999.512,9.766,-0.488,999.512
1745827438.419,186.523,-76.66,-6.348,110.84
1745827438.423,-1000.0,-375.977,-7.324,-1000.0
1745827438.427,-664.062,-208.496,-3.418,-594.727
1745827438.431,726.074,175.293,-7.324,773.438
1745827438.435,999.512,44.434,-13.184,999.512
1745827438.439,163.086,-76.66,-18.066,156.25
1745827438.443,-1000.0,-117.676,-21.973,-1000.0
1745827438.446,-978.027,66.406,-19.531,-916.992
1745827438.45,291.992,96.191,-11.23,378.418
1745827438.454,999.512,-438.965,-19.531,999.512
1745827438.458,145.02,-364.746,-21.484,153.32
1745827438.462,-1000.0,40.039,-14.16,-1000.0
1745827438.419,186.523,-76.66,-6.348,110.84
1745827438.423,-1000.0,-375.977,-7.324,-1000.0
1745827438.427,-664.062,-208.496,-3.418,-594.727
1745827438.431,726.074,175.293,-7.324,773.438
1745827438.435,999.512,44.434,-13.184,999.512
1745827438.439,163.086,-76.66,-18.066,156.25
1745827438.443,-1000.0,-117.676,-21.973,-1000.0
1745827438.446,-978.027,66.406,-19.531,-916.992
1745827438.45,291.992,96.191,-11.23,378.418
1745827438.454,999.512,-438.965,-19.531,999.512
1745827438.458,145.02,-364.746,-21.484,153.32
1745827438.462,-1000.0,40.039,-14.16,-1000.0
1745827438.419,186.523,-76.66,-6.348,110.84
1745827438.423,-1000.0,-375.977,-7.324,-1000.0
1745827438.427,-664.062,-208.496,-3.418,-594.727
1745827438.431,726.074,175.293,-7.324,773.438
1745827438.435,999.512,44.434,-13.184,999.512
1745827438.439,163.086,-76.66,-18.066,156.25
1745827438.443,-1000.0,-117.676,-21.973,-1000.0
1745827438.446,-978.027,66.406,-19.531,-916.992
1745827438.45,291.992,96.191,-11.23,378.418
1745827438.454,999.512,-438.965,-19.531,999.512
1745827438.458,145.02,-364.746,-21.484,153.32
1745827438.462,-1000.0,40.039,-14.16,-1000.0
1745827438.464,-1000.0,-115.723,-11.23,-1000.0
1745827438.468,95.215,-150.391,0.488,207.031
1745827438.472,999.512,76.66,3.418,999.512
1745827438.476,437.988,33.691,-6.348,362.305
1745827438.48,-913.086,-429.688,-8.789,-959.473
1745827438.484,-1000.0,-509.277,-1.953,-1000.0
1745827438.488,45.898,175.293,-1.465,118.164
1745827438.491,999.512,120.605,-3.906,999.512
1745827438.495,475.586,13.672,-6.836,397.461
1745827438.499,-860.84,192.383,-11.719,-905.273
1745827438.503,-1000.0,98.145,-1.465,-1000.0
1745827438.507,-184.57,132.324,6.836,-141.113
1745827438.464,-1000.0,-115.723,-11.23,-1000.0
1745827438.468,95.215,-150.391,0.488,207.031
1745827438.472,999.512,76.66,3.418,999.512
1745827438.476,437.988,33.691,-6.348,362.305
1745827438.48,-913.086,-429.688,-8.789,-959.473
1745827438.484,-1000.0,-509.277,-1.953,-1000.0
1745827438.488,45.898,175.293,-1.465,118.164
1745827438.491,999.512,120.605,-3.906,999.512
1745827438.495,475.586,13.672,-6.836,397.461
1745827438.499,-860.84,192.383,-11.719,-905.273
1745827438.503,-1000.0,98.145,-1.465,-1000.0
1745827438.507,-184.57,132.324,6.836,-141.113
1745827438.464,-1000.0,-115.723,-11.23,-1000.0
1745827438.468,95.215,-150.391,0.488,207.031
1745827438.472,999.512,76.66,3.418,999.512
1745827438.476,437.988,33.691,-6.348,362.305
1745827438.48,-913.086,-429.688,-8.789,-959.473
1745827438.484,-1000.0,-509.277,-1.953,-1000.0
1745827438.488,45.898,175.293,-1.465,118.164
1745827438.491,999.512,120.605,-3.906,999.512
1745827438.495,475.586,13.672,-6.836,397.461
1745827438.499,-860.84,192.383,-11.719,-905.273
1745827438.503,-1000.0,98.145,-1.465,-1000.0
1745827438.507,-184.57,132.324,6.836,-141.113
1745827438.509,999.512,74.707,-1.953,999.512
1745827438.513,840.82,-101.562,-8.301,735.84
1745827438.517,-483.398,-105.957,-8.789,-612.793
1745827438.521,-1000.0,-3.418,-7.812,-1000.0
1745827438.525,-168.457,24.414,-0.977,-111.816
1745827438.529,987.793,34.18,1.953,999.512
1745827438.533,999.512,20.508,-5.371,999.512
1745827438.536,-17.09,-61.523,-3.418,-100.098
1745827438.54,-1000.0,-651.855,1.465,-1000.0
1745827438.544,-187.5,-411.133,2.441,-188.477
1745827438.548,999.512,278.809,1.465,999.512
1745827438.552,999.512,28.32,-4.395,999.512
1745827438.509,999.512,74.707,-1.953,999.512
1745827438.513,840.82,-101.562,-8.301,735.84
1745827438.517,-483.398,-105.957,-8.789,-612.793
1745827438.521,-1000.0,-3.418,-7.812,-1000.0
1745827438.525,-168.457,24.414,-0.977,-111.816
1745827438.529,987.793,34.18,1.953,999.512
1745827438.533,999.512,20.508,-5.371,999.512
1745827438.536,-17.09,-61.523,-3.418,-100.098
1745827438.54,-1000.0,-651.855,1.465,-1000.0
1745827438.544,-187.5,-411.133,2.441,-188.477
1745827438.548,999.512,278.809,1.465,999.512
1745827438.552,999.512,28.32,-4.395,999.512
1745827438.509,999.512,74.707,-1.953,999.512
1745827438.513,840.82,-101.562,-8.301,735.84
1745827438.517,-483.398,-105.957,-8.789,-612.793
1745827438.521,-1000.0,-3.418,-7.812,-1000.0
1745827438.525,-168.457,24.414,-0.977,-111.816
1745827438.529,987.793,34.18,1.953,999.512
1745827438.533,999.512,20.508,-5.371,999.512
1745827438.536,-17.09,-61.523,-3.418,-100.098
1745827438.54,-1000.0,-651.855,1.465,-1000.0
1745827438.544,-187.5,-411.133,2.441,-188.477
1745827438.548,999.512,278.809,1.465,999.512
1745827438.552,999.512,28.32,-4.395,999.512
1745827438.553,0.0,-152.344,-7.812,-93.75
1745827438.557,-1000.0,2.441,0.488,-1000.0
1745827438.561,-358.398,238.281,6.348,-312.988
1745827438.565,915.039,151.855,-0.977,935.059
1745827438.569,999.512,-35.645,-8.301,999.512
1745827438.573,198.242,-26.367,-6.348,128.906
1745827438.577,-1000.0,99.609,4.395,-1000.0
1745827438.58,-682.129,-286.621,3.906,-570.801
1745827438.584,708.008,-381.836,0.0,794.922
1745827438.588,999.512,82.031,0.0,999.512
1745827438.592,175.293,117.676,-0.488,177.246
1745827438.596,-1000.0,-461.426,-3.418,-1000.0
1745827438.553,0.0,-152.344,-7.812,-93.75
1745827438.557,-1000.0,2.441,0.488,-1000.0
1745827438.561,-358.398,238.281,6.348,-312.988
1745827438.565,915.039,151.855,-0.977,935.059
1745827438.569,999.512,-35.645,-8.301,999.512
1745827438.573,198.242,-26.367,-6.348,128.906
1745827438.577,-1000.0,99.609,4.395,-1000.0
1745827438.58,-682.129,-286.621,3.906,-570.801
1745827438.584,708.008,-381.836,0.0,794.922
1745827438.588,999.512,82.031,0.0,999.512
1745827438.592,175.293,117.676,-0.488,177.246
1745827438.596,-1000.0,-461.426,-3.418,-1000.0
1745827438.553,0.0,-152.344,-7.812,-93.75
1745827438.557,-1000.0,2.441,0.488,-1000.0
1745827438.561,-358.398,238.281,6.348,-312.988
1745827438.565,915.039,151.855,-0.977,935.059
1745827438.569,999.512,-35.645,-8.301,999.512
1745827438.573,198.242,-26.367,-6.348,128.906
1745827438.577,-1000.0,99.609,4.395,-1000.0
1745827438.58,-682.129,-286.621,3.906,-570.801
1745827438.584,708.008,-381.836,0.0,794.922
1745827438.588,999.512,82.031,0.0,999.512
1745827438.592,175.293,117.676,-0.488,177.246
1745827438.596,-1000.0,-461.426,-3.418,-1000.0
1745827438.599,-874.023,-566.895,-6.348,-785.645
1745827438.603,460.449,265.625,0.0,573.242
1745827438.607,999.512,304.688,0.977,999.512
1745827438.611,160.645,-356.445,-1.953,169.434
1745827438.615,-1000.0,-374.023,-3.418,-1000.0
1745827438.619,-949.219,287.598,-0.488,-894.531
1745827438.623,319.824,383.789,-0.977,408.691
1745827438.626,999.512,-403.809,-7.812,999.512
1745827438.63,290.039,-419.922,-7.324,232.422
1745827438.634,-954.59,254.883,-6.348,-987.793
1745827438.638,-1000.0,186.523,-2.93,-1000.0
1745827438.642,-106.445,48.828,0.0,-19.043
1745827438.644,999.512,250.0,-5.371,999.512
1745827438.648,418.945,225.098,-8.789,333.008
1745827438.652,-910.645,41.992,-13.184,-944.336
1745827438.656,-1000.0,105.469,-9.766,-1000.0
1745827438.66,-246.582,288.574,-0.488,-216.309
1745827438.664,999.512,436.523,-8.789,999.512
1745827438.668,501.953,-224.121,-16.602,430.664
1745827438.671,-884.277,-875.977,-9.277,-916.992
1745827438.675,-1000.0,-132.812,-3.906,-1000.0
1745827438.679,-225.098,448.242,-3.418,-237.793
1745827438.683,999.512,131.836,0.977,999.512
1745827438.687,752.441,-71.289,-8.789,636.719
1745827438.644,999.512,250.0,-5.371,999.512
1745827438.648,418.945,225.098,-8.789,333.008
1745827438.652,-910.645,41.992,-13.184,-944.336
1745827438.656,-1000.0,105.469,-9.766,-1000.0
1745827438.66,-246.582,288.574,-0.488,-216.309
1745827438.664,999.512,436.523,-8.789,999.512
1745827438.668,501.953,-224.121,-16.602,430.664
1745827438.671,-884.277,-875.977,-9.277,-916.992
1745827438.675,-1000.0,-132.812,-3.906,-1000.0
1745827438.679,-225.098,448.242,-3.418,-237.793
1745827438.683,999.512,131.836,0.977,999.512
1745827438.687,752.441,-71.289,-8.789,636.719
1745827438.644,999.512,250.0,-5.371,999.512
1745827438.648,418.945,225.098,-8.789,333.008
1745827438.652,-910.645,41.992,-13.184,-944.336
1745827438.656,-1000.0,105.469,-9.766,-1000.0
1745827438.66,-246.582,288.574,-0.488,-216.309
1745827438.664,999.512,436.523,-8.789,999.512
1745827438.668,501.953,-224.121,-16.602,430.664
1745827438.671,-884.277,-875.977,-9.277,-916.992
1745827438.675,-1000.0,-132.812,-3.906,-1000.0
1745827438.679,-225.098,448.242,-3.418,-237.793
1745827438.683,999.512,131.836,0.977,999.512
1745827438.687,752.441,-71.289,-8.789,636.719
1745827438.69,-589.355,130.371,-18.066,-720.215
1745827438.694,-1000.0,237.793,-11.719,-1000.0
1745827438.698,-445.312,-63.477,-5.371,-379.883
1745827438.702,883.301,-37.109,-4.395,942.383
1745827438.706,999.512,296.875,-0.488,999.512
1745827438.71,-123.047,244.629,-6.836,-245.605
1745827438.714,-1000.0,-383.301,-15.137,-1000.0
1745827438.717,-341.309,-224.121,-5.859,-284.18
1745827438.721,918.945,448.242,-4.395,944.824
1745827438.725,999.512,268.555,-7.324,999.512
1745827438.729,145.508,139.648,-7.812,72.754
1745827438.733,-1000.0,168.457,-8.789,-1000.0
1745827438.69,-589.355,130.371,-18.066,-720.215
1745827438.694,-1000.0,237.793,-11.719,-1000.0
1745827438.698,-445.312,-63.477,-5.371,-379.883
1745827438.702,883.301,-37.109,-4.395,942.383
1745827438.706,999.512,296.875,-0.488,999.512
1745827438.71,-123.047,244.629,-6.836,-245.605
1745827438.714,-1000.0,-383.301,-15.137,-1000.0
1745827438.717,-341.309,-224.121,-5.859,-284.18
1745827438.721,918.945,448.242,-4.395,944.824
1745827438.725,999.512,268.555,-7.324,999.512
1745827438.729,145.508,139.648,-7.812,72.754
1745827438.733,-1000.0,168.457,-8.789,-1000.0
1745827438.749,-600.586,322.266,-9.766,-530.273
1745827438.753,780.273,395.02,-9.766,825.684
1745827438.757,999.512,273.926,-4.883,999.512
1745827438.761,186.035,95.215,-10.254,151.367
1745827438.765,-1000.0,48.34,-16.113,-1000.0
1745827438.769,-805.664,335.449,-11.23,-739.258
1745827438.773,558.594,501.465,-6.348,642.578
1745827438.776,999.512,201.172,-8.301,999.512
1745827438.78,139.16,19.531,-14.648,48.34
1745827438.784,-1000.0,-98.633,-22.949,-1000.0
1745827438.788,-1000.0,-91.797,-14.648,-1000.0
1745827438.792,38.086,200.195,-9.277,125.488
1745827438.749,-600.586,322.266,-9.766,-530.273
1745827438.753,780.273,395.02,-9.766,825.684
1745827438.757,999.512,273.926,-4.883,999.512
1745827438.761,186.035,95.215,-10.254,151.367
1745827438.765,-1000.0,48.34,-16.113,-1000.0
1745827438.769,-805.664,335.449,-11.23,-739.258
1745827438.773,558.594,501.465,-6.348,642.578
1745827438.776,999.512,201.172,-8.301,999.512
1745827438.78,139.16,19.531,-14.648,48.34
1745827438.784,-1000.0,-98.633,-22.949,-1000.0
1745827438.788,-1000.0,-91.797,-14.648,-1000.0
1745827438.792,38.086,200.195,-9.277,125.488
1745827438.749,-600.586,322.266,-9.766,-530.273
1745827438.753,780.273,395.02,-9.766,825.684
1745827438.757,999.512,273.926,-4.883,999.512
1745827438.761,186.035,95.215,-10.254,151.367
1745827438.765,-1000.0,48.34,-16.113,-1000.0
1745827438.769,-805.664,335.449,-11.23,-739.258
1745827438.773,558.594,501.465,-6.348,642.578
1745827438.776,999.512,201.172,-8.301,999.512
1745827438.78,139.16,19.531,-14.648,48.34
1745827438.784,-1000.0,-98.633,-22.949,-1000.0
1745827438.788,-1000.0,-91.797,-14.648,-1000.0
1745827438.792,38.086,200.195,-9.277,125.488
1745827438.793,999.512,190.43,-23.438,999.512
1745827438.797,135.254,-33.691,-27.344,34.18
1745827438.801,-1000.0,-26.855,-16.602,-1000.0
1745827438.805,-1000.0,102.539,-11.23,-1000.0
1745827438.809,-225.098,204.102,-11.23,-166.504
1745827438.813,999.512,191.895,-17.578,999.512
1745827438.817,163.086,-41.992,-13.672,142.578
1745827438.82,-1000.0,-78.125,-12.695,-1000.0
1745827438.824,-1000.0,31.25,-18.066,-1000.0
1745827438.828,-298.828,-261.23,-14.16,-282.227
1745827438.832,999.512,-288.574,-11.23,999.512
1745827438.836,172.852,-33.203,-10.254,140.137
1745827438.793,999.512,190.43,-23.438,999.512
1745827438.797,135.254,-33.691,-27.344,34.18
1745827438.801,-1000.0,-26.855,-16.602,-1000.0
1745827438.805,-1000.0,102.539,-11.23,-1000.0
1745827438.809,-225.098,204.102,-11.23,-166.504
1745827438.813,999.512,191.895,-17.578,999.512
1745827438.817,163.086,-41.992,-13.672,142.578
1745827438.82,-1000.0,-78.125,-12.695,-1000.0
1745827438.824,-1000.0,31.25,-18.066,-1000.0
1745827438.828,-298.828,-261.23,-14.16,-282.227
1745827438.832,999.512,-288.574,-11.23,999.512
1745827438.836,172.852,-33.203,-10.254,140.137
1745827438.793,999.512,190.43,-23.438,999.512
1745827438.797,135.254,-33.691,-27.344,34.18
1745827438.801,-1000.0,-26.855,-16.602,-1000.0
1745827438.805,-1000.0,102.539,-11.23,-1000.0
1745827438.809,-225.098,204.102,-11.23,-166.504
1745827438.813,999.512,191.895,-17.578,999.512
1745827438.817,163.086,-41.992,-13.672,142.578
1745827438.82,-1000.0,-78.125,-12.695,-1000.0
1745827438.824,-1000.0,31.25,-18.066,-1000.0
1745827438.828,-298.828,-261.23,-14.16,-282.227
1745827438.832,999.512,-288.574,-11.23,999.512
1745827438.836,172.852,-33.203,-10.254,140.137
1745827438.839,-1000.0,-65.918,-10.254,-1000.0
1745827438.843,-1000.0,-17.09,-13.672,-1000.0
1745827438.847,-336.914,187.012,-10.742,-316.406
1745827438.851,999.512,213.867,-11.23,999.512
1745827438.855,242.676,-21.973,-16.113,197.754
1745827438.859,-1000.0,-50.781,-9.766,-1000.0
1745827438.863,-1000.0,13.184,-10.742,-1000.0
1745827438.866,-773.926,224.609,-13.672,-721.191
1745827438.87,819.824,-294.922,-18.066,866.699
1745827438.874,270.508,-783.691,-19.531,245.605
1745827438.878,-1000.0,-164.551,-18.066,-1000.0
1745827438.882,-895.996,230.957,-18.555,-901.367
1745827438.839,-1000.0,-65.918,-10.254,-1000.0
1745827438.843,-1000.0,-17.09,-13.672,-1000.0
1745827438.847,-336.914,187.012,-10.742,-316.406
1745827438.851,999.512,213.867,-11.23,999.512
1745827438.855,242.676,-21.973,-16.113,197.754
1745827438.859,-1000.0,-50.781,-9.766,-1000.0
1745827438.863,-1000.0,13.184,-10.742,-1000.0
1745827438.866,-773.926,224.609,-13.672,-721.191
1745827438.87,819.824,-294.922,-18.066,866.699
1745827438.874,270.508,-783.691,-19.531,245.605
1745827438.878,-1000.0,-164.551,-18.066,-1000.0
1745827438.882,-895.996,230.957,-18.555,-901.367
1745827438.839,-1000.0,-65.918,-10.254,-1000.0
1745827438.843,-1000.0,-17.09,-13.672,-1000.0
1745827438.847,-336.914,187.012,-10.742,-316.406
1745827438.851,999.512,213.867,-11.23,999.512
1745827438.855,242.676,-21.973,-16.113,197.754
1745827438.859,-1000.0,-50.781,-9.766,-1000.0
1745827438.863,-1000.0,13.184,-10.742,-1000.0
1745827438.866,-773.926,224.609,-13.672,-721.191
1745827438.87,819.824,-294.922,-18.066,866.699
1745827438.874,270.508,-783.691,-19.531,245.605
1745827438.878,-1000.0,-164.551,-18.066,-1000.0
1745827438.882,-895.996,230.957,-18.555,-901.367
1745827438.883,-1000.0,-392.09,-16.602,-1000.0
1745827438.887,-92.285,-688.477,-14.16,-83.008
1745827438.891,466.797,85.449,-13.184,333.496
1745827438.895,-1000.0,129.883,-18.066,-1000.0
1745827438.899,-972.168,121.094,-17.09,-956.055
1745827438.903,-1000.0,219.238,-12.695,-1000.0
1745827438.907,-82.52,362.305,-18.555,-43.457
1745827438.91,596.68,196.289,-24.414,449.219
1745827438.914,-940.43,-565.43,-22.949,-1000.0
1745827438.918,-992.676,-252.93,-15.137,-961.914
1745827438.922,-1000.0,338.867,-12.207,-1000.0
1745827438.926,-165.039,354.98,-13.672,-115.234
1745827438.883,-1000.0,-392.09,-16.602,-1000.0
1745827438.887,-92.285,-688.477,-14.16,-83.008
1745827438.891,466.797,85.449,-13.184,333.496
1745827438.895,-1000.0,129.883,-18.066,-1000.0
1745827438.899,-972.168,121.094,-17.09,-956.055
1745827438.903,-1000.0,219.238,-12.695,-1000.0
1745827438.907,-82.52,362.305,-18.555,-43.457
1745827438.91,596.68,196.289,-24.414,449.219
1745827438.914,-940.43,-565.43,-22.949,-1000.0
1745827438.918,-992.676,-252.93,-15.137,-961.914
1745827438.922,-1000.0,338.867,-12.207,-1000.0
1745827438.926,-165.039,354.98,-13.672,-115.234
1745827438.883,-1000.0,-392.09,-16.602,-1000.0
1745827438.887,-92.285,-688.477,-14.16,-83.008
1745827438.891,466.797,85.449,-13.184,333.496
1745827438.895,-1000.0,129.883,-18.066,-1000.0
1745827438.899,-972.168,121.094,-17.09,-956.055
1745827438.903,-1000.0,219.238,-12.695,-1000.0
1745827438.907,-82.52,362.305,-18.555,-43.457
1745827438.91,596.68,196.289,-24.414,449.219
1745827438.914,-940.43,-565.43,-22.949,-1000.0
1745827438.918,-992.676,-252.93,-15.137,-961.914
1745827438.922,-1000.0,338.867,-12.207,-1000.0
1745827438.926,-165.039,354.98,-13.672,-115.234
1745827438.929,830.566,302.246,-11.719,627.93
1745827438.933,-697.266,82.52,-7.324,-905.273
1745827438.937,-1000.0,251.953,-3.906,-995.117
1745827438.941,-1000.0,19.531,1.953,-1000.0
1745827438.945,-609.863,-169.434,0.0,-551.27
1745827438.949,822.754,221.191,-8.789,618.652
1745827438.953,-321.777,250.0,-12.695,-614.258
1745827438.956,-1000.0,-401.367,-15.137,-1000.0
1745827438.96,-1000.0,-754.395,-16.602,-1000.0
1745827438.964,-675.293,145.508,-19.043,-691.406
1745827438.968,926.27,397.461,-18.066,793.945
1745827438.972,-0.977,125.0,-10.254,-208.496
1745827438.929,830.566,302.246,-11.719,627.93
1745827438.933,-697.266,82.52,-7.324,-905.273
1745827438.937,-1000.0,251.953,-3.906,-995.117
1745827438.941,-1000.0,19.531,1.953,-1000.0
1745827438.945,-609.863,-169.434,0.0,-551.27
1745827438.949,822.754,221.191,-8.789,618.652
1745827438.953,-321.777,250.0,-12.695,-614.258
1745827438.956,-1000.0,-401.367,-15.137,-1000.0
1745827438.96,-1000.0,-754.395,-16.602,-1000.0
1745827438.964,-675.293,145.508,-19.043,-691.406
1745827438.968,926.27,397.461,-18.066,793.945
1745827438.972,-0.977,125.0,-10.254,-208.496
1745827438.975,-1000.0,129.883,-5.859,-1000.0
1745827438.979,-1000.0,249.023,-1.465,-1000.0
1745827438.983,-491.211,388.184,-3.906,-493.164
1745827438.987,999.512,96.191,-4.883,999.512
1745827438.991,185.059,-138.184,8.789,42.48
1745827438.995,-1000.0,175.293,0.488,-1000.0
1745827438.999,-1000.0,235.352,-12.695,-1000.0
1745827439.002,-732.422,-358.398,12.207,-724.609
1745827439.006,890.625,-178.223,5.859,888.672
1745827439.01,405.273,240.234,-24.902,267.09
1745827439.014,-1000.0,28.809,-17.09,-1000.0
1745827439.018,-1000.0,42.969,-14.16,-1000.0
1745827439.019,-322.266,255.371,-11.23,-418.945
1745827439.023,999.512,410.156,-16.602,999.512
1745827439.027,782.715,-55.664,-25.391,562.988
1745827439.031,-588.867,-444.824,-28.809,-834.961
1745827439.035,-1000.0,34.18,-22.949,-1000.0
1745827439.039,-331.055,359.375,-11.719,-366.211
1745827439.043,999.512,192.871,-15.137,999.512
1745827439.046,675.781,-550.781,-42.48,506.348
1745827439.05,-741.699,-433.105,-41.016,-905.762
1745827439.054,-1000.0,138.184,-29.785,-1000.0
1745827439.058,-895.02,217.285,-28.32,-993.652
1745827439.062,548.34,297.363,-14.16,466.309
1745827439.019,-322.266,255.371,-11.23,-418.945
1745827439.023,999.512,410.156,-16.602,999.512
1745827439.027,782.715,-55.664,-25.391,562.988
1745827439.031,-588.867,-444.824,-28.809,-834.961
1745827439.035,-1000.0,34.18,-22.949,-1000.0
1745827439.039,-331.055,359.375,-11.719,-366.211
1745827439.043,999.512,192.871,-15.137,999.512
1745827439.046,675.781,-550.781,-42.48,506.348
1745827439.05,-741.699,-433.105,-41.016,-905.762
1745827439.054,-1000.0,138.184,-29.785,-1000.0
1745827439.058,-895.02,217.285,-28.32,-993.652
1745827439.062,548.34,297.363,-14.16,466.309
1745827439.019,-322.266,255.371,-11.23,-418.945
1745827439.023,999.512,410.156,-16.602,999.512
1745827439.027,782.715,-55.664,-25.391,562.988
1745827439.031,-588.867,-444.824,-28.809,-834.961
1745827439.035,-1000.0,34.18,-22.949,-1000.0
1745827439.039,-331.055,359.375,-11.719,-366.211
1745827439.043,999.512,192.871,-15.137,999.512
1745827439.046,675.781,-550.781,-42.48,506.348
1745827439.05,-741.699,-433.105,-41.016,-905.762
1745827439.054,-1000.0,138.184,-29.785,-1000.0
1745827439.058,-895.02,217.285,-28.32,-993.652
1745827439.062,548.34,297.363,-14.16,466.309
1745827439.064,846.191,165.527,-5.371,602.539
1745827439.068,-755.371,8.789,-11.23,-998.047
1745827439.072,-1000.0,66.895,-10.254,-958.984
1745827439.076,-1000.0,140.137,1.465,-1000.0
1745827439.08,-129.883,171.387,0.0,-132.812
1745827439.084,999.512,242.676,6.348,864.258
1745827439.088,-270.508,-204.102,11.719,-627.441
1745827439.091,-1000.0,-487.305,2.93,-1000.0
1745827439.095,-1000.0,48.34,6.348,-1000.0
1745827439.099,-119.629,221.68,7.812,-98.633
1745827439.103,999.512,125.0,18.555,999.512
1745827439.107,-18.555,-1.465,24.414,-231.934
1745827439.064,846.191,165.527,-5.371,602.539
1745827439.068,-755.371,8.789,-11.23,-998.047
1745827439.072,-1000.0,66.895,-10.254,-958.984
1745827439.076,-1000.0,140.137,1.465,-1000.0
1745827439.08,-129.883,171.387,0.0,-132.812
1745827439.084,999.512,242.676,6.348,864.258
1745827439.088,-270.508,-204.102,11.719,-627.441
1745827439.091,-1000.0,-487.305,2.93,-1000.0
1745827439.095,-1000.0,48.34,6.348,-1000.0
1745827439.099,-119.629,221.68,7.812,-98.633
1745827439.103,999.512,125.0,18.555,999.512
1745827439.107,-18.555,-1.465,24.414,-231.934
1745827439.064,846.191,165.527,-5.371,602.539
1745827439.068,-755.371,8.789,-11.23,-998.047
1745827439.072,-1000.0,66.895,-10.254,-958.984
1745827439.076,-1000.0,140.137,1.465,-1000.0
1745827439.08,-129.883,171.387,0.0,-132.812
1745827439.084,999.512,242.676,6.348,864.258
1745827439.088,-270.508,-204.102,11.719,-627.441
1745827439.091,-1000.0,-487.305,2.93,-1000.0
1745827439.095,-1000.0,48.34,6.348,-1000.0
1745827439.099,-119.629,221.68,7.812,-98.633
1745827439.103,999.512,125.0,18.555,999.512
1745827439.107,-18.555,-1.465,24.414,-231.934
1745827439.109,-1000.0,10.742,19.043,-1000.0
1745827439.113,-1000.0,105.469,28.32,-1000.0
1745827439.117,-268.066,202.148,32.227,-260.742
1745827439.121,999.512,165.039,35.645,999.512
1745827439.125,157.715,13.184,38.574,-5.859
1745827439.129,-1000.0,-124.023,15.137,-1000.0
1745827439.133,-1000.0,-118.652,13.672,-1000.0
1745827439.136,-257.324,167.48,40.039,-256.836
1745827439.14,999.512,169.922,28.32,999.512
1745827439.144,155.762,-70.312,14.648,37.109
1745827439.148,-1000.0,-86.426,24.902,-1000.0
1745827439.152,-1000.0,53.223,34.18,-1000.0
1745827439.109,-1000.0,10.742,19.043,-1000.0
1745827439.113,-1000.0,105.469,28.32,-1000.0
1745827439.117,-268.066,202.148,32.227,-260.742
1745827439.121,999.512,165.039,35.645,999.512
1745827439.125,157.715,13.184,38.574,-5.859
1745827439.129,-1000.0,-124.023,15.137,-1000.0
1745827439.133,-1000.0,-118.652,13.672,-1000.0
1745827439.136,-257.324,167.48,40.039,-256.836
1745827439.14,999.512,169.922,28.32,999.512
1745827439.144,155.762,-70.312,14.648,37.109
1745827439.148,-1000.0,-86.426,24.902,-1000.0
1745827439.152,-1000.0,53.223,34.18,-1000.0
1745827439.168,-789.551,140.137,40.527,-757.812
1745827439.172,810.547,192.871,37.109,844.727
1745827439.176,264.648,7.812,31.25,249.512
1745827439.18,-1000.0,-67.383,35.156,-1000.0
1745827439.184,-963.867,43.457,38.086,-975.586
1745827439.188,-1000.0,-14.16,45.898,-1000.0
1745827439.192,377.93,67.383,40.039,437.5
1745827439.195,320.801,-17.578,31.25,312.5
1745827439.199,-1000.0,-122.559,31.25,-1000.0
1745827439.203,-912.109,125.488,37.109,-917.969
1745827439.207,-1000.0,136.23,34.18,-1000.0
1745827439.211,-59.57,114.258,37.109,-41.992
1745827439.168,-789.551,140.137,40.527,-757.812
1745827439.172,810.547,192.871,37.109,844.727
1745827439.176,264.648,7.812,31.25,249.512
1745827439.18,-1000.0,-67.383,35.156,-1000.0
1745827439.184,-963.867,43.457,38.086,-975.586
1745827439.188,-1000.0,-14.16,45.898,-1000.0
1745827439.192,377.93,67.383,40.039,437.5
1745827439.195,320.801,-17.578,31.25,312.5
1745827439.199,-1000.0,-122.559,31.25,-1000.0
1745827439.203,-912.109,125.488,37.109,-917.969
1745827439.207,-1000.0,136.23,34.18,-1000.0
1745827439.211,-59.57,114.258,37.109,-41.992
1745827439.168,-789.551,140.137,40.527,-757.812
1745827439.172,810.547,192.871,37.109,844.727
1745827439.176,264.648,7.812,31.25,249.512
1745827439.18,-1000.0,-67.383,35.156,-1000.0
1745827439.184,-963.867,43.457,38.086,-975.586
1745827439.188,-1000.0,-14.16,45.898,-1000.0
1745827439.192,377.93,67.383,40.039,437.5
1745827439.195,320.801,-17.578,31.25,312.5
1745827439.199,-1000.0,-122.559,31.25,-1000.0
1745827439.203,-912.109,125.488,37.109,-917.969
1745827439.207,-1000.0,136.23,34.18,-1000.0
1745827439.211,-59.57,114.258,37.109,-41.992
1745827439.213,422.852,-5.371,27.344,306.152
1745827439.217,-991.211,-169.922,1.953,-1000.0
1745827439.221,-1000.0,-14.16,-2.441,-1000.0
1745827439.225,-972.656,100.098,6.836,-967.773
1745827439.229,301.758,123.535,1.465,408.203
1745827439.233,999.512,70.312,20.996,982.91
1745827439.237,-274.414,-57.129,34.18,-550.293
1745827439.24,-1000.0,23.438,8.789,-1000.0
1745827439.244,-1000.0,-203.613,-19.531,-1000.0
1745827439.248,-209.961,-605.469,-14.648,-89.355
1745827439.252,999.512,-202.637,-17.09,999.512
1745827439.256,127.93,-41.992,-51.758,-72.754
1745827439.213,422.852,-5.371,27.344,306.152
1745827439.217,-991.211,-169.922,1.953,-1000.0
1745827439.221,-1000.0,-14.16,-2.441,-1000.0
1745827439.225,-972.656,100.098,6.836,-967.773
1745827439.229,301.758,123.535,1.465,408.203
1745827439.233,999.512,70.312,20.996,982.91
1745827439.237,-274.414,-57.129,34.18,-550.293
1745827439.24,-1000.0,23.438,8.789,-1000.0
1745827439.244,-1000.0,-203.613,-19.531,-1000.0
1745827439.248,-209.961,-605.469,-14.648,-89.355
1745827439.252,999.512,-202.637,-17.09,999.512
1745827439.256,127.93,-41.992,-51.758,-72.754
1745827439.274,-1000.0,-42.969,-45.41,-1000.0
1745827439.278,-1000.0,96.68,-26.855,-994.141
1745827439.282,87.891,170.898,-33.203,162.109
1745827439.286,999.512,127.441,-34.18,999.512
1745827439.29,143.066,-82.031,-24.414,139.648
1745827439.294,-1000.0,-78.613,-30.273,-1000.0
1745827439.298,-1000.0,82.031,-29.297,-1000.0
1745827439.301,-39.551,170.41,-36.621,20.02
1745827439.305,999.512,-140.137,-15.137,999.512
1745827439.309,391.113,-256.348,0.977,287.598
1745827439.313,-932.129,-6.348,-25.879,-982.422
1745827439.317,-1000.0,8.301,-16.113,-1000.0
1745827439.274,-1000.0,-42.969,-45.41,-1000.0
1745827439.278,-1000.0,96.68,-26.855,-994.141
1745827439.282,87.891,170.898,-33.203,162.109
1745827439.286,999.512,127.441,-34.18,999.512
1745827439.29,143.066,-82.031,-24.414,139.648
1745827439.294,-1000.0,-78.613,-30.273,-1000.0
1745827439.298,-1000.0,82.031,-29.297,-1000.0
1745827439.301,-39.551,170.41,-36.621,20.02
1745827439.305,999.512,-140.137,-15.137,999.512
1745827439.309,391.113,-256.348,0.977,287.598
1745827439.313,-932.129,-6.348,-25.879,-982.422
1745827439.317,-1000.0,8.301,-16.113,-1000.0
1745827439.274,-1000.0,-42.969,-45.41,-1000.0
1745827439.278,-1000.0,96.68,-26.855,-994.141
1745827439.282,87.891,170.898,-33.203,162.109
1745827439.286,999.512,127.441,-34.18,999.512
1745827439.29,143.066,-82.031,-24.414,139.648
1745827439.294,-1000.0,-78.613,-30.273,-1000.0
1745827439.298,-1000.0,82.031,-29.297,-1000.0
1745827439.301,-39.551,170.41,-36.621,20.02
1745827439.305,999.512,-140.137,-15.137,999.512
1745827439.309,391.113,-256.348,0.977,287.598
1745827439.313,-932.129,-6.348,-25.879,-982.422
1745827439.317,-1000.0,8.301,-16.113,-1000.0
1745827439.304,-57.129,54.688,-12.695,-14.648
1745827439.308,999.512,108.887,-1.465,999.512
1745827439.312,999.512,96.191,-26.855,929.688
1745827439.316,-153.32,-338.379,-54.688,-360.84
1745827439.32,-1000.0,-533.691,-38.086,-1000.0
1745827439.324,128.418,100.586,-40.527,253.418
1745827439.328,999.512,280.762,-18.555,999.512
1745827439.331,999.512,-377.441,11.719,999.512
1745827439.335,303.711,-619.629,-18.555,239.258
1745827439.339,-1000.0,-12.207,-33.691,-981.445
1745827439.343,205.566,386.719,-31.25,411.133
1745827439.347,999.512,-301.27,-41.992,999.512
1745827439.304,-57.129,54.688,-12.695,-14.648
1745827439.308,999.512,108.887,-1.465,999.512
1745827439.312,999.512,96.191,-26.855,929.688
1745827439.316,-153.32,-338.379,-54.688,-360.84
1745827439.32,-1000.0,-533.691,-38.086,-1000.0
1745827439.324,128.418,100.586,-40.527,253.418
1745827439.328,999.512,280.762,-18.555,999.512
1745827439.331,999.512,-377.441,11.719,999.512
1745827439.335,303.711,-619.629,-18.555,239.258
1745827439.339,-1000.0,-12.207,-33.691,-981.445
1745827439.343,205.566,386.719,-31.25,411.133
1745827439.347,999.512,-301.27,-41.992,999.512
1745827439.304,-57.129,54.688,-12.695,-14.648
1745827439.308,999.512,108.887,-1.465,999.512
1745827439.312,999.512,96.191,-26.855,929.688
1745827439.316,-153.32,-338.379,-54.688,-360.84
1745827439.32,-1000.0,-533.691,-38.086,-1000.0
1745827439.324,128.418,100.586,-40.527,253.418
1745827439.328,999.512,280.762,-18.555,999.512
1745827439.331,999.512,-377.441,11.719,999.512
1745827439.335,303.711,-619.629,-18.555,239.258
1745827439.339,-1000.0,-12.207,-33.691,-981.445
1745827439.343,205.566,386.719,-31.25,411.133
1745827439.347,999.512,-301.27,-41.992,999.512
1745827439.348,893.555,-718.262,-23.926,892.578
1745827439.352,967.773,152.832,-12.207,974.609
1745827439.356,966.309,372.559,-2.93,966.797
1745827439.36,966.309,283.203,6.348,967.285
1745827439.364,966.309,246.094,-16.113,966.797
1745827439.368,966.309,293.457,-16.602,966.797
1745827439.372,966.309,422.852,14.648,966.797
1745827439.375,966.309,-475.586,4.883,966.797
1745827439.379,966.309,-581.055,-6.836,966.797
1745827439.383,966.309,490.234,15.625,966.797
1745827439.387,966.309,392.09,11.719,966.797
1745827439.391,966.309,161.621,-16.602,966.797
1745827439.394,966.309,330.566,-11.23,966.797
1745827439.398,966.309,459.473,-5.859,966.797
1745827439.402,965.82,334.473,0.488,966.797
1745827439.406,966.309,195.312,4.883,966.797
1745827439.41,965.82,225.098,6.348,966.797
1745827439.414,964.844,429.199,-1.953,966.797
1745827439.418,976.562,-156.738,-26.855,967.773
1745827439.421,922.852,-992.188,-20.996,963.867
1745827439.425,984.863,-195.801,-14.16,908.691
1745827439.429,970.215,527.832,-15.137,999.512
1745827439.433,-578.613,-140.625,-14.16,-4.395
1745827439.437,-467.773,-101.562,0.488,-301.758
1745827439.394,966.309,330.566,-11.23,966.797
1745827439.398,966.309,459.473,-5.859,966.797
1745827439.402,965.82,334.473,0.488,966.797
1745827439.406,966.309,195.312,4.883,966.797
1745827439.41,965.82,225.098,6.348,966.797
1745827439.414,964.844,429.199,-1.953,966.797
1745827439.418,976.562,-156.738,-26.855,967.773
1745827439.421,922.852,-992.188,-20.996,963.867
1745827439.425,984.863,-195.801,-14.16,908.691
1745827439.429,970.215,527.832,-15.137,999.512
1745827439.433,-578.613,-140.625,-14.16,-4.395
1745827439.437,-467.773,-101.562,0.488,-301.758
1745827439.394,966.309,330.566,-11.23,966.797
1745827439.398,966.309,459.473,-5.859,966.797
1745827439.402,965.82,334.473,0.488,966.797
1745827439.406,966.309,195.312,4.883,966.797
1745827439.41,965.82,225.098,6.348,966.797
1745827439.414,964.844,429.199,-1.953,966.797
1745827439.418,976.562,-156.738,-26.855,967.773
1745827439.421,922.852,-992.188,-20.996,963.867
1745827439.425,984.863,-195.801,-14.16,908.691
1745827439.429,970.215,527.832,-15.137,999.512
1745827439.433,-578.613,-140.625,-14.16,-4.395
1745827439.437,-467.773,-101.562,0.488,-301.758
1745827439.439,999.512,639.648,-4.395,999.512
1745827439.443,964.355,500.488,-13.184,910.156
1745827439.447,957.52,334.961,-23.926,999.512
1745827439.451,-372.07,248.047,-31.738,-44.922
1745827439.455,-1000.0,386.23,-9.766,-764.648
1745827439.459,508.301,611.328,-11.23,800.293
1745827439.463,999.512,-242.188,-30.762,986.816
1745827439.466,999.512,-349.121,-33.691,999.512
1745827439.47,202.637,384.766,-37.598,171.387
1745827439.474,-1000.0,231.445,-43.945,-1000.0
1745827439.478,-87.402,96.68,-33.203,153.32
1745827439.482,999.512,296.875,-29.297,999.512
1745827439.439,999.512,639.648,-4.395,999.512
1745827439.443,964.355,500.488,-13.184,910.156
1745827439.447,957.52,334.961,-23.926,999.512
1745827439.451,-372.07,248.047,-31.738,-44.922
1745827439.455,-1000.0,386.23,-9.766,-764.648
1745827439.459,508.301,611.328,-11.23,800.293
1745827439.463,999.512,-242.188,-30.762,986.816
1745827439.466,999.512,-349.121,-33.691,999.512
1745827439.47,202.637,384.766,-37.598,171.387
1745827439.474,-1000.0,231.445,-43.945,-1000.0
1745827439.478,-87.402,96.68,-33.203,153.32
1745827439.482,999.512,296.875,-29.297,999.512
1745827439.483,894.043,392.09,-39.062,878.906
1745827439.487,-353.027,-44.434,-43.945,-331.543
1745827439.491,-1000.0,-206.055,-42.48,-1000.0
1745827439.495,-182.129,312.012,-52.734,-142.09
1745827439.499,999.512,458.984,-48.828,999.512
1745827439.503,999.512,104.004,-35.156,992.188
1745827439.507,-187.012,-404.785,-47.852,-200.195
1745827439.51,-1000.0,-31.25,-59.082,-1000.0
1745827439.514,-166.992,479.98,-56.641,-172.363
1745827439.518,986.328,-126.953,-36.133,995.117
1745827439.522,999.512,-576.66,-32.715,999.512
1745827439.526,100.586,52.734,-59.57,35.156
1745827439.544,-1000.0,170.41,-57.129,-1000.0
1745827439.548,-453.613,203.125,-44.922,-378.906
1745827439.552,882.812,257.324,-43.457,922.852
1745827439.556,999.512,219.238,-37.598,999.512
1745827439.56,177.246,104.004,-41.016,86.914
1745827439.564,-1000.0,22.461,-31.738,-1000.0
1745827439.568,-558.105,184.082,-12.695,-490.723
1745827439.571,830.078,300.781,-36.133,856.445
1745827439.575,999.512,90.332,-76.66,999.512
1745827439.579,169.434,49.316,-68.359,174.316
1745827439.583,-1000.0,127.441,-67.383,-1000.0
1745827439.587,-972.656,115.723,-67.871,-894.043
1745827439.544,-1000.0,170.41,-57.129,-1000.0
1745827439.548,-453.613,203.125,-44.922,-378.906
1745827439.552,882.812,257.324,-43.457,922.852
1745827439.556,999.512,219.238,-37.598,999.512
1745827439.56,177.246,104.004,-41.016,86.914
1745827439.564,-1000.0,22.461,-31.738,-1000.0
1745827439.568,-558.105,184.082,-12.695,-490.723
1745827439.571,830.078,300.781,-36.133,856.445
1745827439.575,999.512,90.332,-76.66,999.512
1745827439.579,169.434,49.316,-68.359,174.316
1745827439.583,-1000.0,127.441,-67.383,-1000.0
1745827439.587,-972.656,115.723,-67.871,-894.043
1745827439.544,-1000.0,170.41,-57.129,-1000.0
1745827439.548,-453.613,203.125,-44.922,-378.906
1745827439.552,882.812,257.324,-43.457,922.852
1745827439.556,999.512,219.238,-37.598,999.512
1745827439.56,177.246,104.004,-41.016,86.914
1745827439.564,-1000.0,22.461,-31.738,-1000.0
1745827439.568,-558.105,184.082,-12.695,-490.723
1745827439.571,830.078,300.781,-36.133,856.445
1745827439.575,999.512,90.332,-76.66,999.512
1745827439.579,169.434,49.316,-68.359,174.316
1745827439.583,-1000.0,127.441,-67.383,-1000.0
1745827439.587,-972.656,115.723,-67.871,-894.043
1745827439.588,298.828,287.109,-53.711,414.062
1745827439.592,999.512,278.809,-61.035,999.512
1745827439.596,182.129,46.387,-62.5,172.363
1745827439.6,-1000.0,-92.773,-53.711,-1000.0
1745827439.604,-930.664,339.844,-54.688,-901.367
1745827439.608,356.934,699.219,-60.059,397.949
1745827439.612,999.512,200.684,-62.988,999.512
1745827439.615,306.152,-202.637,-68.359,245.605
1745827439.619,-930.176,88.379,-74.707,-961.426
1745827439.623,-1000.0,619.629,-55.664,-1000.0
1745827439.627,-221.68,255.371,-35.645,-166.016
1745827439.631,999.512,4.883,-48.34,999.512
1745827439.588,298.828,287.109,-53.711,414.062
1745827439.592,999.512,278.809,-61.035,999.512
1745827439.596,182.129,46.387,-62.5,172.363
1745827439.6,-1000.0,-92.773,-53.711,-1000.0
1745827439.604,-930.664,339.844,-54.688,-901.367
1745827439.608,356.934,699.219,-60.059,397.949
1745827439.612,999.512,200.684,-62.988,999.512
1745827439.615,306.152,-202.637,-68.359,245.605
1745827439.619,-930.176,88.379,-74.707,-961.426
1745827439.623,-1000.0,619.629,-55.664,-1000.0
1745827439.627,-221.68,255.371,-35.645,-166.016
1745827439.631,999.512,4.883,-48.34,999.512
1745827439.633,166.992,-209.961,-62.988,149.902
1745827439.637,-1000.0,-263.184,-58.105,-1000.0
1745827439.641,-1000.0,-65.918,-54.688,-1000.0
1745827439.645,-255.859,25.391,-60.547,-250.488
1745827439.649,999.512,-68.359,-38.574,999.512
1745827439.653,722.168,-179.688,-34.668,600.586
1745827439.657,-654.785,-176.758,-52.734,-779.297
1745827439.66,-1000.0,-24.414,-44.434,-1000.0
1745827439.664,-224.121,-617.188,-24.902,-232.422
1745827439.668,999.512,-702.148,-45.41,999.512
1745827439.672,640.137,-53.711,-63.477,477.539
1745827439.676,-729.492,-122.559,-49.805,-860.84
1745827439.633,166.992,-209.961,-62.988,149.902
1745827439.637,-1000.0,-263.184,-58.105,-1000.0
1745827439.641,-1000.0,-65.918,-54.688,-1000.0
1745827439.645,-255.859,25.391,-60.547,-250.488
1745827439.649,999.512,-68.359,-38.574,999.512
1745827439.653,722.168,-179.688,-34.668,600.586
1745827439.657,-654.785,-176.758,-52.734,-779.297
1745827439.66,-1000.0,-24.414,-44.434,-1000.0
1745827439.664,-224.121,-617.188,-24.902,-232.422
1745827439.668,999.512,-702.148,-45.41,999.512
1745827439.672,640.137,-53.711,-63.477,477.539
1745827439.676,-729.492,-122.559,-49.805,-860.84
1745827439.678,-1000.0,-97.656,-58.105,-1000.0
1745827439.682,-490.723,117.188,-44.922,-480.469
1745827439.686,980.957,213.867,-32.715,999.512
1745827439.69,764.648,-83.008,-26.367,585.449
1745827439.694,-653.809,-247.559,-28.809,-825.195
1745827439.698,-1000.0,-45.41,-31.738,-1000.0
1745827439.702,-545.898,196.777,-33.691,-511.719
1745827439.705,999.512,-6.836,-27.344,999.512
1745827439.709,577.148,-926.758,-30.762,484.375
1745827439.713,-920.41,-674.316,-31.25,-958.984
1745827439.717,-1000.0,114.258,-18.066,-1000.0
1745827439.721,-981.445,253.906,-32.715,-961.914
1745827439.723,255.371,296.387,-35.645,376.465
1745827439.727,999.512,172.852,-20.02,999.512
1745827439.731,-202.637,20.02,-25.879,-459.473
1745827439.735,-1000.0,7.812,-29.297,-1000.0
1745827439.739,-893.555,100.586,-27.344,-807.617
1745827439.743,349.121,267.578,-20.996,463.379
1745827439.747,999.512,185.547,-22.949,999.512
1745827439.75,65.918,-470.703,-25.391,16.602
1745827439.754,-1000.0,-353.516,-18.066,-1000.0
1745827439.758,-1000.0,210.938,-33.691,-1000.0
1745827439.762,-203.125,175.781,-28.32,-145.508
1745827439.766,999.512,-208.984,-21.973,932.129
1745827439.768,-310.547,-170.41,-39.062,-540.527
1745827439.772,-1000.0,102.051,-29.297,-1000.0
1745827439.776,-1000.0,53.711,-5.859,-1000.0
1745827439.78,-835.449,61.523,-22.949,-735.84
1745827439.784,746.094,139.648,-27.832,773.926
1745827439.788,57.129,130.859,-11.719,-124.023
1745827439.792,-1000.0,-261.719,-24.414,-1000.0
1745827439.795,-940.918,-930.664,-34.668,-929.199
1745827439.799,-989.258,-333.984,-26.855,-998.047
1745827439.803,-1000.0,238.281,-27.344,-1000.0
1745827439.807,-1000.0,129.883,-26.855,-1000.0
1745827439.811,-1000.0,122.559,-23.438,-1000.0
1745827439.768,-310.547,-170.41,-39.062,-540.527
1745827439.772,-1000.0,102.051,-29.297,-1000.0
1745827439.776,-1000.0,53.711,-5.859,-1000.0
1745827439.78,-835.449,61.523,-22.949,-735.84
1745827439.784,746.094,139.648,-27.832,773.926
1745827439.788,57.129,130.859,-11.719,-124.023
1745827439.792,-1000.0,-261.719,-24.414,-1000.0
1745827439.795,-940.918,-930.664,-34.668,-929.199
1745827439.799,-989.258,-333.984,-26.855,-998.047
1745827439.803,-1000.0,238.281,-27.344,-1000.0
1745827439.807,-1000.0,129.883,-26.855,-1000.0
1745827439.811,-1000.0,122.559,-23.438,-1000.0
1745827439.814,-1000.0,185.547,-29.785,-1000.0
1745827439.818,-1000.0,291.504,-26.855,-1000.0
1745827439.822,-1000.0,-194.336,-15.137,-1000.0
1745827439.826,-1000.0,-279.297,-20.996,-1000.0
1745827439.83,-988.281,157.227,-32.715,-995.117
1745827439.834,-954.102,300.293,-27.832,-944.824
1745827439.838,-1000.0,-346.68,-20.02,-1000.0
1745827439.841,119.141,-310.059,-30.273,5.859
1745827439.845,328.613,349.121,-41.504,271.973
1745827439.849,-1000.0,155.273,-41.016,-1000.0
1745827439.853,-1000.0,146.973,-41.504,-985.84
1745827439.857,-801.27,314.941,-44.922,-1000.0
1745827439.814,-1000.0,185.547,-29.785,-1000.0
1745827439.818,-1000.0,291.504,-26.855,-1000.0
1745827439.822,-1000.0,-194.336,-15.137,-1000.0
1745827439.826,-1000.0,-279.297,-20.996,-1000.0
1745827439.83,-988.281,157.227,-32.715,-995.117
1745827439.834,-954.102,300.293,-27.832,-944.824
1745827439.838,-1000.0,-346.68,-20.02,-1000.0
1745827439.841,119.141,-310.059,-30.273,5.859
1745827439.845,328.613,349.121,-41.504,271.973
1745827439.849,-1000.0,155.273,-41.016,-1000.0
1745827439.853,-1000.0,146.973,-41.504,-985.84
1745827439.857,-801.27,314.941,-44.922,-1000.0
1745827439.858,779.785,424.805,-42.969,330.566
1745827439.862,601.074,200.684,-46.387,439.453
1745827439.866,-919.922,29.785,-41.992,-1000.0
1745827439.87,-1000.0,109.863,-37.109,-1000.0
1745827439.874,-784.668,336.426,-37.598,-900.391
1745827439.878,545.898,-91.309,-39.551,495.605
1745827439.882,999.512,-882.324,-45.41,999.512
1745827439.885,-156.738,-291.992,-46.387,-484.863
1745827439.889,-1000.0,352.539,-48.34,-1000.0
1745827439.893,-1000.0,-228.027,-50.781,-1000.0
1745827439.897,-21.973,-406.738,-59.082,-12.207
1745827439.901,999.512,327.637,-64.453,999.512
1745827439.858,779.785,424.805,-42.969,330.566
1745827439.862,601.074,200.684,-46.387,439.453
1745827439.866,-919.922,29.785,-41.992,-1000.0
1745827439.87,-1000.0,109.863,-37.109,-1000.0
1745827439.874,-784.668,336.426,-37.598,-900.391
1745827439.878,545.898,-91.309,-39.551,495.605
1745827439.882,999.512,-882.324,-45.41,999.512
1745827439.885,-156.738,-291.992,-46.387,-484.863
1745827439.889,-1000.0,352.539,-48.34,-1000.0
1745827439.893,-1000.0,-228.027,-50.781,-1000.0
1745827439.897,-21.973,-406.738,-59.082,-12.207
1745827439.901,999.512,327.637,-64.453,999.512
1745827440.384,-689.941,-301.27,-1.953,-521.484
1745827440.388,727.539,-628.906,2.441,879.883
1745827440.392,999.512,299.316,-4.395,999.512
1745827440.396,256.836,397.949,-13.672,292.48
1745827440.4,-1000.0,-151.367,-16.113,-1000.0
1745827440.404,-546.875,70.312,-2.93,-407.227
1745827440.408,854.004,629.883,10.254,932.129
1745827440.411,999.512,459.473,5.859,999.512
1745827440.415,181.152,-356.445,7.812,207.52
1745827440.419,-1000.0,-240.723,-0.977,-1000.0
1745827440.423,-878.906,590.82,-4.395,-712.402
1745827440.427,428.223,508.789,8.301,645.02
1745827439.858,779.785,424.805,-42.969,330.566
1745827439.862,601.074,200.684,-46.387,439.453
1745827439.866,-919.922,29.785,-41.992,-1000.0
1745827439.87,-1000.0,109.863,-37.109,-1000.0
1745827439.874,-784.668,336.426,-37.598,-900.391
1745827439.878,545.898,-91.309,-39.551,495.605
1745827439.882,999.512,-882.324,-45.41,999.512
1745827439.885,-156.738,-291.992,-46.387,-484.863
1745827439.889,-1000.0,352.539,-48.34,-1000.0
1745827439.893,-1000.0,-228.027,-50.781,-1000.0
1745827439.897,-21.973,-406.738,-59.082,-12.207
1745827439.901,999.512,327.637,-64.453,999.512
1745827439.935,250.977,220.703,-69.336,194.824
1745827439.939,-1000.0,80.078,-73.242,-1000.0
1745827439.943,-809.082,222.656,-66.406,-791.016
1745827439.947,547.852,395.02,-51.758,542.969
1745827439.951,999.512,303.711,-46.875,999.512
1745827439.955,680.664,-44.434,-50.293,490.234
1745827439.959,-709.961,-66.895,-52.246,-899.902
1745827439.962,-1000.0,231.934,-43.945,-1000.0
1745827439.966,340.82,316.895,-37.109,393.066
1745827439.97,999.512,-533.203,-47.852,999.512
1745827439.974,999.512,-521.973,-62.012,999.512
1745827439.978,121.582,126.465,-55.176,77.637
1745827439.935,250.977,220.703,-69.336,194.824
1745827439.939,-1000.0,80.078,-73.242,-1000.0
1745827439.943,-809.082,222.656,-66.406,-791.016
1745827439.947,547.852,395.02,-51.758,542.969
1745827439.951,999.512,303.711,-46.875,999.512
1745827439.955,680.664,-44.434,-50.293,490.234
1745827439.959,-709.961,-66.895,-52.246,-899.902
1745827439.962,-1000.0,231.934,-43.945,-1000.0
1745827439.966,340.82,316.895,-37.109,393.066
1745827439.97,999.512,-533.203,-47.852,999.512
1745827439.974,999.512,-521.973,-62.012,999.512
1745827439.978,121.582,126.465,-55.176,77.637
1745827439.935,250.977,220.703,-69.336,194.824
1745827439.939,-1000.0,80.078,-73.242,-1000.0
1745827439.943,-809.082,222.656,-66.406,-791.016
1745827439.947,547.852,395.02,-51.758,542.969
1745827439.951,999.512,303.711,-46.875,999.512
1745827439.955,680.664,-44.434,-50.293,490.234
1745827439.959,-709.961,-66.895,-52.246,-899.902
1745827439.962,-1000.0,231.934,-43.945,-1000.0
1745827439.966,340.82,316.895,-37.109,393.066
1745827439.97,999.512,-533.203,-47.852,999.512
1745827439.974,999.512,-521.973,-62.012,999.512
1745827439.978,121.582,126.465,-55.176,77.637
1745827439.963,-872.559,62.5,-48.828,-770.02
1745827439.967,637.695,196.777,-49.316,757.812
1745827439.971,999.512,212.891,-53.223,999.512
1745827439.975,893.555,112.305,-74.219,899.902
1745827439.979,979.98,-6.348,-73.242,981.445
1745827439.983,966.309,-2.93,-70.801,967.285
1745827439.987,966.309,163.086,-70.801,966.797
1745827439.99,966.309,126.465,-59.57,966.797
1745827439.994,966.309,13.184,-67.383,967.285
1745827439.998,966.309,-10.742,-66.406,967.285
1745827440.002,966.309,33.691,-51.27,966.797
1745827440.006,966.309,157.227,-49.316,966.797
1745827439.963,-872.559,62.5,-48.828,-770.02
1745827439.967,637.695,196.777,-49.316,757.812
1745827439.971,999.512,212.891,-53.223,999.512
1745827439.975,893.555,112.305,-74.219,899.902
1745827439.979,979.98,-6.348,-73.242,981.445
1745827439.983,966.309,-2.93,-70.801,967.285
1745827439.987,966.309,163.086,-70.801,966.797
1745827439.99,966.309,126.465,-59.57,966.797
1745827439.994,966.309,13.184,-67.383,967.285
1745827439.998,966.309,-10.742,-66.406,967.285
1745827440.002,966.309,33.691,-51.27,966.797
1745827440.006,966.309,157.227,-49.316,966.797
1745827439.963,-872.559,62.5,-48.828,-770.02
1745827439.967,637.695,196.777,-49.316,757.812
1745827439.971,999.512,212.891,-53.223,999.512
1745827439.975,893.555,112.305,-74.219,899.902
1745827439.979,979.98,-6.348,-73.242,981.445
1745827439.983,966.309,-2.93,-70.801,967.285
1745827439.987,966.309,163.086,-70.801,966.797
1745827439.99,966.309,126.465,-59.57,966.797
1745827439.994,966.309,13.184,-67.383,967.285
1745827439.998,966.309,-10.742,-66.406,967.285
1745827440.002,966.309,33.691,-51.27,966.797
1745827440.006,966.309,157.227,-49.316,966.797
1745827440.008,966.309,-69.336,-58.105,966.797
1745827440.012,966.309,-467.285,-71.289,967.285
1745827440.016,966.309,-198.73,-74.707,966.797
1745827440.02,966.309,64.941,-59.57,966.797
1745827440.024,966.309,-36.133,-46.387,966.797
1745827440.028,966.309,7.324,-46.875,966.797
1745827440.032,966.309,94.238,-44.434,966.797
1745827440.035,966.309,-20.02,-43.945,966.797
1745827440.039,966.309,-288.086,-44.922,966.797
1745827440.043,966.309,-95.703,-35.645,966.797
1745827440.047,966.309,180.664,-32.227,966.797
1745827440.051,966.309,-46.875,-33.691,966.797
1745827440.008,966.309,-69.336,-58.105,966.797
1745827440.012,966.309,-467.285,-71.289,967.285
1745827440.016,966.309,-198.73,-74.707,966.797
1745827440.02,966.309,64.941,-59.57,966.797
1745827440.024,966.309,-36.133,-46.387,966.797
1745827440.028,966.309,7.324,-46.875,966.797
1745827440.032,966.309,94.238,-44.434,966.797
1745827440.035,966.309,-20.02,-43.945,966.797
1745827440.039,966.309,-288.086,-44.922,966.797
1745827440.043,966.309,-95.703,-35.645,966.797
1745827440.047,966.309,180.664,-32.227,966.797
1745827440.051,966.309,-46.875,-33.691,966.797
1745827440.068,966.309,-478.516,-37.598,966.797
1745827440.072,966.309,-259.277,-50.781,966.797
1745827440.076,966.309,82.031,-50.293,966.797
1745827440.08,966.309,13.184,-34.18,967.285
1745827440.084,966.309,-73.242,-30.762,967.285
1745827440.088,966.309,-51.27,-17.09,966.797
1745827440.092,966.309,122.559,-5.859,966.797
1745827440.095,966.309,-308.594,-23.438,966.797
1745827440.099,970.215,-981.445,-28.809,966.797
1745827440.103,893.555,-349.609,-13.672,966.797
1745827440.107,999.512,195.312,-13.184,966.797
1745827440.111,117.676,-50.293,-11.23,967.285
1745827440.099,-369.141,0.488,-4.883,967.773
1745827440.103,961.914,313.477,0.977,963.379
1745827440.107,999.512,271.973,-6.348,899.414
1745827440.111,951.66,-233.398,-14.16,999.512
1745827440.115,-474.609,-306.641,-11.23,-12.207
1745827440.119,-741.699,235.84,-8.789,-540.039
1745827440.123,883.789,354.98,-9.766,964.844
1745827440.126,999.512,208.008,-10.254,999.512
1745827440.13,907.227,82.031,-12.695,915.527
1745827440.134,981.934,146.484,-24.414,979.98
1745827440.138,966.309,56.641,-27.344,966.797
1745827440.142,966.309,-545.41,-26.855,966.797
1745827440.099,-369.141,0.488,-4.883,967.773
1745827440.103,961.914,313.477,0.977,963.379
1745827440.107,999.512,271.973,-6.348,899.414
1745827440.111,951.66,-233.398,-14.16,999.512
1745827440.115,-474.609,-306.641,-11.23,-12.207
1745827440.119,-741.699,235.84,-8.789,-540.039
1745827440.123,883.789,354.98,-9.766,964.844
1745827440.126,999.512,208.008,-10.254,999.512
1745827440.13,907.227,82.031,-12.695,915.527
1745827440.134,981.934,146.484,-24.414,979.98
1745827440.138,966.309,56.641,-27.344,966.797
1745827440.142,966.309,-545.41,-26.855,966.797
1745827440.61,-1000.0,344.727,-15.137,-1000.0
1745827440.614,-1000.0,114.258,-12.207,-1000.0
1745827440.618,-498.535,-217.285,-6.348,-475.098
1745827440.622,999.512,234.375,0.488,999.512
1745827440.626,201.66,395.02,-9.766,181.152
1745827440.63,-1000.0,-247.559,-15.137,-1000.0
1745827440.634,-965.332,-540.039,-15.137,-965.82
1745827440.637,-1000.0,227.539,-18.555,-1000.0
1745827440.641,378.906,582.52,-21.484,332.52
1745827440.645,306.641,-249.023,-22.949,203.613
1745827440.649,-1000.0,-646.484,-20.508,-1000.0
1745827440.653,-1000.0,273.926,-11.23,-1000.0
1745827440.143,966.309,-225.098,-26.367,966.797
1745827440.147,966.309,277.344,-14.648,966.797
1745827440.151,966.309,94.727,-8.789,966.797
1745827440.155,973.633,80.566,-7.812,967.773
1745827440.159,936.035,215.332,-11.23,963.867
1745827440.163,957.031,332.031,-12.207,904.297
1745827440.167,999.512,-169.922,-17.09,999.512
1745827440.17,-210.938,-1000.0,-20.996,142.578
1745827440.174,-1000.0,-459.961,-19.043,-1000.0
1745827440.178,16.602,492.676,-17.578,179.199
1745827440.182,999.512,256.836,-20.02,999.512
1745827440.186,925.781,97.656,-18.555,904.785
1745827440.143,966.309,-225.098,-26.367,966.797
1745827440.147,966.309,277.344,-14.648,966.797
1745827440.151,966.309,94.727,-8.789,966.797
1745827440.155,973.633,80.566,-7.812,967.773
1745827440.159,936.035,215.332,-11.23,963.867
1745827440.163,957.031,332.031,-12.207,904.297
1745827440.167,999.512,-169.922,-17.09,999.512
1745827440.17,-210.938,-1000.0,-20.996,142.578
1745827440.174,-1000.0,-459.961,-19.043,-1000.0
1745827440.178,16.602,492.676,-17.578,179.199
1745827440.182,999.512,256.836,-20.02,999.512
1745827440.186,925.781,97.656,-18.555,904.785
1745827440.143,966.309,-225.098,-26.367,966.797
1745827440.147,966.309,277.344,-14.648,966.797
1745827440.151,966.309,94.727,-8.789,966.797
1745827440.155,973.633,80.566,-7.812,967.773
1745827440.159,936.035,215.332,-11.23,963.867
1745827440.163,957.031,332.031,-12.207,904.297
1745827440.167,999.512,-169.922,-17.09,999.512
1745827440.17,-210.938,-1000.0,-20.996,142.578
1745827440.174,-1000.0,-459.961,-19.043,-1000.0
1745827440.178,16.602,492.676,-17.578,179.199
1745827440.182,999.512,256.836,-20.02,999.512
1745827440.186,925.781,97.656,-18.555,904.785
1745827440.19,952.148,296.387,-20.996,964.355
1745827440.194,969.238,319.824,-25.879,967.773
1745827440.198,974.609,306.641,-23.438,980.957
1745827440.202,895.508,265.137,-21.484,894.043
1745827440.206,999.512,279.297,-22.949,999.512
1745827440.21,409.18,273.438,-20.996,582.52
1745827440.214,-1000.0,-416.504,-23.438,-1000.0
1745827440.217,-224.609,-275.879,-20.508,-249.023
1745827440.221,999.512,489.746,-14.16,999.512
1745827440.225,999.512,266.113,-20.996,985.352
1745827440.229,384.277,-255.371,-14.648,855.469
1745827440.233,-1000.0,-53.223,-10.742,-709.473
1745827440.19,952.148,296.387,-20.996,964.355
1745827440.194,969.238,319.824,-25.879,967.773
1745827440.198,974.609,306.641,-23.438,980.957
1745827440.202,895.508,265.137,-21.484,894.043
1745827440.206,999.512,279.297,-22.949,999.512
1745827440.21,409.18,273.438,-20.996,582.52
1745827440.214,-1000.0,-416.504,-23.438,-1000.0
1745827440.217,-224.609,-275.879,-20.508,-249.023
1745827440.221,999.512,489.746,-14.16,999.512
1745827440.225,999.512,266.113,-20.996,985.352
1745827440.229,384.277,-255.371,-14.648,855.469
1745827440.233,-1000.0,-53.223,-10.742,-709.473
1745827440.19,952.148,296.387,-20.996,964.355
1745827440.194,969.238,319.824,-25.879,967.773
1745827440.198,974.609,306.641,-23.438,980.957
1745827440.202,895.508,265.137,-21.484,894.043
1745827440.206,999.512,279.297,-22.949,999.512
1745827440.21,409.18,273.438,-20.996,582.52
1745827440.214,-1000.0,-416.504,-23.438,-1000.0
1745827440.217,-224.609,-275.879,-20.508,-249.023
1745827440.221,999.512,489.746,-14.16,999.512
1745827440.225,999.512,266.113,-20.996,985.352
1745827440.229,384.277,-255.371,-14.648,855.469
1745827440.233,-1000.0,-53.223,-10.742,-709.473
1745827440.234,-422.852,449.707,-7.812,-373.047
1745827440.238,926.758,394.043,-10.254,999.512
1745827440.242,999.512,223.145,-17.09,999.512
1745827440.246,650.879,171.875,-2.93,664.062
1745827440.25,-767.578,300.293,-11.23,-823.242
1745827440.254,-1000.0,-194.336,-29.785,-932.617
1745827440.258,318.848,-639.648,-23.926,583.496
1745827440.261,999.512,116.211,-21.484,982.422
1745827440.265,999.512,463.379,-32.227,999.512
1745827440.269,102.051,-331.055,-29.785,68.848
1745827440.273,-799.805,-666.992,-21.484,-624.023
1745827440.277,727.539,396.973,-20.508,894.043
1745827440.234,-422.852,449.707,-7.812,-373.047
1745827440.238,926.758,394.043,-10.254,999.512
1745827440.242,999.512,223.145,-17.09,999.512
1745827440.246,650.879,171.875,-2.93,664.062
1745827440.25,-767.578,300.293,-11.23,-823.242
1745827440.254,-1000.0,-194.336,-29.785,-932.617
1745827440.258,318.848,-639.648,-23.926,583.496
1745827440.261,999.512,116.211,-21.484,982.422
1745827440.265,999.512,463.379,-32.227,999.512
1745827440.269,102.051,-331.055,-29.785,68.848
1745827440.273,-799.805,-666.992,-21.484,-624.023
1745827440.277,727.539,396.973,-20.508,894.043
1745827440.234,-422.852,449.707,-7.812,-373.047
1745827440.238,926.758,394.043,-10.254,999.512
1745827440.242,999.512,223.145,-17.09,999.512
1745827440.246,650.879,171.875,-2.93,664.062
1745827440.25,-767.578,300.293,-11.23,-823.242
1745827440.254,-1000.0,-194.336,-29.785,-932.617
1745827440.258,318.848,-639.648,-23.926,583.496
1745827440.261,999.512,116.211,-21.484,982.422
1745827440.265,999.512,463.379,-32.227,999.512
1745827440.269,102.051,-331.055,-29.785,68.848
1745827440.273,-799.805,-666.992,-21.484,-624.023
1745827440.277,727.539,396.973,-20.508,894.043
1745827440.294,999.512,520.508,-11.23,962.402
1745827440.298,999.512,287.598,-0.488,999.512
1745827440.302,208.984,234.863,0.488,151.367
1745827440.306,-1000.0,337.402,0.488,-929.199
1745827440.31,251.953,504.395,0.977,548.34
1745827440.314,999.512,228.516,7.324,999.512
1745827440.318,999.512,120.117,0.0,999.512
1745827440.321,238.77,258.301,-10.254,230.469
1745827440.325,-1000.0,187.988,-4.395,-1000.0
1745827440.329,22.949,-266.113,-2.441,350.098
1745827440.333,999.512,-45.898,2.93,999.512
1745827440.337,999.512,498.535,6.348,999.512
1745827440.294,999.512,520.508,-11.23,962.402
1745827440.298,999.512,287.598,-0.488,999.512
1745827440.302,208.984,234.863,0.488,151.367
1745827440.306,-1000.0,337.402,0.488,-929.199
1745827440.31,251.953,504.395,0.977,548.34
1745827440.314,999.512,228.516,7.324,999.512
1745827440.318,999.512,120.117,0.0,999.512
1745827440.321,238.77,258.301,-10.254,230.469
1745827440.325,-1000.0,187.988,-4.395,-1000.0
1745827440.329,22.949,-266.113,-2.441,350.098
1745827440.333,999.512,-45.898,2.93,999.512
1745827440.337,999.512,498.535,6.348,999.512
1745827440.294,999.512,520.508,-11.23,962.402
1745827440.298,999.512,287.598,-0.488,999.512
1745827440.302,208.984,234.863,0.488,151.367
1745827440.306,-1000.0,337.402,0.488,-929.199
1745827440.31,251.953,504.395,0.977,548.34
1745827440.314,999.512,228.516,7.324,999.512
1745827440.318,999.512,120.117,0.0,999.512
1745827440.321,238.77,258.301,-10.254,230.469
1745827440.325,-1000.0,187.988,-4.395,-1000.0
1745827440.329,22.949,-266.113,-2.441,350.098
1745827440.333,999.512,-45.898,2.93,999.512
1745827440.337,999.512,498.535,6.348,999.512
1745827440.338,553.223,41.016,3.418,690.918
1745827440.342,-1000.0,-432.129,4.395,-895.02
1745827440.346,-243.164,291.016,2.441,-81.543
1745827440.35,999.512,554.199,5.859,999.512
1745827440.354,999.512,219.238,2.441,999.512
1745827440.358,223.633,101.562,-1.953,243.164
1745827440.362,-1000.0,208.496,1.465,-1000.0
1745827440.365,-197.754,507.812,-2.441,-148.926
1745827440.369,995.117,-160.156,-0.977,999.512
1745827440.373,999.512,-423.828,0.0,999.512
1745827440.377,348.633,174.316,0.488,402.344
1745827440.381,-1000.0,323.73,0.488,-1000.0
1745827440.338,553.223,41.016,3.418,690.918
1745827440.342,-1000.0,-432.129,4.395,-895.02
1745827440.346,-243.164,291.016,2.441,-81.543
1745827440.35,999.512,554.199,5.859,999.512
1745827440.354,999.512,219.238,2.441,999.512
1745827440.358,223.633,101.562,-1.953,243.164
1745827440.362,-1000.0,208.496,1.465,-1000.0
1745827440.365,-197.754,507.812,-2.441,-148.926
1745827440.369,995.117,-160.156,-0.977,999.512
1745827440.373,999.512,-423.828,0.0,999.512
1745827440.377,348.633,174.316,0.488,402.344
1745827440.381,-1000.0,323.73,0.488,-1000.0
1745827440.429,999.512,259.766,2.93,999.512
1745827440.433,631.348,265.137,-5.371,668.457
1745827440.437,-706.543,389.16,-10.254,-686.523
1745827440.441,-1000.0,20.02,-12.695,-1000.0
1745827440.445,0.977,-152.832,-2.441,151.855
1745827440.449,999.512,357.91,6.348,999.512
1745827440.453,399.902,426.27,-1.465,343.262
1745827440.456,-909.668,-160.156,-11.719,-922.363
1745827440.46,-1000.0,-1000.0,-13.184,-1000.0
1745827440.464,-235.84,-224.121,-6.348,-243.164
1745827440.468,999.512,699.219,5.859,999.512
1745827440.472,708.984,387.695,5.859,644.531
1745827440.429,999.512,259.766,2.93,999.512
1745827440.433,631.348,265.137,-5.371,668.457
1745827440.437,-706.543,389.16,-10.254,-686.523
1745827440.441,-1000.0,20.02,-12.695,-1000.0
1745827440.445,0.977,-152.832,-2.441,151.855
1745827440.449,999.512,357.91,6.348,999.512
1745827440.453,399.902,426.27,-1.465,343.262
1745827440.456,-909.668,-160.156,-11.719,-922.363
1745827440.46,-1000.0,-1000.0,-13.184,-1000.0
1745827440.464,-235.84,-224.121,-6.348,-243.164
1745827440.468,999.512,699.219,5.859,999.512
1745827440.472,708.984,387.695,5.859,644.531
1745827440.429,999.512,259.766,2.93,999.512
1745827440.433,631.348,265.137,-5.371,668.457
1745827440.437,-706.543,389.16,-10.254,-686.523
1745827440.441,-1000.0,20.02,-12.695,-1000.0
1745827440.445,0.977,-152.832,-2.441,151.855
1745827440.449,999.512,357.91,6.348,999.512
1745827440.453,399.902,426.27,-1.465,343.262
1745827440.456,-909.668,-160.156,-11.719,-922.363
1745827440.46,-1000.0,-1000.0,-13.184,-1000.0
1745827440.464,-235.84,-224.121,-6.348,-243.164
1745827440.468,999.512,699.219,5.859,999.512
1745827440.472,708.984,387.695,5.859,644.531
1745827440.475,-672.852,268.555,-9.766,-755.371
1745827440.479,-1000.0,467.285,-10.254,-1000.0
1745827440.483,-177.246,600.098,-2.93,-81.055
1745827440.487,999.512,479.004,-0.977,999.512
1745827440.491,976.562,310.547,1.953,922.363
1745827440.495,-226.562,274.414,0.488,-290.527
1745827440.499,-1000.0,468.262,-4.395,-1000.0
1745827440.502,-508.789,-351.562,-5.371,-395.02
1745827440.506,934.57,-599.121,-5.859,999.512
1745827440.51,912.109,365.723,-7.324,742.676
1745827440.514,-462.891,280.273,-12.207,-638.184
1745827440.518,-1000.0,198.73,-8.789,-1000.0
1745827440.533,-460.449,458.008,-0.488,-398.926
1745827440.537,869.141,574.707,6.348,919.434
1745827440.541,999.512,285.156,7.324,999.512
1745827440.545,-89.844,77.637,-8.301,-174.805
1745827440.549,-1000.0,204.59,-14.648,-1000.0
1745827440.553,-839.844,504.395,-6.348,-758.301
1745827440.557,686.035,32.715,-7.324,786.621
1745827440.56,784.668,-1000.0,-18.555,692.383
1745827440.564,-801.758,-379.395,-29.297,-853.516
1745827440.568,-1000.0,498.047,-31.25,-1000.0
1745827440.572,-1000.0,-126.953,-23.926,-1000.0
1745827440.576,-41.992,-157.715,-18.555,77.148
1745827440.533,-460.449,458.008,-0.488,-398.926
1745827440.537,869.141,574.707,6.348,919.434
1745827440.541,999.512,285.156,7.324,999.512
1745827440.545,-89.844,77.637,-8.301,-174.805
1745827440.549,-1000.0,204.59,-14.648,-1000.0
1745827440.553,-839.844,504.395,-6.348,-758.301
1745827440.557,686.035,32.715,-7.324,786.621
1745827440.56,784.668,-1000.0,-18.555,692.383
1745827440.564,-801.758,-379.395,-29.297,-853.516
1745827440.568,-1000.0,498.047,-31.25,-1000.0
1745827440.572,-1000.0,-126.953,-23.926,-1000.0
1745827440.576,-41.992,-157.715,-18.555,77.148
1745827440.533,-460.449,458.008,-0.488,-398.926
1745827440.537,869.141,574.707,6.348,919.434
1745827440.541,999.512,285.156,7.324,999.512
1745827440.545,-89.844,77.637,-8.301,-174.805
1745827440.549,-1000.0,204.59,-14.648,-1000.0
1745827440.553,-839.844,504.395,-6.348,-758.301
1745827440.557,686.035,32.715,-7.324,786.621
1745827440.56,784.668,-1000.0,-18.555,692.383
1745827440.564,-801.758,-379.395,-29.297,-853.516
1745827440.568,-1000.0,498.047,-31.25,-1000.0
1745827440.572,-1000.0,-126.953,-23.926,-1000.0
1745827440.576,-41.992,-157.715,-18.555,77.148
1745827440.563,999.512,499.023,-18.066,999.512
1745827440.567,137.207,324.219,-20.02,52.246
1745827440.571,-1000.0,232.422,-20.996,-1000.0
1745827440.575,-1000.0,324.219,-20.02,-1000.0
1745827440.579,-202.148,499.023,-13.184,-141.602
1745827440.583,999.512,450.684,-18.066,934.082
1745827440.587,-294.922,228.516,-27.344,-540.527
1745827440.59,-1000.0,179.688,-28.809,-1000.0
1745827440.594,-1000.0,319.336,-22.949,-1000.0
1745827440.598,-723.633,332.52,-17.09,-697.754
1745827440.602,873.535,-403.32,-23.926,786.133
1745827440.606,6.348,-344.238,-22.461,-201.66
1745827440.563,999.512,499.023,-18.066,999.512
1745827440.567,137.207,324.219,-20.02,52.246
1745827440.571,-1000.0,232.422,-20.996,-1000.0
1745827440.575,-1000.0,324.219,-20.02,-1000.0
1745827440.579,-202.148,499.023,-13.184,-141.602
1745827440.583,999.512,450.684,-18.066,934.082
1745827440.587,-294.922,228.516,-27.344,-540.527
1745827440.59,-1000.0,179.688,-28.809,-1000.0
1745827440.594,-1000.0,319.336,-22.949,-1000.0
1745827440.598,-723.633,332.52,-17.09,-697.754
1745827440.602,873.535,-403.32,-23.926,786.133
1745827440.606,6.348,-344.238,-22.461,-201.66
1745827440.563,999.512,499.023,-18.066,999.512
1745827440.567,137.207,324.219,-20.02,52.246
1745827440.571,-1000.0,232.422,-20.996,-1000.0
1745827440.575,-1000.0,324.219,-20.02,-1000.0
1745827440.579,-202.148,499.023,-13.184,-141.602
1745827440.583,999.512,450.684,-18.066,934.082
1745827440.587,-294.922,228.516,-27.344,-540.527
1745827440.59,-1000.0,179.688,-28.809,-1000.0
1745827440.594,-1000.0,319.336,-22.949,-1000.0
1745827440.598,-723.633,332.52,-17.09,-697.754
1745827440.602,873.535,-403.32,-23.926,786.133
1745827440.606,6.348,-344.238,-22.461,-201.66
1745827440.668,-801.27,492.188,-11.23,-929.199
1745827440.672,799.316,393.066,-21.484,634.277
1745827440.676,512.695,211.426,-24.902,378.906
1745827440.68,-972.168,132.812,-34.18,-1000.0
1745827440.684,-1000.0,395.02,-26.367,-1000.0
1745827440.688,-845.215,-298.34,-8.789,-819.336
1745827440.692,647.461,-600.098,-16.113,744.141
1745827440.695,825.684,302.246,-21.484,591.309
1745827440.699,-725.098,262.207,-19.043,-946.777
1745827440.703,-1000.0,-153.809,-16.602,-1000.0
1745827440.707,-993.164,147.461,-18.555,-1000.0
1745827440.711,390.625,587.891,-23.926,313.965
1745827440.668,-801.27,492.188,-11.23,-929.199
1745827440.672,799.316,393.066,-21.484,634.277
1745827440.676,512.695,211.426,-24.902,378.906
1745827440.68,-972.168,132.812,-34.18,-1000.0
1745827440.684,-1000.0,395.02,-26.367,-1000.0
1745827440.688,-845.215,-298.34,-8.789,-819.336
1745827440.692,647.461,-600.098,-16.113,744.141
1745827440.695,825.684,302.246,-21.484,591.309
1745827440.699,-725.098,262.207,-19.043,-946.777
1745827440.703,-1000.0,-153.809,-16.602,-1000.0
1745827440.707,-993.164,147.461,-18.555,-1000.0
1745827440.711,390.625,587.891,-23.926,313.965
1745827440.668,-801.27,492.188,-11.23,-929.199
1745827440.672,799.316,393.066,-21.484,634.277
1745827440.676,512.695,211.426,-24.902,378.906
1745827440.68,-972.168,132.812,-34.18,-1000.0
1745827440.684,-1000.0,395.02,-26.367,-1000.0
1745827440.688,-845.215,-298.34,-8.789,-819.336
1745827440.692,647.461,-600.098,-16.113,744.141
1745827440.695,825.684,302.246,-21.484,591.309
1745827440.699,-725.098,262.207,-19.043,-946.777
1745827440.703,-1000.0,-153.809,-16.602,-1000.0
1745827440.707,-993.164,147.461,-18.555,-1000.0
1745827440.711,390.625,587.891,-23.926,313.965
1745827440.728,840.332,280.762,-20.02,631.348
1745827440.732,-746.582,43.945,-15.625,-945.801
1745827440.736,-1000.0,229.492,-18.555,-1000.0
1745827440.74,-975.586,493.652,-15.625,-1000.0
1745827440.744,166.992,53.711,-13.184,119.629
1745827440.748,999.512,-413.086,-13.184,999.512
1745827440.752,156.738,59.57,-16.602,173.828
1745827440.755,-1000.0,338.867,-19.043,-1000.0
1745827440.759,-999.023,-172.852,-16.602,-896.973
1745827440.763,227.051,-947.754,-22.949,402.832
1745827440.767,999.512,-139.16,-22.461,999.512
1745827440.771,326.172,370.605,-20.996,241.699
1745827440.728,840.332,280.762,-20.02,631.348
1745827440.732,-746.582,43.945,-15.625,-945.801
1745827440.736,-1000.0,229.492,-18.555,-1000.0
1745827440.74,-975.586,493.652,-15.625,-1000.0
1745827440.744,166.992,53.711,-13.184,119.629
1745827440.748,999.512,-413.086,-13.184,999.512
1745827440.752,156.738,59.57,-16.602,173.828
1745827440.755,-1000.0,338.867,-19.043,-1000.0
1745827440.759,-999.023,-172.852,-16.602,-896.973
1745827440.763,227.051,-947.754,-22.949,402.832
1745827440.767,999.512,-139.16,-22.461,999.512
1745827440.771,326.172,370.605,-20.996,241.699
1745827440.789,-939.941,202.637,-22.949,-974.609
1745827440.793,-1000.0,332.52,-23.438,-1000.0
1745827440.797,-102.539,498.047,-22.461,-77.637
1745827440.801,999.512,438.965,-25.879,999.512
1745827440.805,159.18,143.066,-32.715,148.926
1745827440.809,-1000.0,132.324,-31.25,-1000.0
1745827440.813,-1000.0,319.824,-31.25,-1000.0
1745827440.816,-69.336,397.461,-32.227,-34.18
1745827440.82,999.512,352.051,-32.227,999.512
1745827440.824,999.512,179.199,-33.691,999.512
1745827440.828,-70.801,166.504,-31.25,-196.289
1745827440.832,-1000.0,157.715,-25.879,-1000.0
1745827440.789,-939.941,202.637,-22.949,-974.609
1745827440.793,-1000.0,332.52,-23.438,-1000.0
1745827440.797,-102.539,498.047,-22.461,-77.637
1745827440.801,999.512,438.965,-25.879,999.512
1745827440.805,159.18,143.066,-32.715,148.926
1745827440.809,-1000.0,132.324,-31.25,-1000.0
1745827440.813,-1000.0,319.824,-31.25,-1000.0
1745827440.816,-69.336,397.461,-32.227,-34.18
1745827440.82,999.512,352.051,-32.227,999.512
1745827440.824,999.512,179.199,-33.691,999.512
1745827440.828,-70.801,166.504,-31.25,-196.289
1745827440.832,-1000.0,157.715,-25.879,-1000.0
1745827440.819,-44.434,-682.617,-23.926,189.941
1745827440.823,999.512,-464.844,-37.109,999.512
1745827440.827,986.816,372.07,-50.293,891.113
1745827440.831,-188.477,127.93,-48.34,-309.082
1745827440.835,-1000.0,119.141,-37.109,-1000.0
1745827440.839,-174.805,433.594,-32.715,-176.27
1745827440.843,999.512,493.652,-39.551,999.512
1745827440.846,999.512,-50.781,-49.316,999.512
