timestamps,TP9,AF7,AF8,TP10
1745821593.0,-1000,-1000,88.867,-1000
1745821593.0,-1000,-995.605,-186.035,-1000
1745821593.0,-1000,-954.102,-787.109,-1000
1745821593.0,-1000,-1000,-440.43,-1000
1745821593.0,-1000,-221.68,300.781,-1000
1745821593.0,-1000,999.512,999.512,-1000
1745821593.0,-1000,758.301,571.289,-1000
1745821593.0,-1000,-609.375,213.379,-1000
1745821593.0,-1000,-1000,377.441,-1000
1745821593.0,-1000,-143.555,624.512,-1000
1745821593.0,-1000,999.512,999.512,-1000
1745821593.0,-1000,905.273,727.539,-1000
1745821593.0,-1000,-626.953,453.613,-1000
1745821593.0,-1000,-231.934,770.996,-1000
1745821593.0,-1000,999.512,876.953,-1000
1745821594.0,-1000,930.664,999.512,-1000
1745821594.0,-990.234,946.289,846.68,-1000
1745821594.0,-953.613,973.145,734.863,-1000
1745821594.0,-1000,965.332,951.172,-1000
1745821594.0,-49.316,962.891,968.75,-1000
1745821594.0,999.512,967.285,958.984,-1000
1745821594.0,927.246,967.285,968.75,-1000
1745821594.0,951.66,966.797,966.797,-1000
1745821594.0,969.238,967.285,967.285,-1000
1745821593.0,-1000,-626.953,453.613,-1000
1745821593.0,-1000,-231.934,770.996,-1000
1745821593.0,-1000,999.512,876.953,-1000
1745821594.0,-1000,930.664,999.512,-1000
1745821594.0,-990.234,946.289,846.68,-1000
1745821594.0,-953.613,973.145,734.863,-1000
1745821594.0,-1000,965.332,951.172,-1000
1745821594.0,-49.316,962.891,968.75,-1000
1745821594.0,999.512,967.285,958.984,-1000
1745821594.0,927.246,967.285,968.75,-1000
1745821594.0,951.66,966.797,966.797,-1000
1745821594.0,969.238,967.285,967.285,-1000
1745821594.0,966.309,967.285,967.285,-1000
1745821594.0,966.309,967.285,967.285,-1000
1745821594.0,966.309,967.285,967.285,-1000
1745821594.0,966.309,967.285,967.285,-1000
1745821594.0,966.309,966.797,967.285,-933.594
1745821594.0,966.309,967.285,967.285,-1000
1745821594.0,966.309,966.797,967.285,-668.945
1745821594.0,966.309,966.797,966.797,756.836
1745821594.0,966.309,966.797,966.797,999.512
1745821594.0,966.309,966.797,966.797,907.715
1745821594.0,966.309,966.797,966.797,980.957
1745821594.0,966.309,966.797,966.797,966.797
1745821594.0,966.309,967.285,967.285,-1000
1745821594.0,966.309,967.285,967.285,-1000
1745821594.0,966.309,967.285,967.285,-1000
1745821594.0,966.309,967.285,967.285,-1000
1745821594.0,966.309,966.797,967.285,-933.594
1745821594.0,966.309,967.285,967.285,-1000
1745821594.0,966.309,966.797,967.285,-668.945
1745821594.0,966.309,966.797,966.797,756.836
1745821594.0,966.309,966.797,966.797,999.512
1745821594.0,966.309,966.797,966.797,907.715
1745821594.0,966.309,966.797,966.797,980.957
1745821594.0,966.309,966.797,966.797,966.797
1745821594.0,966.309,966.797,966.797,966.797
1745821594.0,966.309,966.797,967.285,967.285
1745821594.0,966.309,966.797,967.285,966.797
1745821594.0,966.309,966.797,967.285,966.797
1745821594.0,966.309,966.797,966.797,966.797
1745821594.0,966.309,966.797,966.797,966.797
1745821594.0,966.309,966.797,967.285,966.797
1745821594.0,966.309,966.797,966.797,966.797
1745821594.0,966.309,966.797,966.797,966.797
1745821594.0,966.309,966.797,966.797,966.797
1745821594.0,966.309,966.797,966.797,966.797
1745821594.0,966.309,967.285,966.797,967.285
1745821594.0,966.309,966.797,966.797,966.797
1745821594.0,966.309,966.797,967.285,967.285
1745821594.0,966.309,966.797,967.285,966.797
1745821594.0,966.309,966.797,967.285,966.797
1745821594.0,966.309,966.797,966.797,966.797
1745821594.0,966.309,966.797,966.797,966.797
1745821594.0,966.309,966.797,967.285,966.797
1745821594.0,966.309,966.797,966.797,966.797
1745821594.0,966.309,966.797,966.797,966.797
1745821594.0,966.309,966.797,966.797,966.797
1745821594.0,966.309,966.797,966.797,966.797
1745821594.0,966.309,967.285,966.797,967.285
1745821594.0,966.309,967.285,967.285,967.285
1745821594.0,966.309,966.797,966.797,966.797
1745821594.0,966.309,966.797,966.797,966.797
1745821594.0,966.309,967.285,966.797,966.797
1745821594.0,966.309,966.797,966.797,966.797
1745821594.0,966.309,966.797,966.797,966.797
1745821594.0,966.309,966.797,966.797,967.285
1745821594.0,966.309,966.797,966.797,966.797
1745821594.0,966.309,966.797,966.797,966.797
1745821594.0,966.309,966.797,966.797,966.797
1745821594.0,966.309,966.797,967.285,966.797
1745821594.0,966.309,966.797,966.797,966.797
1745821594.0,966.309,967.285,967.285,967.285
1745821594.0,966.309,966.797,966.797,966.797
1745821594.0,966.309,966.797,966.797,966.797
1745821594.0,966.309,967.285,966.797,966.797
1745821594.0,966.309,966.797,966.797,966.797
1745821594.0,966.309,966.797,966.797,966.797
1745821594.0,966.309,966.797,966.797,967.285
1745821594.0,966.309,966.797,966.797,966.797
1745821594.0,966.309,966.797,966.797,966.797
1745821594.0,966.309,966.797,966.797,966.797
1745821594.0,966.309,966.797,967.285,966.797
1745821594.0,966.309,966.797,966.797,966.797
1745821594.0,966.309,966.797,966.797,966.797
1745821594.0,966.309,967.285,966.797,966.797
1745821594.0,966.309,967.285,966.797,966.797
1745821594.0,966.309,966.797,966.797,966.797
1745821594.0,966.309,966.797,966.797,966.797
1745821594.0,966.309,967.285,966.797,966.797
1745821594.0,966.309,966.797,966.797,966.797
1745821594.0,966.309,966.797,966.797,966.797
1745821594.0,966.309,966.797,966.797,966.797
1745821594.0,966.309,966.797,966.797,966.797
1745821594.0,966.309,966.797,966.797,966.797
1745821594.0,966.309,966.797,966.797,966.797
1745821594.0,966.309,966.797,966.797,966.797
1745821594.0,966.309,967.285,966.797,966.797
1745821594.0,966.309,967.285,966.797,966.797
1745821594.0,966.309,966.797,966.797,966.797
1745821594.0,966.309,966.797,966.797,966.797
1745821594.0,966.309,967.285,966.797,966.797
1745821594.0,966.309,966.797,966.797,966.797
1745821594.0,966.309,966.797,966.797,966.797
1745821594.0,966.309,966.797,966.797,966.797
1745821594.0,966.309,966.797,966.797,966.797
1745821594.0,966.309,966.797,966.797,966.797
1745821594.0,966.309,966.797,966.797,966.797
1745821594.0,966.309,966.797,966.797,966.797
1745821594.0,966.309,966.797,966.797,966.797
1745821594.0,966.309,966.797,966.797,966.797
1745821594.0,966.309,966.797,965.82,966.797
1745821594.0,966.309,966.797,971.68,966.797
1745821594.0,966.309,966.797,940.43,966.797
1745821594.0,966.309,966.797,964.844,966.797
1745821594.0,966.309,967.773,798.828,966.797
1745821594.0,966.309,963.379,-78.125,966.797
1745821594.0,966.309,910.645,-104.004,966.797
1745821594.0,966.309,999.512,-53.223,966.797
1745821594.0,966.309,116.211,-879.395,966.797
1745821594.0,966.309,966.797,966.797,966.797
1745821594.0,966.309,966.797,966.797,966.797
1745821594.0,966.309,966.797,966.797,966.797
1745821594.0,966.309,966.797,965.82,966.797
1745821594.0,966.309,966.797,971.68,966.797
1745821594.0,966.309,966.797,940.43,966.797
1745821594.0,966.309,966.797,964.844,966.797
1745821594.0,966.309,967.773,798.828,966.797
1745821594.0,966.309,963.379,-78.125,966.797
1745821594.0,966.309,910.645,-104.004,966.797
1745821594.0,966.309,999.512,-53.223,966.797
1745821594.0,966.309,116.211,-879.395,966.797
1745821594.0,966.309,966.797,966.797,966.797
1745821594.0,966.309,966.797,966.797,966.797
1745821594.0,966.309,966.797,966.797,966.797
1745821594.0,966.309,966.797,965.82,966.797
1745821594.0,966.309,966.797,971.68,966.797
1745821594.0,966.309,966.797,940.43,966.797
1745821594.0,966.309,966.797,964.844,966.797
1745821594.0,966.309,967.773,798.828,966.797
1745821594.0,966.309,963.379,-78.125,966.797
1745821594.0,966.309,910.645,-104.004,966.797
1745821594.0,966.309,999.512,-53.223,966.797
1745821594.0,966.309,116.211,-879.395,966.797
1745821594.0,966.309,-1000,-1000,967.285
1745821594.0,966.309,-974.609,-972.656,966.797
1745821594.0,966.309,-978.516,-1000,966.797
1745821594.0,966.797,-1000,-1000,966.797
1745821594.0,966.309,-1000,-1000,966.797
1745821594.0,973.633,-1000,-1000,966.797
1745821594.0,936.523,-1000,-1000,966.797
1745821594.0,958.496,-1000,-1000,966.797
1745821594.0,999.512,-1000,-1000,966.797
1745821594.0,-254.883,-1000,-1000,966.797
1745821594.0,-1000,-1000,-1000,967.285
1745821594.0,-939.453,-1000,-1000,981.934
1745821594.0,966.309,-1000,-1000,967.285
1745821594.0,966.309,-974.609,-972.656,966.797
1745821594.0,966.309,-978.516,-1000,966.797
1745821594.0,966.797,-1000,-1000,966.797
1745821594.0,966.309,-1000,-1000,966.797
1745821594.0,973.633,-1000,-1000,966.797
1745821594.0,936.523,-1000,-1000,966.797
1745821594.0,958.496,-1000,-1000,966.797
1745821594.0,999.512,-1000,-1000,966.797
1745821594.0,-254.883,-1000,-1000,966.797
1745821594.0,-1000,-1000,-1000,967.285
1745821594.0,-939.453,-1000,-1000,981.934
1745821594.0,966.309,-1000,-1000,967.285
1745821594.0,966.309,-974.609,-972.656,966.797
1745821594.0,966.309,-978.516,-1000,966.797
1745821594.0,966.797,-1000,-1000,966.797
1745821594.0,966.309,-1000,-1000,966.797
1745821594.0,973.633,-1000,-1000,966.797
1745821594.0,936.523,-1000,-1000,966.797
1745821594.0,958.496,-1000,-1000,966.797
1745821594.0,999.512,-1000,-1000,966.797
1745821594.0,-254.883,-1000,-1000,966.797
1745821594.0,-1000,-1000,-1000,967.285
1745821594.0,-939.453,-1000,-1000,981.934
1745821594.0,-1000,-1000,-1000,895.996
1745821594.0,-1000,-1000,-1000,999.512
1745821594.0,-1000,-1000,-1000,591.797
1745821594.0,-1000,-1000,-1000,-849.121
1745821594.0,-1000,-1000,-1000,-1000
1745821594.0,-1000,-1000,-1000,-942.383
1745821594.0,-1000,-1000,-1000,-1000
1745821594.0,-1000,-1000,-1000,-1000
1745821594.0,-1000,-1000,-1000,-1000
1745821594.0,-1000,-1000,-1000,-1000
1745821594.0,-1000,-1000,-1000,-1000
1745821594.0,-1000,-1000,-1000,-1000
1745821594.0,-1000,-1000,-1000,895.996
1745821594.0,-1000,-1000,-1000,999.512
1745821594.0,-1000,-1000,-1000,591.797
1745821594.0,-1000,-1000,-1000,-849.121
1745821594.0,-1000,-1000,-1000,-1000
1745821594.0,-1000,-1000,-1000,-942.383
1745821594.0,-1000,-1000,-1000,-1000
1745821594.0,-1000,-1000,-1000,-1000
1745821594.0,-1000,-1000,-1000,-1000
1745821594.0,-1000,-1000,-1000,-1000
1745821594.0,-1000,-1000,-1000,-1000
1745821594.0,-1000,-1000,-1000,-1000
1745821594.0,-1000,-1000,-1000,895.996
1745821594.0,-1000,-1000,-1000,999.512
1745821594.0,-1000,-1000,-1000,591.797
1745821594.0,-1000,-1000,-1000,-849.121
1745821594.0,-1000,-1000,-1000,-1000
1745821594.0,-1000,-1000,-1000,-942.383
1745821594.0,-1000,-1000,-1000,-1000
1745821594.0,-1000,-1000,-1000,-1000
1745821594.0,-1000,-1000,-1000,-1000
1745821594.0,-1000,-1000,-1000,-1000
1745821594.0,-1000,-1000,-1000,-1000
1745821594.0,-1000,-1000,-1000,-1000
1745821594.0,-1000,-1000,-1000,-1000
1745821594.0,-1000,-1000,-1000,-1000
1745821594.0,-1000,-1000,-1000,-1000
1745821594.0,-1000,-1000,-1000,-1000
1745821594.0,-1000,-1000,-1000,-1000
1745821594.0,-1000,-1000,-1000,-1000
1745821594.0,-1000,-1000,-1000,-1000
1745821594.0,-1000,-1000,-1000,-1000
1745821594.0,-1000,-1000,-1000,-1000
1745821594.0,-1000,-1000,-1000,-1000
1745821594.0,-1000,-1000,-1000,-1000
1745821594.0,-1000,-1000,-1000,-1000
1745821594.0,-1000,-1000,-1000,-1000
1745821594.0,-1000,-1000,-1000,-1000
1745821594.0,-1000,-1000,-1000,-1000
1745821594.0,-1000,-1000,-1000,-1000
1745821594.0,-1000,-1000,-1000,-1000
1745821594.0,-1000,-1000,-1000,-1000
1745821594.0,-1000,-1000,-1000,-1000
1745821594.0,-1000,-1000,-1000,-1000
1745821594.0,-1000,-1000,-1000,-1000
1745821594.0,-1000,-1000,-1000,-1000
1745821594.0,-1000,-1000,-1000,-1000
1745821594.0,-1000,-1000,-1000,-1000
1745821594.0,-1000,-1000,-1000,-1000
1745821594.0,-1000,-1000,-1000,-1000
1745821594.0,-1000,-1000,-1000,-1000
1745821594.0,-1000,-1000,-1000,-1000
1745821594.0,-1000,-1000,-1000,-1000
1745821594.0,-1000,-1000,-1000,-1000
1745821594.0,-1000,-1000,-1000,-1000
1745821594.0,-1000,-1000,-1000,-1000
1745821594.0,-1000,-1000,-1000,-1000
1745821594.0,-1000,-1000,-1000,-1000
1745821594.0,-1000,-1000,-1000,-1000
1745821594.0,-1000,-1000,-1000,-1000
1745821594.0,-1000,-1000,-1000,-1000
1745821594.0,-1000,-1000,-1000,-1000
1745821594.0,-1000,-1000,-1000,-1000
1745821594.0,-1000,-1000,-1000,-1000
1745821594.0,-1000,-1000,-1000,-1000
1745821594.0,-1000,-1000,-1000,-1000
1745821594.0,-1000,-1000,-1000,-1000
1745821594.0,-1000,-1000,-1000,-1000
1745821594.0,-1000,-1000,-1000,-1000
1745821594.0,-1000,-1000,-1000,-1000
1745821594.0,-1000,-1000,-1000,-1000
1745821594.0,-1000,-1000,-1000,-1000
1745821594.0,-1000,-1000,-1000,-1000
1745821594.0,-1000,-1000,-1000,-1000
1745821594.0,-1000,-1000,-1000,-1000
1745821594.0,-1000,-1000,-1000,-1000
1745821594.0,-1000,-1000,-1000,-1000
1745821594.0,-1000,-1000,-1000,-1000
1745821594.0,-1000,-1000,-1000,-1000
1745821594.0,-1000,-1000,-1000,-1000
1745821594.0,-1000,-1000,-1000,-1000
1745821594.0,-1000,-1000,-1000,-1000
1745821594.0,-1000,-1000,-1000,-1000
1745821594.0,-1000,-1000,-1000,-1000
1745821594.0,-1000,-1000,-1000,-1000
1745821594.0,-1000,-1000,-1000,-1000
1745821594.0,-1000,-1000,-1000,-1000
1745821594.0,-1000,-1000,-1000,-1000
1745821594.0,-1000,-1000,-957.031,-1000
1745821594.0,-1000,-1000,-1000,-1000
1745821594.0,-1000,-929.199,-490.234,-1000
1745821594.0,-1000,-1000,217.773,-1000
1745821594.0,-1000,-404.785,380.859,-1000
1745821594.0,-1000,960.938,943.848,-1000
1745821594.0,-1000,983.398,984.863,-1000
1745821594.0,-1000,924.805,947.754,-1000
1745821594.0,-1000,979.004,971.68,-1000
1745821594.0,-1000,967.285,967.285,-1000
1745821594.0,-1000,967.285,967.285,-1000
1745821594.0,-1000,967.285,966.797,-1000
1745821594.0,-1000,967.285,967.773,-1000
1745821594.0,-1000,967.285,966.309,-1000
1745821594.0,-969.238,967.285,959.473,-1000
1745821594.0,-994.629,967.285,965.332,-1000
1745821594.0,-1000,967.285,968.262,-1000
1745821594.0,236.328,967.285,966.797,-1000
1745821594.0,999.512,967.285,967.285,-1000
1745821594.0,904.297,967.285,967.285,-1000
1745821594.0,-1000,979.004,971.68,-1000
1745821594.0,-1000,967.285,967.285,-1000
1745821594.0,-1000,967.285,967.285,-1000
1745821594.0,-1000,967.285,966.797,-1000
1745821594.0,-1000,967.285,967.773,-1000
1745821594.0,-1000,967.285,966.309,-1000
1745821594.0,-969.238,967.285,959.473,-1000
1745821594.0,-994.629,967.285,965.332,-1000
1745821594.0,-1000,967.285,968.262,-1000
1745821594.0,236.328,967.285,966.797,-1000
1745821594.0,999.512,967.285,967.285,-1000
1745821594.0,904.297,967.285,967.285,-1000
1745821594.0,968.262,967.285,967.285,-1000
1745821594.0,966.797,967.285,963.867,-1000
1745821594.0,966.309,967.285,964.355,-1000
1745821594.0,966.309,967.285,990.234,-1000
1745821594.0,966.309,967.285,774.902,-994.141
1745821594.0,966.309,967.285,787.109,-948.242
1745821594.0,966.797,966.797,903.809,-1000
1745821594.0,966.309,966.797,906.738,-110.84
1745821594.0,966.309,967.285,999.512,999.512
1745821594.0,966.309,967.285,670.898,936.035
1745821594.0,966.309,967.285,624.023,947.754
1745821594.0,966.309,966.797,886.23,971.191
1745821594.0,968.262,967.285,967.285,-1000
1745821594.0,966.797,967.285,963.867,-1000
1745821594.0,966.309,967.285,964.355,-1000
1745821594.0,966.309,967.285,990.234,-1000
1745821594.0,966.309,967.285,774.902,-994.141
1745821594.0,966.309,967.285,787.109,-948.242
1745821594.0,966.797,966.797,903.809,-1000
1745821594.0,966.309,966.797,906.738,-110.84
1745821594.0,966.309,967.285,999.512,999.512
1745821594.0,966.309,967.285,670.898,936.035
1745821594.0,966.309,967.285,624.023,947.754
1745821594.0,966.309,966.797,886.23,971.191
1745821594.0,966.309,967.285,887.207,966.797
1745821594.0,966.309,970.703,999.512,967.285
1745821594.0,966.309,906.738,641.113,966.797
1745821594.0,966.309,999.512,479.98,966.797
1745821594.0,966.309,159.668,677.246,966.797
1745821594.0,966.309,-175.293,727.539,966.797
1745821594.0,966.309,999.512,999.512,966.797
1745821594.0,966.309,958.984,662.598,966.797
1745821594.0,966.309,-618.164,209.473,966.797
1745821594.0,966.309,-347.168,528.809,966.797
1745821594.0,966.309,999.512,781.738,966.797
1745821594.0,966.309,945.312,999.512,966.797
1745821594.0,966.309,967.285,887.207,966.797
1745821594.0,966.309,970.703,999.512,967.285
1745821594.0,966.309,906.738,641.113,966.797
1745821594.0,966.309,999.512,479.98,966.797
1745821594.0,966.309,159.668,677.246,966.797
1745821594.0,966.309,-175.293,727.539,966.797
1745821594.0,966.309,999.512,999.512,966.797
1745821594.0,966.309,958.984,662.598,966.797
1745821594.0,966.309,-618.164,209.473,966.797
1745821594.0,966.309,-347.168,528.809,966.797
1745821594.0,966.309,999.512,781.738,966.797
1745821594.0,966.309,945.312,999.512,966.797
1745821594.0,966.309,938.477,690.918,966.797
1745821594.0,966.309,974.121,347.168,966.797
1745821594.0,966.309,966.797,590.332,966.797
1745821594.0,966.309,969.727,695.801,966.797
1745821594.0,966.309,956.543,999.512,966.797
1745821594.0,966.309,910.156,867.676,966.797
1745821594.0,966.309,999.512,433.594,967.285
1745821594.0,966.309,-91.797,215.332,966.797
1745821594.0,966.309,-658.691,450.195,966.797
1745821594.0,966.309,866.211,994.629,967.285
1745821594.0,966.309,999.512,907.227,967.285
1745821594.0,966.309,832.031,373.535,966.797
1745821594.0,966.309,938.477,690.918,966.797
1745821594.0,966.309,974.121,347.168,966.797
1745821594.0,966.309,966.797,590.332,966.797
1745821594.0,966.309,969.727,695.801,966.797
1745821594.0,966.309,956.543,999.512,966.797
1745821594.0,966.309,910.156,867.676,966.797
1745821594.0,966.309,999.512,433.594,967.285
1745821594.0,966.309,-91.797,215.332,966.797
1745821594.0,966.309,-658.691,450.195,966.797
1745821594.0,966.309,866.211,994.629,967.285
1745821594.0,966.309,999.512,907.227,967.285
1745821594.0,966.309,832.031,373.535,966.797
1745821594.0,966.309,-413.086,126.465,966.797
1745821594.0,966.309,-441.895,264.648,966.797
1745821594.0,966.309,943.359,833.984,966.797
1745821594.0,966.309,999.512,997.559,966.797
1745821594.0,966.309,5.859,25.879,966.797
1745821594.0,966.309,-271.484,-185.547,966.797
1745821594.0,966.309,982.91,145.508,966.797
1745821594.0,966.309,999.512,613.77,966.797
1745821594.0,966.309,326.172,933.105,966.797
1745821594.0,966.309,-949.707,-119.629,966.797
1745821594.0,966.309,-1000,-529.297,967.285
1745821594.0,966.309,-911.621,-437.012,966.797
1745821594.0,966.309,-413.086,126.465,966.797
1745821594.0,966.309,-441.895,264.648,966.797
1745821594.0,966.309,943.359,833.984,966.797
1745821594.0,966.309,999.512,997.559,966.797
1745821594.0,966.309,5.859,25.879,966.797
1745821594.0,966.309,-271.484,-185.547,966.797
1745821594.0,966.309,982.91,145.508,966.797
1745821594.0,966.309,999.512,613.77,966.797
1745821594.0,966.309,326.172,933.105,966.797
1745821594.0,966.309,-949.707,-119.629,966.797
1745821594.0,966.309,-1000,-529.297,967.285
1745821594.0,966.309,-911.621,-437.012,966.797
1745821594.0,966.309,298.828,196.777,966.797
1745821594.0,966.309,999.512,952.637,966.797
1745821594.0,966.309,157.715,-141.113,967.285
1745821594.0,966.309,-1000,-836.426,967.285
1745821594.0,966.309,-1000,-732.91,966.797
1745821594.0,966.309,294.434,-49.316,966.797
1745821594.0,966.309,999.512,799.316,966.797
1745821594.0,966.309,-91.797,-279.297,966.797
1745821594.0,966.309,-1000,-945.312,966.797
1745821594.0,980.957,-1000,-891.602,966.797
1745821594.0,893.555,-311.035,-502.441,967.285
1745821594.0,999.512,999.512,532.715,967.285
1745821594.0,966.309,298.828,196.777,966.797
1745821594.0,966.309,999.512,952.637,966.797
1745821594.0,966.309,157.715,-141.113,967.285
1745821594.0,966.309,-1000,-836.426,967.285
1745821594.0,966.309,-1000,-732.91,966.797
1745821594.0,966.309,294.434,-49.316,966.797
1745821594.0,966.309,999.512,799.316,966.797
1745821594.0,966.309,-91.797,-279.297,966.797
1745821594.0,966.309,-1000,-945.312,966.797
1745821594.0,980.957,-1000,-891.602,966.797
1745821594.0,893.555,-311.035,-502.441,967.285
1745821594.0,999.512,999.512,532.715,967.285
1745821594.0,535.156,166.992,-175.781,966.797
1745821594.0,-811.523,-1000,-950.684,966.797
1745821594.0,-1000,-1000,-906.25,967.773
1745821594.0,-565.43,-457.031,-582.52,964.844
1745821594.0,838.379,989.746,546.875,908.691
1745821594.0,999.512,857.422,241.211,999.512
1745821594.0,-352.539,-589.355,-827.148,140.625
1745821594.0,-1000,-1000,-950.684,-1000
1745821594.0,-1000,-1000,-660.156,-1000
1745821594.0,-260.742,-186.523,559.57,-163.574
1745821594.0,999.512,999.512,607.91,999.512
1745821594.0,954.59,662.598,-482.91,999.512
1745821594.0,535.156,166.992,-175.781,966.797
1745821594.0,-811.523,-1000,-950.684,966.797
1745821594.0,-1000,-1000,-906.25,967.773
1745821594.0,-565.43,-457.031,-582.52,964.844
1745821594.0,838.379,989.746,546.875,908.691
1745821594.0,999.512,857.422,241.211,999.512
1745821594.0,-352.539,-589.355,-827.148,140.625
1745821594.0,-1000,-1000,-950.684,-1000
1745821594.0,-1000,-1000,-660.156,-1000
1745821594.0,-260.742,-186.523,559.57,-163.574
1745821594.0,999.512,999.512,607.91,999.512
1745821594.0,954.59,662.598,-482.91,999.512
1745821594.0,-304.199,-694.336,-874.023,-74.707
1745821594.0,-1000,-1000,-629.883,-1000
1745821594.0,-218.75,-146.484,635.254,-231.934
1745821594.0,999.512,999.512,857.422,999.512
1745821594.0,169.922,164.551,-440.918,169.922
1745821594.0,-1000,-1000,-699.219,-1000
1745821594.0,-1000,-707.52,-179.688,-1000
1745821594.0,-256.348,625.488,573.242,-239.258
1745821594.0,999.512,999.512,893.066,999.512
1745821594.0,169.922,60.059,-270.02,200.684
1745821594.0,-1000,-1000,-723.145,-1000
1745821594.0,-1000,-1000,-395.996,-1000
1745821594.0,-304.199,-694.336,-874.023,-74.707
1745821594.0,-1000,-1000,-629.883,-1000
1745821594.0,-218.75,-146.484,635.254,-231.934
1745821594.0,999.512,999.512,857.422,999.512
1745821594.0,169.922,164.551,-440.918,169.922
1745821594.0,-1000,-1000,-699.219,-1000
1745821594.0,-1000,-707.52,-179.688,-1000
1745821594.0,-256.348,625.488,573.242,-239.258
1745821594.0,999.512,999.512,893.066,999.512
1745821594.0,169.922,60.059,-270.02,200.684
1745821594.0,-1000,-1000,-723.145,-1000
1745821594.0,-1000,-1000,-395.996,-1000
1745821594.0,-191.895,-76.66,380.859,-188.965
1745821594.0,999.512,999.512,999.512,999.512
1745821594.0,893.066,172.852,104.004,894.531
1745821594.0,999.512,-1000,-640.625,999.512
1745821594.0,-26.855,-1000,-507.324,-30.762
1745821594.0,-529.785,-340.82,219.238,-499.023
1745821594.0,918.457,999.512,999.512,943.848
1745821594.0,995.605,536.621,254.883,970.703
1745821594.0,999.512,-831.055,-682.617,999.512
1745821594.0,-296.387,-1000,-821.777,-186.523
1745821594.0,-983.398,-596.68,-50.781,-902.344
1745821594.0,751.465,974.609,999.512,763.184
1745821594.0,-191.895,-76.66,380.859,-188.965
1745821594.0,999.512,999.512,999.512,999.512
1745821594.0,893.066,172.852,104.004,894.531
1745821594.0,999.512,-1000,-640.625,999.512
1745821594.0,-26.855,-1000,-507.324,-30.762
1745821594.0,-529.785,-340.82,219.238,-499.023
1745821594.0,918.457,999.512,999.512,943.848
1745821594.0,995.605,536.621,254.883,970.703
1745821594.0,999.512,-831.055,-682.617,999.512
1745821594.0,-296.387,-1000,-821.777,-186.523
1745821594.0,-983.398,-596.68,-50.781,-902.344
1745821594.0,751.465,974.609,999.512,763.184
1745821594.0,-191.895,-76.66,380.859,-188.965
1745821594.0,999.512,999.512,999.512,999.512
1745821594.0,893.066,172.852,104.004,894.531
1745821594.0,999.512,-1000,-640.625,999.512
1745821594.0,-26.855,-1000,-507.324,-30.762
1745821594.0,-529.785,-340.82,219.238,-499.023
1745821594.0,918.457,999.512,999.512,943.848
1745821594.0,995.605,536.621,254.883,970.703
1745821594.0,999.512,-831.055,-682.617,999.512
1745821594.0,-296.387,-1000,-821.777,-186.523
1745821594.0,-983.398,-596.68,-50.781,-902.344
1745821594.0,751.465,974.609,999.512,763.184
1745821594.0,865.234,381.836,189.453,999.512
1745821594.0,-617.676,-1000,-814.941,-368.164
1745821594.0,-1000,-1000,-656.738,-1000
1745821594.0,-604.004,-271.484,-148.926,-539.062
1745821594.0,774.414,999.512,999.512,815.43
1745821594.0,999.512,721.68,344.238,999.512
1745821594.0,-253.906,-679.688,-856.934,-178.711
1745821594.0,-1000,-1000,-852.539,-1000
1745821594.0,-1000,-1000,-457.52,-1000
1745821594.0,-52.246,147.949,775.879,-39.551
1745821594.0,999.512,999.512,575.684,999.512
1745821594.0,999.512,-160.156,-438.477,871.094
1745821594.0,688.965,-1000,-474.609,478.516
1745821594.0,-939.453,-1000,-307.617,-920.41
1745821594.0,-291.016,-207.031,735.352,-277.832
1745821594.0,999.512,999.512,767.09,999.512
1745821594.0,934.57,-25.879,-255.371,934.57
1745821594.0,938.965,-234.375,-172.852,940.43
1745821594.0,972.656,999.512,297.852,973.633
1745821594.0,966.309,999.512,931.641,967.285
1745821594.0,966.309,311.523,802.246,966.797
1745821594.0,966.309,-1000,255.371,966.797
1745821595.0,966.309,281.25,791.016,967.285
1745821595.0,966.309,999.512,999.512,966.797
1745821594.0,688.965,-1000,-474.609,478.516
1745821594.0,-939.453,-1000,-307.617,-920.41
1745821594.0,-291.016,-207.031,735.352,-277.832
1745821594.0,999.512,999.512,767.09,999.512
1745821594.0,934.57,-25.879,-255.371,934.57
1745821594.0,938.965,-234.375,-172.852,940.43
1745821594.0,972.656,999.512,297.852,973.633
1745821594.0,966.309,999.512,931.641,967.285
1745821594.0,966.309,311.523,802.246,966.797
1745821594.0,966.309,-1000,255.371,966.797
1745821595.0,966.309,281.25,791.016,967.285
1745821595.0,966.309,999.512,999.512,966.797
1745821595.0,966.309,893.555,915.039,966.797
1745821595.0,966.309,968.75,982.422,966.797
1745821595.0,966.309,914.551,794.434,966.797
1745821595.0,966.309,999.512,60.547,967.285
1745821595.0,966.309,25.879,-690.918,966.797
1745821595.0,966.309,-125.488,93.75,966.797
1745821595.0,966.309,999.512,573.242,966.797
1745821595.0,966.309,-346.68,-625.977,966.797
1745821595.0,966.309,-1000,-1000,966.797
1745821595.0,966.309,-916.992,-1000,967.285
1745821595.0,966.309,-1000,-748.047,967.285
1745821595.0,966.309,279.297,-137.207,966.797
1745821595.0,966.309,893.555,915.039,966.797
1745821595.0,966.309,968.75,982.422,966.797
1745821595.0,966.309,914.551,794.434,966.797
1745821595.0,966.309,999.512,60.547,967.285
1745821595.0,966.309,25.879,-690.918,966.797
1745821595.0,966.309,-125.488,93.75,966.797
1745821595.0,966.309,999.512,573.242,966.797
1745821595.0,966.309,-346.68,-625.977,966.797
1745821595.0,966.309,-1000,-1000,966.797
1745821595.0,966.309,-916.992,-1000,967.285
1745821595.0,966.309,-1000,-748.047,967.285
1745821595.0,966.309,279.297,-137.207,966.797
1745821595.0,966.309,283.691,-584.961,967.285
1745821595.0,966.309,-1000,-1000,967.285
1745821595.0,966.309,-1000,-1000,967.285
1745821595.0,968.75,-299.316,-600.586,966.797
1745821595.0,954.59,999.512,170.898,966.797
1745821595.0,921.875,402.344,-411.133,966.797
1745821595.0,999.512,-993.652,-1000,967.285
1745821595.0,65.43,-944.336,-1000,967.285
1745821595.0,-1000,-1000,-791.016,966.797
1745821595.0,-35.156,-104.492,112.305,967.285
1745821595.0,785.645,599.121,-247.07,967.285
1745821595.0,-767.09,-891.602,-979.004,966.797
1745821595.0,966.309,283.691,-584.961,967.285
1745821595.0,966.309,-1000,-1000,967.285
1745821595.0,966.309,-1000,-1000,967.285
1745821595.0,968.75,-299.316,-600.586,966.797
1745821595.0,954.59,999.512,170.898,966.797
1745821595.0,921.875,402.344,-411.133,966.797
1745821595.0,999.512,-993.652,-1000,967.285
1745821595.0,65.43,-944.336,-1000,967.285
1745821595.0,-1000,-1000,-791.016,966.797
1745821595.0,-35.156,-104.492,112.305,967.285
1745821595.0,785.645,599.121,-247.07,967.285
1745821595.0,-767.09,-891.602,-979.004,966.797
1745821595.0,-1000,-1000,-917.969,966.797
1745821595.0,-1000,-1000,-704.59,967.285
1745821595.0,12.207,254.395,302.246,967.285
1745821595.0,761.23,633.301,-35.156,966.797
1745821595.0,-827.637,-892.09,-968.262,966.797
1745821595.0,-1000,-1000,-841.797,969.727
1745821595.0,-1000,-454.59,-580.566,954.102
1745821595.0,-129.395,999.512,282.715,925.781
1745821595.0,812.5,595.215,103.516,999.512
1745821595.0,-716.797,-879.395,-896.973,-15.625
1745821595.0,-1000,-1000,-1000,-1000
1745821595.0,-1000,-1000,-779.297,-1000
1745821595.0,-1000,-1000,-917.969,966.797
1745821595.0,-1000,-1000,-704.59,967.285
1745821595.0,12.207,254.395,302.246,967.285
1745821595.0,761.23,633.301,-35.156,966.797
1745821595.0,-827.637,-892.09,-968.262,966.797
1745821595.0,-1000,-1000,-841.797,969.727
1745821595.0,-1000,-454.59,-580.566,954.102
1745821595.0,-129.395,999.512,282.715,925.781
1745821595.0,812.5,595.215,103.516,999.512
1745821595.0,-716.797,-879.395,-896.973,-15.625
1745821595.0,-1000,-1000,-1000,-1000
1745821595.0,-1000,-1000,-779.297,-1000
1745821595.0,-294.434,39.062,195.801,-226.074
1745821595.0,999.512,999.512,471.68,999.512
1745821595.0,129.395,179.688,-597.656,166.016
1745821595.0,-1000,-1000,-1000,-1000
1745821595.0,-1000,-830.566,-794.434,-1000
1745821595.0,-258.301,530.273,370.117,-224.609
1745821595.0,999.512,999.512,797.852,999.512
1745821595.0,145.508,9.766,-428.711,157.715
1745821595.0,-1000,-1000,-1000,-1000
1745821595.0,-1000,-1000,-832.52,-1000
1745821595.0,-518.066,-93.262,262.695,-429.199
1745821595.0,999.512,999.512,919.922,999.512
1745821595.0,-294.434,39.062,195.801,-226.074
1745821595.0,999.512,999.512,471.68,999.512
1745821595.0,129.395,179.688,-597.656,166.016
1745821595.0,-1000,-1000,-1000,-1000
1745821595.0,-1000,-830.566,-794.434,-1000
1745821595.0,-258.301,530.273,370.117,-224.609
1745821595.0,999.512,999.512,797.852,999.512
1745821595.0,145.508,9.766,-428.711,157.715
1745821595.0,-1000,-1000,-1000,-1000
1745821595.0,-1000,-1000,-832.52,-1000
1745821595.0,-518.066,-93.262,262.695,-429.199
1745821595.0,999.512,999.512,919.922,999.512
1745821595.0,206.543,149.414,-303.711,218.75
1745821595.0,-1000,-1000,-946.777,-1000
1745821595.0,-968.75,-1000,-726.562,-1000
1745821595.0,-1000,-243.164,-31.738,-939.941
1745821595.0,444.336,999.512,862.305,559.082
1745821595.0,755.859,569.336,-115.723,736.328
1745821595.0,-886.719,-845.703,-937.012,-881.836
1745821595.0,-993.652,-1000,-854.98,-988.281
1745821595.0,-1000,-1000,-444.336,-1000
1745821595.0,-263.184,143.066,789.551,-243.164
1745821595.0,999.512,999.512,261.23,999.512
1745821595.0,-154.297,-201.66,-890.137,-252.441
1745821595.0,-1000,-1000,-896.973,-1000
1745821595.0,-1000,-266.602,-294.434,-1000
1745821595.0,41.504,999.512,975.098,41.016
1745821595.0,999.512,709.473,264.16,967.773
1745821595.0,-540.527,-683.105,-939.453,-572.266
1745821595.0,-1000,-1000,-675.293,-1000
1745821595.0,-1000,-169.434,-170.898,-1000
1745821595.0,-125,999.512,864.258,-109.863
1745821595.0,749.023,248.047,281.25,746.094
1745821595.0,-787.598,-992.676,-895.508,-786.621
1745821595.0,-1000,-1000,-716.797,-1000
1745821595.0,-1000,-319.336,-272.949,-1000
1745821595.0,-1000,-1000,-896.973,-1000
1745821595.0,-1000,-266.602,-294.434,-1000
1745821595.0,41.504,999.512,975.098,41.016
1745821595.0,999.512,709.473,264.16,967.773
1745821595.0,-540.527,-683.105,-939.453,-572.266
1745821595.0,-1000,-1000,-675.293,-1000
1745821595.0,-1000,-169.434,-170.898,-1000
1745821595.0,-125,999.512,864.258,-109.863
1745821595.0,749.023,248.047,281.25,746.094
1745821595.0,-787.598,-992.676,-895.508,-786.621
1745821595.0,-1000,-1000,-716.797,-1000
1745821595.0,-1000,-319.336,-272.949,-1000
1745821595.0,-277.832,960.938,812.012,-268.066
1745821595.0,999.512,999.512,680.176,999.512
1745821595.0,135.742,-125.977,-581.055,103.516
1745821595.0,-1000,-1000,-837.402,-1000
1745821595.0,-1000,-856.934,-362.793,-1000
1745821595.0,-106.445,443.359,705.566,-126.953
1745821595.0,999.512,999.512,817.871,999.512
1745821595.0,156.25,-21.484,-511.23,148.438
1745821595.0,-1000,-1000,-1000,-1000
1745821595.0,-1000,-269.531,-352.051,-1000
1745821595.0,-132.324,973.145,718.262,-131.836
1745821595.0,999.512,999.512,883.301,999.512
1745821595.0,-277.832,960.938,812.012,-268.066
1745821595.0,999.512,999.512,680.176,999.512
1745821595.0,135.742,-125.977,-581.055,103.516
1745821595.0,-1000,-1000,-837.402,-1000
1745821595.0,-1000,-856.934,-362.793,-1000
1745821595.0,-106.445,443.359,705.566,-126.953
1745821595.0,999.512,999.512,817.871,999.512
1745821595.0,156.25,-21.484,-511.23,148.438
1745821595.0,-1000,-1000,-1000,-1000
1745821595.0,-1000,-269.531,-352.051,-1000
1745821595.0,-132.324,973.145,718.262,-131.836
1745821595.0,999.512,999.512,883.301,999.512
1745821595.0,152.344,0.977,-311.035,154.297
1745821595.0,-1000,-1000,-811.035,-1000
1745821595.0,-1000,-1000,-466.797,-1000
1745821595.0,-188.965,-21.484,403.809,-188.965
1745821595.0,999.512,999.512,959.961,999.512
1745821595.0,920.41,999.512,90.332,919.434
1745821595.0,999.512,652.832,-317.871,999.512
1745821595.0,-65.918,-700.195,-542.969,-72.754
1745821595.0,-1000,-1000,-121.582,-1000
1745821595.0,-108.887,57.617,972.656,18.066
1745821595.0,989.258,734.375,144.531,999.512
1745821595.0,999.512,-729.492,-549.316,999.512
1745821595.0,152.344,0.977,-311.035,154.297
1745821595.0,-1000,-1000,-811.035,-1000
1745821595.0,-1000,-1000,-466.797,-1000
1745821595.0,-188.965,-21.484,403.809,-188.965
1745821595.0,999.512,999.512,959.961,999.512
1745821595.0,920.41,999.512,90.332,919.434
1745821595.0,999.512,652.832,-317.871,999.512
1745821595.0,-65.918,-700.195,-542.969,-72.754
1745821595.0,-1000,-1000,-121.582,-1000
1745821595.0,-108.887,57.617,972.656,18.066
1745821595.0,989.258,734.375,144.531,999.512
1745821595.0,999.512,-729.492,-549.316,999.512
1745821595.0,191.895,-1000,-560.059,208.008
1745821595.0,-1000,-982.91,-279.297,-1000
1745821595.0,123.047,345.703,999.512,196.289
1745821595.0,999.512,999.512,301.27,999.512
1745821595.0,903.32,-739.258,-665.527,899.902
1745821595.0,975.586,-369.629,-308.594,981.445
1745821595.0,892.578,999.512,188.477,900.879
1745821595.0,999.512,401.855,858.887,999.512
1745821595.0,471.191,-978.027,102.539,660.645
1745821595.0,-880.371,-958.496,-744.141,-696.289
1745821595.0,-1000,-1000,-553.711,-1000
1745821595.0,-774.414,-263.672,-144.531,-623.047
1745821595.0,191.895,-1000,-560.059,208.008
1745821595.0,-1000,-982.91,-279.297,-1000
1745821595.0,123.047,345.703,999.512,196.289
1745821595.0,999.512,999.512,301.27,999.512
1745821595.0,903.32,-739.258,-665.527,899.902
1745821595.0,975.586,-369.629,-308.594,981.445
1745821595.0,892.578,999.512,188.477,900.879
1745821595.0,999.512,401.855,858.887,999.512
1745821595.0,471.191,-978.027,102.539,660.645
1745821595.0,-880.371,-958.496,-744.141,-696.289
1745821595.0,-1000,-1000,-553.711,-1000
1745821595.0,-774.414,-263.672,-144.531,-623.047
1745821595.0,575.195,993.652,950.195,728.516
1745821595.0,999.512,999.512,474.121,973.633
1745821595.0,999.512,-12.695,-428.711,999.512
1745821595.0,259.766,-1000,-625.488,287.598
1745821595.0,-1000,-1000,-593.262,-1000
1745821595.0,-252.93,6.836,680.176,-212.891
1745821595.0,999.512,999.512,713.867,999.512
1745821595.0,119.629,-233.887,-575.195,187.5
1745821595.0,-1000,-1000,-1000,-1000
1745821595.0,-1000,-582.52,-520.02,-964.844
1745821595.0,165.527,774.414,757.812,291.016
1745821595.0,999.512,999.512,818.848,999.512
1745821595.0,575.195,993.652,950.195,728.516
1745821595.0,999.512,999.512,474.121,973.633
1745821595.0,999.512,-12.695,-428.711,999.512
1745821595.0,259.766,-1000,-625.488,287.598
1745821595.0,-1000,-1000,-593.262,-1000
1745821595.0,-252.93,6.836,680.176,-212.891
1745821595.0,999.512,999.512,713.867,999.512
1745821595.0,119.629,-233.887,-575.195,187.5
1745821595.0,-1000,-1000,-1000,-1000
1745821595.0,-1000,-582.52,-520.02,-964.844
1745821595.0,165.527,774.414,757.812,291.016
1745821595.0,999.512,999.512,818.848,999.512
1745821595.0,138.184,-101.562,-478.027,154.297
1745821595.0,-1000,-1000,-805.176,-1000
1745821595.0,-1000,-851.074,-291.016,-1000
1745821595.0,41.992,385.742,597.656,104.004
1745821595.0,999.512,999.512,972.168,999.512
1745821595.0,873.047,531.25,63.965,854.004
1745821595.0,999.512,-723.145,-456.543,999.512
1745821595.0,-173.34,-1000,-652.344,-88.867
1745821595.0,-918.945,-749.023,82.52,-758.789
1745821595.0,684.57,811.523,999.512,828.125
1745821595.0,991.211,537.109,51.758,967.773
1745821595.0,999.512,-920.898,-533.203,999.512
1745821595.0,138.184,-101.562,-478.027,154.297
1745821595.0,-1000,-1000,-805.176,-1000
1745821595.0,-1000,-851.074,-291.016,-1000
1745821595.0,41.992,385.742,597.656,104.004
1745821595.0,999.512,999.512,972.168,999.512
1745821595.0,873.047,531.25,63.965,854.004
1745821595.0,999.512,-723.145,-456.543,999.512
1745821595.0,-173.34,-1000,-652.344,-88.867
1745821595.0,-918.945,-749.023,82.52,-758.789
1745821595.0,684.57,811.523,999.512,828.125
1745821595.0,991.211,537.109,51.758,967.773
1745821595.0,999.512,-920.898,-533.203,999.512
1745821595.0,112.305,-1000,-608.398,98.633
1745821595.0,-895.996,-658.691,-33.203,-728.027
1745821595.0,696.777,925.781,999.512,803.223
1745821595.0,999.512,496.094,120.605,999.512
1745821595.0,-626.465,-1000,-618.652,884.277
1745821595.0,-838.867,-205.566,-251.465,989.746
1745821595.0,674.805,999.512,235.84,895.508
1745821595.0,999.512,999.512,999.512,999.512
1745821595.0,240.234,158.691,56.641,479.98
1745821595.0,-951.66,-1000,-836.914,-878.418
1745821595.0,-1000,-1000,-545.41,-1000
1745821595.0,-187.988,-232.91,69.824,-169.434
1745821595.0,112.305,-1000,-608.398,98.633
1745821595.0,-895.996,-658.691,-33.203,-728.027
1745821595.0,696.777,925.781,999.512,803.223
1745821595.0,999.512,496.094,120.605,999.512
1745821595.0,-626.465,-1000,-618.652,884.277
1745821595.0,-838.867,-205.566,-251.465,989.746
1745821595.0,674.805,999.512,235.84,895.508
1745821595.0,999.512,999.512,999.512,999.512
1745821595.0,240.234,158.691,56.641,479.98
1745821595.0,-951.66,-1000,-836.914,-878.418
1745821595.0,-1000,-1000,-545.41,-1000
1745821595.0,-187.988,-232.91,69.824,-169.434
1745821595.0,999.512,999.512,999.512,999.512
1745821595.0,866.699,725.098,205.078,950.195
1745821595.0,999.512,-630.371,-557.129,939.941
1745821595.0,667.48,-1000,-455.078,973.145
1745821595.0,-689.941,-926.758,-357.422,958.008
1745821595.0,335.938,500.977,850.586,910.156
1745821595.0,999.512,852.051,486.328,999.512
1745821595.0,-261.719,-688.965,-801.758,188.477
1745821595.0,-1000,-1000,-937.012,-1000
1745821595.0,-394.531,-231.934,-261.719,-331.055
1745821595.0,878.418,999.512,999.512,999.512
1745821595.0,999.512,859.863,543.945,968.262
1745821595.0,999.512,999.512,999.512,999.512
1745821595.0,866.699,725.098,205.078,950.195
1745821595.0,999.512,-630.371,-557.129,939.941
1745821595.0,667.48,-1000,-455.078,973.145
1745821595.0,-689.941,-926.758,-357.422,958.008
1745821595.0,335.938,500.977,850.586,910.156
1745821595.0,999.512,852.051,486.328,999.512
1745821595.0,-261.719,-688.965,-801.758,188.477
1745821595.0,-1000,-1000,-937.012,-1000
1745821595.0,-394.531,-231.934,-261.719,-331.055
1745821595.0,878.418,999.512,999.512,999.512
1745821595.0,999.512,859.863,543.945,968.262
1745821595.0,193.359,-429.199,-486.328,928.711
1745821595.0,-1000,-1000,-531.25,977.539
1745821595.0,-677.246,-645.996,-305.176,966.797
1745821595.0,776.367,864.258,704.59,966.797
1745821595.0,999.512,833.008,726.074,966.797
1745821595.0,903.809,-927.734,-182.129,966.797
1745821595.0,981.445,-251.953,-251.465,966.797
1745821595.0,968.262,999.512,-229.004,966.797
1745821595.0,957.031,-486.328,219.238,966.797
1745821595.0,918.945,-434.57,654.785,966.797
1745821595.0,999.512,861.816,14.16,966.797
1745821595.0,88.379,-516.602,-482.422,966.797
1745821595.0,193.359,-429.199,-486.328,928.711
1745821595.0,-1000,-1000,-531.25,977.539
1745821595.0,-677.246,-645.996,-305.176,966.797
1745821595.0,776.367,864.258,704.59,966.797
1745821595.0,999.512,833.008,726.074,966.797
1745821595.0,903.809,-927.734,-182.129,966.797
1745821595.0,981.445,-251.953,-251.465,966.797
1745821595.0,968.262,999.512,-229.004,966.797
1745821595.0,957.031,-486.328,219.238,966.797
1745821595.0,918.945,-434.57,654.785,966.797
1745821595.0,999.512,861.816,14.16,966.797
1745821595.0,88.379,-516.602,-482.422,966.797
1745821595.0,-1000,-1000,-389.648,966.797
1745821595.0,-249.023,-212.402,362.793,966.797
1745821595.0,999.512,999.512,999.512,969.727
1745821595.0,272.461,236.328,-4.395,950.684
1745821595.0,-1000,-1000,-629.395,954.102
1745821595.0,-728.516,-309.082,-176.758,975.098
1745821595.0,651.855,977.539,496.582,942.383
1745821595.0,999.512,999.512,913.574,999.512
1745821595.0,123.047,18.555,-89.355,805.176
1745821595.0,-994.629,-1000,-603.516,608.887
1745821595.0,-1000,-1000,-435.547,958.984
1745821595.0,-265.137,-171.387,103.027,981.445
1745821595.0,999.512,999.512,999.512,963.867
1745821595.0,570.801,277.832,14.16,929.199
1745821595.0,-810.059,-820.801,-548.34,944.336
1745821595.0,-1000,-863.281,-391.113,840.82
1745821595.0,-283.203,-251.465,-235.84,752.441
1745821595.0,971.191,999.512,985.352,988.77
1745821595.0,999.512,819.824,399.414,892.09
1745821595.0,-214.355,-539.551,-542.48,999.512
1745821595.0,-1000,-1000,-676.27,548.34
1745821595.0,-997.07,-941.406,-532.227,-683.105
1745821595.0,188.477,389.16,837.402,462.402
1745821595.0,999.512,999.512,514.16,999.512
1745821595.0,14.648,-422.363,-603.516,887.695
1745821595.0,-1000,-1000,-531.738,977.539
1745821595.0,-327.148,-194.336,-139.648,967.285
1745821595.0,935.547,999.512,793.457,967.285
1745821595.0,999.512,997.07,571.289,966.797
1745821595.0,130.859,-207.52,-352.051,966.797
1745821595.0,-1000,-1000,-477.051,966.797
1745821595.0,-1000,-1000,-452.637,966.797
1745821595.0,-248.535,-252.441,360.84,968.262
1745821595.0,999.512,999.512,674.805,963.379
1745821595.0,168.457,71.289,-350.586,909.668
1745821595.0,-1000,-1000,-675.781,999.512
1745821595.0,14.648,-422.363,-603.516,887.695
1745821595.0,-1000,-1000,-531.738,977.539
1745821595.0,-327.148,-194.336,-139.648,967.285
1745821595.0,935.547,999.512,793.457,967.285
1745821595.0,999.512,997.07,571.289,966.797
1745821595.0,130.859,-207.52,-352.051,966.797
1745821595.0,-1000,-1000,-477.051,966.797
1745821595.0,-1000,-1000,-452.637,966.797
1745821595.0,-248.535,-252.441,360.84,968.262
1745821595.0,999.512,999.512,674.805,963.379
1745821595.0,168.457,71.289,-350.586,909.668
1745821595.0,-1000,-1000,-675.781,999.512
1745821595.0,-1000,-1000,-585.938,-12.207
1745821595.0,-264.16,-263.184,334.473,-305.176
1745821595.0,999.512,999.512,960.449,999.512
1745821595.0,402.344,233.398,-180.176,973.633
1745821595.0,-1000,-1000,-737.793,934.57
1745821595.0,-523.926,-224.609,-279.297,977.051
1745821595.0,880.371,999.512,535.645,901.367
1745821595.0,999.512,999.512,858.887,999.512
1745821595.0,134.766,-73.242,-235.84,238.281
1745821595.0,-994.141,-1000,-874.023,-991.699
1745821595.0,-1000,-1000,-585.449,-1000
1745821595.0,-268.066,-230.469,241.699,-203.613
1745821595.0,-1000,-1000,-585.938,-12.207
1745821595.0,-264.16,-263.184,334.473,-305.176
1745821595.0,999.512,999.512,960.449,999.512
1745821595.0,402.344,233.398,-180.176,973.633
1745821595.0,-1000,-1000,-737.793,934.57
1745821595.0,-523.926,-224.609,-279.297,977.051
1745821595.0,880.371,999.512,535.645,901.367
1745821595.0,999.512,999.512,858.887,999.512
1745821595.0,134.766,-73.242,-235.84,238.281
1745821595.0,-994.141,-1000,-874.023,-991.699
1745821595.0,-1000,-1000,-585.449,-1000
1745821595.0,-268.066,-230.469,241.699,-203.613
1745821595.0,999.512,999.512,999.512,999.512
1745821595.0,472.656,201.172,-92.773,979.004
1745821595.0,-886.23,-1000,-830.078,-112.793
1745821595.0,-1000,-1000,-731.934,-1000
1745821595.0,-391.113,-272.949,-162.109,-269.043
1745821595.0,999.512,999.512,999.512,971.191
1745821595.0,865.234,453.613,164.551,999.512
1745821595.0,-522.461,-935.059,-989.746,21.973
1745821595.0,-1000,-1000,-874.512,-1000
1745821595.0,-233.887,-148.926,-54.199,-176.27
1745821595.0,999.512,999.512,999.512,990.723
1745821595.0,847.656,324.707,117.676,999.512
1745821595.0,999.512,999.512,999.512,999.512
1745821595.0,472.656,201.172,-92.773,979.004
1745821595.0,-886.23,-1000,-830.078,-112.793
1745821595.0,-1000,-1000,-731.934,-1000
1745821595.0,-391.113,-272.949,-162.109,-269.043
1745821595.0,999.512,999.512,999.512,971.191
1745821595.0,865.234,453.613,164.551,999.512
1745821595.0,-522.461,-935.059,-989.746,21.973
1745821595.0,-1000,-1000,-874.512,-1000
1745821595.0,-233.887,-148.926,-54.199,-176.27
1745821595.0,999.512,999.512,999.512,990.723
1745821595.0,847.656,324.707,117.676,999.512
1745821595.0,-481.934,-971.68,-879.395,-73.242
1745821595.0,-1000,-1000,-711.914,-1000
1745821595.0,-401.855,-262.207,-168.457,-351.562
1745821595.0,926.27,999.512,999.512,971.68
1745821595.0,991.699,207.52,259.766,980.957
1745821595.0,913.086,-924.805,-651.367,924.805
1745821595.0,979.004,732.91,-384.766,979.004
1745821595.0,957.031,253.906,-462.891,967.773
1745821595.0,900.391,-1000,248.047,904.297
1745821595.0,999.512,234.375,364.746,999.512
1745821595.0,205.566,307.129,-587.402,236.328
1745821595.0,-1000,-1000,-862.305,-1000
1745821595.0,-481.934,-971.68,-879.395,-73.242
1745821595.0,-1000,-1000,-711.914,-1000
1745821595.0,-401.855,-262.207,-168.457,-351.562
1745821595.0,926.27,999.512,999.512,971.68
1745821595.0,991.699,207.52,259.766,980.957
1745821595.0,913.086,-924.805,-651.367,924.805
1745821595.0,979.004,732.91,-384.766,979.004
1745821595.0,957.031,253.906,-462.891,967.773
1745821595.0,900.391,-1000,248.047,904.297
1745821595.0,999.512,234.375,364.746,999.512
1745821595.0,205.566,307.129,-587.402,236.328
1745821595.0,-1000,-1000,-862.305,-1000
1745821595.0,-1000,-221.68,-268.066,-875.488
1745821595.0,239.258,999.512,801.27,444.824
1745821595.0,999.512,966.797,651.367,999.512
1745821595.0,92.773,-247.559,-491.211,188.965
1745821595.0,-1000,-1000,-884.277,-1000
1745821595.0,-747.07,-190.918,-285.156,-603.516
1745821595.0,609.863,999.512,799.805,770.02
1745821595.0,999.512,966.309,756.836,999.512
1745821595.0,131.836,-270.02,-454.102,228.516
1745821596.0,-1000,-1000,-847.168,-988.77
1745821596.0,-1000,-926.27,-430.176,-1000
1745821596.0,-79.59,253.906,465.82,67.871
1745821595.0,999.512,999.512,905.762,999.512
1745821596.0,681.152,106.934,-206.055,835.449
1745821596.0,-596.68,-1000,-587.402,999.512
1745821596.0,-1000,-1000,-492.676,206.543
1745821596.0,-769.531,-761.23,-109.375,-709.961
1745821596.0,572.754,571.289,947.754,748.535
1745821596.0,994.629,999.512,208.984,997.559
1745821596.0,999.512,150.391,-595.703,999.512
1745821596.0,114.746,-1000,-800.781,120.117
1745821596.0,-957.52,-856.445,-352.539,-816.895
1745821596.0,555.176,750.977,999.512,706.543
1745821596.0,999.512,645.02,210.938,999.512
1745821596.0,999.512,-907.227,-704.59,924.316
1745821596.0,524.414,-1000,-532.715,999.512
1745821596.0,-1000,-1000,-274.902,-310.059
1745821596.0,91.309,272.461,892.09,69.336
1745821596.0,999.512,577.148,255.371,999.512
1745821596.0,-524.902,-944.824,-780.762,5.371
1745821596.0,-1000,-1000,-505.371,-1000
1745821596.0,-639.648,-383.789,-291.016,-525.391
1745821596.0,682.129,999.512,647.949,797.363
1745821596.0,999.512,841.797,264.16,999.512
1745821596.0,23.438,-580.566,-806.641,483.398
1745821596.0,-1000,-1000,-906.738,-812.5
1745821596.0,999.512,-907.227,-704.59,924.316
1745821596.0,524.414,-1000,-532.715,999.512
1745821596.0,-1000,-1000,-274.902,-310.059
1745821596.0,91.309,272.461,892.09,69.336
1745821596.0,999.512,577.148,255.371,999.512
1745821596.0,-524.902,-944.824,-780.762,5.371
1745821596.0,-1000,-1000,-505.371,-1000
1745821596.0,-639.648,-383.789,-291.016,-525.391
1745821596.0,682.129,999.512,647.949,797.363
1745821596.0,999.512,841.797,264.16,999.512
1745821596.0,23.438,-580.566,-806.641,483.398
1745821596.0,-1000,-1000,-906.738,-812.5
1745821596.0,-1000,-1000,-629.883,-1000
1745821596.0,-149.902,-22.949,605.469,-72.266
1745821596.0,999.512,999.512,617.676,999.512
1745821596.0,200.684,-212.402,-625,566.895
1745821596.0,-1000,-1000,-846.191,-978.027
1745821596.0,-866.699,-242.188,-324.707,-832.031
1745821596.0,487.305,999.512,794.922,630.371
1745821596.0,999.512,863.281,647.461,999.512
1745821596.0,-13.672,-482.91,-685.547,71.777
1745821596.0,-1000,-1000,-948.242,-1000
1745821596.0,-1000,-985.352,-583.008,-1000
1745821596.0,-266.602,125.977,373.047,-260.254
1745821596.0,-1000,-1000,-629.883,-1000
1745821596.0,-149.902,-22.949,605.469,-72.266
1745821596.0,999.512,999.512,617.676,999.512
1745821596.0,200.684,-212.402,-625,566.895
1745821596.0,-1000,-1000,-846.191,-978.027
1745821596.0,-866.699,-242.188,-324.707,-832.031
1745821596.0,487.305,999.512,794.922,630.371
1745821596.0,999.512,863.281,647.461,999.512
1745821596.0,-13.672,-482.91,-685.547,71.777
1745821596.0,-1000,-1000,-948.242,-1000
1745821596.0,-1000,-985.352,-583.008,-1000
1745821596.0,-266.602,125.977,373.047,-260.254
1745821596.0,999.512,999.512,720.215,999.512
1745821596.0,156.25,48.34,-500.488,157.715
1745821596.0,-1000,-1000,-899.902,-1000
1745821596.0,-1000,-1000,-640.625,-1000
1745821596.0,-584.473,-14.16,163.574,-554.199
1745821596.0,999.512,999.512,991.699,999.512
1745821596.0,366.211,180.176,-117.676,345.215
1745821596.0,-1000,-1000,-1000,-1000
1745821596.0,-985.352,-1000,-912.598,-973.633
1745821596.0,-1000,-231.445,-28.32,-1000
1745821596.0,367.188,999.512,983.887,296.387
1745821596.0,354.492,169.922,-104.492,343.75
1745821596.0,999.512,999.512,720.215,999.512
1745821596.0,156.25,48.34,-500.488,157.715
1745821596.0,-1000,-1000,-899.902,-1000
1745821596.0,-1000,-1000,-640.625,-1000
1745821596.0,-584.473,-14.16,163.574,-554.199
1745821596.0,999.512,999.512,991.699,999.512
1745821596.0,366.211,180.176,-117.676,345.215
1745821596.0,-1000,-1000,-1000,-1000
1745821596.0,-985.352,-1000,-912.598,-973.633
1745821596.0,-1000,-231.445,-28.32,-1000
1745821596.0,367.188,999.512,983.887,296.387
1745821596.0,354.492,169.922,-104.492,343.75
1745821596.0,-1000,-1000,-980.957,-1000
1745821596.0,-987.793,-1000,-815.918,-991.699
1745821596.0,-969.727,-227.051,-106.934,-969.727
1745821596.0,-1000,999.512,833.496,-1000
1745821596.0,-1000,-24.902,-182.129,-1000
1745821596.0,-1000,-497.559,-676.758,-1000
1745821596.0,-1000,738.77,-469.238,-1000
1745821596.0,-1000,-550.293,-469.727,-1000
1745821596.0,-1000,-1000,368.164,-1000
1745821596.0,-1000,92.773,-167.48,-1000
1745821596.0,-974.121,915.527,-776.367,-998.047
1745821596.0,-967.285,-782.715,-814.453,-926.27
1745821596.0,-1000,-457.031,-493.652,-1000
1745821596.0,254.395,999.512,814.453,-67.871
1745821596.0,843.262,564.453,201.66,683.594
1745821596.0,-789.551,-836.426,-879.883,-862.305
1745821596.0,-1000,-1000,-814.453,-1000
1745821596.0,-1000,-172.852,-416.992,-937.988
1745821596.0,-127.93,999.512,662.598,-1000
1745821596.0,678.223,496.582,264.648,-978.516
1745821596.0,-856.934,-849.121,-827.637,-998.535
1745821596.0,-1000,-1000,-754.395,-986.328
1745821596.0,-1000,-507.812,-426.27,-978.027
1745821596.0,-282.715,812.988,508.301,-1000
1745821596.0,-1000,-457.031,-493.652,-1000
1745821596.0,254.395,999.512,814.453,-67.871
1745821596.0,843.262,564.453,201.66,683.594
1745821596.0,-789.551,-836.426,-879.883,-862.305
1745821596.0,-1000,-1000,-814.453,-1000
1745821596.0,-1000,-172.852,-416.992,-937.988
1745821596.0,-127.93,999.512,662.598,-1000
1745821596.0,678.223,496.582,264.648,-978.516
1745821596.0,-856.934,-849.121,-827.637,-998.535
1745821596.0,-1000,-1000,-754.395,-986.328
1745821596.0,-1000,-507.812,-426.27,-978.027
1745821596.0,-282.715,812.988,508.301,-1000
1745821596.0,999.512,999.512,625.977,53.711
1745821596.0,-12.207,-18.555,-534.668,-36.133
1745821596.0,-1000,-1000,-828.613,-1000
1745821596.0,-913.574,-193.848,-368.652,-898.926
1745821596.0,-1000,980.469,309.57,-1000
1745821596.0,155.273,999.512,754.883,-77.148
1745821596.0,295.898,157.715,-104.492,236.816
1745821596.0,-1000,-1000,-786.621,-1000
1745821596.0,-1000,-1000,-590.82,-947.266
1745821596.0,-488.281,-253.906,180.176,-1000
1745821596.0,999.512,999.512,999.512,-49.316
1745821596.0,199.707,187.988,-41.504,257.812
1745821596.0,-1000,-1000,-860.352,-1000
1745821596.0,-1000,-1000,-482.91,-1000
1745821596.0,-519.043,13.672,334.473,-983.398
1745821596.0,999.512,999.512,999.512,501.465
1745821596.0,320.801,184.082,10.254,344.727
1745821596.0,-1000,-1000,-618.652,-1000
1745821596.0,-1000,-1000,-224.609,-971.191
1745821596.0,-729.492,-89.355,145.508,-1000
1745821596.0,781.25,999.512,999.512,348.145
1745821596.0,852.051,430.176,267.09,783.203
1745821596.0,-629.395,-899.902,-488.281,-752.93
1745821596.0,-1000,-1000,-250.977,-1000
1745821596.0,-1000,-1000,-860.352,-1000
1745821596.0,-1000,-1000,-482.91,-1000
1745821596.0,-519.043,13.672,334.473,-983.398
1745821596.0,999.512,999.512,999.512,501.465
1745821596.0,320.801,184.082,10.254,344.727
1745821596.0,-1000,-1000,-618.652,-1000
1745821596.0,-1000,-1000,-224.609,-971.191
1745821596.0,-729.492,-89.355,145.508,-1000
1745821596.0,781.25,999.512,999.512,348.145
1745821596.0,852.051,430.176,267.09,783.203
1745821596.0,-629.395,-899.902,-488.281,-752.93
1745821596.0,-1000,-1000,-250.977,-1000
1745821596.0,-267.09,-201.172,206.055,-462.891
1745821596.0,982.422,999.512,999.512,889.16
1745821596.0,968.75,637.207,396.484,996.094
1745821596.0,929.688,-744.629,-321.289,940.918
1745821596.0,976.074,-1000,-257.812,898.438
1745821596.0,966.309,-118.164,135.254,827.637
1745821596.0,966.309,999.512,999.512,977.051
1745821596.0,966.309,431.641,486.328,969.238
1745821596.0,966.309,-843.75,-352.051,962.402
1745821596.0,966.309,-1000,-345.215,967.285
1745821596.0,966.309,-204.59,86.914,966.797
1745821596.0,966.309,999.512,977.539,966.797
1745821596.0,-267.09,-201.172,206.055,-462.891
1745821596.0,982.422,999.512,999.512,889.16
1745821596.0,968.75,637.207,396.484,996.094
1745821596.0,929.688,-744.629,-321.289,940.918
1745821596.0,976.074,-1000,-257.812,898.438
1745821596.0,966.309,-118.164,135.254,827.637
1745821596.0,966.309,999.512,999.512,977.051
1745821596.0,966.309,431.641,486.328,969.238
1745821596.0,966.309,-843.75,-352.051,962.402
1745821596.0,966.309,-1000,-345.215,967.285
1745821596.0,966.309,-204.59,86.914,966.797
1745821596.0,966.309,999.512,977.539,966.797
1745821596.0,966.309,999.512,684.57,966.797
1745821596.0,966.309,-510.254,-200.195,966.797
1745821596.0,966.309,-497.07,-280.762,967.285
1745821596.0,966.309,999.512,-54.199,966.797
1745821596.0,966.309,954.102,749.512,966.797
1745821596.0,966.309,987.793,781.738,966.797
1745821596.0,966.309,-109.375,-205.078,966.797
1745821596.0,966.309,-1000,-585.449,966.797
1745821596.0,966.309,-914.551,-366.211,966.797
1745821596.0,966.309,315.918,597.168,966.797
1745821596.0,966.309,999.512,985.352,966.797
1745821596.0,966.309,116.699,52.734,967.285
1745821596.0,966.309,-1000,-432.617,966.797
1745821596.0,966.309,-221.68,-79.102,966.797
1745821596.0,966.309,989.746,699.219,966.797
1745821596.0,966.309,999.512,999.512,966.797
1745821596.0,966.309,4.883,221.68,966.797
1745821596.0,966.309,-308.105,17.09,967.285
1745821596.0,966.309,999.512,216.797,966.797
1745821596.0,966.309,999.512,544.434,966.797
1745821596.0,966.309,-129.395,999.512,966.797
1745821596.0,966.309,-1000,274.414,966.797
1745821596.0,966.309,-7.324,-45.41,966.797
1745821596.0,966.309,874.023,-46.387,966.797
1745821596.0,966.309,-1000,-432.617,966.797
1745821596.0,966.309,-221.68,-79.102,966.797
1745821596.0,966.309,989.746,699.219,966.797
1745821596.0,966.309,999.512,999.512,966.797
1745821596.0,966.309,4.883,221.68,966.797
1745821596.0,966.309,-308.105,17.09,967.285
1745821596.0,966.309,999.512,216.797,966.797
1745821596.0,966.309,999.512,544.434,966.797
1745821596.0,966.309,-129.395,999.512,966.797
1745821596.0,966.309,-1000,274.414,966.797
1745821596.0,966.309,-7.324,-45.41,966.797
1745821596.0,966.309,874.023,-46.387,966.797
1745821596.0,966.309,-521.973,233.887,966.797
1745821596.0,966.309,455.078,999.512,966.797
1745821596.0,966.309,391.602,193.359,967.285
1745821596.0,966.309,-1000,-465.82,966.797
1745821596.0,980.957,-1000,-292.969,966.797
1745821596.0,901.367,120.605,180.176,967.285
1745821596.0,999.512,999.512,999.512,966.797
1745821596.0,691.895,129.395,160.645,966.797
1745821596.0,-677.246,-1000,-734.375,966.797
1745821596.0,-1000,-1000,-508.789,966.797
1745821596.0,-200.684,-245.117,-64.941,966.797
1745821596.0,999.512,999.512,999.512,966.797
1745821596.0,966.309,-521.973,233.887,966.797
1745821596.0,966.309,455.078,999.512,966.797
1745821596.0,966.309,391.602,193.359,967.285
1745821596.0,966.309,-1000,-465.82,966.797
1745821596.0,980.957,-1000,-292.969,966.797
1745821596.0,901.367,120.605,180.176,967.285
1745821596.0,999.512,999.512,999.512,966.797
1745821596.0,691.895,129.395,160.645,966.797
1745821596.0,-677.246,-1000,-734.375,966.797
1745821596.0,-1000,-1000,-508.789,966.797
1745821596.0,-200.684,-245.117,-64.941,966.797
1745821596.0,999.512,999.512,999.512,966.797
1745821596.0,903.809,219.727,330.566,966.797
1745821596.0,-385.254,-1000,-663.574,967.285
1745821596.0,-1000,-1000,-512.207,966.797
1745821596.0,-155.273,-196.777,-77.637,966.797
1745821596.0,999.512,995.117,927.734,966.797
1745821596.0,949.707,999.512,635.742,966.797
1745821596.0,938.965,-35.156,-195.312,966.797
1745821596.0,973.145,-1000,-296.387,967.285
1745821596.0,966.309,-1000,-201.172,966.797
1745821596.0,966.309,133.789,691.406,966.797
1745821596.0,966.309,999.512,837.891,966.797
1745821596.0,966.309,-48.828,-25.391,966.797
1745821596.0,903.809,219.727,330.566,966.797
1745821596.0,-385.254,-1000,-663.574,967.285
1745821596.0,-1000,-1000,-512.207,966.797
1745821596.0,-155.273,-196.777,-77.637,966.797
1745821596.0,999.512,995.117,927.734,966.797
1745821596.0,949.707,999.512,635.742,966.797
1745821596.0,938.965,-35.156,-195.312,966.797
1745821596.0,973.145,-1000,-296.387,967.285
1745821596.0,966.309,-1000,-201.172,966.797
1745821596.0,966.309,133.789,691.406,966.797
1745821596.0,966.309,999.512,837.891,966.797
1745821596.0,966.309,-48.828,-25.391,966.797
1745821596.0,966.309,-1000,-339.844,967.285
1745821596.0,966.309,-171.387,-104.004,966.797
1745821596.0,966.309,994.629,769.531,966.797
1745821596.0,966.309,999.512,934.57,966.797
1745821596.0,966.309,-47.363,-17.09,966.797
1745821596.0,966.309,-310.547,-203.613,967.285
1745821596.0,966.309,999.512,162.598,966.797
1745821596.0,966.309,999.512,640.625,966.797
1745821596.0,966.309,-83.008,879.883,966.797
1745821596.0,966.309,-1000,-26.855,966.797
1745821596.0,966.309,-276.855,-323.73,967.285
1745821596.0,966.309,999.512,-147.949,966.797
1745821596.0,966.309,-1000,-339.844,967.285
1745821596.0,966.309,-171.387,-104.004,966.797
1745821596.0,966.309,994.629,769.531,966.797
1745821596.0,966.309,999.512,934.57,966.797
1745821596.0,966.309,-47.363,-17.09,966.797
1745821596.0,966.309,-310.547,-203.613,967.285
1745821596.0,966.309,999.512,162.598,966.797
1745821596.0,966.309,999.512,640.625,966.797
1745821596.0,966.309,-83.008,879.883,966.797
1745821596.0,966.309,-1000,-26.855,966.797
1745821596.0,966.309,-276.855,-323.73,967.285
1745821596.0,966.309,999.512,-147.949,966.797
1745821596.0,966.309,889.648,310.547,967.285
1745821596.0,966.309,999.512,999.512,967.285
1745821596.0,966.309,181.641,167.48,966.797
1745821596.0,966.309,-1000,-381.348,966.797
1745821596.0,980.957,335.449,-266.113,966.797
1745821596.0,898.438,999.512,193.848,966.797
1745821596.0,999.512,999.512,999.512,966.797
1745821596.0,643.066,187.988,124.512,966.797
1745821596.0,-729.004,-1000,-692.871,966.797
1745821596.0,-1000,-1000,-615.723,966.797
1745821596.0,-224.121,-258.789,-189.941,966.797
1745821596.0,999.512,999.512,987.305,966.797
1745821596.0,966.309,889.648,310.547,967.285
1745821596.0,966.309,999.512,999.512,967.285
1745821596.0,966.309,181.641,167.48,966.797
1745821596.0,966.309,-1000,-381.348,966.797
1745821596.0,980.957,335.449,-266.113,966.797
1745821596.0,898.438,999.512,193.848,966.797
1745821596.0,999.512,999.512,999.512,966.797
1745821596.0,643.066,187.988,124.512,966.797
1745821596.0,-729.004,-1000,-692.871,966.797
1745821596.0,-1000,-1000,-615.723,966.797
1745821596.0,-224.121,-258.789,-189.941,966.797
1745821596.0,999.512,999.512,987.305,966.797
1745821596.0,688.965,217.773,75.195,966.797
1745821596.0,-687.5,-1000,-742.188,966.797
1745821596.0,-1000,-1000,-400.391,966.797
1745821596.0,-158.203,-187.5,-42.969,966.797
1745821596.0,999.512,999.512,866.699,967.285
1745821596.0,875.977,973.633,293.945,966.797
1745821596.0,999.512,-242.676,-410.156,966.797
1745821596.0,382.812,-1000,-544.434,966.797
1745821596.0,-1000,-1000,-558.594,966.797
1745821596.0,-25.391,-50.781,611.328,966.797
1745821596.0,999.512,999.512,589.844,966.797
1745821596.0,782.227,353.516,-430.176,966.797
1745821596.0,688.965,217.773,75.195,966.797
1745821596.0,-687.5,-1000,-742.188,966.797
1745821596.0,-1000,-1000,-400.391,966.797
1745821596.0,-158.203,-187.5,-42.969,966.797
1745821596.0,999.512,999.512,866.699,967.285
1745821596.0,875.977,973.633,293.945,966.797
1745821596.0,999.512,-242.676,-410.156,966.797
1745821596.0,382.812,-1000,-544.434,966.797
1745821596.0,-1000,-1000,-558.594,966.797
1745821596.0,-25.391,-50.781,611.328,966.797
1745821596.0,999.512,999.512,589.844,966.797
1745821596.0,782.227,353.516,-430.176,966.797
1745821596.0,-636.23,-1000,-770.508,967.285
1745821596.0,-1000,-877.441,-539.551,966.797
1745821596.0,438.477,613.77,618.652,966.797
1745821596.0,999.512,999.512,540.039,966.797
1745821596.0,-50.781,-548.34,-592.285,966.797
1745821596.0,-1000,-389.648,-578.125,966.797
1745821596.0,-894.531,999.512,-338.867,966.797
1745821596.0,448.242,999.512,231.445,967.285
1745821596.0,999.512,-135.254,116.211,967.285
1745821596.0,-267.578,-1000,-707.031,966.797
1745821596.0,-1000,-940.43,-682.129,967.285
1745821596.0,-1000,-1000,-586.426,966.797
1745821596.0,-636.23,-1000,-770.508,967.285
1745821596.0,-1000,-877.441,-539.551,966.797
1745821596.0,438.477,613.77,618.652,966.797
1745821596.0,999.512,999.512,540.039,966.797
1745821596.0,-50.781,-548.34,-592.285,966.797
1745821596.0,-1000,-389.648,-578.125,966.797
1745821596.0,-894.531,999.512,-338.867,966.797
1745821596.0,448.242,999.512,231.445,967.285
1745821596.0,999.512,-135.254,116.211,967.285
1745821596.0,-267.578,-1000,-707.031,966.797
1745821596.0,-1000,-940.43,-682.129,967.285
1745821596.0,-1000,-1000,-586.426,966.797
1745821597.0,-1000,-126.465,-732.422,-1000
1745821597.0,-1000,-1000,-979.98,-1000
1745821597.0,-1000,-1000,-928.223,-1000
1745821597.0,-1000,-329.102,-408.691,-1000
1745821597.0,-1000,782.227,-112.793,-1000
1745821597.0,-1000,-605.957,-826.172,-1000
1745821597.0,-1000,-1000,-1000,-1000
1745821597.0,-1000,-922.852,-1000,-1000
1745821597.0,-1000,-1000,-709.961,-1000
1745821597.0,-1000,433.594,206.543,-1000
1745821597.0,-1000,73.73,-290.527,-1000
1745821597.0,-1000,-395.508,-459.961,-1000
1745821596.0,-246.094,112.305,18.555,967.285
1745821596.0,999.512,999.512,545.41,966.797
1745821596.0,165.039,113.281,-375,966.797
1745821596.0,-1000,-1000,-876.953,967.285
1745821596.0,-1000,-1000,-781.25,976.074
1745821596.0,-246.094,113.77,47.852,895.996
1745821596.0,999.512,999.512,802.246,999.512
1745821596.0,135.742,-76.172,-351.074,375
1745821596.0,-1000,-1000,-944.336,-928.223
1745821596.0,-1000,-1000,-775.879,-1000
1745821596.0,-266.602,-210.938,-35.156,-250.488
1745821596.0,999.512,999.512,813.477,999.512
1745821596.0,-246.094,112.305,18.555,967.285
1745821596.0,999.512,999.512,545.41,966.797
1745821596.0,165.039,113.281,-375,966.797
1745821596.0,-1000,-1000,-876.953,967.285
1745821596.0,-1000,-1000,-781.25,976.074
1745821596.0,-246.094,113.77,47.852,895.996
1745821596.0,999.512,999.512,802.246,999.512
1745821596.0,135.742,-76.172,-351.074,375
1745821596.0,-1000,-1000,-944.336,-928.223
1745821596.0,-1000,-1000,-775.879,-1000
1745821596.0,-266.602,-210.938,-35.156,-250.488
1745821596.0,999.512,999.512,813.477,999.512
1745821596.0,211.914,166.504,-249.023,491.699
1745821596.0,-1000,-1000,-852.051,-862.305
1745821596.0,-1000,-1000,-773.438,-1000
1745821596.0,-567.383,-254.883,-205.566,-378.418
1745821596.0,959.473,999.512,858.887,967.285
1745821596.0,793.457,711.914,-89.355,966.309
1745821596.0,-729.004,-707.52,-872.559,-415.039
1745821596.0,-1000,-1000,-815.43,-1000
1745821596.0,-1000,-1000,-729.98,-1000
1745821596.0,-300.293,-6.836,514.648,-247.07
1745821596.0,999.512,999.512,254.395,999.512
1745821596.0,-339.844,-322.266,-935.547,-300.781
1745821596.0,211.914,166.504,-249.023,491.699
1745821596.0,-1000,-1000,-852.051,-862.305
1745821596.0,-1000,-1000,-773.438,-1000
1745821596.0,-567.383,-254.883,-205.566,-378.418
1745821596.0,959.473,999.512,858.887,967.285
1745821596.0,793.457,711.914,-89.355,966.309
1745821596.0,-729.004,-707.52,-872.559,-415.039
1745821596.0,-1000,-1000,-815.43,-1000
1745821596.0,-1000,-1000,-729.98,-1000
1745821596.0,-300.293,-6.836,514.648,-247.07
1745821596.0,999.512,999.512,254.395,999.512
1745821596.0,-339.844,-322.266,-935.547,-300.781
1745821596.0,-1000,-1000,-923.34,-1000
1745821596.0,-926.27,-761.23,-666.504,-929.688
1745821596.0,-1000,782.715,251.465,-1000
1745821596.0,-1000,649.414,-7.324,-1000
1745821596.0,-1000,-1000,-896.973,-1000
1745821596.0,-1000,-154.297,-698.73,-1000
1745821596.0,-1000,999.512,-502.441,-1000
1745821596.0,-1000,224.121,-1.953,-1000
1745821596.0,-1000,-983.398,-95.703,-1000
1745821596.0,-1000,-1000,-730.469,-1000
1745821596.0,-1000,-392.09,-685.059,-1000
1745821596.0,-1000,999.512,-508.301,-1000
1745821596.0,-1000,-1000,-923.34,-1000
1745821596.0,-926.27,-761.23,-666.504,-929.688
1745821596.0,-1000,782.715,251.465,-1000
1745821596.0,-1000,649.414,-7.324,-1000
1745821596.0,-1000,-1000,-896.973,-1000
1745821596.0,-1000,-154.297,-698.73,-1000
1745821596.0,-1000,999.512,-502.441,-1000
1745821596.0,-1000,224.121,-1.953,-1000
1745821596.0,-1000,-983.398,-95.703,-1000
1745821596.0,-1000,-1000,-730.469,-1000
1745821596.0,-1000,-392.09,-685.059,-1000
1745821596.0,-1000,999.512,-508.301,-1000
1745821596.0,-1000,306.152,-20.996,-1000
1745821596.0,-1000,-988.77,128.418,-1000
1745821596.0,-1000,-1000,-579.102,-1000
1745821596.0,-927.246,-75.684,-711.914,-1000
1745821596.0,-1000,297.363,-657.715,-941.406
1745821596.0,-500.488,-261.23,101.562,-1000
1745821596.0,999.512,999.512,908.203,-84.473
1745821596.0,208.496,216.309,-310.547,195.801
1745821596.0,-1000,-1000,-952.637,-1000
1745821596.0,-971.191,-943.848,-876.465,-1000
1745821596.0,-973.145,-1000,-606.445,-971.191
1745821596.0,-1000,131.348,29.297,-1000
1745821596.0,-1000,306.152,-20.996,-1000
1745821596.0,-1000,-988.77,128.418,-1000
1745821596.0,-1000,-1000,-579.102,-1000
1745821596.0,-927.246,-75.684,-711.914,-1000
1745821596.0,-1000,297.363,-657.715,-941.406
1745821596.0,-500.488,-261.23,101.562,-1000
1745821596.0,999.512,999.512,908.203,-84.473
1745821596.0,208.496,216.309,-310.547,195.801
1745821596.0,-1000,-1000,-952.637,-1000
1745821596.0,-971.191,-943.848,-876.465,-1000
1745821596.0,-973.145,-1000,-606.445,-971.191
1745821596.0,-1000,131.348,29.297,-1000
1745821596.0,-1000,240.723,-550.781,-1000
1745821596.0,-1000,-1000,-930.176,-1000
1745821596.0,-1000,-1000,-929.688,-1000
1745821597.0,-1000,-987.793,-582.52,-1000
1745821597.0,-1000,507.812,287.598,-1000
1745821597.0,-1000,405.762,-311.035,-1000
1745821597.0,-1000,-1000,-766.113,-1000
1745821597.0,-917.48,-993.164,-706.055,-1000
1745821597.0,-1000,-1000,-538.574,-1000
1745821597.0,-416.992,436.035,777.344,-1000
1745821597.0,286.133,602.539,296.387,-1000
1745821597.0,-914.551,-942.383,-438.477,-1000
1745821596.0,-1000,240.723,-550.781,-1000
1745821596.0,-1000,-1000,-930.176,-1000
1745821596.0,-1000,-1000,-929.688,-1000
1745821597.0,-1000,-987.793,-582.52,-1000
1745821597.0,-1000,507.812,287.598,-1000
1745821597.0,-1000,405.762,-311.035,-1000
1745821597.0,-1000,-1000,-766.113,-1000
1745821597.0,-917.48,-993.164,-706.055,-1000
1745821597.0,-1000,-1000,-538.574,-1000
1745821597.0,-416.992,436.035,777.344,-1000
1745821597.0,286.133,602.539,296.387,-1000
1745821597.0,-914.551,-942.383,-438.477,-1000
1745821597.0,-1000,-1000,-343.75,-1000
1745821597.0,-1000,-269.043,-188.477,-1000
1745821597.0,347.168,999.512,999.512,-1000
1745821597.0,698.242,500.488,390.625,-1000
1745821597.0,-933.594,-1000,-471.68,-1000
1745821597.0,-995.605,-76.172,-67.871,-1000
1745821597.0,-1000,999.512,-24.414,-1000
1745821597.0,13.672,999.512,725.098,-1000
1745821597.0,359.863,139.648,145.996,-1000
1745821597.0,-1000,-1000,-766.602,-1000
1745821597.0,-992.188,-1000,-405.273,-1000
1745821597.0,-1000,-626.465,-255.371,-1000
1745821597.0,-1000,-1000,-343.75,-1000
1745821597.0,-1000,-269.043,-188.477,-1000
1745821597.0,347.168,999.512,999.512,-1000
1745821597.0,698.242,500.488,390.625,-1000
1745821597.0,-933.594,-1000,-471.68,-1000
1745821597.0,-995.605,-76.172,-67.871,-1000
1745821597.0,-1000,999.512,-24.414,-1000
1745821597.0,13.672,999.512,725.098,-1000
1745821597.0,359.863,139.648,145.996,-1000
1745821597.0,-1000,-1000,-766.602,-1000
1745821597.0,-992.188,-1000,-405.273,-1000
1745821597.0,-1000,-626.465,-255.371,-1000
1745821597.0,88.867,758.301,567.383,-1000
1745821597.0,999.512,999.512,681.641,-1000
1745821597.0,-47.852,-100.098,-299.805,-1000
1745821597.0,-1000,-1000,-548.828,-998.535
1745821597.0,-966.797,-621.582,-154.297,-949.707
1745821597.0,246.094,726.562,703.613,-1000
1745821597.0,999.512,999.512,846.191,-71.777
1745821597.0,103.516,22.461,-351.074,94.238
1745821597.0,-1000,-1000,-748.535,-1000
1745821597.0,-1000,-853.027,-285.645,-930.664
1745821597.0,-179.199,427.246,492.188,-1000
1745821597.0,999.512,999.512,999.512,-40.039
1745821597.0,88.867,758.301,567.383,-1000
1745821597.0,999.512,999.512,681.641,-1000
1745821597.0,-47.852,-100.098,-299.805,-1000
1745821597.0,-1000,-1000,-548.828,-998.535
1745821597.0,-966.797,-621.582,-154.297,-949.707
1745821597.0,246.094,726.562,703.613,-1000
1745821597.0,999.512,999.512,846.191,-71.777
1745821597.0,103.516,22.461,-351.074,94.238
1745821597.0,-1000,-1000,-748.535,-1000
1745821597.0,-1000,-853.027,-285.645,-930.664
1745821597.0,-179.199,427.246,492.188,-1000
1745821597.0,999.512,999.512,999.512,-40.039
1745821597.0,159.18,152.832,-81.543,249.512
1745821597.0,-1000,-1000,-636.719,-1000
1745821597.0,-1000,-1000,-263.184,-1000
1745821597.0,-266.602,187.012,349.121,-925.781
1745821597.0,999.512,999.512,999.512,571.289
1745821597.0,262.207,159.668,-16.602,317.871
1745821597.0,-1000,-1000,-655.762,-1000
1745821597.0,-946.289,-1000,-351.562,-908.203
1745821597.0,-1000,-876.953,-74.707,-1000
1745821597.0,183.594,679.199,908.203,-93.262
1745821597.0,645.02,581.543,166.016,462.891
1745821597.0,-920.41,-944.824,-722.168,-1000
1745821597.0,159.18,152.832,-81.543,249.512
1745821597.0,-1000,-1000,-636.719,-1000
1745821597.0,-1000,-1000,-263.184,-1000
1745821597.0,-266.602,187.012,349.121,-925.781
1745821597.0,999.512,999.512,999.512,571.289
1745821597.0,262.207,159.668,-16.602,317.871
1745821597.0,-1000,-1000,-655.762,-1000
1745821597.0,-946.289,-1000,-351.562,-908.203
1745821597.0,-1000,-876.953,-74.707,-1000
1745821597.0,183.594,679.199,908.203,-93.262
1745821597.0,645.02,581.543,166.016,462.891
1745821597.0,-920.41,-944.824,-722.168,-1000
1745821597.0,-1000,-1000,-366.211,-975.586
1745821597.0,-965.332,-225.098,18.066,-1000
1745821597.0,503.418,999.512,999.512,-66.406
1745821597.0,675.781,548.828,273.926,540.039
1745821597.0,-961.914,-1000,-844.238,-972.656
1745821597.0,-1000,-747.559,-443.848,-1000
1745821597.0,-943.359,947.266,-19.043,-944.824
1745821597.0,-1000,242.188,413.574,-1000
1745821597.0,-1000,-1000,-343.75,-1000
1745821597.0,-1000,-1000,-823.242,-1000
1745821597.0,-1000,-361.328,-605.957,-1000
1745821597.0,-1000,999.512,-547.852,-1000
1745821597.0,-1000,211.426,223.145,-1000
1745821597.0,-1000,-1000,74.707,-1000
1745821597.0,-1000,-939.453,-613.281,-1000
1745821597.0,-927.246,-973.633,-607.422,-1000
1745821597.0,-1000,-1000,-560.059,-1000
1745821597.0,-198.242,344.238,449.219,-1000
1745821597.0,999.512,999.512,549.805,-1000
1745821597.0,-430.176,-454.59,-662.598,-1000
1745821597.0,-1000,-1000,-921.387,-1000
1745821597.0,-927.246,-1000,-707.52,-1000
1745821597.0,-1000,-727.539,-56.641,-1000
1745821597.0,-1000,752.93,94.727,-1000
1745821597.0,-1000,211.426,223.145,-1000
1745821597.0,-1000,-1000,74.707,-1000
1745821597.0,-1000,-939.453,-613.281,-1000
1745821597.0,-927.246,-973.633,-607.422,-1000
1745821597.0,-1000,-1000,-560.059,-1000
1745821597.0,-198.242,344.238,449.219,-1000
1745821597.0,999.512,999.512,549.805,-1000
1745821597.0,-430.176,-454.59,-662.598,-1000
1745821597.0,-1000,-1000,-921.387,-1000
1745821597.0,-927.246,-1000,-707.52,-1000
1745821597.0,-1000,-727.539,-56.641,-1000
1745821597.0,-1000,752.93,94.727,-1000
1745821597.0,-1000,208.496,-290.039,-1000
1745821597.0,-1000,-1000,-143.555,-1000
1745821597.0,-1000,427.734,775.391,-1000
1745821597.0,-1000,409.668,-75.195,-1000
1745821597.0,-1000,-1000,-739.746,-1000
1745821597.0,-1000,-226.074,-347.168,-1000
1745821597.0,-1000,999.512,120.117,-1000
1745821597.0,-1000,927.246,850.098,-1000
1745821597.0,-1000,-390.137,-119.141,-1000
1745821597.0,-1000,-1000,-704.102,-1000
1745821597.0,-1000,21.484,-278.809,-1000
1745821597.0,-1000,999.512,-130.371,-1000
1745821597.0,-1000,208.496,-290.039,-1000
1745821597.0,-1000,-1000,-143.555,-1000
1745821597.0,-1000,427.734,775.391,-1000
1745821597.0,-1000,409.668,-75.195,-1000
1745821597.0,-1000,-1000,-739.746,-1000
1745821597.0,-1000,-226.074,-347.168,-1000
1745821597.0,-1000,999.512,120.117,-1000
1745821597.0,-1000,927.246,850.098,-1000
1745821597.0,-1000,-390.137,-119.141,-1000
1745821597.0,-1000,-1000,-704.102,-1000
1745821597.0,-1000,21.484,-278.809,-1000
1745821597.0,-1000,999.512,-130.371,-1000
1745821597.0,-1000,348.145,627.441,-1000
1745821597.0,-1000,-1000,120.605,-1000
1745821597.0,-975.586,27.344,-342.773,-1000
1745821597.0,-964.844,402.344,-274.414,-1000
1745821597.0,-1000,-991.699,-150.391,-1000
1745821597.0,221.68,615.234,978.516,-1000
1745821597.0,878.418,687.5,551.758,-1000
1745821597.0,-657.715,-893.066,-524.902,-1000
1745821597.0,-1000,-1000,-475.586,-1000
1745821597.0,-687.5,-336.426,-153.32,-1000
1745821597.0,663.574,999.512,832.031,-1000
1745821597.0,999.512,899.902,687.988,-1000
1745821597.0,-1000,348.145,627.441,-1000
1745821597.0,-1000,-1000,120.605,-1000
1745821597.0,-975.586,27.344,-342.773,-1000
1745821597.0,-964.844,402.344,-274.414,-1000
1745821597.0,-1000,-991.699,-150.391,-1000
1745821597.0,221.68,615.234,978.516,-1000
1745821597.0,878.418,687.5,551.758,-1000
1745821597.0,-657.715,-893.066,-524.902,-1000
1745821597.0,-1000,-1000,-475.586,-1000
1745821597.0,-687.5,-336.426,-153.32,-1000
1745821597.0,663.574,999.512,832.031,-1000
1745821597.0,999.512,899.902,687.988,-1000
1745821597.0,-155.762,-416.504,-387.207,-1000
1745821597.0,-1000,-1000,-452.637,-1000
1745821597.0,-664.551,-276.367,-66.406,-1000
1745821597.0,651.855,971.191,683.594,-1000
1745821597.0,999.512,999.512,736.328,-1000
1745821597.0,127.93,-110.352,-103.027,-1000
1745821597.0,-1000,-1000,-361.328,-1000
1745821597.0,-1000,-965.82,-309.57,-1000
1745821597.0,-115.723,264.648,188.477,-1000
1745821597.0,999.512,999.512,572.266,-1000
1745821597.0,154.297,-9.277,-233.398,-1000
1745821597.0,-1000,-1000,-580.078,-1000
1745821597.0,-1000,-891.113,-376.465,-1000
1745821597.0,-93.75,367.676,243.164,-1000
1745821597.0,999.512,999.512,865.234,-1000
1745821597.0,184.57,109.375,-201.172,-1000
1745821597.0,-1000,-1000,-771.484,-1000
1745821597.0,-961.914,44.434,-156.738,-924.805
1745821597.0,252.93,999.512,468.75,-1000
1745821597.0,999.512,999.512,999.512,-303.223
1745821597.0,321.289,191.406,26.855,219.238
1745821597.0,-929.199,-1000,-564.941,-952.637
1745821597.0,-1000,-1000,-48.828,-1000
1745821597.0,-222.656,-222.168,302.734,-421.387
1745821597.0,-1000,-891.113,-376.465,-1000
1745821597.0,-93.75,367.676,243.164,-1000
1745821597.0,999.512,999.512,865.234,-1000
1745821597.0,184.57,109.375,-201.172,-1000
1745821597.0,-1000,-1000,-771.484,-1000
1745821597.0,-961.914,44.434,-156.738,-924.805
1745821597.0,252.93,999.512,468.75,-1000
1745821597.0,999.512,999.512,999.512,-303.223
1745821597.0,321.289,191.406,26.855,219.238
1745821597.0,-929.199,-1000,-564.941,-952.637
1745821597.0,-1000,-1000,-48.828,-1000
1745821597.0,-222.656,-222.168,302.734,-421.387
1745821597.0,999.512,999.512,999.512,999.512
1745821597.0,884.277,437.012,311.035,713.867
1745821597.0,-408.203,-908.203,-500.977,-691.895
1745821597.0,-1000,-1000,-250.488,-1000
1745821597.0,-307.617,-226.562,41.504,-651.367
1745821597.0,984.375,999.512,999.512,711.426
1745821597.0,900.391,999.512,487.305,973.633
1745821597.0,999.512,-223.633,-293.457,999.512
1745821597.0,547.852,-1000,-416.504,423.828
1745821597.0,-1000,-1000,-281.738,-1000
1745821597.0,-149.414,-21.484,888.184,-194.824
1745821597.0,999.512,999.512,654.297,999.512
1745821597.0,999.512,999.512,999.512,999.512
1745821597.0,884.277,437.012,311.035,713.867
1745821597.0,-408.203,-908.203,-500.977,-691.895
1745821597.0,-1000,-1000,-250.488,-1000
1745821597.0,-307.617,-226.562,41.504,-651.367
1745821597.0,984.375,999.512,999.512,711.426
1745821597.0,900.391,999.512,487.305,973.633
1745821597.0,999.512,-223.633,-293.457,999.512
1745821597.0,547.852,-1000,-416.504,423.828
1745821597.0,-1000,-1000,-281.738,-1000
1745821597.0,-149.414,-21.484,888.184,-194.824
1745821597.0,999.512,999.512,654.297,999.512
1745821597.0,919.922,-259.766,-287.598,934.082
1745821597.0,947.266,-539.062,-99.121,942.383
1745821597.0,970.215,925.781,372.559,973.145
1745821597.0,966.309,999.512,991.699,967.285
1745821597.0,966.309,340.82,708.984,967.285
1745821597.0,966.309,-183.105,276.367,967.285
1745821597.0,966.309,933.594,434.082,966.797
1745821597.0,966.309,-510.254,156.738,966.797
1745821597.0,966.309,-426.758,729.98,966.797
1745821597.0,966.309,999.512,945.801,966.797
1745821597.0,966.309,-161.621,89.844,966.797
1745821597.0,966.309,-130.859,165.039,966.797
1745821597.0,966.309,292.48,224.121,966.797
1745821597.0,966.309,-468.262,479.98,967.285
1745821597.0,966.309,999.512,999.512,966.797
1745821597.0,966.309,312.5,182.617,966.797
1745821597.0,966.309,-1000,-297.363,966.797
1745821597.0,979.492,-58.594,0.977,966.797
1745821597.0,891.602,999.512,631.836,966.797
1745821597.0,999.512,999.512,999.512,966.797
1745821597.0,510.254,-383.789,-179.688,967.285
1745821597.0,-209.473,-759.277,-576.172,966.797
1745821597.0,884.277,810.059,-91.797,967.285
1745821597.0,974.609,999.512,244.141,967.285
1745821597.0,966.309,292.48,224.121,966.797
1745821597.0,966.309,-468.262,479.98,967.285
1745821597.0,966.309,999.512,999.512,966.797
1745821597.0,966.309,312.5,182.617,966.797
1745821597.0,966.309,-1000,-297.363,966.797
1745821597.0,979.492,-58.594,0.977,966.797
1745821597.0,891.602,999.512,631.836,966.797
1745821597.0,999.512,999.512,999.512,966.797
1745821597.0,510.254,-383.789,-179.688,967.285
1745821597.0,-209.473,-759.277,-576.172,966.797
1745821597.0,884.277,810.059,-91.797,967.285
1745821597.0,974.609,999.512,244.141,967.285
1745821597.0,999.512,691.895,863.77,966.797
1745821597.0,480.957,-578.613,-62.988,966.797
1745821597.0,-883.789,-1000,-494.629,966.797
1745821597.0,-1000,-1000,-425.781,966.797
1745821597.0,-243.652,-277.344,-123.047,966.797
1745821597.0,999.512,999.512,999.512,966.797
1745821597.0,549.805,338.379,154.785,966.797
1745821597.0,-828.613,-966.309,-857.91,967.285
1745821597.0,-1000,-1000,-805.664,974.121
1745821597.0,-362.793,-247.559,-454.59,936.035
1745821597.0,999.512,999.512,605.469,963.867
1745821597.0,521.484,329.59,-68.848,971.68
1745821597.0,-886.23,-956.543,-967.285,-199.219
1745821597.0,-1000,-1000,-828.613,-1000
1745821597.0,-716.309,-425.781,-396.484,-538.574
1745821597.0,651.367,919.922,694.336,853.027
1745821597.0,986.328,934.57,312.5,957.031
1745821597.0,999.512,999.512,-453.613,991.699
1745821597.0,392.09,237.793,-462.891,787.109
1745821597.0,-1000,-1000,-635.742,-852.051
1745821597.0,-226.562,-254.883,373.535,-299.316
1745821597.0,999.512,999.512,663.086,999.512
1745821597.0,939.453,143.066,-231.934,936.035
1745821597.0,938.965,-1000,-331.543,940.43
1745821597.0,973.145,-304.199,-131.348,973.633
1745821597.0,966.309,979.98,687.5,966.797
1745821597.0,966.309,999.512,930.664,966.797
1745821597.0,966.309,-125.488,108.398,966.797
1745821597.0,966.309,-1000,-89.355,967.285
1745821597.0,966.309,273.438,333.496,967.285
1745821597.0,966.309,999.512,841.309,966.797
1745821597.0,966.309,999.512,979.004,966.797
1745821597.0,966.309,-351.074,100.586,966.797
1745821597.0,966.309,-438.965,-87.891,966.797
1745821597.0,966.309,999.512,404.297,966.797
1745821597.0,966.309,895.508,711.914,967.285
1745821597.0,973.145,-304.199,-131.348,973.633
1745821597.0,966.309,979.98,687.5,966.797
1745821597.0,966.309,999.512,930.664,966.797
1745821597.0,966.309,-125.488,108.398,966.797
1745821597.0,966.309,-1000,-89.355,967.285
1745821597.0,966.309,273.438,333.496,967.285
1745821597.0,966.309,999.512,841.309,966.797
1745821597.0,966.309,999.512,979.004,966.797
1745821597.0,966.309,-351.074,100.586,966.797
1745821597.0,966.309,-438.965,-87.891,966.797
1745821597.0,966.309,999.512,404.297,966.797
1745821597.0,966.309,895.508,711.914,967.285
1745821598.0,-1000,-1000,-657.715,966.797
1745821598.0,-1000,-831.055,-469.238,966.797
1745821598.0,293.945,526.367,329.102,966.797
1745821598.0,999.512,999.512,756.348,967.285
1745821598.0,90.82,-133.301,-363.281,967.285
1745821598.0,-1000,-777.344,-560.059,966.797
1745821598.0,56.641,629.883,-273.438,966.797
1745821598.0,999.512,999.512,128.418,966.797
1745821598.0,999.512,755.371,778.32,966.797
1745821598.0,177.246,-563.965,-276.855,966.797
1745821598.0,-1000,-1000,-754.395,966.797
1745821598.0,-1000,-1000,-523.438,966.797
1745821597.0,966.309,999.512,999.512,966.797
1745821597.0,966.309,39.062,306.152,966.797
1745821597.0,966.309,-570.312,34.18,966.797
1745821597.0,966.309,969.727,201.172,966.797
1745821597.0,965.82,783.691,355.957,967.285
1745821597.0,975.586,882.812,999.512,966.797
1745821597.0,891.113,268.555,204.59,967.285
1745821597.0,999.512,-1000,-420.41,966.797
1745821597.0,253.418,-1000,-512.695,966.797
1745821597.0,-338.867,-282.715,-150.879,966.797
1745821597.0,999.512,999.512,999.512,967.285
1745821597.0,535.645,200.195,12.207,967.285
1745821597.0,966.309,999.512,999.512,966.797
1745821597.0,966.309,39.062,306.152,966.797
1745821597.0,966.309,-570.312,34.18,966.797
1745821597.0,966.309,969.727,201.172,966.797
1745821597.0,965.82,783.691,355.957,967.285
1745821597.0,975.586,882.812,999.512,966.797
1745821597.0,891.113,268.555,204.59,967.285
1745821597.0,999.512,-1000,-420.41,966.797
1745821597.0,253.418,-1000,-512.695,966.797
1745821597.0,-338.867,-282.715,-150.879,966.797
1745821597.0,999.512,999.512,999.512,967.285
1745821597.0,535.645,200.195,12.207,967.285
1745821597.0,-909.18,-1000,-827.637,966.797
1745821597.0,-1000,-1000,-532.715,966.797
1745821597.0,-242.188,-101.562,-84.961,966.797
1745821597.0,999.512,999.512,799.805,966.797
1745821597.0,426.758,178.223,-40.527,966.797
1745821597.0,-977.539,-1000,-737.793,967.285
1745821597.0,-969.727,-953.125,-516.113,967.285
1745821597.0,-1000,-1000,-619.141,966.309
1745821597.0,-38.574,174.805,327.637,967.773
1745821597.0,999.512,976.562,113.77,965.332
1745821597.0,-370.117,-558.594,-818.848,960.938
1745821597.0,-1000,-1000,-699.219,968.262
1745821597.0,-909.18,-1000,-827.637,966.797
1745821597.0,-1000,-1000,-532.715,966.797
1745821597.0,-242.188,-101.562,-84.961,966.797
1745821597.0,999.512,999.512,799.805,966.797
1745821597.0,426.758,178.223,-40.527,966.797
1745821597.0,-977.539,-1000,-737.793,967.285
1745821597.0,-969.727,-953.125,-516.113,967.285
1745821597.0,-1000,-1000,-619.141,966.309
1745821597.0,-38.574,174.805,327.637,967.773
1745821597.0,999.512,976.562,113.77,965.332
1745821597.0,-370.117,-558.594,-818.848,960.938
1745821597.0,-1000,-1000,-699.219,968.262
1745821597.0,-1000,-0.977,-460.449,922.852
1745821597.0,-95.215,999.512,244.141,971.191
1745821597.0,870.117,553.711,68.359,979.004
1745821597.0,-675.781,-786.133,-855.957,-335.938
1745821597.0,-1000,-1000,-982.91,-1000
1745821597.0,-1000,-196.777,-656.25,-1000
1745821597.0,-747.559,999.512,279.785,-506.348
1745821597.0,859.863,956.055,407.715,999.512
1745821597.0,16.113,-314.941,-677.246,39.062
1745821597.0,-1000,-1000,-982.422,-1000
1745821597.0,-937.012,-1000,-743.164,-948.242
1745821597.0,-990.723,300.293,-27.832,-985.84
1745821597.0,-1000,-0.977,-460.449,922.852
1745821597.0,-95.215,999.512,244.141,971.191
1745821597.0,870.117,553.711,68.359,979.004
1745821597.0,-675.781,-786.133,-855.957,-335.938
1745821597.0,-1000,-1000,-982.91,-1000
1745821597.0,-1000,-196.777,-656.25,-1000
1745821597.0,-747.559,999.512,279.785,-506.348
1745821597.0,859.863,956.055,407.715,999.512
1745821597.0,16.113,-314.941,-677.246,39.062
1745821597.0,-1000,-1000,-982.422,-1000
1745821597.0,-937.012,-1000,-743.164,-948.242
1745821597.0,-990.723,300.293,-27.832,-985.84
1745821597.0,-1000,616.211,213.379,-1000
1745821597.0,-1000,-1000,-670.898,-1000
1745821597.0,-1000,-99.121,-761.23,-1000
1745821597.0,-1000,346.68,-810.547,-1000
1745821597.0,-1000,-1000,-622.07,-1000
1745821597.0,-1000,104.004,157.227,-1000
1745821597.0,-1000,335.449,-437.988,-1000
1745821597.0,-1000,-1000,-1000,-1000
1745821597.0,-1000,-996.582,-976.562,-1000
1745821597.0,-1000,-970.703,-973.145,-1000
1745821597.0,-1000,-1000,-765.137,-1000
1745821597.0,-1000,-1000,-834.473,-1000
1745821597.0,-1000,616.211,213.379,-1000
1745821597.0,-1000,-1000,-670.898,-1000
1745821597.0,-1000,-99.121,-761.23,-1000
1745821597.0,-1000,346.68,-810.547,-1000
1745821597.0,-1000,-1000,-622.07,-1000
1745821597.0,-1000,104.004,157.227,-1000
1745821597.0,-1000,335.449,-437.988,-1000
1745821597.0,-1000,-1000,-1000,-1000
1745821597.0,-1000,-996.582,-976.562,-1000
1745821597.0,-1000,-970.703,-973.145,-1000
1745821597.0,-1000,-1000,-765.137,-1000
1745821597.0,-1000,-1000,-834.473,-1000
1745821597.0,-1000,-999.023,-955.078,-1000
1745821597.0,-1000,-1000,-1000,-1000
1745821597.0,-1000,-996.582,-810.547,-1000
1745821597.0,-1000,-981.445,-350.098,-1000
1745821597.0,-1000,-1000,-696.289,-1000
1745821597.0,-1000,-982.422,-1000,-1000
1745821597.0,-1000,-968.75,-988.77,-1000
1745821597.0,-1000,-1000,-983.887,-1000
1745821597.0,-1000,-1000,-888.184,-1000
1745821597.0,-1000,-1000,-925.293,-1000
1745821598.0,-1000,-992.188,-928.223,-1000
1745821598.0,-1000,-941.406,-960.938,-1000
1745821597.0,-1000,-999.023,-955.078,-1000
1745821597.0,-1000,-1000,-1000,-1000
1745821597.0,-1000,-996.582,-810.547,-1000
1745821597.0,-1000,-981.445,-350.098,-1000
1745821597.0,-1000,-1000,-696.289,-1000
1745821597.0,-1000,-982.422,-1000,-1000
1745821597.0,-1000,-968.75,-988.77,-1000
1745821597.0,-1000,-1000,-983.887,-1000
1745821597.0,-1000,-1000,-888.184,-1000
1745821597.0,-1000,-1000,-925.293,-1000
1745821598.0,-1000,-992.188,-928.223,-1000
1745821598.0,-1000,-941.406,-960.938,-1000
1745821598.0,-1000,-1000,-799.805,-1000
1745821598.0,-1000,50.781,163.574,-1000
1745821598.0,-1000,487.305,-93.75,-1000
1745821598.0,-1000,-958.496,-859.375,-1000
1745821598.0,-1000,-1000,-848.145,-1000
1745821598.0,-1000,10.742,-354.98,-1000
1745821598.0,-1000,728.027,676.758,-1000
1745821598.0,-1000,-736.328,344.238,-1000
1745821598.0,-1000,-1000,-527.344,-1000
1745821598.0,-1000,-165.527,-513.184,-1000
1745821598.0,-1000,978.516,-215.332,-1000
1745821598.0,-1000,956.055,570.312,-1000
1745821598.0,-1000,-1000,-799.805,-1000
1745821598.0,-1000,50.781,163.574,-1000
1745821598.0,-1000,487.305,-93.75,-1000
1745821598.0,-1000,-958.496,-859.375,-1000
1745821598.0,-1000,-1000,-848.145,-1000
1745821598.0,-1000,10.742,-354.98,-1000
1745821598.0,-1000,728.027,676.758,-1000
1745821598.0,-1000,-736.328,344.238,-1000
1745821598.0,-1000,-1000,-527.344,-1000
1745821598.0,-1000,-165.527,-513.184,-1000
1745821598.0,-1000,978.516,-215.332,-1000
1745821598.0,-1000,956.055,570.312,-1000
1745821598.0,-1000,983.887,853.516,-1000
1745821598.0,-1000,-478.516,132.812,-1000
1745821598.0,-938.477,-599.609,49.316,-1000
1745821598.0,-1000,970.215,274.902,-1000
1745821598.0,-197.266,991.211,750,-1000
1745821598.0,965.82,861.328,999.512,-1000
1745821598.0,999.512,999.512,393.555,-1000
1745821598.0,524.414,195.312,-43.945,-1000
1745821598.0,-1000,-1000,-161.621,-1000
1745821598.0,-259.277,-236.328,486.816,-1000
1745821598.0,999.512,999.512,999.512,-1000
1745821598.0,933.594,192.871,332.52,-1000
1745821598.0,-1000,983.887,853.516,-1000
1745821598.0,-1000,-478.516,132.812,-1000
1745821598.0,-938.477,-599.609,49.316,-1000
1745821598.0,-1000,970.215,274.902,-1000
1745821598.0,-197.266,991.211,750,-1000
1745821598.0,965.82,861.328,999.512,-1000
1745821598.0,999.512,999.512,393.555,-1000
1745821598.0,524.414,195.312,-43.945,-1000
1745821598.0,-1000,-1000,-161.621,-1000
1745821598.0,-259.277,-236.328,486.816,-1000
1745821598.0,999.512,999.512,999.512,-1000
1745821598.0,933.594,192.871,332.52,-1000
1745821598.0,937.988,-1000,60.547,-964.355
1745821598.0,973.633,100.098,421.387,-995.117
1745821598.0,966.309,999.512,728.027,-1000
1745821598.0,966.309,999.512,999.512,479.004
1745821598.0,966.309,96.191,333.984,613.281
1745821598.0,966.309,-524.414,136.23,-431.641
1745821598.0,966.309,953.125,546.387,807.129
1745821598.0,966.309,948.73,552.246,999.512
1745821598.0,966.309,999.512,999.512,898.926
1745821598.0,966.309,592.773,541.992,981.934
1745821598.0,966.309,-759.277,152.344,967.285
1745821598.0,966.309,328.125,358.398,966.797
1745821598.0,937.988,-1000,60.547,-964.355
1745821598.0,973.633,100.098,421.387,-995.117
1745821598.0,966.309,999.512,728.027,-1000
1745821598.0,966.309,999.512,999.512,479.004
1745821598.0,966.309,96.191,333.984,613.281
1745821598.0,966.309,-524.414,136.23,-431.641
1745821598.0,966.309,953.125,546.387,807.129
1745821598.0,966.309,948.73,552.246,999.512
1745821598.0,966.309,999.512,999.512,898.926
1745821598.0,966.309,592.773,541.992,981.934
1745821598.0,966.309,-759.277,152.344,967.285
1745821598.0,966.309,328.125,358.398,966.797
1745821598.0,966.309,999.512,542.969,966.797
1745821598.0,966.309,999.512,999.512,967.285
1745821598.0,966.309,487.793,520.996,967.285
1745821598.0,966.309,-1000,37.109,966.797
1745821598.0,966.309,36.133,164.062,966.797
1745821598.0,966.309,999.512,342.773,967.285
1745821598.0,966.309,999.512,999.512,967.285
1745821598.0,966.309,421.875,547.363,966.797
1745821598.0,966.309,-900.391,-305.664,966.797
1745821598.0,966.309,-1000,-245.117,967.285
1745821598.0,966.309,-239.746,-15.625,967.285
1745821598.0,966.309,999.512,855.957,966.797
1745821598.0,966.309,999.512,542.969,966.797
1745821598.0,966.309,999.512,999.512,967.285
1745821598.0,966.309,487.793,520.996,967.285
1745821598.0,966.309,-1000,37.109,966.797
1745821598.0,966.309,36.133,164.062,966.797
1745821598.0,966.309,999.512,342.773,967.285
1745821598.0,966.309,999.512,999.512,967.285
1745821598.0,966.309,421.875,547.363,966.797
1745821598.0,966.309,-900.391,-305.664,966.797
1745821598.0,966.309,-1000,-245.117,967.285
1745821598.0,966.309,-239.746,-15.625,967.285
1745821598.0,966.309,999.512,855.957,966.797
1745821598.0,966.309,464.844,647.949,967.285
1745821598.0,966.309,-1000,-235.84,967.285
1745821598.0,966.309,-135.742,-20.02,966.797
1745821598.0,966.309,999.512,162.598,966.797
1745821598.0,966.309,358.887,536.621,966.797
1745821598.0,966.309,-99.121,833.984,966.797
1745821598.0,966.309,999.512,148.438,967.285
1745821598.0,966.309,-211.914,-405.762,966.797
1745821598.0,974.121,-1000,-435.547,966.797
1745821598.0,895.996,145.508,409.18,967.285
1745821598.0,999.512,999.512,911.621,966.797
1745821598.0,371.582,136.23,-134.766,966.797
1745821598.0,966.309,464.844,647.949,967.285
1745821598.0,966.309,-1000,-235.84,967.285
1745821598.0,966.309,-135.742,-20.02,966.797
1745821598.0,966.309,999.512,162.598,966.797
1745821598.0,966.309,358.887,536.621,966.797
1745821598.0,966.309,-99.121,833.984,966.797
1745821598.0,966.309,999.512,148.438,967.285
1745821598.0,966.309,-211.914,-405.762,966.797
1745821598.0,974.121,-1000,-435.547,966.797
1745821598.0,895.996,145.508,409.18,967.285
1745821598.0,999.512,999.512,911.621,966.797
1745821598.0,371.582,136.23,-134.766,966.797
1745821598.0,-266.602,-287.598,-176.758,966.797
1745821598.0,999.512,999.512,882.812,966.797
1745821598.0,389.648,220.215,35.645,966.797
1745821598.0,-949.707,-1000,-763.184,966.797
1745821598.0,-1000,-1000,-522.461,967.285
1745821598.0,-222.168,71.777,-7.324,965.82
1745821598.0,999.512,999.512,999.512,968.75
1745821598.0,462.402,133.301,95.703,964.355
1745821598.0,-890.625,-1000,-844.727,953.613
1745821598.0,-1000,-1000,-580.078,972.168
1745821598.0,-362.793,-262.207,-145.508,939.941
1745821598.0,999.512,999.512,757.324,955.566
1745821598.0,610.352,336.914,132.324,996.094
1745821598.0,-796.387,-958.008,-837.891,-160.645
1745821598.0,-1000,-1000,-646.973,-1000
1745821598.0,-678.223,-353.516,-277.344,-548.34
1745821598.0,605.957,902.344,621.582,843.75
1745821598.0,999.512,999.512,451.172,979.004
1745821598.0,279.785,69.824,-431.152,934.082
1745821598.0,-929.688,-1000,-603.516,986.328
1745821598.0,-1000,-1000,-794.434,-568.848
1745821598.0,-241.699,-225.098,219.727,-401.855
1745821598.0,999.512,999.512,857.422,999.512
1745821598.0,152.344,-123.047,-517.578,175.293
1745821598.0,610.352,336.914,132.324,996.094
1745821598.0,-796.387,-958.008,-837.891,-160.645
1745821598.0,-1000,-1000,-646.973,-1000
1745821598.0,-678.223,-353.516,-277.344,-548.34
1745821598.0,605.957,902.344,621.582,843.75
1745821598.0,999.512,999.512,451.172,979.004
1745821598.0,279.785,69.824,-431.152,934.082
1745821598.0,-929.688,-1000,-603.516,986.328
1745821598.0,-1000,-1000,-794.434,-568.848
1745821598.0,-241.699,-225.098,219.727,-401.855
1745821598.0,999.512,999.512,857.422,999.512
1745821598.0,152.344,-123.047,-517.578,175.293
1745821598.0,-1000,-1000,-926.27,-1000
1745821598.0,-1000,-969.727,-513.184,-1000
1745821598.0,-146.484,184.082,383.301,-75.684
1745821598.0,999.512,999.512,859.863,999.512
1745821598.0,218.75,91.797,-353.027,513.672
1745821598.0,-1000,-1000,-660.156,-814.453
1745821598.0,-1000,-1000,-361.816,-1000
1745821598.0,-221.68,-258.789,188.965,-171.387
1745821598.0,999.512,999.512,858.887,999.512
1745821598.0,955.566,209.961,-164.062,951.66
1745821598.0,936.523,-1000,-555.664,939.453
1745821598.0,974.609,-894.531,-370.117,982.422
1745821598.0,-1000,-1000,-926.27,-1000
1745821598.0,-1000,-969.727,-513.184,-1000
1745821598.0,-146.484,184.082,383.301,-75.684
1745821598.0,999.512,999.512,859.863,999.512
1745821598.0,218.75,91.797,-353.027,513.672
1745821598.0,-1000,-1000,-660.156,-814.453
1745821598.0,-1000,-1000,-361.816,-1000
1745821598.0,-221.68,-258.789,188.965,-171.387
1745821598.0,999.512,999.512,858.887,999.512
1745821598.0,955.566,209.961,-164.062,951.66
1745821598.0,936.523,-1000,-555.664,939.453
1745821598.0,974.609,-894.531,-370.117,982.422
1745821598.0,903.809,385.742,168.945,895.996
1745821598.0,999.512,999.512,898.926,999.512
1745821598.0,186.035,-12.695,-217.773,357.91
1745821598.0,-1000,-1000,-782.227,-951.172
1745821598.0,-1000,-1000,-437.988,-1000
1745821598.0,-258.789,169.434,236.328,-122.559
1745821598.0,999.512,999.512,999.512,999.512
1745821598.0,660.645,157.227,99.121,968.262
1745821598.0,-708.496,-997.07,-814.941,-210.449
1745821598.0,-1000,-1000,-509.277,-1000
1745821598.0,-247.07,-262.207,71.777,-210.449
1745821598.0,993.164,999.512,999.512,999.512
1745821598.0,903.809,385.742,168.945,895.996
1745821598.0,999.512,999.512,898.926,999.512
1745821598.0,186.035,-12.695,-217.773,357.91
1745821598.0,-1000,-1000,-782.227,-951.172
1745821598.0,-1000,-1000,-437.988,-1000
1745821598.0,-258.789,169.434,236.328,-122.559
1745821598.0,999.512,999.512,999.512,999.512
1745821598.0,660.645,157.227,99.121,968.262
1745821598.0,-708.496,-997.07,-814.941,-210.449
1745821598.0,-1000,-1000,-509.277,-1000
1745821598.0,-247.07,-262.207,71.777,-210.449
1745821598.0,993.164,999.512,999.512,999.512
1745821598.0,964.355,266.113,284.18,958.008
1745821598.0,932.129,-1000,-523.438,936.035
1745821598.0,975.586,-6.836,-211.914,975.098
1745821598.0,981.445,999.512,7.812,966.797
1745821598.0,895.02,35.645,618.652,973.633
1745821598.0,999.512,-123.047,433.594,895.996
1745821598.0,599.121,394.531,-274.414,999.512
1745821598.0,-785.156,-956.543,-676.27,367.188
1745821598.0,-1000,-1000,-552.734,-1000
1745821598.0,-189.941,-58.594,646.484,-79.102
1745821598.0,999.512,999.512,697.266,999.512
1745821598.0,239.258,0.488,-352.539,920.41
1745821598.0,964.355,266.113,284.18,958.008
1745821598.0,932.129,-1000,-523.438,936.035
1745821598.0,975.586,-6.836,-211.914,975.098
1745821598.0,981.445,999.512,7.812,966.797
1745821598.0,895.02,35.645,618.652,973.633
1745821598.0,999.512,-123.047,433.594,895.996
1745821598.0,599.121,394.531,-274.414,999.512
1745821598.0,-785.156,-956.543,-676.27,367.188
1745821598.0,-1000,-1000,-552.734,-1000
1745821598.0,-189.941,-58.594,646.484,-79.102
1745821598.0,999.512,999.512,697.266,999.512
1745821598.0,239.258,0.488,-352.539,920.41
1745821598.0,-1000,-1000,-516.113,950.684
1745821598.0,-447.266,-303.711,-181.641,969.727
1745821598.0,903.32,999.512,781.25,967.773
1745821598.0,999.512,999.512,749.512,967.285
1745821598.0,-51.758,-448.73,-343.262,950.684
1745821598.0,-301.27,-332.52,-210.449,960.449
1745821598.0,999.512,999.512,163.574,969.727
1745821598.0,912.598,999.512,667.48,965.82
1745821598.0,999.512,154.785,791.992,967.285
1745821598.0,258.789,-989.746,-260.254,966.797
1745821598.0,-1000,-1000,-253.906,966.797
1745821598.0,-644.043,-503.906,218.262,967.285
1745821598.0,-1000,-1000,-516.113,950.684
1745821598.0,-447.266,-303.711,-181.641,969.727
1745821598.0,903.32,999.512,781.25,967.773
1745821598.0,999.512,999.512,749.512,967.285
1745821598.0,-51.758,-448.73,-343.262,950.684
1745821598.0,-301.27,-332.52,-210.449,960.449
1745821598.0,999.512,999.512,163.574,969.727
1745821598.0,912.598,999.512,667.48,965.82
1745821598.0,999.512,154.785,791.992,967.285
1745821598.0,258.789,-989.746,-260.254,966.797
1745821598.0,-1000,-1000,-253.906,966.797
1745821598.0,-644.043,-503.906,218.262,967.285
1745821598.0,811.523,817.383,736.816,966.797
1745821598.0,999.512,999.512,999.512,966.797
1745821598.0,905.762,205.566,273.438,966.797
1745821598.0,981.934,-1000,-130.859,966.797
1745821598.0,966.309,-569.336,149.902,966.797
1745821598.0,966.309,832.031,665.527,966.797
1745821598.0,966.309,999.512,999.512,966.797
1745821598.0,966.309,52.246,274.902,966.797
1745821598.0,966.309,-1000,-136.23,966.797
1745821598.0,966.309,-289.551,189.453,966.797
1745821598.0,966.309,934.57,571.777,967.285
1745821598.0,966.309,999.512,999.512,966.797
1745821598.0,811.523,817.383,736.816,966.797
1745821598.0,999.512,999.512,999.512,966.797
1745821598.0,905.762,205.566,273.438,966.797
1745821598.0,981.934,-1000,-130.859,966.797
1745821598.0,966.309,-569.336,149.902,966.797
1745821598.0,966.309,832.031,665.527,966.797
1745821598.0,966.309,999.512,999.512,966.797
1745821598.0,966.309,52.246,274.902,966.797
1745821598.0,966.309,-1000,-136.23,966.797
1745821598.0,966.309,-289.551,189.453,966.797
1745821598.0,966.309,934.57,571.777,967.285
1745821598.0,966.309,999.512,999.512,966.797
1745821598.0,966.309,113.281,327.637,966.797
1745821598.0,966.309,-789.551,-87.891,967.285
1745821598.0,966.309,698.242,369.629,966.797
1745821598.0,966.309,999.512,473.145,966.797
1745821598.0,966.309,999.512,999.512,966.797
1745821598.0,966.309,647.461,479.004,966.797
1745821598.0,966.309,-773.438,-18.555,967.285
1745821598.0,966.309,430.176,271.973,967.285
1745821598.0,966.309,-20.508,60.547,966.797
1745821598.0,966.309,-363.77,809.57,966.797
1745821598.0,966.309,999.512,683.105,966.797
1745821598.0,966.309,-218.75,-107.422,967.285
1745821598.0,966.309,113.281,327.637,966.797
1745821598.0,966.309,-789.551,-87.891,967.285
1745821598.0,966.309,698.242,369.629,966.797
1745821598.0,966.309,999.512,473.145,966.797
1745821598.0,966.309,999.512,999.512,966.797
1745821598.0,966.309,647.461,479.004,966.797
1745821598.0,966.309,-773.438,-18.555,967.285
1745821598.0,966.309,430.176,271.973,967.285
1745821598.0,966.309,-20.508,60.547,966.797
1745821598.0,966.309,-363.77,809.57,966.797
1745821598.0,966.309,999.512,683.105,966.797
1745821598.0,966.309,-218.75,-107.422,967.285
1745821598.0,966.309,-1000,0,966.797
1745821598.0,965.82,-169.434,120.117,967.285
1745821598.0,966.797,999.512,735.352,966.797
1745821598.0,965.82,704.102,475.098,966.797
1745821598.0,956.543,-836.426,-367.676,967.285
1745821598.0,963.867,-77.148,-4.395,967.285
1745821598.0,967.285,999.512,232.91,966.797
1745821598.0,901.855,528.809,491.699,966.797
1745821598.0,999.512,-768.555,267.09,966.797
1745821598.0,33.203,-1000,-518.555,966.797
1745821598.0,-317.383,-156.25,-312.012,966.797
1745821598.0,999.512,999.512,-35.645,966.797
1745821598.0,921.875,922.852,248.535,966.797
1745821598.0,999.512,894.043,409.668,966.797
1745821598.0,158.203,-259.277,-381.348,967.285
1745821598.0,-1000,-1000,-574.707,966.797
1745821598.0,-1000,-887.207,-359.375,966.797
1745821598.0,98.633,346.191,306.641,967.285
1745821598.0,999.512,999.512,741.699,966.797
1745821598.0,147.461,82.031,-372.07,966.797
1745821598.0,-1000,-1000,-816.406,967.285
1745821598.0,-1000,-874.023,-467.773,966.797
1745821598.0,47.363,411.621,172.852,966.797
1745821598.0,999.512,999.512,697.754,967.285
1745821598.0,921.875,922.852,248.535,966.797
1745821598.0,999.512,894.043,409.668,966.797
1745821598.0,158.203,-259.277,-381.348,967.285
1745821598.0,-1000,-1000,-574.707,966.797
1745821598.0,-1000,-887.207,-359.375,966.797
1745821598.0,98.633,346.191,306.641,967.285
1745821598.0,999.512,999.512,741.699,966.797
1745821598.0,147.461,82.031,-372.07,966.797
1745821598.0,-1000,-1000,-816.406,967.285
1745821598.0,-1000,-874.023,-467.773,966.797
1745821598.0,47.363,411.621,172.852,966.797
1745821598.0,999.512,999.512,697.754,967.285
1745821598.0,187.012,55.176,-332.031,967.285
1745821598.0,-1000,-997.559,-500.977,966.797
1745821598.0,-93.262,321.777,74.707,967.285
1745821598.0,999.512,999.512,313.965,967.285
1745821598.0,999.512,409.18,758.301,967.285
1745821598.0,455.566,-938.477,-41.992,966.797
1745821598.0,-856.934,-952.637,-257.324,966.797
1745821598.0,-1000,-1000,-225.586,966.797
1745821598.0,-512.207,-488.281,-117.676,966.797
1745821598.0,988.77,999.512,947.266,966.797
1745821598.0,732.91,443.359,209.473,966.797
1745821598.0,-723.145,-946.777,-523.438,967.285
1745821598.0,187.012,55.176,-332.031,967.285
1745821598.0,-1000,-997.559,-500.977,966.797
1745821598.0,-93.262,321.777,74.707,967.285
1745821598.0,999.512,999.512,313.965,967.285
1745821598.0,999.512,409.18,758.301,967.285
1745821598.0,455.566,-938.477,-41.992,966.797
1745821598.0,-856.934,-952.637,-257.324,966.797
1745821598.0,-1000,-1000,-225.586,966.797
1745821598.0,-512.207,-488.281,-117.676,966.797
1745821598.0,988.77,999.512,947.266,966.797
1745821598.0,732.91,443.359,209.473,966.797
1745821598.0,-723.145,-946.777,-523.438,967.285
1745821598.0,-1000,-1000,-185.059,967.285
1745821598.0,-209.473,-227.539,112.793,966.797
1745821598.0,999.512,999.512,999.512,966.797
1745821598.0,894.043,499.512,373.535,967.285
1745821598.0,-708.008,-1000,-608.398,967.285
1745821598.0,-328.125,-179.688,-90.332,966.797
1745821598.0,999.512,999.512,226.562,966.797
1745821598.0,999.512,999.512,721.68,966.797
1745821598.0,564.453,172.852,168.457,966.797
1745821598.0,-755.859,-989.746,-728.027,966.797
1745821598.0,-1000,-1000,-460.449,966.797
1745821598.0,-579.102,-384.766,-248.535,966.797
1745821598.0,-1000,-1000,-185.059,967.285
1745821598.0,-209.473,-227.539,112.793,966.797
1745821598.0,999.512,999.512,999.512,966.797
1745821598.0,894.043,499.512,373.535,967.285
1745821598.0,-708.008,-1000,-608.398,967.285
1745821598.0,-328.125,-179.688,-90.332,966.797
1745821598.0,999.512,999.512,226.562,966.797
1745821598.0,999.512,999.512,721.68,966.797
1745821598.0,564.453,172.852,168.457,966.797
1745821598.0,-755.859,-989.746,-728.027,966.797
1745821598.0,-1000,-1000,-460.449,966.797
1745821598.0,-579.102,-384.766,-248.535,966.797
1745821598.0,766.113,959.473,510.742,967.285
1745821598.0,999.512,999.512,369.629,966.797
1745821598.0,-72.754,-237.793,-576.172,967.285
1745821598.0,-1000,-1000,-610.352,967.285
1745821598.0,-996.582,-716.797,-411.621,967.285
1745821598.0,262.207,724.609,367.676,966.797
1745821598.0,999.512,972.168,451.172,966.797
1745821598.0,-214.355,-502.93,-696.777,967.285
1745821598.0,-1000,-1000,-759.277,967.285
1745821598.0,-1000,-1000,-508.789,966.797
1745821598.0,-250.488,20.508,172.363,967.285
1745821598.0,999.512,999.512,583.008,966.797
1745821598.0,766.113,959.473,510.742,967.285
1745821598.0,999.512,999.512,369.629,966.797
1745821598.0,-72.754,-237.793,-576.172,967.285
1745821598.0,-1000,-1000,-610.352,967.285
1745821598.0,-996.582,-716.797,-411.621,967.285
1745821598.0,262.207,724.609,367.676,966.797
1745821598.0,999.512,972.168,451.172,966.797
1745821598.0,-214.355,-502.93,-696.777,967.285
1745821598.0,-1000,-1000,-759.277,967.285
1745821598.0,-1000,-1000,-508.789,966.797
1745821598.0,-250.488,20.508,172.363,967.285
1745821598.0,999.512,999.512,583.008,966.797
1745821598.0,150.879,-20.996,-390.137,966.797
1745821598.0,-1000,-1000,-607.91,966.797
1745821598.0,-1000,-1000,-448.73,966.797
1745821598.0,-259.277,-38.086,90.332,967.285
1745821598.0,999.512,999.512,774.902,966.797
1745821598.0,198.242,166.016,-241.211,966.797
1745821598.0,-1000,-1000,-713.379,966.797
1745821598.0,-907.715,-946.289,-414.551,976.562
1745821598.0,-1000,-1000,-260.254,927.246
1745821598.0,-77.148,212.891,666.016,983.398
1745821598.0,537.598,660.156,17.578,926.27
1745821598.0,-891.113,-881.348,-815.918,-314.453
1745821598.0,150.879,-20.996,-390.137,966.797
1745821598.0,-1000,-1000,-607.91,966.797
1745821598.0,-1000,-1000,-448.73,966.797
1745821598.0,-259.277,-38.086,90.332,967.285
1745821598.0,999.512,999.512,774.902,966.797
1745821598.0,198.242,166.016,-241.211,966.797
1745821598.0,-1000,-1000,-713.379,966.797
1745821598.0,-907.715,-946.289,-414.551,976.562
1745821598.0,-1000,-1000,-260.254,927.246
1745821598.0,-77.148,212.891,666.016,983.398
1745821598.0,537.598,660.156,17.578,926.27
1745821598.0,-891.113,-881.348,-815.918,-314.453
1745821598.0,-1000,-1000,-662.598,-1000
1745821598.0,-507.812,-304.199,-104.98,-339.355
1745821598.0,999.512,999.512,999.512,999.512
1745821598.0,506.348,360.352,56.152,767.09
1745821598.0,-930.664,-1000,-892.09,-625.977
1745821598.0,-1000,-225.586,-320.312,-1000
1745821598.0,-258.301,999.512,156.738,-208.496
1745821598.0,999.512,999.512,786.621,999.512
1745821598.0,387.207,147.461,-10.254,740.234
1745821598.0,-934.57,-991.699,-812.012,-591.797
1745821598.0,-1000,-1000,-417.48,-1000
1745821598.0,-717.773,-502.441,-96.191,-589.355
1745821599.0,711.914,973.145,912.109,759.277
1745821599.0,999.512,832.52,599.121,999.512
1745821599.0,-255.371,-580.078,-716.309,-8.789
1745821599.0,-1000,-1000,-691.895,-1000
1745821599.0,-1000,-851.562,-257.324,-983.887
1745821599.0,77.637,405.273,705.078,218.262
1745821599.0,999.512,999.512,741.211,999.512
1745821599.0,147.949,37.109,-584.473,166.504
1745821599.0,-1000,-1000,-1000,-1000
1745821599.0,-1000,-782.227,-522.461,-1000
1745821599.0,55.664,607.422,615.234,174.805
1745821599.0,999.512,999.512,783.203,999.512
1745821599.0,107.422,-171.387,-477.539,142.578
1745821599.0,-1000,-1000,-653.32,-1000
1745821599.0,-1000,-860.352,-195.312,-1000
1745821599.0,-106.934,584.961,530.273,-11.23
1745821599.0,999.512,858.398,832.52,999.512
1745821599.0,145.508,-684.57,-338.867,276.855
1745821599.0,-1000,-1000,-624.512,-961.426
1745821599.0,-1000,-1000,-429.688,-1000
1745821599.0,-326.172,-280.762,187.988,-285.645
1745821599.0,999.512,999.512,999.512,999.512
1745821599.0,234.375,171.875,-150.879,329.102
1745821599.0,-1000,-1000,-721.191,-979.492
1745821599.0,999.512,999.512,999.512,966.797
1745821599.0,904.297,320.801,398.926,966.797
1745821599.0,981.445,-1000,279.785,966.797
1745821599.0,966.309,-312.988,651.855,966.797
1745821599.0,966.309,999.512,841.309,966.797
1745821599.0,965.82,940.918,999.512,966.797
1745821599.0,966.309,895.02,637.207,966.797
1745821599.0,966.309,999.512,589.355,966.797
1745821599.0,966.309,-168.945,760.254,966.797
1745821599.0,966.309,-310.547,755.859,966.797
1745821599.0,966.309,999.512,999.512,966.797
1745821599.0,966.309,999.512,560.059,966.797
1745821599.0,-1000,-1000,-395.996,-1000
1745821599.0,-262.207,-151.367,150.879,-255.371
1745821599.0,999.512,999.512,999.512,999.512
1745821599.0,363.281,237.305,-40.039,460.938
1745821599.0,-953.125,-1000,-851.074,-903.32
1745821599.0,-1000,-505.371,-362.305,-1000
1745821599.0,-332.031,852.051,242.188,-283.203
1745821599.0,999.512,999.512,999.512,999.512
1745821599.0,507.812,125.977,6.348,594.727
1745821599.0,-932.129,-985.84,-877.441,-833.984
1745821599.0,-998.047,-1000,-562.988,-1000
1745821599.0,-1000,-464.844,-231.445,-1000
1745821599.0,-1000,-1000,-395.996,-1000
1745821599.0,-262.207,-151.367,150.879,-255.371
1745821599.0,999.512,999.512,999.512,999.512
1745821599.0,363.281,237.305,-40.039,460.938
1745821599.0,-953.125,-1000,-851.074,-903.32
1745821599.0,-1000,-505.371,-362.305,-1000
1745821599.0,-332.031,852.051,242.188,-283.203
1745821599.0,999.512,999.512,999.512,999.512
1745821599.0,507.812,125.977,6.348,594.727
1745821599.0,-932.129,-985.84,-877.441,-833.984
1745821599.0,-998.047,-1000,-562.988,-1000
1745821599.0,-1000,-464.844,-231.445,-1000
1745821599.0,132.324,999.512,748.047,226.562
1745821599.0,999.512,711.426,201.66,999.512
1745821599.0,-502.441,-743.164,-794.922,-452.637
1745821599.0,-1000,-1000,-506.348,-1000
1745821599.0,-1000,-1000,-343.262,-1000
1745821599.0,-211.914,270.02,675.293,-187.988
1745821599.0,999.512,832.52,511.23,999.512
1745821599.0,-371.582,-732.422,-875.977,-372.559
1745821599.0,-1000,-1000,-712.891,-1000
1745821599.0,-866.699,-100.586,-188.477,-873.535
1745821599.0,-1000,973.633,393.555,-1000
1745821599.0,-57.129,999.512,460.449,-12.695
1745821599.0,132.324,999.512,748.047,226.562
1745821599.0,999.512,711.426,201.66,999.512
1745821599.0,-502.441,-743.164,-794.922,-452.637
1745821599.0,-1000,-1000,-506.348,-1000
1745821599.0,-1000,-1000,-343.262,-1000
1745821599.0,-211.914,270.02,675.293,-187.988
1745821599.0,999.512,832.52,511.23,999.512
1745821599.0,-371.582,-732.422,-875.977,-372.559
1745821599.0,-1000,-1000,-712.891,-1000
1745821599.0,-866.699,-100.586,-188.477,-873.535
1745821599.0,-1000,973.633,393.555,-1000
1745821599.0,-57.129,999.512,460.449,-12.695
1745821599.0,260.254,217.773,-551.27,250.977
1745821599.0,-1000,-1000,-770.02,-1000
1745821599.0,-1000,-802.246,-222.656,-1000
1745821599.0,-318.848,545.898,563.965,-417.48
1745821599.0,999.512,999.512,883.301,999.512
1745821599.0,181.152,121.582,-258.789,199.219
1745821599.0,-1000,-1000,-667.969,-1000
1745821599.0,-897.461,-918.457,-228.027,-900.879
1745821599.0,-1000,-1000,87.891,-1000
1745821599.0,-104.492,18.066,650.879,-92.773
1745821599.0,585.449,620.117,-34.668,432.617
1745821599.0,-867.676,-885.254,-659.668,-998.535
1745821599.0,260.254,217.773,-551.27,250.977
1745821599.0,-1000,-1000,-770.02,-1000
1745821599.0,-1000,-802.246,-222.656,-1000
1745821599.0,-318.848,545.898,563.965,-417.48
1745821599.0,999.512,999.512,883.301,999.512
1745821599.0,181.152,121.582,-258.789,199.219
1745821599.0,-1000,-1000,-667.969,-1000
1745821599.0,-897.461,-918.457,-228.027,-900.879
1745821599.0,-1000,-1000,87.891,-1000
1745821599.0,-104.492,18.066,650.879,-92.773
1745821599.0,585.449,620.117,-34.668,432.617
1745821599.0,-867.676,-885.254,-659.668,-998.535
1745821599.0,-1000,-1000,-574.219,-1000
1745821599.0,-761.23,-233.398,12.207,-1000
1745821599.0,786.621,999.512,928.223,145.508
1745821599.0,273.438,175.293,-156.25,300.781
1745821599.0,-1000,-1000,-946.777,-1000
1745821599.0,-970.215,-1000,-627.441,-994.629
1745821599.0,-973.145,-54.199,-105.469,-970.703
1745821599.0,-1000,790.039,472.168,-1000
1745821599.0,-1000,-733.398,-411.621,-1000
1745821599.0,-1000,-1000,-788.574,-1000
1745821599.0,-1000,-1000,-682.617,-1000
1745821599.0,-1000,-469.727,-553.711,-1000
1745821599.0,-1000,-1000,-574.219,-1000
1745821599.0,-761.23,-233.398,12.207,-1000
1745821599.0,786.621,999.512,928.223,145.508
1745821599.0,273.438,175.293,-156.25,300.781
1745821599.0,-1000,-1000,-946.777,-1000
1745821599.0,-970.215,-1000,-627.441,-994.629
1745821599.0,-973.145,-54.199,-105.469,-970.703
1745821599.0,-1000,790.039,472.168,-1000
1745821599.0,-1000,-733.398,-411.621,-1000
1745821599.0,-1000,-1000,-788.574,-1000
1745821599.0,-1000,-1000,-682.617,-1000
1745821599.0,-1000,-469.727,-553.711,-1000
1745821600.0,-194.336,560.547,363.281,-467.773
1745821600.0,999.512,999.512,999.512,999.512
1745821600.0,479.492,176.758,110.352,426.758
1745821600.0,-887.207,-1000,-695.801,-956.543
1745821600.0,-1000,-1000,-255.371,-1000
1745821600.0,-235.84,-25.879,254.883,-321.289
1745821600.0,999.512,999.512,999.512,999.512
1745821600.0,639.16,168.457,232.91,545.898
1745821600.0,-731.445,-1000,-853.027,-845.215
1745821600.0,-1000,-1000,-454.102,-1000
1745821600.0,-464.844,-185.547,119.629,-790.527
1745821600.0,937.988,999.512,999.512,664.551
1745821600.0,-1000,-1000,-745.605,-1000
1745821600.0,-1000,-204.102,-168.457,-1000
1745821600.0,58.594,999.512,667.48,-42.48
1745821600.0,999.512,999.512,934.082,999.512
1745821600.0,149.414,-96.191,-341.797,163.086
1745821600.0,-1000,-1000,-567.383,-1000
1745821600.0,-1000,378.906,166.504,-1000
1745821600.0,8.301,999.512,586.914,-9.277
1745821600.0,999.512,451.172,728.027,999.512
1745821600.0,572.266,-886.23,-355.957,540.527
1745821600.0,-766.602,-995.117,-688.965,-774.414
1745821600.0,-1000,-1000,-353.027,-1000
1745821600.0,168.457,-35.156,-514.648,167.969
1745821600.0,-1000,-1000,-852.539,-1000
1745821600.0,-1000,-832.52,-415.039,-1000
1745821600.0,-266.113,434.082,427.734,-263.184
1745821600.0,999.512,999.512,839.844,999.512
1745821600.0,354.004,225.098,-339.844,307.617
1745821600.0,-1000,-951.172,-899.414,-1000
1745821600.0,-1000,-1000,-699.219,-1000
1745821600.0,-958.008,-409.668,-123.047,-961.914
1745821600.0,-1000,999.512,578.125,-1000
1745821600.0,-1000,263.672,-281.738,-1000
1745821600.0,-1000,-1000,-967.285,-1000
1745821602.0,-1000,135.254,-320.312,-1000
1745821602.0,-1000,-1000,-1000,-1000
1745821602.0,-1000,-892.09,-1000,-1000
1745821602.0,-1000,-1000,-864.258,-1000
1745821602.0,-1000,-69.824,-135.254,-1000
1745821602.0,-1000,452.148,-443.848,-1000
1745821602.0,-1000,-1000,-1000,-1000
1745821602.0,-1000,-970.215,-971.191,-1000
1745821602.0,-1000,-1000,-1000,-1000
1745821602.0,-1000,-83.496,-15.137,-1000
1745821602.0,-1000,477.051,95.703,-1000
1745821602.0,-1000,-920.898,-971.68,-1000
1745821607.0,999.512,-1000,-1000,967.285
1745821607.0,780.762,-1000,-1000,966.797
1745821607.0,-631.836,-1000,-1000,966.797
1745821607.0,-1000,-1000,-1000,966.797
1745821607.0,-935.059,-1000,-1000,966.797
1745821607.0,-1000,-1000,-1000,967.285
1745821607.0,-1000,-1000,-1000,967.773
1745821607.0,-1000,-1000,-1000,904.297
1745821607.0,-1000,-1000,-1000,999.512
1745821607.0,-1000,-1000,-1000,187.5
1745821607.0,-1000,-1000,-1000,-1000
1745821607.0,-1000,-1000,-1000,-983.887
1745821608.0,-1000,-1000,-696.777,966.797
1745821608.0,-1000,-905.762,-375,966.797
1745821608.0,-62.988,367.676,121.094,966.797
1745821608.0,999.512,999.512,948.73,966.797
1745821608.0,375.488,108.887,43.457,966.797
1745821608.0,-925.781,-1000,-485.84,967.285
1745821608.0,-1000,336.426,-274.902,966.797
1745821608.0,-240.723,999.512,-112.305,966.797
1745821608.0,999.512,999.512,769.043,966.797
1745821608.0,665.039,391.602,146.484,966.797
1745821608.0,-708.008,-913.574,-619.141,966.797
1745821608.0,-1000,-1000,-458.496,966.797
1745821610.0,-1000,-1000,-546.875,975.586
1745821610.0,-206.055,69.336,-4.883,928.711
1745821610.0,999.512,999.512,780.273,978.027
1745821610.0,383.789,279.785,-109.863,940.43
1745821610.0,-964.355,-1000,-878.906,-364.258
1745821610.0,-1000,-329.102,-538.574,-1000
1745821610.0,-55.176,999.512,294.434,199.219
1745821610.0,999.512,999.512,901.367,999.512
1745821610.0,178.223,-185.059,-215.332,520.996
1745821610.0,-1000,-1000,-722.656,-784.18
1745821610.0,-1000,-1000,-385.742,-1000
1745821610.0,-256.836,38.574,42.48,-154.785
1745821610.0,999.512,273.926,384.277,983.887
1745821610.0,-65.918,-1000,-583.008,808.105
1745821610.0,-1000,-175.781,-446.289,861.328
1745821610.0,-539.062,999.512,-250,996.582
1745821610.0,789.062,786.133,303.711,957.031
1745821610.0,999.512,930.176,596.191,971.191
1745821610.0,125.977,67.383,-159.668,889.648
1745821610.0,-988.281,-1000,-570.312,999.512
1745821610.0,-1000,-1000,-563.477,81.055
1745821610.0,-336.426,-274.902,204.59,-287.598
1745821610.0,999.512,999.512,872.07,999.512
1745821610.0,256.348,144.531,-156.25,979.492
1745821611.0,-663.574,-1000,-586.914,-646.484
1745821611.0,-919.922,-82.52,119.141,-819.336
1745821611.0,881.836,999.512,956.055,971.68
1745821611.0,248.047,96.68,-108.887,229.004
1745821611.0,-1000,-1000,-837.891,-1000
1745821611.0,-1000,-121.094,-284.668,-1000
1745821611.0,-904.297,999.512,215.332,-840.332
1745821612.0,671.387,999.512,734.375,734.375
1745821612.0,437.5,164.551,-155.762,430.664
1745821612.0,-1000,-1000,-664.062,-997.559
1745821612.0,-1000,-1000,-327.637,-1000
1745821612.0,-527.344,-5.859,67.871,-504.883
1745821615.0,-54.688,-643.555,-333.008,966.797
1745821615.0,-1000,-347.656,-143.066,966.797
1745821615.0,228.027,999.512,10.742,966.797
1745821615.0,999.512,386.23,348.145,966.797
1745821615.0,952.148,-1000,-44.922,966.797
1745821615.0,-254.883,-811.035,-185.059,967.285
1745821615.0,78.613,723.145,123.535,966.797
1745821615.0,999.512,946.289,-156.25,966.797
1745821615.0,351.562,-461.426,-174.316,966.797
1745821615.0,-934.57,-1000,-305.664,967.285
1745821615.0,-1000,-451.172,-358.398,966.797
1745821615.0,181.641,999.512,-140.625,967.285
1745821619.0,945.801,810.059,-129.883,966.797
1745821619.0,939.941,999.512,456.543,966.797
1745821619.0,999.512,676.758,521.484,966.797
1745821619.0,-183.105,-806.641,-88.867,966.797
1745821619.0,-260.254,-164.551,136.719,966.797
1745821619.0,999.512,999.512,352.539,966.797
1745821619.0,957.031,939.941,688.477,966.797
1745821619.0,939.941,969.727,844.727,966.797
1745821619.0,973.145,-493.164,299.316,966.797
1745821619.0,966.309,-325.195,244.141,966.797
1745821619.0,966.309,999.512,467.773,966.797
1745821619.0,966.309,878.418,815.43,966.797
1745821620.0,966.309,-1000,-100.586,966.797
1745821620.0,966.309,205.078,172.363,966.797
1745821621.0,966.309,999.512,198.242,966.797
1745821621.0,966.309,999.512,784.668,967.285
1745821621.0,966.309,94.727,577.637,966.797
1745821621.0,966.309,-103.516,209.961,966.797
1745821621.0,966.309,524.902,316.406,966.797
1745821621.0,966.309,-1000,-181.641,966.797
1745821621.0,966.309,49.316,463.379,967.285
1745821621.0,966.309,999.512,720.703,967.285
1745821621.0,966.309,-621.582,58.594,967.285
1745821621.0,966.309,-225.586,75.684,966.797
1745821623.0,-1000,10.742,245.117,-1000
1745821623.0,-1000,858.398,712.891,-1000
1745821623.0,-1000,-953.613,221.191,-1000
1745821623.0,-972.168,21.484,135.742,-1000
1745821623.0,-989.258,257.324,55.664,-1000
1745821623.0,-1000,-429.199,28.32,-1000
1745821623.0,336.426,999.512,720.703,-1000
1745821623.0,312.5,155.273,-40.039,-1000
1745821623.0,-1000,-1000,-423.828,-1000
1745821623.0,-984.863,45.41,-58.594,-1000
1745821623.0,-972.168,919.922,-178.711,-1000
1745821623.0,-1000,-527.344,321.777,-1000
1745821623.0,-1000,10.742,245.117,-1000
1745821623.0,-1000,858.398,712.891,-1000
1745821623.0,-1000,-953.613,221.191,-1000
1745821623.0,-972.168,21.484,135.742,-1000
1745821623.0,-989.258,257.324,55.664,-1000
1745821623.0,-1000,-429.199,28.32,-1000
1745821623.0,336.426,999.512,720.703,-1000
1745821623.0,312.5,155.273,-40.039,-1000
1745821623.0,-1000,-1000,-423.828,-1000
1745821623.0,-984.863,45.41,-58.594,-1000
1745821623.0,-972.168,919.922,-178.711,-1000
1745821623.0,-1000,-527.344,321.777,-1000
1745821624.0,-992.188,401.855,142.09,-1000
1745821624.0,-998.047,-418.457,-172.852,-1000
1745821624.0,-993.164,270.02,-217.285,-1000
1745821624.0,-939.453,-947.266,-561.035,-932.617
1745821624.0,-1000,-232.91,-229.98,-1000
1745821624.0,63.477,999.512,431.641,-91.309
1745821624.0,518.555,194.824,-6.348,328.125
1745821624.0,-1000,-1000,-624.023,-1000
1745821624.0,-977.051,-1000,-567.383,-952.637
1745821624.0,-1000,43.457,-114.746,-1000
1745821624.0,-298.828,999.512,502.441,-502.93
1745821624.0,999.512,999.512,301.758,999.512
1745821626.0,948.73,-202.148,15.137,999.512
1745821626.0,939.453,-281.738,-71.777,903.809
1745821626.0,973.145,999.512,52.734,979.98
1745821626.0,966.309,422.852,431.152,966.797
1745821626.0,966.309,-883.789,488.77,966.797
1745821626.0,966.309,630.859,400.391,966.797
1745821626.0,966.309,697.266,248.047,966.797
1745821626.0,966.309,-1000,-106.934,966.797
1745821626.0,966.309,88.379,342.285,967.285
1745821626.0,966.309,999.512,776.855,966.797
1745821626.0,966.309,-141.113,409.18,966.797
1745821626.0,966.309,-123.535,297.363,966.797
1745821628.0,999.512,750,798.828,-1000
1745821628.0,207.52,-836.426,-96.68,-1000
1745821628.0,-1000,-436.523,-219.238,-1000
1745821628.0,-221.68,999.512,63.965,-1000
1745821628.0,999.512,784.18,708.496,-1000
1745821628.0,946.777,957.52,963.867,-1000
1745821628.0,937.5,-165.039,183.594,-1000
1745821628.0,973.633,-124.023,-89.355,-1000
1745821628.0,972.168,377.441,-71.289,-1000
1745821628.0,898.438,-679.688,278.809,-1000
1745821628.0,999.512,836.426,907.715,-1000
1745821628.0,352.051,184.57,119.629,-1000
1745821631.0,-1000,36.133,-853.027,-1000
1745821631.0,-1000,-267.09,-295.898,-1000
1745821631.0,-1000,506.348,-116.211,-1000
1745821631.0,-1000,-824.707,-673.828,-1000
