timestamps,TP9,AF7,AF8,TP10
1745822956.224,957.52,8.789,570.312,936.523
1745822956.228,-614.258,-998.047,-856.934,-645.02
1745822956.232,-1000.0,-409.668,-1000.0,-1000.0
1745822956.236,-874.512,395.02,-518.066,-875.0
1745822956.24,601.562,999.512,868.164,602.051
1745822956.244,959.961,531.738,795.898,960.938
1745822956.248,-614.746,-837.891,-698.242,-616.211
1745822956.251,-1000.0,-874.023,-1000.0,-1000.0
1745822956.255,-854.492,375.488,-649.902,-868.652
1745822956.259,553.223,985.84,771.484,543.457
1745822956.263,999.512,-217.285,881.348,999.512
1745822956.267,-381.836,-993.164,-652.832,-424.805
1745822956.224,957.52,8.789,570.312,936.523
1745822956.228,-614.258,-998.047,-856.934,-645.02
1745822956.232,-1000.0,-409.668,-1000.0,-1000.0
1745822956.236,-874.512,395.02,-518.066,-875.0
1745822956.24,601.562,999.512,868.164,602.051
1745822956.244,959.961,531.738,795.898,960.938
1745822956.248,-614.746,-837.891,-698.242,-616.211
1745822956.251,-1000.0,-874.023,-1000.0,-1000.0
1745822956.255,-854.492,375.488,-649.902,-868.652
1745822956.259,553.223,985.84,771.484,543.457
1745822956.263,999.512,-217.285,881.348,999.512
1745822956.267,-381.836,-993.164,-652.832,-424.805
1745822956.267,-1000.0,-509.766,-1000.0,-1000.0
1745822956.271,-778.809,-7.324,-696.777,-812.988
1745822956.275,478.516,949.707,700.684,415.527
1745822956.279,999.512,448.73,925.293,999.512
1745822956.283,-0.488,-821.777,-607.91,-8.301
1745822956.287,-1000.0,22.949,-1000.0,-1000.0
1745822956.291,-958.008,-229.98,-775.879,-964.844
1745822956.294,302.734,511.23,591.309,288.086
1745822956.298,999.512,953.125,999.512,999.512
1745822956.302,616.699,-740.234,-487.793,648.926
1745822956.306,-795.41,-637.207,-1000.0,-759.766
1745822956.31,-1000.0,-472.656,-785.645,-1000.0
1745822956.267,-1000.0,-509.766,-1000.0,-1000.0
1745822956.271,-778.809,-7.324,-696.777,-812.988
1745822956.275,478.516,949.707,700.684,415.527
1745822956.279,999.512,448.73,925.293,999.512
1745822956.283,-0.488,-821.777,-607.91,-8.301
1745822956.287,-1000.0,22.949,-1000.0,-1000.0
1745822956.291,-958.008,-229.98,-775.879,-964.844
1745822956.294,302.734,511.23,591.309,288.086
1745822956.298,999.512,953.125,999.512,999.512
1745822956.302,616.699,-740.234,-487.793,648.926
1745822956.306,-795.41,-637.207,-1000.0,-759.766
1745822956.31,-1000.0,-472.656,-785.645,-1000.0
1745822956.315,222.168,469.727,491.699,212.402
1745822956.319,999.512,959.473,999.512,999.512
1745822956.323,708.984,-713.379,-260.254,754.883
1745822956.327,-719.727,-1000.0,-1000.0,-661.621
1745822956.331,-1000.0,-282.227,-556.152,-1000.0
1745822956.335,228.027,788.574,600.098,188.477
1745822956.339,999.512,398.438,999.512,999.512
1745822956.342,727.051,-914.062,139.648,767.578
1745822956.346,-586.914,-955.078,-1000.0,-550.781
1745822956.35,-1000.0,-631.836,-560.547,-1000.0
1745822956.354,-542.48,274.414,569.336,-531.738
1745822956.358,911.621,854.004,999.512,909.18
1745822956.372,887.207,-511.23,501.953,888.672
1745822956.376,-579.102,-1000.0,-879.883,-579.102
1745822956.38,-1000.0,-606.934,-797.852,-1000.0
1745822956.384,-615.723,370.117,453.613,-547.852
1745822956.388,818.848,866.699,999.512,772.949
1745822956.392,999.512,-17.09,684.082,999.512
1745822956.396,-392.578,-991.211,-681.641,131.836
1745822956.399,-1000.0,-1000.0,-1000.0,-1000.0
1745822956.403,-563.477,29.785,-45.41,-533.203
1745822956.407,819.336,999.512,999.512,893.555
1745822956.411,999.512,-207.031,771.484,999.512
1745822956.415,905.762,-906.25,-646.484,913.086
1745822956.372,887.207,-511.23,501.953,888.672
1745822956.376,-579.102,-1000.0,-879.883,-579.102
1745822956.38,-1000.0,-606.934,-797.852,-1000.0
1745822956.384,-615.723,370.117,453.613,-547.852
1745822956.388,818.848,866.699,999.512,772.949
1745822956.392,999.512,-17.09,684.082,999.512
1745822956.396,-392.578,-991.211,-681.641,131.836
1745822956.399,-1000.0,-1000.0,-1000.0,-1000.0
1745822956.403,-563.477,29.785,-45.41,-533.203
1745822956.407,819.336,999.512,999.512,893.555
1745822956.411,999.512,-207.031,771.484,999.512
1745822956.415,905.762,-906.25,-646.484,913.086
1745822956.416,985.84,-211.426,-980.957,981.934
1745822956.42,959.473,-29.297,-278.32,966.797
1745822956.424,923.828,872.559,883.301,966.797
1745822956.428,999.512,486.328,885.254,966.797
1745822956.432,69.824,-735.352,-598.145,967.285
1745822956.436,-141.602,198.242,-892.09,967.285
1745822956.44,999.512,290.527,-293.945,966.797
1745822956.443,900.879,646.973,794.434,967.285
1745822956.447,999.512,612.793,927.734,966.797
1745822956.451,590.332,-816.895,-550.781,966.797
1745822956.455,-1000.0,-512.695,-1000.0,966.797
1745822956.459,-712.891,67.871,-664.062,966.797
1745822956.416,985.84,-211.426,-980.957,981.934
1745822956.42,959.473,-29.297,-278.32,966.797
1745822956.424,923.828,872.559,883.301,966.797
1745822956.428,999.512,486.328,885.254,966.797
1745822956.432,69.824,-735.352,-598.145,967.285
1745822956.436,-141.602,198.242,-892.09,967.285
1745822956.44,999.512,290.527,-293.945,966.797
1745822956.443,900.879,646.973,794.434,967.285
1745822956.447,999.512,612.793,927.734,966.797
1745822956.451,590.332,-816.895,-550.781,966.797
1745822956.455,-1000.0,-512.695,-1000.0,966.797
1745822956.459,-712.891,67.871,-664.062,966.797
1745822956.462,856.934,948.73,701.172,967.285
1745822956.466,999.512,725.098,999.512,967.285
1745822956.47,903.809,-467.285,-495.117,967.285
1745822956.474,983.398,54.199,-919.434,966.797
1745822956.478,966.309,-40.527,-275.391,966.797
1745822956.482,966.309,668.457,693.359,966.797
1745822956.486,966.309,629.883,999.512,966.797
1745822956.489,966.309,-726.074,-133.789,966.797
1745822956.493,966.309,-371.094,-1000.0,967.285
1745822956.497,966.309,105.957,-407.715,966.797
1745822956.501,966.309,556.152,637.695,966.797
1745822956.505,966.309,968.262,999.512,966.797
1745822956.462,856.934,948.73,701.172,967.285
1745822956.466,999.512,725.098,999.512,967.285
1745822956.47,903.809,-467.285,-495.117,967.285
1745822956.474,983.398,54.199,-919.434,966.797
1745822956.478,966.309,-40.527,-275.391,966.797
1745822956.482,966.309,668.457,693.359,966.797
1745822956.486,966.309,629.883,999.512,966.797
1745822956.489,966.309,-726.074,-133.789,966.797
1745822956.493,966.309,-371.094,-1000.0,967.285
1745822956.497,966.309,105.957,-407.715,966.797
1745822956.501,966.309,556.152,637.695,966.797
1745822956.505,966.309,968.262,999.512,966.797
1745822956.507,966.309,-427.246,216.797,966.797
1745822956.511,966.309,-376.953,-916.504,967.285
1745822956.515,966.309,26.367,-475.586,967.285
1745822956.519,966.309,607.91,588.379,966.797
1745822956.523,966.309,999.512,999.512,966.797
1745822956.527,966.309,-517.578,314.453,966.797
1745822956.531,966.309,-533.203,-892.578,967.285
1745822956.534,965.82,-94.238,-1000.0,966.797
1745822956.538,966.309,335.449,-189.941,966.797
1745822956.542,966.309,962.891,999.512,966.797
1745822956.546,966.309,-490.723,491.699,966.797
1745822956.55,966.309,-829.59,-854.98,966.797
1745822956.507,966.309,-427.246,216.797,966.797
1745822956.511,966.309,-376.953,-916.504,967.285
1745822956.515,966.309,26.367,-475.586,967.285
1745822956.519,966.309,607.91,588.379,966.797
1745822956.523,966.309,999.512,999.512,966.797
1745822956.527,966.309,-517.578,314.453,966.797
1745822956.531,966.309,-533.203,-892.578,967.285
1745822956.534,965.82,-94.238,-1000.0,966.797
1745822956.538,966.309,335.449,-189.941,966.797
1745822956.542,966.309,962.891,999.512,966.797
1745822956.546,966.309,-490.723,491.699,966.797
1745822956.55,966.309,-829.59,-854.98,966.797
1745822956.552,982.91,-278.809,-1000.0,967.285
1745822956.556,908.691,28.809,-589.844,967.285
1745822956.56,999.512,862.793,854.492,966.797
1745822956.564,840.82,-398.438,701.172,966.797
1745822956.568,-540.039,-923.34,-778.32,967.285
1745822956.572,-1000.0,-40.527,-1000.0,967.285
1745822956.576,-870.605,-279.785,-780.273,966.797
1745822956.579,591.797,753.906,713.867,966.797
1745822956.583,990.234,436.035,870.117,966.797
1745822956.587,-570.312,-1000.0,-685.547,967.285
1745822956.591,-1000.0,-568.359,-1000.0,967.285
1745822956.595,-888.184,404.297,-833.984,966.797
1745822956.552,982.91,-278.809,-1000.0,967.285
1745822956.556,908.691,28.809,-589.844,967.285
1745822956.56,999.512,862.793,854.492,966.797
1745822956.564,840.82,-398.438,701.172,966.797
1745822956.568,-540.039,-923.34,-778.32,967.285
1745822956.572,-1000.0,-40.527,-1000.0,967.285
1745822956.576,-870.605,-279.785,-780.273,966.797
1745822956.579,591.797,753.906,713.867,966.797
1745822956.583,990.234,436.035,870.117,966.797
1745822956.587,-570.312,-1000.0,-685.547,967.285
1745822956.591,-1000.0,-568.359,-1000.0,967.285
1745822956.595,-888.184,404.297,-833.984,966.797
1745822956.598,567.383,910.156,634.277,967.285
1745822956.602,994.141,325.684,935.547,966.797
1745822956.606,-593.75,-841.797,-638.184,966.797
1745822956.61,-1000.0,-418.457,-1000.0,966.797
1745822956.614,-995.117,96.68,-910.645,983.398
1745822956.618,356.445,808.105,525.391,908.203
1745822956.622,999.512,306.641,986.816,999.512
1745822956.625,-602.051,-958.008,-632.324,857.422
1745822956.629,-1000.0,-831.055,-1000.0,-582.031
1745822956.633,-1000.0,-485.84,-1000.0,-1000.0
1745822956.637,-302.734,573.242,81.055,10.254
1745822956.641,999.512,906.738,999.512,999.512
1745822956.598,567.383,910.156,634.277,967.285
1745822956.602,994.141,325.684,935.547,966.797
1745822956.606,-593.75,-841.797,-638.184,966.797
1745822956.61,-1000.0,-418.457,-1000.0,966.797
1745822956.614,-995.117,96.68,-910.645,983.398
1745822956.618,356.445,808.105,525.391,908.203
1745822956.622,999.512,306.641,986.816,999.512
1745822956.625,-602.051,-958.008,-632.324,857.422
1745822956.629,-1000.0,-831.055,-1000.0,-582.031
1745822956.633,-1000.0,-485.84,-1000.0,-1000.0
1745822956.637,-302.734,573.242,81.055,10.254
1745822956.641,999.512,906.738,999.512,999.512
1745822956.643,-364.258,-612.793,-526.367,450.684
1745822956.647,-1000.0,-674.316,-1000.0,-843.75
1745822956.651,-1000.0,-395.508,-1000.0,-1000.0
1745822956.655,-834.961,539.062,-224.121,-709.961
1745822956.659,787.109,999.512,998.535,879.395
1745822956.663,75.684,-414.062,-302.734,405.273
1745822956.667,-1000.0,-848.633,-1000.0,-988.281
1745822956.67,-996.582,-807.129,-1000.0,-1000.0
1745822956.674,-946.777,251.953,-564.453,-919.922
1745822956.678,657.227,999.512,902.832,667.969
1745822956.682,358.398,-486.816,-53.223,501.465
1745822956.686,-1000.0,-1000.0,-1000.0,-1000.0
1745822956.643,-364.258,-612.793,-526.367,450.684
1745822956.647,-1000.0,-674.316,-1000.0,-843.75
1745822956.651,-1000.0,-395.508,-1000.0,-1000.0
1745822956.655,-834.961,539.062,-224.121,-709.961
1745822956.659,787.109,999.512,998.535,879.395
1745822956.663,75.684,-414.062,-302.734,405.273
1745822956.667,-1000.0,-848.633,-1000.0,-988.281
1745822956.67,-996.582,-807.129,-1000.0,-1000.0
1745822956.674,-946.777,251.953,-564.453,-919.922
1745822956.678,657.227,999.512,902.832,667.969
1745822956.682,358.398,-486.816,-53.223,501.465
1745822956.686,-1000.0,-1000.0,-1000.0,-1000.0
1745822956.688,-911.133,-351.074,-1000.0,-941.406
1745822956.692,-1000.0,118.164,-689.941,-1000.0
1745822956.696,-161.133,999.512,875.977,-96.68
1745822956.7,694.336,130.371,474.121,712.891
1745822956.704,-827.637,-903.32,-921.875,-832.52
1745822956.708,-1000.0,-90.82,-1000.0,-1000.0
1745822956.712,-1000.0,-144.531,-749.023,-1000.0
1745822956.715,-825.195,764.648,782.227,-834.961
1745822956.719,452.148,578.125,773.438,413.574
1745822956.723,-519.043,-855.957,-759.277,-541.992
1745822956.727,-1000.0,-537.109,-1000.0,-1000.0
1745822956.731,-910.645,97.656,-700.195,-911.621
1745822956.688,-911.133,-351.074,-1000.0,-941.406
1745822956.692,-1000.0,118.164,-689.941,-1000.0
1745822956.696,-161.133,999.512,875.977,-96.68
1745822956.7,694.336,130.371,474.121,712.891
1745822956.704,-827.637,-903.32,-921.875,-832.52
1745822956.708,-1000.0,-90.82,-1000.0,-1000.0
1745822956.712,-1000.0,-144.531,-749.023,-1000.0
1745822956.715,-825.195,764.648,782.227,-834.961
1745822956.719,452.148,578.125,773.438,413.574
1745822956.723,-519.043,-855.957,-759.277,-541.992
1745822956.727,-1000.0,-537.109,-1000.0,-1000.0
1745822956.731,-910.645,97.656,-700.195,-911.621
1745822956.747,-1000.0,902.344,763.184,-1000.0
1745822956.751,-1000.0,-110.352,815.43,-1000.0
1745822956.755,-1000.0,-725.098,-725.586,-1000.0
1745822956.759,-1000.0,-391.113,-1000.0,-1000.0
1745822956.763,-1000.0,-526.855,-932.129,-1000.0
1745822956.767,-1000.0,598.633,528.809,-1000.0
1745822956.771,-1000.0,-262.207,925.293,-1000.0
1745822956.774,-1000.0,-1000.0,-712.402,-1000.0
1745822956.778,-1000.0,-833.984,-1000.0,-1000.0
1745822956.782,-1000.0,-395.508,-1000.0,-1000.0
1745822956.786,-1000.0,705.078,55.664,-1000.0
1745822956.79,-1000.0,350.586,834.961,-1000.0
1745822956.79,-1000.0,350.586,834.961,-1000.0
1745822956.79,-1000.0,350.586,834.961,-1000.0
1745822956.791,-1000.0,-905.273,-712.891,-1000.0
1745822956.795,-1000.0,-687.988,-1000.0,-1000.0
1745822956.799,-1000.0,-542.969,-1000.0,-1000.0
1745822956.803,-1000.0,289.551,-432.129,-1000.0
1745822956.807,-1000.0,275.391,664.062,-1000.0
1745822956.811,-1000.0,-923.34,-630.859,-1000.0
1745822956.815,-1000.0,-958.984,-1000.0,-1000.0
1745822956.818,-1000.0,-791.992,-1000.0,-1000.0
1745822956.822,-1000.0,224.121,-633.301,-1000.0
1745822956.826,-1000.0,157.715,642.578,-1000.0
1745822956.83,-1000.0,-999.512,-519.531,-1000.0
1745822956.834,-1000.0,-853.516,-1000.0,-1000.0
1745822956.791,-1000.0,-905.273,-712.891,-1000.0
1745822956.795,-1000.0,-687.988,-1000.0,-1000.0
1745822956.799,-1000.0,-542.969,-1000.0,-1000.0
1745822956.803,-1000.0,289.551,-432.129,-1000.0
1745822956.807,-1000.0,275.391,664.062,-1000.0
1745822956.811,-1000.0,-923.34,-630.859,-1000.0
1745822956.815,-1000.0,-958.984,-1000.0,-1000.0
1745822956.818,-1000.0,-791.992,-1000.0,-1000.0
1745822956.822,-1000.0,224.121,-633.301,-1000.0
1745822956.826,-1000.0,157.715,642.578,-1000.0
1745822956.83,-1000.0,-999.512,-519.531,-1000.0
1745822956.834,-1000.0,-853.516,-1000.0,-1000.0
1745822956.852,-1000.0,-830.078,-1000.0,-1000.0
1745822956.856,-1000.0,-80.566,-770.508,-1000.0
1745822956.86,-1000.0,341.309,636.719,-1000.0
1745822956.864,-1000.0,-814.453,-361.328,-1000.0
1745822956.868,-1000.0,-1000.0,-1000.0,-1000.0
1745822956.872,-1000.0,-989.258,-926.758,-1000.0
1745822956.876,-1000.0,-524.414,-984.863,-1000.0
1745822956.879,-1000.0,-119.141,-888.672,-1000.0
1745822956.883,-1000.0,-892.578,-994.629,-1000.0
1745822956.887,-1000.0,-1000.0,-972.168,-1000.0
1745822956.891,-1000.0,-1000.0,-1000.0,-1000.0
1745822956.895,-1000.0,-440.43,-1000.0,-1000.0
1745822956.882,-1000.0,585.938,253.418,-1000.0
1745822956.886,-1000.0,-541.992,110.84,-1000.0
1745822956.89,-1000.0,-946.289,-1000.0,-1000.0
1745822956.894,-1000.0,-271.484,-1000.0,-1000.0
1745822956.898,-1000.0,103.027,-566.895,-1000.0
1745822956.902,-1000.0,964.844,856.445,-1000.0
1745822956.906,-1000.0,104.492,901.855,-1000.0
1745822956.909,-1000.0,-738.77,-609.375,-1000.0
1745822956.913,-928.223,94.238,-657.227,-1000.0
1745822956.917,-1000.0,145.508,126.953,-1000.0
1745822956.921,-308.594,883.789,893.555,-1000.0
1745822956.925,953.613,640.625,961.426,-1000.0
1745822956.943,-325.684,-691.406,-475.098,-1000.0
1745822956.947,-1000.0,15.625,-398.438,-1000.0
1745822956.951,-435.059,381.836,606.445,-1000.0
1745822956.955,881.836,871.094,922.363,-1000.0
1745822956.959,999.512,656.25,999.512,-1000.0
1745822956.963,915.039,-416.016,-156.25,-1000.0
1745822956.967,980.957,-46.875,-468.75,-1000.0
1745822956.97,966.309,-185.059,404.297,-951.172
1745822956.974,966.309,607.422,847.168,-1000.0
1745822956.978,966.309,999.512,999.512,-674.316
1745822956.982,966.309,-388.672,34.18,-323.242
1745822956.986,966.309,-340.82,-865.723,-933.105
1745822956.974,966.309,138.672,-352.539,-1000.0
1745822956.978,966.309,633.301,606.934,-799.316
1745822956.982,966.309,999.512,999.512,823.242
1745822956.986,966.309,-428.711,38.086,673.828
1745822956.99,966.309,-209.473,-1000.0,-850.098
1745822956.994,981.934,138.672,-955.566,-1000.0
1745822956.998,910.645,101.074,107.91,-664.062
1745822957.001,999.512,976.562,999.512,840.332
1745822957.005,912.598,-272.461,103.027,901.855
1745822957.009,-583.008,-1000.0,-988.77,-605.957
1745822957.013,-1000.0,-218.262,-1000.0,-1000.0
1745822957.017,415.527,677.246,-394.043,-468.262
1745822956.974,966.309,138.672,-352.539,-1000.0
1745822956.978,966.309,633.301,606.934,-799.316
1745822956.982,966.309,999.512,999.512,823.242
1745822956.986,966.309,-428.711,38.086,673.828
1745822956.99,966.309,-209.473,-1000.0,-850.098
1745822956.994,981.934,138.672,-955.566,-1000.0
1745822956.998,910.645,101.074,107.91,-664.062
1745822957.001,999.512,976.562,999.512,840.332
1745822957.005,912.598,-272.461,103.027,901.855
1745822957.009,-583.008,-1000.0,-988.77,-605.957
1745822957.013,-1000.0,-218.262,-1000.0,-1000.0
1745822957.017,415.527,677.246,-394.043,-468.262
1745822957.032,999.512,999.512,999.023,876.465
1745822957.036,818.359,-362.793,376.953,922.363
1745822957.04,999.512,-361.328,-921.387,999.512
1745822957.044,770.02,-86.426,-1000.0,619.141
1745822957.048,-470.215,-714.844,-824.219,-666.504
1745822957.052,435.059,702.148,738.281,429.688
1745822957.056,999.512,65.918,714.355,999.512
1745822957.059,826.172,-1000.0,-807.129,697.266
1745822957.063,-638.184,-924.316,-1000.0,-737.793
1745822957.067,-999.023,-120.117,-775.879,-984.863
1745822957.071,654.297,957.031,714.844,636.23
1745822957.075,999.512,200.684,876.465,999.512
1745822957.032,999.512,999.512,999.023,876.465
1745822957.036,818.359,-362.793,376.953,922.363
1745822957.04,999.512,-361.328,-921.387,999.512
1745822957.044,770.02,-86.426,-1000.0,619.141
1745822957.048,-470.215,-714.844,-824.219,-666.504
1745822957.052,435.059,702.148,738.281,429.688
1745822957.056,999.512,65.918,714.355,999.512
1745822957.059,826.172,-1000.0,-807.129,697.266
1745822957.063,-638.184,-924.316,-1000.0,-737.793
1745822957.067,-999.023,-120.117,-775.879,-984.863
1745822957.071,654.297,957.031,714.844,636.23
1745822957.075,999.512,200.684,876.465,999.512
1745822957.078,879.883,-744.629,-676.758,912.109
1745822957.082,999.512,-199.707,-1000.0,999.512
1745822957.086,434.082,-684.082,-872.07,107.91
1745822957.09,541.504,560.547,604.004,465.82
1745822957.094,999.512,637.695,953.613,999.512
1745822957.098,995.605,-699.219,-629.395,975.098
1745822957.102,938.477,10.742,-1000.0,938.477
1745822957.105,-500.0,-604.004,-911.621,-504.395
1745822957.109,64.453,379.883,483.887,70.801
1745822957.113,999.512,871.094,999.512,999.512
1745822957.117,701.66,-846.191,-577.148,713.379
1745822957.121,-731.934,-963.867,-1000.0,-703.613
1745822957.078,879.883,-744.629,-676.758,912.109
1745822957.082,999.512,-199.707,-1000.0,999.512
1745822957.086,434.082,-684.082,-872.07,107.91
1745822957.09,541.504,560.547,604.004,465.82
1745822957.094,999.512,637.695,953.613,999.512
1745822957.098,995.605,-699.219,-629.395,975.098
1745822957.102,938.477,10.742,-1000.0,938.477
1745822957.105,-500.0,-604.004,-911.621,-504.395
1745822957.109,64.453,379.883,483.887,70.801
1745822957.113,999.512,871.094,999.512,999.512
1745822957.117,701.66,-846.191,-577.148,713.379
1745822957.121,-731.934,-963.867,-1000.0,-703.613
1745822957.122,-1000.0,-221.68,-900.391,-1000.0
1745822957.126,378.906,699.219,439.453,357.91
1745822957.13,999.512,807.129,999.512,999.512
1745822957.134,896.484,-532.227,-297.363,898.438
1745822957.138,973.145,-939.453,-1000.0,973.145
1745822957.142,983.887,84.473,-948.73,983.887
1745822957.146,897.461,678.711,299.316,906.25
1745822957.149,999.512,356.445,999.512,999.512
1745822957.153,715.332,-759.277,-139.16,830.566
1745822957.157,-714.355,-1000.0,-1000.0,-588.379
1745822957.161,-1000.0,-468.262,-929.199,-1000.0
1745822957.165,-108.887,708.984,134.766,-100.586
1745822957.167,999.512,915.527,999.512,998.535
1745822957.171,951.172,-612.793,196.289,952.637
1745822957.175,940.918,-738.281,-966.309,941.406
1745822957.179,989.746,-213.379,-1000.0,990.234
1745822957.183,908.691,214.355,-205.566,910.156
1745822957.187,999.512,875.977,999.512,999.512
1745822957.191,839.355,-333.984,550.781,850.098
1745822957.194,-532.715,-1000.0,-835.938,-516.113
1745822957.198,-1000.0,-728.516,-1000.0,-1000.0
1745822957.202,-744.141,47.363,-374.512,-703.613
1745822957.206,611.328,951.172,941.895,606.445
1745822957.21,999.512,-17.09,768.555,999.512
1745822957.167,999.512,915.527,999.512,998.535
1745822957.171,951.172,-612.793,196.289,952.637
1745822957.175,940.918,-738.281,-966.309,941.406
1745822957.179,989.746,-213.379,-1000.0,990.234
1745822957.183,908.691,214.355,-205.566,910.156
1745822957.187,999.512,875.977,999.512,999.512
1745822957.191,839.355,-333.984,550.781,850.098
1745822957.194,-532.715,-1000.0,-835.938,-516.113
1745822957.198,-1000.0,-728.516,-1000.0,-1000.0
1745822957.202,-744.141,47.363,-374.512,-703.613
1745822957.206,611.328,951.172,941.895,606.445
1745822957.21,999.512,-17.09,768.555,999.512
1745822957.213,39.551,-1000.0,-710.449,444.336
1745822957.217,-1000.0,-834.473,-1000.0,-972.656
1745822957.221,-836.914,449.219,-407.715,-892.09
1745822957.225,637.207,999.512,901.367,675.293
1745822957.229,993.164,-410.156,816.406,985.84
1745822957.233,999.512,-830.566,-650.391,999.512
1745822957.237,744.141,-424.316,-1000.0,752.93
1745822957.24,-687.5,-757.324,-835.938,-655.273
1745822957.244,316.895,617.676,637.207,310.059
1745822957.248,999.512,498.535,948.73,999.512
1745822957.252,8.789,-948.73,-618.164,142.578
1745822957.256,-1000.0,-576.66,-1000.0,-1000.0
1745822957.257,-942.871,-104.004,-863.77,-975.098
1745822957.261,350.586,779.785,569.336,335.449
1745822957.265,999.512,893.555,999.512,999.512
1745822957.269,691.406,-736.328,-558.594,685.059
1745822957.273,-709.473,-562.988,-1000.0,-702.637
1745822957.277,-1000.0,-62.988,-920.41,-1000.0
1745822957.281,233.887,526.855,374.023,195.801
1745822957.284,999.512,641.602,999.512,999.512
1745822957.288,906.738,-708.008,-355.469,912.598
1745822957.292,965.332,-421.387,-1000.0,963.379
1745822957.296,980.469,-265.137,-886.23,968.75
1745822957.3,902.832,625.977,388.672,966.797
1745822957.302,999.512,944.336,999.512,966.797
1745822957.306,875.488,-807.617,-93.262,966.797
1745822957.31,-359.375,-702.148,-1000.0,966.797
1745822957.314,449.219,291.992,-898.926,966.797
1745822957.318,999.512,409.668,54.199,966.797
1745822957.322,927.734,934.082,999.512,966.797
1745822957.326,896.973,-277.344,314.941,966.797
1745822957.329,-577.148,-1000.0,-934.082,966.797
1745822957.333,-1000.0,-515.137,-1000.0,966.797
1745822957.337,156.738,554.688,-178.223,966.797
1745822957.341,999.512,999.512,999.512,966.797
1745822957.345,850.098,-321.777,500.977,966.797
1745822957.363,-425.293,-891.113,-824.219,966.797
1745822957.367,-1000.0,-253.418,-1000.0,967.285
1745822957.371,-502.441,22.949,-494.141,967.285
1745822957.375,841.309,999.512,910.645,967.285
1745822957.379,999.512,176.27,781.25,966.797
1745822957.383,-304.688,-867.676,-651.855,966.797
1745822957.387,-415.527,212.402,-899.414,966.797
1745822957.39,946.289,37.598,-544.922,966.797
1745822957.394,999.512,603.516,750.977,966.797
1745822957.398,869.629,547.852,902.344,966.797
1745822957.402,-414.062,-684.57,-630.859,966.797
1745822957.406,-1000.0,-184.57,-1000.0,967.285
1745822957.363,-425.293,-891.113,-824.219,966.797
1745822957.367,-1000.0,-253.418,-1000.0,967.285
1745822957.371,-502.441,22.949,-494.141,967.285
1745822957.375,841.309,999.512,910.645,967.285
1745822957.379,999.512,176.27,781.25,966.797
1745822957.383,-304.688,-867.676,-651.855,966.797
1745822957.387,-415.527,212.402,-899.414,966.797
1745822957.39,946.289,37.598,-544.922,966.797
1745822957.394,999.512,603.516,750.977,966.797
1745822957.398,869.629,547.852,902.344,966.797
1745822957.402,-414.062,-684.57,-630.859,966.797
1745822957.406,-1000.0,-184.57,-1000.0,967.285
1745822957.392,-837.891,43.457,-851.562,966.797
1745822957.396,524.902,694.824,608.887,966.797
1745822957.4,999.512,529.785,955.078,966.797
1745822957.404,-128.418,-792.969,-614.258,967.285
1745822957.408,-1000.0,-584.961,-1000.0,966.797
1745822957.412,-833.008,488.77,-852.051,966.797
1745822957.416,509.766,950.195,586.426,966.797
1745822957.419,999.512,115.723,980.469,966.797
1745822957.423,359.375,-825.684,-580.078,966.797
1745822957.427,-1000.0,-545.898,-1000.0,966.797
1745822957.431,-897.949,-384.277,-905.273,966.797
1745822957.435,535.156,747.559,458.984,966.797
1745822957.392,-837.891,43.457,-851.562,966.797
1745822957.396,524.902,694.824,608.887,966.797
1745822957.4,999.512,529.785,955.078,966.797
1745822957.404,-128.418,-792.969,-614.258,967.285
1745822957.408,-1000.0,-584.961,-1000.0,966.797
1745822957.412,-833.008,488.77,-852.051,966.797
1745822957.416,509.766,950.195,586.426,966.797
1745822957.419,999.512,115.723,980.469,966.797
1745822957.423,359.375,-825.684,-580.078,966.797
1745822957.427,-1000.0,-545.898,-1000.0,966.797
1745822957.431,-897.949,-384.277,-905.273,966.797
1745822957.435,535.156,747.559,458.984,966.797
1745822957.455,999.512,747.07,999.512,967.285
1745822957.459,553.223,-863.77,-427.734,966.797
1745822957.463,-848.145,-790.039,-1000.0,967.285
1745822957.467,-1000.0,-75.684,-967.773,966.797
1745822957.471,299.316,669.922,188.477,966.797
1745822957.475,999.512,999.512,999.512,966.797
1745822957.479,670.41,-541.992,-120.605,966.797
1745822957.482,-691.895,-973.145,-1000.0,966.797
1745822957.486,-1000.0,-119.141,-983.398,966.797
1745822957.49,-105.469,381.348,-13.672,967.285
1745822957.494,999.512,812.5,999.512,966.797
1745822957.498,858.887,-253.418,422.363,966.797
1745822957.497,-599.609,-868.164,-746.094,966.797
1745822957.501,-1000.0,-105.469,-474.121,967.285
1745822957.505,162.109,749.023,307.129,966.797
1745822957.509,999.512,878.906,999.512,966.797
1745822957.513,842.285,-576.66,708.984,967.285
1745822957.517,-614.258,-973.145,-721.68,966.797
1745822957.521,-1000.0,-504.395,-254.395,966.797
1745822957.524,386.719,412.598,851.562,966.797
1745822957.528,999.512,999.512,999.512,967.285
1745822957.532,915.527,-78.613,804.688,966.797
1745822957.536,-547.852,-860.352,-205.078,966.797
1745822957.54,-266.602,182.129,219.238,967.285
1745822957.541,999.512,198.242,716.797,966.797
1745822957.545,991.211,624.512,962.891,966.797
1745822957.549,819.824,216.309,826.172,966.797
1745822957.553,-528.809,-930.176,-598.145,966.797
1745822957.557,-1000.0,-115.234,-962.891,967.285
1745822957.561,-856.934,143.555,-486.328,966.797
1745822957.565,560.059,704.59,742.676,966.797
1745822957.568,999.512,88.379,909.668,966.797
1745822957.572,-403.32,-1000.0,-610.352,966.797
1745822957.576,-1000.0,-469.238,-1000.0,967.285
1745822957.58,-828.613,-207.031,-816.895,967.285
1745822957.584,493.652,781.25,609.863,967.285
1745822957.541,999.512,198.242,716.797,966.797
1745822957.545,991.211,624.512,962.891,966.797
1745822957.549,819.824,216.309,826.172,966.797
1745822957.553,-528.809,-930.176,-598.145,966.797
1745822957.557,-1000.0,-115.234,-962.891,967.285
1745822957.561,-856.934,143.555,-486.328,966.797
1745822957.565,560.059,704.59,742.676,966.797
1745822957.568,999.512,88.379,909.668,966.797
1745822957.572,-403.32,-1000.0,-610.352,966.797
1745822957.576,-1000.0,-469.238,-1000.0,967.285
1745822957.58,-828.613,-207.031,-816.895,967.285
1745822957.584,493.652,781.25,609.863,967.285
1745822957.587,999.512,789.062,999.512,966.797
1745822957.591,-55.176,-919.434,-592.285,966.797
1745822957.595,-917.48,-234.863,-830.566,966.797
1745822957.599,590.332,509.277,-18.066,966.797
1745822957.603,999.512,539.551,739.746,973.145
1745822957.607,968.262,788.574,968.75,942.383
1745822957.611,-119.141,-594.238,-487.305,952.148
1745822957.614,-1000.0,-645.508,-1000.0,999.512
1745822957.618,-1000.0,-779.785,-1000.0,-207.031
1745822957.622,-443.848,279.785,-192.871,-294.434
1745822957.626,999.512,815.918,980.469,999.512
1745822957.63,495.605,-800.293,-367.188,887.695
1745822957.587,999.512,789.062,999.512,966.797
1745822957.591,-55.176,-919.434,-592.285,966.797
1745822957.595,-917.48,-234.863,-830.566,966.797
1745822957.599,590.332,509.277,-18.066,966.797
1745822957.603,999.512,539.551,739.746,973.145
1745822957.607,968.262,788.574,968.75,942.383
1745822957.611,-119.141,-594.238,-487.305,952.148
1745822957.614,-1000.0,-645.508,-1000.0,999.512
1745822957.618,-1000.0,-779.785,-1000.0,-207.031
1745822957.622,-443.848,279.785,-192.871,-294.434
1745822957.626,999.512,815.918,980.469,999.512
1745822957.63,495.605,-800.293,-367.188,887.695
1745822957.633,-880.859,-999.023,-1000.0,-465.82
1745822957.637,-1000.0,-670.41,-1000.0,-1000.0
1745822957.641,-623.535,40.039,-486.816,-405.273
1745822957.645,880.859,923.828,958.008,910.156
1745822957.649,898.438,-540.527,23.926,926.27
1745822957.653,-596.191,-786.621,-1000.0,999.512
1745822957.657,-1000.0,-420.41,-1000.0,802.734
1745822957.66,-843.75,-578.125,-761.719,-390.137
1745822957.664,641.602,733.398,812.012,517.09
1745822957.668,952.148,-179.688,435.547,999.512
1745822957.672,-606.934,-1000.0,-942.383,99.121
1745822957.676,-1000.0,-451.172,-1000.0,-1000.0
1745822957.633,-880.859,-999.023,-1000.0,-465.82
1745822957.637,-1000.0,-670.41,-1000.0,-1000.0
1745822957.641,-623.535,40.039,-486.816,-405.273
1745822957.645,880.859,923.828,958.008,910.156
1745822957.649,898.438,-540.527,23.926,926.27
1745822957.653,-596.191,-786.621,-1000.0,999.512
1745822957.657,-1000.0,-420.41,-1000.0,802.734
1745822957.66,-843.75,-578.125,-761.719,-390.137
1745822957.664,641.602,733.398,812.012,517.09
1745822957.668,952.148,-179.688,435.547,999.512
1745822957.672,-606.934,-1000.0,-942.383,99.121
1745822957.676,-1000.0,-451.172,-1000.0,-1000.0
1745822957.677,-773.438,158.691,-683.105,-753.418
1745822957.681,622.07,797.852,813.477,736.328
1745822957.685,999.512,-156.25,724.121,999.512
1745822957.689,-198.242,-1000.0,-772.949,897.949
1745822957.693,-1000.0,-810.059,-1000.0,984.863
1745822957.697,-713.379,328.613,-645.02,979.004
1745822957.701,814.453,975.098,794.434,905.762
1745822957.704,930.176,-19.043,818.359,999.512
1745822957.708,-588.379,-869.629,-697.266,695.801
1745822957.712,-1000.0,-979.492,-1000.0,-826.172
1745822957.716,-828.125,-528.809,-805.176,-961.914
1745822957.72,507.812,867.676,667.48,631.348
1745822957.677,-773.438,158.691,-683.105,-753.418
1745822957.681,622.07,797.852,813.477,736.328
1745822957.685,999.512,-156.25,724.121,999.512
1745822957.689,-198.242,-1000.0,-772.949,897.949
1745822957.693,-1000.0,-810.059,-1000.0,984.863
1745822957.697,-713.379,328.613,-645.02,979.004
1745822957.701,814.453,975.098,794.434,905.762
1745822957.704,930.176,-19.043,818.359,999.512
1745822957.708,-588.379,-869.629,-697.266,695.801
1745822957.712,-1000.0,-979.492,-1000.0,-826.172
1745822957.716,-828.125,-528.809,-805.176,-961.914
1745822957.72,507.812,867.676,667.48,631.348
1745822957.737,999.512,772.461,945.801,999.512
1745822957.741,13.184,-800.293,-610.352,892.578
1745822957.745,-1000.0,-798.34,-1000.0,982.91
1745822957.749,-849.609,-64.453,-671.387,966.797
1745822957.753,519.043,809.57,687.012,966.797
1745822957.757,999.512,889.648,999.512,966.797
1745822957.761,370.117,-654.785,-363.281,966.797
1745822957.764,-1000.0,-1000.0,-1000.0,967.285
1745822957.768,-890.625,-84.473,-439.453,966.797
1745822957.772,530.273,752.93,696.777,966.797
1745822957.776,999.512,468.75,999.512,966.797
1745822957.78,563.965,-778.809,-137.207,967.285
1745822957.737,999.512,772.461,945.801,999.512
1745822957.741,13.184,-800.293,-610.352,892.578
1745822957.745,-1000.0,-798.34,-1000.0,982.91
1745822957.749,-849.609,-64.453,-671.387,966.797
1745822957.753,519.043,809.57,687.012,966.797
1745822957.757,999.512,889.648,999.512,966.797
1745822957.761,370.117,-654.785,-363.281,966.797
1745822957.764,-1000.0,-1000.0,-1000.0,967.285
1745822957.768,-890.625,-84.473,-439.453,966.797
1745822957.772,530.273,752.93,696.777,966.797
1745822957.776,999.512,468.75,999.512,966.797
1745822957.78,563.965,-778.809,-137.207,967.285
1745822957.766,-642.09,-443.848,-774.902,966.797
1745822957.77,513.672,481.445,-119.629,966.797
1745822957.774,999.512,702.148,676.27,966.797
1745822957.778,978.516,705.078,999.512,966.797
1745822957.782,659.18,-660.156,32.227,966.797
1745822957.786,-809.57,-505.859,-1000.0,966.797
1745822957.79,-1000.0,-481.934,-762.207,966.797
1745822957.793,16.602,310.547,384.766,966.797
1745822957.797,999.512,863.281,999.512,967.285
1745822957.801,640.625,-687.988,169.922,966.797
1745822957.805,-719.727,-696.777,-951.66,966.797
1745822957.809,-1000.0,-221.68,-1000.0,966.797
1745822957.813,-542.48,292.48,-294.922,967.285
1745822957.817,912.109,922.363,999.512,966.797
1745822957.821,890.625,-344.238,494.629,966.797
1745822957.825,-593.75,-979.004,-872.559,967.285
1745822957.829,-1000.0,-255.859,-1000.0,966.797
1745822957.833,-391.113,669.434,-320.801,966.797
1745822957.837,972.168,999.512,972.656,966.797
1745822957.84,865.234,-321.777,694.336,966.797
1745822957.844,-569.336,-933.105,-739.746,966.797
1745822957.848,-1000.0,-181.641,-998.047,967.285
1745822957.852,-488.77,86.426,-287.109,967.285
1745822957.856,786.621,953.613,901.367,966.797
1745822957.813,-542.48,292.48,-294.922,967.285
1745822957.817,912.109,922.363,999.512,966.797
1745822957.821,890.625,-344.238,494.629,966.797
1745822957.825,-593.75,-979.004,-872.559,967.285
1745822957.829,-1000.0,-255.859,-1000.0,966.797
1745822957.833,-391.113,669.434,-320.801,966.797
1745822957.837,972.168,999.512,972.656,966.797
1745822957.84,865.234,-321.777,694.336,966.797
1745822957.844,-569.336,-933.105,-739.746,966.797
1745822957.848,-1000.0,-181.641,-998.047,967.285
1745822957.852,-488.77,86.426,-287.109,967.285
1745822957.856,786.621,953.613,901.367,966.797
1745822957.871,999.512,525.391,917.48,966.797
1745822957.875,178.711,-1000.0,-637.695,967.285
1745822957.879,-218.75,-69.336,-621.582,966.797
1745822957.883,965.82,882.324,578.613,966.797
1745822957.887,999.512,864.258,999.512,966.797
1745822957.891,922.363,652.832,918.945,966.797
1745822957.895,975.098,-436.035,-183.105,966.797
1745822957.898,966.309,345.215,230.957,966.797
1745822957.902,966.309,458.984,999.512,966.797
1745822957.906,966.309,826.66,937.5,966.797
1745822957.91,966.309,729.004,982.91,966.797
1745822957.914,966.309,-474.121,271.973,966.797
1745822957.871,999.512,525.391,917.48,966.797
1745822957.875,178.711,-1000.0,-637.695,967.285
1745822957.879,-218.75,-69.336,-621.582,966.797
1745822957.883,965.82,882.324,578.613,966.797
1745822957.887,999.512,864.258,999.512,966.797
1745822957.891,922.363,652.832,918.945,966.797
1745822957.895,975.098,-436.035,-183.105,966.797
1745822957.898,966.309,345.215,230.957,966.797
1745822957.902,966.309,458.984,999.512,966.797
1745822957.906,966.309,826.66,937.5,966.797
1745822957.91,966.309,729.004,982.91,966.797
1745822957.914,966.309,-474.121,271.973,966.797
1745822957.917,966.309,375.488,504.883,966.797
1745822957.921,966.309,408.203,999.512,966.797
1745822957.925,966.309,699.219,931.641,966.797
1745822957.929,966.309,943.848,993.164,966.797
1745822957.933,966.309,-242.188,734.375,966.797
1745822957.937,966.309,302.246,789.062,966.797
1745822957.941,966.309,436.523,999.512,966.797
1745822957.944,966.309,716.797,944.824,967.285
1745822957.948,966.309,953.125,996.094,967.285
1745822957.952,966.309,-189.453,849.121,966.797
1745822957.956,966.309,215.332,821.289,966.797
1745822957.96,966.309,409.18,992.188,967.285
1745822957.917,966.309,375.488,504.883,966.797
1745822957.921,966.309,408.203,999.512,966.797
1745822957.925,966.309,699.219,931.641,966.797
1745822957.929,966.309,943.848,993.164,966.797
1745822957.933,966.309,-242.188,734.375,966.797
1745822957.937,966.309,302.246,789.062,966.797
1745822957.941,966.309,436.523,999.512,966.797
1745822957.944,966.309,716.797,944.824,967.285
1745822957.948,966.309,953.125,996.094,967.285
1745822957.952,966.309,-189.453,849.121,966.797
1745822957.956,966.309,215.332,821.289,966.797
1745822957.96,966.309,409.18,992.188,967.285
1745822957.962,966.309,620.605,944.336,967.285
1745822957.966,965.82,999.512,999.512,966.797
1745822957.97,966.309,-71.777,861.328,966.797
1745822957.974,966.309,-48.828,676.27,966.797
1745822957.978,966.309,192.383,954.59,966.797
1745822957.982,966.309,470.215,940.43,966.797
1745822957.986,966.309,979.004,999.512,967.285
1745822957.989,966.309,-149.902,808.105,966.797
1745822957.993,966.309,-177.246,137.207,966.797
1745822957.997,966.309,201.66,706.055,966.797
1745822958.001,966.309,300.781,981.934,966.797
1745822958.005,966.309,999.512,999.512,967.285
1745822957.962,966.309,620.605,944.336,967.285
1745822957.966,965.82,999.512,999.512,966.797
1745822957.97,966.309,-71.777,861.328,966.797
1745822957.974,966.309,-48.828,676.27,966.797
1745822957.978,966.309,192.383,954.59,966.797
1745822957.982,966.309,470.215,940.43,966.797
1745822957.986,966.309,979.004,999.512,967.285
1745822957.989,966.309,-149.902,808.105,966.797
1745822957.993,966.309,-177.246,137.207,966.797
1745822957.997,966.309,201.66,706.055,966.797
1745822958.001,966.309,300.781,981.934,966.797
1745822958.005,966.309,999.512,999.512,967.285
1745822958.009,966.309,27.344,847.656,966.797
1745822958.013,966.309,-491.699,-98.633,966.797
1745822958.017,966.309,249.512,382.324,966.797
1745822958.021,966.309,406.25,925.293,966.797
1745822958.025,966.309,958.496,999.512,966.797
1745822958.029,966.309,38.086,860.84,967.285
1745822958.033,966.309,-675.293,-483.887,966.797
1745822958.036,966.309,277.344,-364.746,966.797
1745822958.04,966.309,203.613,480.957,966.797
1745822958.044,966.309,806.152,947.266,966.797
1745822958.048,966.309,330.566,918.457,966.797
1745822958.052,966.309,-709.961,-415.527,966.797
1745822958.009,966.309,27.344,847.656,966.797
1745822958.013,966.309,-491.699,-98.633,966.797
1745822958.017,966.309,249.512,382.324,966.797
1745822958.021,966.309,406.25,925.293,966.797
1745822958.025,966.309,958.496,999.512,966.797
1745822958.029,966.309,38.086,860.84,967.285
1745822958.033,966.309,-675.293,-483.887,966.797
1745822958.036,966.309,277.344,-364.746,966.797
1745822958.04,966.309,203.613,480.957,966.797
1745822958.044,966.309,806.152,947.266,966.797
1745822958.048,966.309,330.566,918.457,966.797
1745822958.052,966.309,-709.961,-415.527,966.797
1745822958.082,966.309,-0.977,-760.254,966.797
1745822958.086,966.309,59.082,-238.281,966.797
1745822958.09,966.309,744.141,764.648,967.285
1745822958.094,966.309,233.398,957.031,966.797
1745822958.098,966.309,-830.078,-557.129,966.797
1745822958.102,977.539,-233.398,-1000.0,966.797
1745822958.106,926.758,-166.504,-1000.0,966.797
1745822958.109,976.074,608.398,181.641,966.797
1745822958.113,979.492,199.707,891.113,966.797
1745822958.117,-374.023,-997.07,-692.383,966.797
1745822958.121,-1000.0,-868.652,-1000.0,966.797
1745822958.125,-929.199,-715.332,-1000.0,966.797
1745822958.082,966.309,-0.977,-760.254,966.797
1745822958.086,966.309,59.082,-238.281,966.797
1745822958.09,966.309,744.141,764.648,967.285
1745822958.094,966.309,233.398,957.031,966.797
1745822958.098,966.309,-830.078,-557.129,966.797
1745822958.102,977.539,-233.398,-1000.0,966.797
1745822958.106,926.758,-166.504,-1000.0,966.797
1745822958.109,976.074,608.398,181.641,966.797
1745822958.113,979.492,199.707,891.113,966.797
1745822958.117,-374.023,-997.07,-692.383,966.797
1745822958.121,-1000.0,-868.652,-1000.0,966.797
1745822958.125,-929.199,-715.332,-1000.0,966.797
1745822958.112,-1000.0,331.543,-638.184,966.797
1745822958.116,-1000.0,149.902,366.699,967.285
1745822958.12,-1000.0,-627.441,-641.602,967.773
1745822958.124,-1000.0,-106.445,-1000.0,904.297
1745822958.128,-1000.0,-830.078,-912.598,999.512
1745822958.132,-1000.0,-1000.0,-1000.0,187.012
1745822958.136,-1000.0,-944.336,-997.07,-1000.0
1745822958.139,-1000.0,-1000.0,-1000.0,-983.887
1745822958.143,-1000.0,-489.258,-1000.0,-973.145
1745822958.147,-1000.0,-544.434,-1000.0,-1000.0
1745822958.151,-1000.0,-1000.0,-1000.0,-1000.0
1745822958.155,-1000.0,-981.445,-1000.0,-1000.0
1745822958.112,-1000.0,331.543,-638.184,966.797
1745822958.116,-1000.0,149.902,366.699,967.285
1745822958.12,-1000.0,-627.441,-641.602,967.773
1745822958.124,-1000.0,-106.445,-1000.0,904.297
1745822958.128,-1000.0,-830.078,-912.598,999.512
1745822958.132,-1000.0,-1000.0,-1000.0,187.012
1745822958.136,-1000.0,-944.336,-997.07,-1000.0
1745822958.139,-1000.0,-1000.0,-1000.0,-983.887
1745822958.143,-1000.0,-489.258,-1000.0,-973.145
1745822958.147,-1000.0,-544.434,-1000.0,-1000.0
1745822958.151,-1000.0,-1000.0,-1000.0,-1000.0
1745822958.155,-1000.0,-981.445,-1000.0,-1000.0
1745822958.157,-1000.0,-997.07,-1000.0,-1000.0
1745822958.161,-1000.0,-1000.0,-1000.0,-1000.0
1745822958.165,-1000.0,-1000.0,-1000.0,-1000.0
1745822958.169,-1000.0,-1000.0,-1000.0,-1000.0
1745822958.173,-1000.0,-1000.0,-1000.0,-1000.0
1745822958.177,-1000.0,-1000.0,-1000.0,-1000.0
1745822958.181,-1000.0,-1000.0,-1000.0,-1000.0
1745822958.184,-1000.0,-1000.0,-1000.0,-1000.0
1745822958.188,-1000.0,-1000.0,-1000.0,-1000.0
1745822958.192,-1000.0,-1000.0,-1000.0,-1000.0
1745822958.196,-1000.0,-1000.0,-1000.0,-1000.0
1745822958.2,-1000.0,-1000.0,-1000.0,-1000.0
1745822958.202,-1000.0,-1000.0,-1000.0,-1000.0
1745822958.206,-1000.0,-1000.0,-1000.0,-1000.0
1745822958.21,-1000.0,-940.43,-1000.0,-1000.0
1745822958.214,-1000.0,-1000.0,-939.453,-1000.0
1745822958.218,-1000.0,-603.027,-1000.0,-1000.0
1745822958.222,-1000.0,888.184,-328.613,-1000.0
1745822958.226,-1000.0,108.398,342.285,-1000.0
1745822958.229,-1000.0,-126.953,281.738,-1000.0
1745822958.233,-1000.0,999.512,981.934,-1000.0
1745822958.237,-1000.0,960.449,980.469,-1000.0
1745822958.241,-1000.0,947.266,947.754,-1000.0
1745822958.245,-927.246,963.867,970.215,-1000.0
1745822958.202,-1000.0,-1000.0,-1000.0,-1000.0
1745822958.206,-1000.0,-1000.0,-1000.0,-1000.0
1745822958.21,-1000.0,-940.43,-1000.0,-1000.0
1745822958.214,-1000.0,-1000.0,-939.453,-1000.0
1745822958.218,-1000.0,-603.027,-1000.0,-1000.0
1745822958.222,-1000.0,888.184,-328.613,-1000.0
1745822958.226,-1000.0,108.398,342.285,-1000.0
1745822958.229,-1000.0,-126.953,281.738,-1000.0
1745822958.233,-1000.0,999.512,981.934,-1000.0
1745822958.237,-1000.0,960.449,980.469,-1000.0
1745822958.241,-1000.0,947.266,947.754,-1000.0
1745822958.245,-927.246,963.867,970.215,-1000.0
1745822958.247,-1000.0,928.711,967.285,-1000.0
1745822958.251,-442.871,968.75,967.285,-1000.0
1745822958.255,946.777,925.293,967.285,-1000.0
1745822958.259,988.77,999.512,967.285,-1000.0
1745822958.263,920.898,622.559,967.285,-1000.0
1745822958.267,979.004,224.609,967.285,-1000.0
1745822958.271,966.309,602.539,967.285,-1000.0
1745822958.274,966.309,617.188,967.285,-1000.0
1745822958.278,966.309,974.121,967.285,-1000.0
1745822958.282,966.309,921.875,967.285,-1000.0
1745822958.286,966.309,759.766,967.285,-937.012
1745822958.29,966.309,705.078,967.285,-1000.0
1745822958.247,-1000.0,928.711,967.285,-1000.0
1745822958.251,-442.871,968.75,967.285,-1000.0
1745822958.255,946.777,925.293,967.285,-1000.0
1745822958.259,988.77,999.512,967.285,-1000.0
1745822958.263,920.898,622.559,967.285,-1000.0
1745822958.267,979.004,224.609,967.285,-1000.0
1745822958.271,966.309,602.539,967.285,-1000.0
1745822958.274,966.309,617.188,967.285,-1000.0
1745822958.278,966.309,974.121,967.285,-1000.0
1745822958.282,966.309,921.875,967.285,-1000.0
1745822958.286,966.309,759.766,967.285,-937.012
1745822958.29,966.309,705.078,967.285,-1000.0
1745822958.292,966.309,713.867,964.844,-228.516
1745822958.296,966.309,999.512,967.773,999.512
1745822958.3,966.309,827.148,973.633,952.148
1745822958.304,966.309,-437.012,891.113,938.965
1745822958.308,966.309,-273.926,920.41,974.121
1745822958.312,966.309,601.562,979.98,966.797
1745822958.316,966.309,823.242,947.754,966.797
1745822958.319,966.309,150.879,999.512,966.797
1745822958.323,966.309,-452.637,696.777,966.797
1745822958.327,966.309,-286.621,657.227,966.797
1745822958.331,966.309,-222.656,999.512,967.285
1745822958.335,966.309,407.715,901.855,967.285
1745822958.292,966.309,713.867,964.844,-228.516
1745822958.296,966.309,999.512,967.773,999.512
1745822958.3,966.309,827.148,973.633,952.148
1745822958.304,966.309,-437.012,891.113,938.965
1745822958.308,966.309,-273.926,920.41,974.121
1745822958.312,966.309,601.562,979.98,966.797
1745822958.316,966.309,823.242,947.754,966.797
1745822958.319,966.309,150.879,999.512,966.797
1745822958.323,966.309,-452.637,696.777,966.797
1745822958.327,966.309,-286.621,657.227,966.797
1745822958.331,966.309,-222.656,999.512,967.285
1745822958.335,966.309,407.715,901.855,967.285
1745822958.352,965.82,999.512,999.512,967.285
1745822958.356,965.82,-156.25,354.98,967.285
1745822958.36,966.309,-705.078,-339.844,966.797
1745822958.364,966.309,10.742,482.91,966.797
1745822958.368,966.309,512.695,847.168,966.797
1745822958.372,966.309,993.652,999.512,966.797
1745822958.376,966.309,-292.969,378.906,966.797
1745822958.379,966.309,-889.648,-643.066,967.285
1745822958.383,966.309,-100.098,-83.984,966.797
1745822958.387,966.309,343.75,573.73,966.797
1745822958.391,966.309,962.891,999.512,967.285
1745822958.395,966.309,-185.059,379.395,966.797
1745822958.397,966.309,-605.469,-767.09,967.285
1745822958.401,966.309,-133.301,-480.469,967.285
1745822958.405,966.309,156.738,263.184,966.797
1745822958.409,966.309,859.375,999.512,966.797
1745822958.413,966.309,-436.523,541.016,967.285
1745822958.417,966.309,-505.371,-673.34,967.285
1745822958.421,966.309,-353.027,-852.539,966.797
1745822958.424,966.309,-451.172,-216.309,966.797
1745822958.428,966.309,769.043,999.512,966.797
1745822958.432,966.309,-236.816,668.945,966.797
1745822958.436,966.309,-912.109,-707.031,966.797
1745822958.44,966.309,-227.539,-1000.0,966.797
1745822958.397,966.309,-605.469,-767.09,967.285
1745822958.401,966.309,-133.301,-480.469,967.285
1745822958.405,966.309,156.738,263.184,966.797
1745822958.409,966.309,859.375,999.512,966.797
1745822958.413,966.309,-436.523,541.016,967.285
1745822958.417,966.309,-505.371,-673.34,967.285
1745822958.421,966.309,-353.027,-852.539,966.797
1745822958.424,966.309,-451.172,-216.309,966.797
1745822958.428,966.309,769.043,999.512,966.797
1745822958.432,966.309,-236.816,668.945,966.797
1745822958.436,966.309,-912.109,-707.031,966.797
1745822958.44,966.309,-227.539,-1000.0,966.797
1745822958.442,966.309,166.992,-412.109,966.797
1745822958.446,966.309,468.75,890.137,966.797
1745822958.45,966.309,-43.457,863.77,966.797
1745822958.454,966.309,-890.137,-494.629,966.797
1745822958.458,966.309,-371.094,-1000.0,966.797
1745822958.462,966.309,364.258,-298.828,966.797
1745822958.466,966.309,941.895,830.078,967.285
1745822958.469,966.309,-55.664,999.512,966.797
1745822958.473,966.309,-900.391,-205.078,966.797
1745822958.477,966.309,-170.41,-900.879,966.797
1745822958.481,966.309,-161.621,-228.516,967.285
1745822958.485,966.309,621.094,650.879,967.285
1745822958.442,966.309,166.992,-412.109,966.797
1745822958.446,966.309,468.75,890.137,966.797
1745822958.45,966.309,-43.457,863.77,966.797
1745822958.454,966.309,-890.137,-494.629,966.797
1745822958.458,966.309,-371.094,-1000.0,966.797
1745822958.462,966.309,364.258,-298.828,966.797
1745822958.466,966.309,941.895,830.078,967.285
1745822958.469,966.309,-55.664,999.512,966.797
1745822958.473,966.309,-900.391,-205.078,966.797
1745822958.477,966.309,-170.41,-900.879,966.797
1745822958.481,966.309,-161.621,-228.516,967.285
1745822958.485,966.309,621.094,650.879,967.285
1745822958.486,966.309,664.551,999.512,967.285
1745822958.49,966.309,-662.109,-4.883,966.797
1745822958.494,966.309,-368.164,-780.273,967.285
1745822958.498,966.309,-216.797,-126.465,966.797
1745822958.502,966.309,310.059,540.039,966.797
1745822958.506,966.309,910.156,999.512,966.797
1745822958.51,966.309,-794.922,138.184,966.797
1745822958.513,966.309,-319.336,-739.746,966.797
1745822958.517,966.309,99.121,-99.609,966.797
1745822958.521,966.309,-139.16,457.031,966.797
1745822958.525,966.309,720.703,999.512,966.797
1745822958.529,966.309,-528.32,188.965,966.797
1745822958.486,966.309,664.551,999.512,967.285
1745822958.49,966.309,-662.109,-4.883,966.797
1745822958.494,966.309,-368.164,-780.273,967.285
1745822958.498,966.309,-216.797,-126.465,966.797
1745822958.502,966.309,310.059,540.039,966.797
1745822958.506,966.309,910.156,999.512,966.797
1745822958.51,966.309,-794.922,138.184,966.797
1745822958.513,966.309,-319.336,-739.746,966.797
1745822958.517,966.309,99.121,-99.609,966.797
1745822958.521,966.309,-139.16,457.031,966.797
1745822958.525,966.309,720.703,999.512,966.797
1745822958.529,966.309,-528.32,188.965,966.797
1745822958.532,966.309,-162.598,-756.836,966.797
1745822958.536,966.309,-160.156,-152.344,966.797
1745822958.54,966.309,119.141,435.059,966.797
1745822958.544,966.309,924.316,999.512,966.797
1745822958.548,966.309,-525.391,362.305,966.797
1745822958.552,966.309,-305.664,-739.746,966.797
1745822958.556,966.309,113.281,-392.578,966.797
1745822958.559,966.309,-33.691,250.488,966.797
1745822958.563,966.309,966.309,999.512,966.797
1745822958.567,966.309,-342.773,432.617,966.797
1745822958.571,966.309,-332.52,-831.543,966.797
1745822958.575,966.309,-86.426,-1000.0,966.797
1745822958.58,966.309,-140.625,-348.145,966.797
1745822958.584,966.309,999.512,999.512,966.797
1745822958.588,966.309,-37.109,591.309,967.285
1745822958.592,966.309,-949.707,-776.855,966.797
1745822958.596,966.309,-238.281,-1000.0,966.797
1745822958.6,966.309,445.801,-526.855,967.285
1745822958.604,966.309,923.828,878.418,966.797
1745822958.607,966.309,-150.879,726.562,966.797
1745822958.611,966.309,-878.906,-692.383,966.797
1745822958.615,966.309,-350.098,-1000.0,966.797
1745822958.619,966.309,-119.141,-827.637,967.285
1745822958.623,966.309,665.039,418.945,966.797
1745822958.58,966.309,-140.625,-348.145,966.797
1745822958.584,966.309,999.512,999.512,966.797
1745822958.588,966.309,-37.109,591.309,967.285
1745822958.592,966.309,-949.707,-776.855,966.797
1745822958.596,966.309,-238.281,-1000.0,966.797
1745822958.6,966.309,445.801,-526.855,967.285
1745822958.604,966.309,923.828,878.418,966.797
1745822958.607,966.309,-150.879,726.562,966.797
1745822958.611,966.309,-878.906,-692.383,966.797
1745822958.615,966.309,-350.098,-1000.0,966.797
1745822958.619,966.309,-119.141,-827.637,967.285
1745822958.623,966.309,665.039,418.945,966.797
1745822958.636,966.309,603.516,999.512,967.285
1745822958.64,966.309,-637.207,-330.078,967.285
1745822958.644,966.309,-654.785,-1000.0,967.285
1745822958.648,966.309,-21.484,-873.047,966.797
1745822958.652,966.309,736.816,255.859,967.285
1745822958.656,966.309,920.41,999.512,966.797
1745822958.66,966.309,-438.965,-38.086,966.797
1745822958.663,966.309,-889.648,-1000.0,966.797
1745822958.667,966.309,-29.297,-804.199,966.797
1745822958.671,966.309,844.727,327.148,966.797
1745822958.675,966.309,745.605,999.512,966.797
1745822958.679,966.309,-584.961,65.918,967.285
1745822958.636,966.309,603.516,999.512,967.285
1745822958.64,966.309,-637.207,-330.078,967.285
1745822958.644,966.309,-654.785,-1000.0,967.285
1745822958.648,966.309,-21.484,-873.047,966.797
1745822958.652,966.309,736.816,255.859,967.285
1745822958.656,966.309,920.41,999.512,966.797
1745822958.66,966.309,-438.965,-38.086,966.797
1745822958.663,966.309,-889.648,-1000.0,966.797
1745822958.667,966.309,-29.297,-804.199,966.797
1745822958.671,966.309,844.727,327.148,966.797
1745822958.675,966.309,745.605,999.512,966.797
1745822958.679,966.309,-584.961,65.918,967.285
1745822958.67,966.309,-263.672,-995.605,966.797
1745822958.674,966.309,133.301,-716.797,966.797
1745822958.678,966.309,366.699,203.613,966.797
1745822958.682,966.309,999.512,999.512,966.797
1745822958.686,966.309,-392.578,128.418,966.797
1745822958.69,966.309,-150.391,-897.461,966.797
1745822958.694,966.309,-85.938,-876.465,966.797
1745822958.697,966.309,-409.668,-219.238,966.797
1745822958.701,966.309,954.59,999.512,966.797
1745822958.705,966.309,-239.746,240.723,966.797
1745822958.709,966.309,-676.27,-1000.0,966.797
1745822958.713,966.797,-483.398,-1000.0,966.797
1745822958.727,966.309,62.012,-337.891,966.797
1745822958.731,966.309,579.102,999.512,966.797
1745822958.735,966.309,-699.219,297.363,967.285
1745822958.739,966.309,-988.281,-991.211,966.797
1745822958.743,966.309,-426.27,-1000.0,966.797
1745822958.747,966.309,546.875,-472.168,966.797
1745822958.751,965.82,652.832,999.512,966.797
1745822958.754,966.309,-697.266,375.0,966.797
1745822958.758,966.309,-640.137,-996.582,966.797
1745822958.762,966.797,-593.262,-1000.0,966.797
1745822958.766,969.238,-434.082,-892.09,974.121
1745822958.77,901.367,909.18,505.371,897.461
1745822958.727,966.309,62.012,-337.891,966.797
1745822958.731,966.309,579.102,999.512,966.797
1745822958.735,966.309,-699.219,297.363,967.285
1745822958.739,966.309,-988.281,-991.211,966.797
1745822958.743,966.309,-426.27,-1000.0,966.797
1745822958.747,966.309,546.875,-472.168,966.797
1745822958.751,965.82,652.832,999.512,966.797
1745822958.754,966.309,-697.266,375.0,966.797
1745822958.758,966.309,-640.137,-996.582,966.797
1745822958.762,966.797,-593.262,-1000.0,966.797
1745822958.766,969.238,-434.082,-892.09,974.121
1745822958.77,901.367,909.18,505.371,897.461
1745822958.772,999.512,-54.199,652.832,999.512
1745822958.776,231.445,-1000.0,-852.539,325.195
1745822958.78,-1000.0,-788.086,-1000.0,-977.051
1745822958.784,-1000.0,-524.902,-1000.0,-1000.0
1745822958.788,-125.0,583.496,172.852,-74.219
1745822958.792,999.512,653.809,957.52,999.512
1745822958.796,374.023,-826.172,-486.816,390.625
1745822958.799,-939.941,-1000.0,-1000.0,-924.316
1745822958.803,-1000.0,-18.066,-904.297,-1000.0
1745822958.807,-193.848,999.512,214.844,-163.086
1745822958.811,999.512,552.246,999.512,999.512
1745822958.815,677.734,-770.996,-179.199,693.848
1745822958.772,999.512,-54.199,652.832,999.512
1745822958.776,231.445,-1000.0,-852.539,325.195
1745822958.78,-1000.0,-788.086,-1000.0,-977.051
1745822958.784,-1000.0,-524.902,-1000.0,-1000.0
1745822958.788,-125.0,583.496,172.852,-74.219
1745822958.792,999.512,653.809,957.52,999.512
1745822958.796,374.023,-826.172,-486.816,390.625
1745822958.799,-939.941,-1000.0,-1000.0,-924.316
1745822958.803,-1000.0,-18.066,-904.297,-1000.0
1745822958.807,-193.848,999.512,214.844,-163.086
1745822958.811,999.512,552.246,999.512,999.512
1745822958.815,677.734,-770.996,-179.199,693.848
1745822958.817,-695.312,-725.586,-1000.0,-647.461
1745822958.821,-1000.0,-560.547,-1000.0,-1000.0
1745822958.825,-229.98,323.242,-91.797,-227.539
1745822958.829,999.512,680.176,999.512,999.512
1745822958.833,552.246,-818.848,-40.527,587.402
1745822958.837,-814.453,-786.133,-1000.0,-770.508
1745822958.841,-1000.0,-509.766,-1000.0,-1000.0
1745822958.844,-575.195,-105.957,-355.469,-555.176
1745822958.848,999.512,970.703,999.512,999.512
1745822958.852,272.949,-359.375,61.523,280.762
1745822958.856,-1000.0,-665.039,-1000.0,-1000.0
1745822958.86,-974.609,-463.379,-1000.0,-977.051
1745822958.817,-695.312,-725.586,-1000.0,-647.461
1745822958.821,-1000.0,-560.547,-1000.0,-1000.0
1745822958.825,-229.98,323.242,-91.797,-227.539
1745822958.829,999.512,680.176,999.512,999.512
1745822958.833,552.246,-818.848,-40.527,587.402
1745822958.837,-814.453,-786.133,-1000.0,-770.508
1745822958.841,-1000.0,-509.766,-1000.0,-1000.0
1745822958.844,-575.195,-105.957,-355.469,-555.176
1745822958.848,999.512,970.703,999.512,999.512
1745822958.852,272.949,-359.375,61.523,280.762
1745822958.856,-1000.0,-665.039,-1000.0,-1000.0
1745822958.86,-974.609,-463.379,-1000.0,-977.051
1745822958.861,-970.215,-159.18,-498.535,-969.238
1745822958.865,-1000.0,756.836,999.512,-1000.0
1745822958.869,-1000.0,-503.418,156.738,-1000.0
1745822958.873,-1000.0,-1000.0,-1000.0,-1000.0
1745822958.877,-1000.0,-645.508,-1000.0,-1000.0
1745822958.881,-1000.0,368.652,-588.379,-1000.0
1745822958.885,-1000.0,725.098,931.152,-1000.0
1745822958.888,-1000.0,-742.676,206.055,-1000.0
1745822958.892,-1000.0,-854.98,-1000.0,-1000.0
1745822958.896,-1000.0,-531.25,-1000.0,-1000.0
1745822958.9,-1000.0,-63.965,-738.77,-1000.0
1745822958.904,-1000.0,744.141,770.996,-1000.0
1745822958.861,-970.215,-159.18,-498.535,-969.238
1745822958.865,-1000.0,756.836,999.512,-1000.0
1745822958.869,-1000.0,-503.418,156.738,-1000.0
1745822958.873,-1000.0,-1000.0,-1000.0,-1000.0
1745822958.877,-1000.0,-645.508,-1000.0,-1000.0
1745822958.881,-1000.0,368.652,-588.379,-1000.0
1745822958.885,-1000.0,725.098,931.152,-1000.0
1745822958.888,-1000.0,-742.676,206.055,-1000.0
1745822958.892,-1000.0,-854.98,-1000.0,-1000.0
1745822958.896,-1000.0,-531.25,-1000.0,-1000.0
1745822958.9,-1000.0,-63.965,-738.77,-1000.0
1745822958.904,-1000.0,744.141,770.996,-1000.0
1745822958.908,-1000.0,39.062,550.293,-1000.0
1745822958.912,-1000.0,-687.012,-897.461,-1000.0
1745822958.916,-1000.0,-639.648,-1000.0,-1000.0
1745822958.92,-1000.0,-295.41,-726.562,-1000.0
1745822958.924,-1000.0,749.023,618.164,-1000.0
1745822958.928,-1000.0,401.367,770.02,-1000.0
1745822958.932,-1000.0,-796.875,-605.469,-1000.0
1745822958.935,-1000.0,-1000.0,-1000.0,-1000.0
1745822958.939,-1000.0,-171.875,-854.492,-1000.0
1745822958.943,-1000.0,999.512,445.801,-1000.0
1745822958.947,-1000.0,269.043,913.574,-1000.0
1745822958.951,-1000.0,-882.812,-550.781,-1000.0
1745822958.908,-1000.0,39.062,550.293,-1000.0
1745822958.912,-1000.0,-687.012,-897.461,-1000.0
1745822958.916,-1000.0,-639.648,-1000.0,-1000.0
1745822958.92,-1000.0,-295.41,-726.562,-1000.0
1745822958.924,-1000.0,749.023,618.164,-1000.0
1745822958.928,-1000.0,401.367,770.02,-1000.0
1745822958.932,-1000.0,-796.875,-605.469,-1000.0
1745822958.935,-1000.0,-1000.0,-1000.0,-1000.0
1745822958.939,-1000.0,-171.875,-854.492,-1000.0
1745822958.943,-1000.0,999.512,445.801,-1000.0
1745822958.947,-1000.0,269.043,913.574,-1000.0
1745822958.951,-1000.0,-882.812,-550.781,-1000.0
1745822958.951,-1000.0,-233.398,-1000.0,-1000.0
1745822958.955,-1000.0,152.344,-972.168,-1000.0
1745822958.959,-1000.0,703.125,127.93,-1000.0
1745822958.963,-1000.0,720.215,999.512,-1000.0
1745822958.967,-1000.0,-545.41,-236.816,-1000.0
1745822958.971,-1000.0,-194.336,-1000.0,-1000.0
1745822958.975,-1000.0,-161.133,-1000.0,-1000.0
1745822958.978,-1000.0,174.316,-81.055,-1000.0
1745822958.982,-1000.0,999.512,999.512,-1000.0
1745822958.986,-1000.0,-349.121,52.246,-1000.0
1745822958.99,-975.098,-479.492,-1000.0,-1000.0
1745822958.994,-980.957,-82.52,-886.23,-1000.0
1745822958.951,-1000.0,-233.398,-1000.0,-1000.0
1745822958.955,-1000.0,152.344,-972.168,-1000.0
1745822958.959,-1000.0,703.125,127.93,-1000.0
1745822958.963,-1000.0,720.215,999.512,-1000.0
1745822958.967,-1000.0,-545.41,-236.816,-1000.0
1745822958.971,-1000.0,-194.336,-1000.0,-1000.0
1745822958.975,-1000.0,-161.133,-1000.0,-1000.0
1745822958.978,-1000.0,174.316,-81.055,-1000.0
1745822958.982,-1000.0,999.512,999.512,-1000.0
1745822958.986,-1000.0,-349.121,52.246,-1000.0
1745822958.99,-975.098,-479.492,-1000.0,-1000.0
1745822958.994,-980.957,-82.52,-886.23,-1000.0
1745822958.996,-1000.0,423.34,151.367,-1000.0
1745822959.0,294.922,999.512,999.512,-1000.0
1745822959.004,307.617,-277.344,147.949,-1000.0
1745822959.008,-1000.0,-623.047,-976.562,-998.047
1745822959.012,-1000.0,72.266,-668.945,-938.477
1745822959.016,-441.895,489.746,237.793,-1000.0
1745822959.02,999.512,999.512,999.512,-32.715
1745822959.023,366.211,-193.359,220.215,314.453
1745822959.027,-974.609,-707.031,-960.938,-1000.0
1745822959.031,-1000.0,-157.715,-623.535,-988.281
1745822959.035,-413.086,102.539,221.68,-1000.0
1745822959.039,983.398,999.512,999.512,261.719
1745822958.996,-1000.0,423.34,151.367,-1000.0
1745822959.0,294.922,999.512,999.512,-1000.0
1745822959.004,307.617,-277.344,147.949,-1000.0
1745822959.008,-1000.0,-623.047,-976.562,-998.047
1745822959.012,-1000.0,72.266,-668.945,-938.477
1745822959.016,-441.895,489.746,237.793,-1000.0
1745822959.02,999.512,999.512,999.512,-32.715
1745822959.023,366.211,-193.359,220.215,314.453
1745822959.027,-974.609,-707.031,-960.938,-1000.0
1745822959.031,-1000.0,-157.715,-623.535,-988.281
1745822959.035,-413.086,102.539,221.68,-1000.0
1745822959.039,983.398,999.512,999.512,261.719
1745822959.042,897.461,61.523,504.883,837.402
1745822959.046,-442.871,-1000.0,-812.012,-737.793
1745822959.05,-1000.0,-531.738,-938.477,-1000.0
1745822959.054,-639.648,-85.938,-52.734,-994.141
1745822959.058,724.121,990.234,999.512,246.094
1745822959.062,999.512,398.438,695.801,999.512
1745822959.066,-138.184,-981.445,-628.418,-357.422
1745822959.069,-1000.0,-1000.0,-1000.0,-1000.0
1745822959.073,-717.773,-136.23,-337.891,-1000.0
1745822959.077,627.441,999.512,999.512,67.871
1745822959.081,999.512,126.465,825.684,999.512
1745822959.085,-52.734,-995.117,-517.578,-178.223
1745822959.042,897.461,61.523,504.883,837.402
1745822959.046,-442.871,-1000.0,-812.012,-737.793
1745822959.05,-1000.0,-531.738,-938.477,-1000.0
1745822959.054,-639.648,-85.938,-52.734,-994.141
1745822959.058,724.121,990.234,999.512,246.094
1745822959.062,999.512,398.438,695.801,999.512
1745822959.066,-138.184,-981.445,-628.418,-357.422
1745822959.069,-1000.0,-1000.0,-1000.0,-1000.0
1745822959.073,-717.773,-136.23,-337.891,-1000.0
1745822959.077,627.441,999.512,999.512,67.871
1745822959.081,999.512,126.465,825.684,999.512
1745822959.085,-52.734,-995.117,-517.578,-178.223
1745822959.101,-1000.0,-438.477,-1000.0,-1000.0
1745822959.105,-1000.0,-383.301,-463.379,-1000.0
1745822959.109,18.555,760.254,672.852,-224.121
1745822959.113,999.512,301.27,999.512,999.512
1745822959.117,138.672,-1000.0,-269.531,87.891
1745822959.121,-1000.0,-249.023,-1000.0,-1000.0
1745822959.125,-1000.0,-414.551,-602.539,-1000.0
1745822959.128,-176.758,326.66,450.195,-261.719
1745822959.132,999.512,924.805,999.512,999.512
1745822959.136,161.133,-717.285,-8.301,170.41
1745822959.14,-1000.0,-625.0,-1000.0,-1000.0
1745822959.144,-1000.0,259.277,-278.809,-1000.0
1745822959.101,-1000.0,-438.477,-1000.0,-1000.0
1745822959.105,-1000.0,-383.301,-463.379,-1000.0
1745822959.109,18.555,760.254,672.852,-224.121
1745822959.113,999.512,301.27,999.512,999.512
1745822959.117,138.672,-1000.0,-269.531,87.891
1745822959.121,-1000.0,-249.023,-1000.0,-1000.0
1745822959.125,-1000.0,-414.551,-602.539,-1000.0
1745822959.128,-176.758,326.66,450.195,-261.719
1745822959.132,999.512,924.805,999.512,999.512
1745822959.136,161.133,-717.285,-8.301,170.41
1745822959.14,-1000.0,-625.0,-1000.0,-1000.0
1745822959.144,-1000.0,259.277,-278.809,-1000.0
1745822959.147,-229.004,469.238,666.504,-265.137
1745822959.151,999.512,999.512,999.512,999.512
1745822959.155,430.176,-226.562,132.324,354.492
1745822959.159,-925.293,-726.074,-903.809,-962.402
1745822959.163,-1000.0,179.199,-393.555,-1000.0
1745822959.167,-210.449,796.875,484.375,-252.441
1745822959.171,999.512,909.18,999.512,999.512
1745822959.174,534.18,-557.129,133.789,460.449
1745822959.178,-848.145,-586.914,-970.703,-892.09
1745822959.182,-1000.0,-157.715,-1000.0,-1000.0
1745822959.186,-284.668,194.336,-133.301,-414.062
1745822959.19,999.512,848.145,999.512,999.512
1745822959.147,-229.004,469.238,666.504,-265.137
1745822959.151,999.512,999.512,999.512,999.512
1745822959.155,430.176,-226.562,132.324,354.492
1745822959.159,-925.293,-726.074,-903.809,-962.402
1745822959.163,-1000.0,179.199,-393.555,-1000.0
1745822959.167,-210.449,796.875,484.375,-252.441
1745822959.171,999.512,909.18,999.512,999.512
1745822959.174,534.18,-557.129,133.789,460.449
1745822959.178,-848.145,-586.914,-970.703,-892.09
1745822959.182,-1000.0,-157.715,-1000.0,-1000.0
1745822959.186,-284.668,194.336,-133.301,-414.062
1745822959.19,999.512,848.145,999.512,999.512
1745822959.193,823.73,-126.953,262.695,765.137
1745822959.197,-508.301,-725.586,-977.051,-624.512
1745822959.201,-1000.0,-606.445,-1000.0,-1000.0
1745822959.205,-502.441,111.816,-285.645,-615.723
1745822959.209,854.004,999.512,999.512,780.273
1745822959.213,999.512,244.629,389.648,999.512
1745822959.217,-158.203,-1000.0,-925.293,-283.691
1745822959.22,-1000.0,-753.418,-1000.0,-1000.0
1745822959.224,-712.891,125.0,-462.402,-779.297
1745822959.228,603.027,999.512,999.512,519.043
1745822959.232,999.512,113.77,543.457,999.512
1745822959.236,131.348,-1000.0,-844.727,45.41
1745822959.193,823.73,-126.953,262.695,765.137
1745822959.197,-508.301,-725.586,-977.051,-624.512
1745822959.201,-1000.0,-606.445,-1000.0,-1000.0
1745822959.205,-502.441,111.816,-285.645,-615.723
1745822959.209,854.004,999.512,999.512,780.273
1745822959.213,999.512,244.629,389.648,999.512
1745822959.217,-158.203,-1000.0,-925.293,-283.691
1745822959.22,-1000.0,-753.418,-1000.0,-1000.0
1745822959.224,-712.891,125.0,-462.402,-779.297
1745822959.228,603.027,999.512,999.512,519.043
1745822959.232,999.512,113.77,543.457,999.512
1745822959.236,131.348,-1000.0,-844.727,45.41
1745822959.237,-1000.0,-510.254,-1000.0,-1000.0
1745822959.241,-929.688,79.59,-602.051,-973.145
1745822959.245,365.723,957.52,806.641,263.184
1745822959.249,999.512,313.477,798.34,999.512
1745822959.253,134.277,-1000.0,-617.676,134.766
1745822959.257,-1000.0,-482.91,-1000.0,-1000.0
1745822959.261,-1000.0,-15.137,-795.898,-1000.0
1745822959.264,-27.344,600.098,489.258,-53.223
1745822959.268,999.512,523.438,944.824,999.512
1745822959.272,223.145,-928.223,-468.262,191.406
1745822959.276,-1000.0,-828.125,-1000.0,-1000.0
1745822959.28,-1000.0,-212.891,-933.105,-1000.0
1745822959.237,-1000.0,-510.254,-1000.0,-1000.0
1745822959.241,-929.688,79.59,-602.051,-973.145
1745822959.245,365.723,957.52,806.641,263.184
1745822959.249,999.512,313.477,798.34,999.512
1745822959.253,134.277,-1000.0,-617.676,134.766
1745822959.257,-1000.0,-482.91,-1000.0,-1000.0
1745822959.261,-1000.0,-15.137,-795.898,-1000.0
1745822959.264,-27.344,600.098,489.258,-53.223
1745822959.268,999.512,523.438,944.824,999.512
1745822959.272,223.145,-928.223,-468.262,191.406
1745822959.276,-1000.0,-828.125,-1000.0,-1000.0
1745822959.28,-1000.0,-212.891,-933.105,-1000.0
1745822959.282,-64.941,744.141,254.395,-105.469
1745822959.286,999.512,459.473,999.512,999.512
1745822959.29,484.375,-877.441,-231.445,389.16
1745822959.294,-865.723,-876.953,-1000.0,-919.922
1745822959.298,-1000.0,-227.051,-997.07,-1000.0
1745822959.302,-228.027,739.258,54.199,-234.863
1745822959.306,999.512,898.926,999.512,999.512
1745822959.309,425.781,-546.875,-14.648,370.117
1745822959.313,-927.246,-790.527,-1000.0,-951.172
1745822959.317,-1000.0,-112.793,-1000.0,-1000.0
1745822959.321,-244.141,536.621,-73.73,-271.973
1745822959.325,999.512,824.707,999.512,999.512
1745822959.342,577.637,-499.512,119.629,522.461
1745822959.346,-794.434,-765.625,-1000.0,-838.379
1745822959.35,-1000.0,-95.215,-1000.0,-1000.0
1745822959.354,-472.168,291.016,-200.195,-519.531
1745822959.358,915.527,999.512,999.512,905.762
1745822959.362,982.422,255.859,243.652,944.824
1745822959.366,-358.398,-1000.0,-1000.0,-426.758
1745822959.369,-1000.0,-911.133,-1000.0,-1000.0
1745822959.373,-408.203,293.945,-280.273,-415.039
1745822959.377,839.844,999.512,999.512,842.773
1745822959.381,999.512,-207.52,283.691,999.512
1745822959.385,-23.438,-916.504,-1000.0,-74.707
1745822959.852,905.762,999.512,999.512,853.516
1745822959.856,846.191,-82.031,295.898,999.512
1745822959.86,-579.102,-1000.0,-977.051,-285.645
1745822959.864,-1000.0,-856.445,-1000.0,-1000.0
1745822959.868,-645.02,31.738,-364.258,-610.352
1745822959.872,729.98,957.52,983.398,738.77
1745822959.876,999.512,-177.734,351.074,999.512
1745822959.879,-217.285,-1000.0,-857.422,-45.898
1745822959.883,-1000.0,-870.117,-1000.0,-1000.0
1745822959.887,-970.703,78.613,-602.539,-939.453
1745822959.891,264.16,999.512,844.727,310.059
1745822959.895,999.512,66.406,703.125,999.512
1745822959.342,577.637,-499.512,119.629,522.461
1745822959.346,-794.434,-765.625,-1000.0,-838.379
1745822959.35,-1000.0,-95.215,-1000.0,-1000.0
1745822959.354,-472.168,291.016,-200.195,-519.531
1745822959.358,915.527,999.512,999.512,905.762
1745822959.362,982.422,255.859,243.652,944.824
1745822959.366,-358.398,-1000.0,-1000.0,-426.758
1745822959.369,-1000.0,-911.133,-1000.0,-1000.0
1745822959.373,-408.203,293.945,-280.273,-415.039
1745822959.377,839.844,999.512,999.512,842.773
1745822959.381,999.512,-207.52,283.691,999.512
1745822959.385,-23.438,-916.504,-1000.0,-74.707
1745822959.342,577.637,-499.512,119.629,522.461
1745822959.346,-794.434,-765.625,-1000.0,-838.379
1745822959.35,-1000.0,-95.215,-1000.0,-1000.0
1745822959.354,-472.168,291.016,-200.195,-519.531
1745822959.358,915.527,999.512,999.512,905.762
1745822959.362,982.422,255.859,243.652,944.824
1745822959.366,-358.398,-1000.0,-1000.0,-426.758
1745822959.369,-1000.0,-911.133,-1000.0,-1000.0
1745822959.373,-408.203,293.945,-280.273,-415.039
1745822959.377,839.844,999.512,999.512,842.773
1745822959.381,999.512,-207.52,283.691,999.512
1745822959.385,-23.438,-916.504,-1000.0,-74.707
1745822959.372,-1000.0,-250.488,-1000.0,-1000.0
1745822959.376,-775.391,-10.254,-593.262,-762.695
1745822959.38,562.012,951.66,931.641,568.848
1745822959.384,999.512,84.473,436.035,999.512
1745822959.388,151.367,-1000.0,-963.867,139.16
1745822959.392,-1000.0,-333.008,-1000.0,-1000.0
1745822959.396,-1000.0,55.664,-721.191,-1000.0
1745822959.399,189.941,595.703,707.031,188.965
1745822959.403,999.512,210.449,706.055,999.512
1745822959.407,142.09,-1000.0,-759.766,137.695
1745822959.411,-1000.0,-600.586,-1000.0,-1000.0
1745822959.415,-1000.0,229.004,-793.945,-1000.0
1745822959.372,-1000.0,-250.488,-1000.0,-1000.0
1745822959.376,-775.391,-10.254,-593.262,-762.695
1745822959.38,562.012,951.66,931.641,568.848
1745822959.384,999.512,84.473,436.035,999.512
1745822959.388,151.367,-1000.0,-963.867,139.16
1745822959.392,-1000.0,-333.008,-1000.0,-1000.0
1745822959.396,-1000.0,55.664,-721.191,-1000.0
1745822959.399,189.941,595.703,707.031,188.965
1745822959.403,999.512,210.449,706.055,999.512
1745822959.407,142.09,-1000.0,-759.766,137.695
1745822959.411,-1000.0,-600.586,-1000.0,-1000.0
1745822959.415,-1000.0,229.004,-793.945,-1000.0
1745822959.418,38.086,930.664,514.648,13.184
1745822959.422,999.512,380.859,912.598,999.512
1745822959.426,191.895,-844.727,-530.273,176.758
1745822959.43,-1000.0,-1000.0,-1000.0,-1000.0
1745822959.434,-1000.0,-221.68,-927.734,-1000.0
1745822959.438,-122.559,999.512,244.141,-133.789
1745822959.442,999.512,455.566,999.512,999.512
1745822959.445,472.656,-939.941,-300.781,401.855
1745822959.449,-878.906,-936.035,-1000.0,-916.016
1745822959.453,-1000.0,-204.102,-985.352,-1000.0
1745822959.457,-181.641,770.508,23.926,-198.242
1745822959.461,982.422,538.574,999.512,999.512
1745822959.418,38.086,930.664,514.648,13.184
1745822959.422,999.512,380.859,912.598,999.512
1745822959.426,191.895,-844.727,-530.273,176.758
1745822959.43,-1000.0,-1000.0,-1000.0,-1000.0
1745822959.434,-1000.0,-221.68,-927.734,-1000.0
1745822959.438,-122.559,999.512,244.141,-133.789
1745822959.442,999.512,455.566,999.512,999.512
1745822959.445,472.656,-939.941,-300.781,401.855
1745822959.449,-878.906,-936.035,-1000.0,-916.016
1745822959.453,-1000.0,-204.102,-985.352,-1000.0
1745822959.457,-181.641,770.508,23.926,-198.242
1745822959.461,982.422,538.574,999.512,999.512
1745822959.476,999.512,-647.949,9.277,982.91
1745822959.48,-12.207,-903.32,-1000.0,-172.363
1745822959.484,-1000.0,-603.027,-1000.0,-1000.0
1745822959.488,-173.828,208.984,-246.582,-168.457
1745822959.492,999.512,999.512,999.512,999.512
1745822959.496,875.977,-48.828,110.352,881.836
1745822959.5,999.512,-681.641,-1000.0,999.512
1745822959.503,56.152,-792.969,-1000.0,13.672
1745822959.507,-469.238,-178.223,-361.328,-471.68
1745822959.511,917.969,999.512,999.512,928.223
1745822959.515,999.512,-186.523,174.805,999.512
1745822959.519,269.531,-1000.0,-1000.0,262.695
1745822959.476,999.512,-647.949,9.277,982.91
1745822959.48,-12.207,-903.32,-1000.0,-172.363
1745822959.484,-1000.0,-603.027,-1000.0,-1000.0
1745822959.488,-173.828,208.984,-246.582,-168.457
1745822959.492,999.512,999.512,999.512,999.512
1745822959.496,875.977,-48.828,110.352,881.836
1745822959.5,999.512,-681.641,-1000.0,999.512
1745822959.503,56.152,-792.969,-1000.0,13.672
1745822959.507,-469.238,-178.223,-361.328,-471.68
1745822959.511,917.969,999.512,999.512,928.223
1745822959.515,999.512,-186.523,174.805,999.512
1745822959.519,269.531,-1000.0,-1000.0,262.695
1745822959.522,-1000.0,-750.0,-1000.0,-1000.0
1745822959.526,-494.141,387.695,-416.504,-479.98
1745822959.53,963.867,999.512,999.512,967.773
1745822959.534,924.805,-193.359,274.414,922.363
1745822959.538,999.512,-529.785,-1000.0,999.512
1745822959.542,811.035,-246.094,-1000.0,763.184
1745822959.546,-778.809,-640.137,-685.547,-641.602
1745822959.549,225.586,493.164,821.777,245.605
1745822959.553,806.152,-85.938,478.027,999.512
1745822959.557,-900.879,-980.957,-949.707,-230.469
1745822959.561,-1000.0,-678.711,-1000.0,-1000.0
1745822959.565,-1000.0,-315.918,-779.297,-966.797
1745822959.567,143.555,790.527,675.781,236.328
1745822959.571,673.828,28.32,672.852,999.512
1745822959.575,-945.801,-1000.0,-810.059,12.695
1745822959.579,-982.91,-656.25,-1000.0,-1000.0
1745822959.583,-1000.0,-211.914,-818.848,-1000.0
1745822959.587,-104.98,841.309,500.488,26.367
1745822959.591,594.727,422.363,924.805,999.512
1745822959.594,-934.57,-1000.0,-523.926,129.395
1745822959.598,-1000.0,-538.574,-1000.0,-1000.0
1745822959.602,-939.453,-159.18,-909.18,-1000.0
1745822959.606,-1000.0,570.312,242.188,-187.012
1745822959.61,-1000.0,345.215,999.512,999.512
1745822959.567,143.555,790.527,675.781,236.328
1745822959.571,673.828,28.32,672.852,999.512
1745822959.575,-945.801,-1000.0,-810.059,12.695
1745822959.579,-982.91,-656.25,-1000.0,-1000.0
1745822959.583,-1000.0,-211.914,-818.848,-1000.0
1745822959.587,-104.98,841.309,500.488,26.367
1745822959.591,594.727,422.363,924.805,999.512
1745822959.594,-934.57,-1000.0,-523.926,129.395
1745822959.598,-1000.0,-538.574,-1000.0,-1000.0
1745822959.602,-939.453,-159.18,-909.18,-1000.0
1745822959.606,-1000.0,570.312,242.188,-187.012
1745822959.61,-1000.0,345.215,999.512,999.512
1745822959.612,-1000.0,-1000.0,-228.516,189.941
1745822959.616,-1000.0,-635.254,-1000.0,-1000.0
1745822959.62,-1000.0,-258.301,-952.637,-1000.0
1745822959.624,-1000.0,479.492,98.633,-249.023
1745822959.628,-1000.0,704.59,999.512,999.512
1745822959.632,-1000.0,-539.062,40.527,478.027
1745822959.636,-1000.0,-871.094,-1000.0,-884.766
1745822959.639,-1000.0,-871.094,-1000.0,-1000.0
1745822959.643,-1000.0,182.129,-62.988,-242.188
1745822959.647,-1000.0,968.262,999.512,999.512
1745822959.651,-1000.0,-547.363,94.238,473.633
1745822959.655,-931.641,-1000.0,-1000.0,-875.0
1745822959.612,-1000.0,-1000.0,-228.516,189.941
1745822959.616,-1000.0,-635.254,-1000.0,-1000.0
1745822959.62,-1000.0,-258.301,-952.637,-1000.0
1745822959.624,-1000.0,479.492,98.633,-249.023
1745822959.628,-1000.0,704.59,999.512,999.512
1745822959.632,-1000.0,-539.062,40.527,478.027
1745822959.636,-1000.0,-871.094,-1000.0,-884.766
1745822959.639,-1000.0,-871.094,-1000.0,-1000.0
1745822959.643,-1000.0,182.129,-62.988,-242.188
1745822959.647,-1000.0,968.262,999.512,999.512
1745822959.651,-1000.0,-547.363,94.238,473.633
1745822959.655,-931.641,-1000.0,-1000.0,-875.0
1745822959.657,-1000.0,-47.852,-1000.0,-1000.0
1745822959.661,-755.371,413.574,-190.43,-515.137
1745822959.665,895.996,843.75,999.512,999.512
1745822959.669,289.551,-299.316,165.039,473.633
1745822959.673,-1000.0,-726.074,-1000.0,-937.012
1745822959.677,-1000.0,-12.695,-1000.0,-1000.0
1745822959.681,-941.895,245.117,-288.574,-718.262
1745822959.684,611.816,893.066,999.512,833.496
1745822959.688,450.195,-235.352,311.523,663.574
1745822959.692,-1000.0,-833.984,-977.539,-863.281
1745822959.696,-954.102,-215.332,-1000.0,-1000.0
1745822959.7,-1000.0,291.016,-363.77,-954.59
1745822959.701,193.848,999.512,999.512,407.715
1745822959.705,629.883,209.961,491.211,954.102
1745822959.709,-969.727,-866.211,-864.746,-590.332
1745822959.713,-990.234,-582.031,-1000.0,-1000.0
1745822959.717,-1000.0,79.102,-509.766,-1000.0
1745822959.721,43.457,999.512,926.27,159.668
1745822959.725,885.742,291.504,704.102,999.512
1745822959.728,-693.359,-997.07,-710.938,-261.23
1745822959.732,-1000.0,-423.828,-1000.0,-1000.0
1745822959.736,-1000.0,137.207,-666.504,-1000.0
1745822959.74,-189.941,953.125,659.18,-62.988
1745822959.744,999.512,336.914,951.172,999.512
1745822959.701,193.848,999.512,999.512,407.715
1745822959.705,629.883,209.961,491.211,954.102
1745822959.709,-969.727,-866.211,-864.746,-590.332
1745822959.713,-990.234,-582.031,-1000.0,-1000.0
1745822959.717,-1000.0,79.102,-509.766,-1000.0
1745822959.721,43.457,999.512,926.27,159.668
1745822959.725,885.742,291.504,704.102,999.512
1745822959.728,-693.359,-997.07,-710.938,-261.23
1745822959.732,-1000.0,-423.828,-1000.0,-1000.0
1745822959.736,-1000.0,137.207,-666.504,-1000.0
1745822959.74,-189.941,953.125,659.18,-62.988
1745822959.744,999.512,336.914,951.172,999.512
1745822960.227,-1000.0,226.562,128.906,-1000.0
1745822960.231,86.426,999.512,992.188,-17.578
1745822960.235,999.512,306.152,978.027,999.512
1745822960.239,145.996,-969.727,-198.242,153.32
1745822960.243,-1000.0,-676.27,-1000.0,-1000.0
1745822960.247,-1000.0,112.305,-234.375,-1000.0
1745822960.251,-2.441,726.562,782.227,-44.922
1745822960.254,999.512,53.711,999.512,999.512
1745822960.258,234.863,-1000.0,-41.016,269.531
1745822960.262,-1000.0,-694.336,-969.238,-994.141
1745822960.266,-1000.0,-247.559,-308.105,-1000.0
1745822960.27,-21.484,617.676,612.305,-10.742
1745822959.748,-147.461,-1000.0,-407.227,106.934
1745822959.752,-1000.0,-767.578,-1000.0,-1000.0
1745822959.756,-1000.0,124.023,-800.293,-1000.0
1745822959.76,-273.438,988.281,384.277,-213.379
1745822959.764,999.512,629.883,999.512,999.512
1745822959.768,114.746,-651.855,-189.453,164.062
1745822959.772,-1000.0,-831.055,-1000.0,-1000.0
1745822959.775,-1000.0,-628.418,-969.238,-1000.0
1745822959.779,-260.742,498.535,91.309,-256.348
1745822959.783,999.512,843.75,999.512,999.512
1745822959.787,167.48,-645.996,-10.254,170.898
1745822959.791,-1000.0,-929.199,-1000.0,-1000.0
1745822959.748,-147.461,-1000.0,-407.227,106.934
1745822959.752,-1000.0,-767.578,-1000.0,-1000.0
1745822959.756,-1000.0,124.023,-800.293,-1000.0
1745822959.76,-273.438,988.281,384.277,-213.379
1745822959.764,999.512,629.883,999.512,999.512
1745822959.768,114.746,-651.855,-189.453,164.062
1745822959.772,-1000.0,-831.055,-1000.0,-1000.0
1745822959.775,-1000.0,-628.418,-969.238,-1000.0
1745822959.779,-260.742,498.535,91.309,-256.348
1745822959.783,999.512,843.75,999.512,999.512
1745822959.787,167.48,-645.996,-10.254,170.898
1745822959.791,-1000.0,-929.199,-1000.0,-1000.0
1745822959.791,-1000.0,-78.125,-994.141,-1000.0
1745822959.795,-304.199,609.375,24.902,-294.434
1745822959.799,999.512,975.098,999.512,999.512
1745822959.803,209.961,-436.523,90.82,366.699
1745822959.807,-1000.0,-500.977,-1000.0,-953.125
1745822959.811,-1000.0,98.145,-1000.0,-1000.0
1745822959.815,-415.039,295.41,-129.395,-352.539
1745822959.818,999.512,641.113,999.512,999.512
1745822959.822,464.355,-621.094,192.383,655.762
1745822959.826,-912.109,-878.906,-1000.0,-731.934
1745822959.83,-1000.0,-480.957,-1000.0,-1000.0
1745822959.834,-592.285,78.613,-258.789,-541.504
1745822959.791,-1000.0,-78.125,-994.141,-1000.0
1745822959.795,-304.199,609.375,24.902,-294.434
1745822959.799,999.512,975.098,999.512,999.512
1745822959.803,209.961,-436.523,90.82,366.699
1745822959.807,-1000.0,-500.977,-1000.0,-953.125
1745822959.811,-1000.0,98.145,-1000.0,-1000.0
1745822959.815,-415.039,295.41,-129.395,-352.539
1745822959.818,999.512,641.113,999.512,999.512
1745822959.822,464.355,-621.094,192.383,655.762
1745822959.826,-912.109,-878.906,-1000.0,-731.934
1745822959.83,-1000.0,-480.957,-1000.0,-1000.0
1745822959.834,-592.285,78.613,-258.789,-541.504
1745822959.897,-131.348,-1000.0,-729.492,32.227
1745822959.901,-1000.0,-818.359,-1000.0,-1000.0
1745822959.905,-1000.0,-229.492,-709.961,-1000.0
1745822959.909,-1.953,893.066,608.398,24.414
1745822959.913,999.512,470.215,981.934,999.512
1745822959.917,133.789,-752.441,-386.23,141.602
1745822959.921,-1000.0,-944.824,-1000.0,-1000.0
1745822959.924,-1000.0,-815.43,-934.082,-1000.0
1745822959.928,-145.996,546.875,248.535,-146.484
1745822959.932,999.512,863.281,999.512,999.512
1745822959.936,153.809,-686.035,-172.852,201.172
1745822959.94,-1000.0,-1000.0,-1000.0,-1000.0
1745822959.897,-131.348,-1000.0,-729.492,32.227
1745822959.901,-1000.0,-818.359,-1000.0,-1000.0
1745822959.905,-1000.0,-229.492,-709.961,-1000.0
1745822959.909,-1.953,893.066,608.398,24.414
1745822959.913,999.512,470.215,981.934,999.512
1745822959.917,133.789,-752.441,-386.23,141.602
1745822959.921,-1000.0,-944.824,-1000.0,-1000.0
1745822959.924,-1000.0,-815.43,-934.082,-1000.0
1745822959.928,-145.996,546.875,248.535,-146.484
1745822959.932,999.512,863.281,999.512,999.512
1745822959.936,153.809,-686.035,-172.852,201.172
1745822959.94,-1000.0,-1000.0,-1000.0,-1000.0
1745822959.941,-1000.0,152.344,-833.496,-1000.0
1745822959.945,-259.766,999.512,271.973,-237.793
1745822959.949,999.512,455.566,999.512,999.512
1745822959.953,220.703,-875.0,-31.738,338.379
1745822959.957,-1000.0,-637.207,-1000.0,-966.797
1745822959.961,-1000.0,-19.043,-1000.0,-1000.0
1745822959.965,-263.672,471.68,-20.508,-251.953
1745822959.968,999.512,339.355,999.512,999.512
1745822959.972,432.129,-927.246,74.707,545.41
1745822959.976,-913.086,-841.797,-1000.0,-829.102
1745822959.98,-1000.0,-511.23,-1000.0,-1000.0
1745822959.984,-373.535,368.652,-187.5,-353.027
1745822959.941,-1000.0,152.344,-833.496,-1000.0
1745822959.945,-259.766,999.512,271.973,-237.793
1745822959.949,999.512,455.566,999.512,999.512
1745822959.953,220.703,-875.0,-31.738,338.379
1745822959.957,-1000.0,-637.207,-1000.0,-966.797
1745822959.961,-1000.0,-19.043,-1000.0,-1000.0
1745822959.965,-263.672,471.68,-20.508,-251.953
1745822959.968,999.512,339.355,999.512,999.512
1745822959.972,432.129,-927.246,74.707,545.41
1745822959.976,-913.086,-841.797,-1000.0,-829.102
1745822959.98,-1000.0,-511.23,-1000.0,-1000.0
1745822959.984,-373.535,368.652,-187.5,-353.027
1745822959.987,999.512,780.273,999.512,999.512
1745822959.991,587.402,-654.785,164.551,683.594
1745822959.995,-811.035,-855.957,-1000.0,-703.125
1745822959.999,-1000.0,-660.645,-1000.0,-1000.0
1745822960.003,-551.758,-26.367,-279.785,-541.016
1745822960.007,950.195,999.512,999.512,928.223
1745822960.011,767.09,-130.371,297.363,844.238
1745822960.014,-695.801,-1000.0,-980.957,-597.656
1745822960.018,-1000.0,-270.02,-1000.0,-1000.0
1745822960.022,-866.211,268.066,-395.02,-903.809
1745822960.026,470.215,979.004,999.512,404.297
1745822960.03,999.512,3.906,469.727,999.512
1745822960.047,-339.844,-943.848,-876.465,-333.496
1745822960.051,-1000.0,-801.27,-1000.0,-1000.0
1745822960.055,-1000.0,-111.328,-507.324,-1000.0
1745822960.059,145.508,999.512,912.109,41.992
1745822960.063,999.512,239.258,750.0,999.512
1745822960.067,-103.516,-927.734,-648.926,-111.328
1745822960.071,-1000.0,-887.207,-1000.0,-1000.0
1745822960.074,-1000.0,-689.941,-817.871,-1000.0
1745822960.078,-125.977,651.367,500.977,-198.73
1745822960.082,999.512,515.137,949.707,999.512
1745822960.086,83.496,-965.82,-477.539,79.102
1745822960.09,-1000.0,-1000.0,-1000.0,-1000.0
1745822960.077,-1000.0,-141.113,-781.738,-1000.0
1745822960.081,-210.938,999.512,433.105,-254.395
1745822960.085,999.512,531.25,999.512,999.512
1745822960.089,162.598,-867.676,-247.559,161.621
1745822960.093,-1000.0,-472.656,-1000.0,-1000.0
1745822960.097,-1000.0,93.75,-925.781,-1000.0
1745822960.101,-256.348,620.117,166.992,-256.836
1745822960.104,999.512,265.137,999.512,999.512
1745822960.108,169.922,-1000.0,-126.465,161.621
1745822960.112,-1000.0,-898.926,-1000.0,-1000.0
1745822960.116,-1000.0,-637.207,-1000.0,-1000.0
1745822960.12,-259.766,396.484,-145.996,-443.359
1745822960.077,-1000.0,-141.113,-781.738,-1000.0
1745822960.081,-210.938,999.512,433.105,-254.395
1745822960.085,999.512,531.25,999.512,999.512
1745822960.089,162.598,-867.676,-247.559,161.621
1745822960.093,-1000.0,-472.656,-1000.0,-1000.0
1745822960.097,-1000.0,93.75,-925.781,-1000.0
1745822960.101,-256.348,620.117,166.992,-256.836
1745822960.104,999.512,265.137,999.512,999.512
1745822960.108,169.922,-1000.0,-126.465,161.621
1745822960.112,-1000.0,-898.926,-1000.0,-1000.0
1745822960.116,-1000.0,-637.207,-1000.0,-1000.0
1745822960.12,-259.766,396.484,-145.996,-443.359
1745822960.122,999.512,900.391,999.512,999.512
1745822960.126,211.914,-545.41,73.73,199.707
1745822960.13,-1000.0,-972.168,-1000.0,-1000.0
1745822960.134,-1000.0,-772.949,-1000.0,-1000.0
1745822960.138,-425.781,41.992,-218.75,-677.246
1745822960.142,999.512,999.512,999.512,937.012
1745822960.146,417.48,-172.852,197.754,407.715
1745822960.149,-943.848,-856.934,-1000.0,-1000.0
1745822960.153,-1000.0,-724.121,-1000.0,-1000.0
1745822960.157,-631.348,-14.648,-259.766,-933.105
1745822960.161,932.129,999.512,999.512,576.66
1745822960.165,650.391,-243.164,307.617,662.109
1745822960.122,999.512,900.391,999.512,999.512
1745822960.126,211.914,-545.41,73.73,199.707
1745822960.13,-1000.0,-972.168,-1000.0,-1000.0
1745822960.134,-1000.0,-772.949,-1000.0,-1000.0
1745822960.138,-425.781,41.992,-218.75,-677.246
1745822960.142,999.512,999.512,999.512,937.012
1745822960.146,417.48,-172.852,197.754,407.715
1745822960.149,-943.848,-856.934,-1000.0,-1000.0
1745822960.153,-1000.0,-724.121,-1000.0,-1000.0
1745822960.157,-631.348,-14.648,-259.766,-933.105
1745822960.161,932.129,999.512,999.512,576.66
1745822960.165,650.391,-243.164,307.617,662.109
1745822960.167,-833.984,-876.953,-981.445,-900.879
1745822960.171,-1000.0,-438.477,-1000.0,-1000.0
1745822960.175,-708.984,57.129,-166.504,-921.875
1745822960.179,666.016,999.512,999.512,388.672
1745822960.183,999.512,4.883,581.055,999.512
1745822960.187,-269.531,-941.895,-746.582,-341.309
1745822960.191,-1000.0,-799.316,-1000.0,-1000.0
1745822960.194,-957.031,-610.84,-337.891,-1000.0
1745822960.198,232.91,816.406,904.785,87.891
1745822960.202,999.512,583.496,966.309,999.512
1745822960.206,54.688,-859.863,-358.887,45.898
1745822960.21,-1000.0,-936.035,-959.961,-1000.0
1745822960.167,-833.984,-876.953,-981.445,-900.879
1745822960.171,-1000.0,-438.477,-1000.0,-1000.0
1745822960.175,-708.984,57.129,-166.504,-921.875
1745822960.179,666.016,999.512,999.512,388.672
1745822960.183,999.512,4.883,581.055,999.512
1745822960.187,-269.531,-941.895,-746.582,-341.309
1745822960.191,-1000.0,-799.316,-1000.0,-1000.0
1745822960.194,-957.031,-610.84,-337.891,-1000.0
1745822960.198,232.91,816.406,904.785,87.891
1745822960.202,999.512,583.496,966.309,999.512
1745822960.206,54.688,-859.863,-358.887,45.898
1745822960.21,-1000.0,-936.035,-959.961,-1000.0
1745822960.272,999.512,799.805,999.512,999.512
1745822960.276,937.012,-654.785,94.727,999.512
1745822960.28,-265.625,-1000.0,-875.0,62.988
1745822960.284,-1000.0,-568.848,-104.98,-1000.0
1745822960.288,-30.273,419.922,682.617,-18.066
1745822960.292,999.512,999.512,999.512,999.512
1745822960.296,999.512,-194.336,324.219,999.512
1745822960.299,63.477,-1000.0,-791.016,275.879
1745822960.303,-1000.0,-531.738,-172.852,-1000.0
1745822960.307,-220.215,568.359,676.27,-192.871
1745822960.311,999.512,999.512,999.512,999.512
1745822960.315,943.359,-55.664,291.992,999.512
1745822960.272,999.512,799.805,999.512,999.512
1745822960.276,937.012,-654.785,94.727,999.512
1745822960.28,-265.625,-1000.0,-875.0,62.988
1745822960.284,-1000.0,-568.848,-104.98,-1000.0
1745822960.288,-30.273,419.922,682.617,-18.066
1745822960.292,999.512,999.512,999.512,999.512
1745822960.296,999.512,-194.336,324.219,999.512
1745822960.299,63.477,-1000.0,-791.016,275.879
1745822960.303,-1000.0,-531.738,-172.852,-1000.0
1745822960.307,-220.215,568.359,676.27,-192.871
1745822960.311,999.512,999.512,999.512,999.512
1745822960.315,943.359,-55.664,291.992,999.512
1745822960.332,-294.434,-1000.0,-920.41,121.094
1745822960.336,-1000.0,-720.703,-1000.0,-1000.0
1745822960.34,-191.895,416.016,-167.969,-229.492
1745822960.344,999.512,733.398,999.512,999.512
1745822960.348,867.676,-501.465,309.082,867.188
1745822960.352,999.512,-384.766,-950.195,999.512
1745822960.356,492.676,-294.434,-1000.0,493.652
1745822960.359,-794.434,-651.855,-616.699,-768.555
1745822960.363,409.18,899.902,897.949,394.043
1745822960.367,999.512,292.48,456.055,999.512
1745822960.371,924.805,-1000.0,-953.613,562.988
1745822960.375,-494.141,-906.25,-1000.0,-846.191
1745822960.332,-294.434,-1000.0,-920.41,121.094
1745822960.336,-1000.0,-720.703,-1000.0,-1000.0
1745822960.34,-191.895,416.016,-167.969,-229.492
1745822960.344,999.512,733.398,999.512,999.512
1745822960.348,867.676,-501.465,309.082,867.188
1745822960.352,999.512,-384.766,-950.195,999.512
1745822960.356,492.676,-294.434,-1000.0,493.652
1745822960.359,-794.434,-651.855,-616.699,-768.555
1745822960.363,409.18,899.902,897.949,394.043
1745822960.367,999.512,292.48,456.055,999.512
1745822960.371,924.805,-1000.0,-953.613,562.988
1745822960.375,-494.141,-906.25,-1000.0,-846.191
1745822960.361,-782.715,-27.832,-728.027,-891.602
1745822960.365,785.156,999.512,743.164,569.824
1745822960.369,999.512,211.914,648.926,999.512
1745822960.373,213.379,-1000.0,-814.453,145.996
1745822960.377,-1000.0,-754.395,-1000.0,-1000.0
1745822960.381,-1000.0,309.082,-756.348,-1000.0
1745822960.385,254.395,999.512,608.398,160.156
1745822960.388,999.512,106.934,850.586,999.512
1745822960.392,129.395,-1000.0,-604.98,134.277
1745822960.396,-1000.0,-730.469,-1000.0,-1000.0
1745822960.4,-1000.0,-196.289,-883.301,-1000.0
1745822960.404,-130.371,720.703,291.016,-125.0
1745822960.361,-782.715,-27.832,-728.027,-891.602
1745822960.365,785.156,999.512,743.164,569.824
1745822960.369,999.512,211.914,648.926,999.512
1745822960.373,213.379,-1000.0,-814.453,145.996
1745822960.377,-1000.0,-754.395,-1000.0,-1000.0
1745822960.381,-1000.0,309.082,-756.348,-1000.0
1745822960.385,254.395,999.512,608.398,160.156
1745822960.388,999.512,106.934,850.586,999.512
1745822960.392,129.395,-1000.0,-604.98,134.277
1745822960.396,-1000.0,-730.469,-1000.0,-1000.0
1745822960.4,-1000.0,-196.289,-883.301,-1000.0
1745822960.404,-130.371,720.703,291.016,-125.0
1745822960.407,999.512,748.535,999.512,999.512
1745822960.411,411.133,-750.0,-243.164,333.984
1745822960.415,-920.41,-878.418,-1000.0,-952.637
1745822960.419,-1000.0,-371.582,-983.398,-1000.0
1745822960.423,-213.867,459.961,72.754,-232.91
1745822960.427,999.512,999.512,999.512,999.512
1745822960.431,476.562,-323.73,0.488,436.523
1745822960.434,-893.555,-1000.0,-1000.0,-915.527
1745822960.438,-1000.0,-431.641,-1000.0,-1000.0
1745822960.442,-242.676,619.629,-20.02,-245.117
1745822960.446,999.512,784.668,999.512,999.512
1745822960.45,426.758,-622.559,85.449,412.109
1745822960.452,-921.387,-743.652,-1000.0,-921.387
1745822960.456,-1000.0,-266.602,-1000.0,-1000.0
1745822960.46,-325.195,297.363,-193.848,-383.789
1745822960.464,999.512,780.762,999.512,999.512
1745822960.468,502.93,-643.066,163.086,568.359
1745822960.472,-900.391,-563.477,-1000.0,-854.492
1745822960.476,-1000.0,-279.785,-1000.0,-1000.0
1745822960.479,-882.812,-406.25,-447.266,-901.367
1745822960.483,556.641,967.285,999.512,542.969
1745822960.487,894.531,122.559,319.824,843.75
1745822960.491,-608.887,-1000.0,-998.535,-689.453
1745822960.495,-1000.0,-916.504,-1000.0,-1000.0
1745822960.452,-921.387,-743.652,-1000.0,-921.387
1745822960.456,-1000.0,-266.602,-1000.0,-1000.0
1745822960.46,-325.195,297.363,-193.848,-383.789
1745822960.464,999.512,780.762,999.512,999.512
1745822960.468,502.93,-643.066,163.086,568.359
1745822960.472,-900.391,-563.477,-1000.0,-854.492
1745822960.476,-1000.0,-279.785,-1000.0,-1000.0
1745822960.479,-882.812,-406.25,-447.266,-901.367
1745822960.483,556.641,967.285,999.512,542.969
1745822960.487,894.531,122.559,319.824,843.75
1745822960.491,-608.887,-1000.0,-998.535,-689.453
1745822960.495,-1000.0,-916.504,-1000.0,-1000.0
1745822960.497,-610.84,180.664,-340.82,-800.293
1745822960.501,788.574,995.117,999.512,591.797
1745822960.505,999.512,-238.77,458.496,999.512
1745822960.509,-314.941,-1000.0,-884.277,-435.547
1745822960.513,-1000.0,-620.117,-1000.0,-1000.0
1745822960.517,-846.191,367.676,-445.312,-973.145
1745822960.521,430.176,844.727,979.98,237.793
1745822960.524,999.512,-361.816,622.07,999.512
1745822960.528,-22.461,-1000.0,-760.254,-147.461
1745822960.532,-1000.0,-664.062,-1000.0,-1000.0
1745822960.536,-972.656,-12.695,-617.676,-1000.0
1745822960.54,243.652,882.324,708.496,11.719
1745822960.497,-610.84,180.664,-340.82,-800.293
1745822960.501,788.574,995.117,999.512,591.797
1745822960.505,999.512,-238.77,458.496,999.512
1745822960.509,-314.941,-1000.0,-884.277,-435.547
1745822960.513,-1000.0,-620.117,-1000.0,-1000.0
1745822960.517,-846.191,367.676,-445.312,-973.145
1745822960.521,430.176,844.727,979.98,237.793
1745822960.524,999.512,-361.816,622.07,999.512
1745822960.528,-22.461,-1000.0,-760.254,-147.461
1745822960.532,-1000.0,-664.062,-1000.0,-1000.0
1745822960.536,-972.656,-12.695,-617.676,-1000.0
1745822960.54,243.652,882.324,708.496,11.719
1745822960.543,999.512,698.73,990.234,999.512
1745822960.547,140.137,-682.129,-345.703,94.727
1745822960.551,-1000.0,-827.148,-1000.0,-1000.0
1745822960.555,-1000.0,-131.348,-765.625,-1000.0
1745822960.559,26.855,732.422,455.566,-140.137
1745822960.563,999.512,822.754,999.512,999.512
1745822960.567,179.199,-567.383,-108.398,154.297
1745822960.57,-1000.0,-1000.0,-1000.0,-1000.0
1745822960.574,-1000.0,-410.645,-866.699,-1000.0
1745822960.578,-160.645,792.969,293.457,-233.398
1745822960.582,999.512,653.32,999.512,999.512
1745822960.586,241.211,-738.77,-77.148,158.691
1745822960.543,999.512,698.73,990.234,999.512
1745822960.547,140.137,-682.129,-345.703,94.727
1745822960.551,-1000.0,-827.148,-1000.0,-1000.0
1745822960.555,-1000.0,-131.348,-765.625,-1000.0
1745822960.559,26.855,732.422,455.566,-140.137
1745822960.563,999.512,822.754,999.512,999.512
1745822960.567,179.199,-567.383,-108.398,154.297
1745822960.57,-1000.0,-1000.0,-1000.0,-1000.0
1745822960.574,-1000.0,-410.645,-866.699,-1000.0
1745822960.578,-160.645,792.969,293.457,-233.398
1745822960.582,999.512,653.32,999.512,999.512
1745822960.586,241.211,-738.77,-77.148,158.691
1745822960.602,-954.102,-672.852,-1000.0,-996.094
1745822960.606,-1000.0,-508.789,-975.586,-1000.0
1745822960.61,-256.836,281.25,6.348,-263.184
1745822960.614,999.512,872.559,999.512,999.512
1745822960.618,531.25,-729.492,95.215,438.477
1745822960.622,-864.746,-605.469,-1000.0,-912.598
1745822960.626,-1000.0,-380.371,-909.668,-1000.0
1745822960.629,-239.258,-142.09,-31.738,-300.293
1745822960.633,999.512,999.512,999.512,999.512
1745822960.637,687.988,-88.379,266.602,723.633
1745822960.641,-673.828,-948.73,-977.051,-645.02
1745822960.645,-1000.0,-227.539,-623.535,-1000.0
1745822960.602,-954.102,-672.852,-1000.0,-996.094
1745822960.606,-1000.0,-508.789,-975.586,-1000.0
1745822960.61,-256.836,281.25,6.348,-263.184
1745822960.614,999.512,872.559,999.512,999.512
1745822960.618,531.25,-729.492,95.215,438.477
1745822960.622,-864.746,-605.469,-1000.0,-912.598
1745822960.626,-1000.0,-380.371,-909.668,-1000.0
1745822960.629,-239.258,-142.09,-31.738,-300.293
1745822960.633,999.512,999.512,999.512,999.512
1745822960.637,687.988,-88.379,266.602,723.633
1745822960.641,-673.828,-948.73,-977.051,-645.02
1745822960.645,-1000.0,-227.539,-623.535,-1000.0
1745822960.647,-472.168,407.227,307.617,-428.223
1745822960.651,935.059,999.512,999.512,919.434
1745822960.655,927.246,104.98,536.133,999.512
1745822960.659,-426.758,-1000.0,-777.344,-256.836
1745822960.663,-1000.0,-41.504,-592.285,-1000.0
1745822960.667,-658.691,803.711,385.742,-536.621
1745822960.671,844.727,999.512,999.512,873.047
1745822960.674,821.289,62.988,472.168,999.512
1745822960.678,-686.035,-1000.0,-825.195,-356.934
1745822960.682,-1000.0,-427.246,-1000.0,-1000.0
1745822960.686,-977.539,195.801,-360.84,-869.629
1745822960.69,255.371,914.062,986.328,389.16
1745822960.647,-472.168,407.227,307.617,-428.223
1745822960.651,935.059,999.512,999.512,919.434
1745822960.655,927.246,104.98,536.133,999.512
1745822960.659,-426.758,-1000.0,-777.344,-256.836
1745822960.663,-1000.0,-41.504,-592.285,-1000.0
1745822960.667,-658.691,803.711,385.742,-536.621
1745822960.671,844.727,999.512,999.512,873.047
1745822960.674,821.289,62.988,472.168,999.512
1745822960.678,-686.035,-1000.0,-825.195,-356.934
1745822960.682,-1000.0,-427.246,-1000.0,-1000.0
1745822960.686,-977.539,195.801,-360.84,-869.629
1745822960.69,255.371,914.062,986.328,389.16
1745822960.692,999.512,545.41,790.527,999.512
1745822960.696,-246.582,-806.152,-565.43,-50.293
1745822960.7,-1000.0,-749.023,-1000.0,-1000.0
1745822960.704,-1000.0,-221.68,-662.598,-1000.0
1745822960.708,-39.062,715.332,651.855,29.297
1745822960.712,999.512,679.688,999.512,999.512
1745822960.716,139.648,-820.312,-317.871,150.879
1745822960.719,-1000.0,-1000.0,-1000.0,-1000.0
1745822960.723,-1000.0,-128.418,-612.793,-1000.0
1745822960.727,-37.109,875.977,629.395,-3.906
1745822960.731,999.512,597.656,999.512,999.512
1745822960.735,153.32,-838.379,-115.723,236.328
1745822960.692,999.512,545.41,790.527,999.512
1745822960.696,-246.582,-806.152,-565.43,-50.293
1745822960.7,-1000.0,-749.023,-1000.0,-1000.0
1745822960.704,-1000.0,-221.68,-662.598,-1000.0
1745822960.708,-39.062,715.332,651.855,29.297
1745822960.712,999.512,679.688,999.512,999.512
1745822960.716,139.648,-820.312,-317.871,150.879
1745822960.719,-1000.0,-1000.0,-1000.0,-1000.0
1745822960.723,-1000.0,-128.418,-612.793,-1000.0
1745822960.727,-37.109,875.977,629.395,-3.906
1745822960.731,999.512,597.656,999.512,999.512
1745822960.735,153.32,-838.379,-115.723,236.328
1745822960.737,-1000.0,-634.766,-1000.0,-1000.0
1745822960.741,-1000.0,33.691,-533.691,-1000.0
1745822960.745,-56.641,698.242,526.367,-8.301
1745822960.749,999.512,600.586,999.512,999.512
1745822960.753,659.18,-886.719,52.734,858.398
1745822960.757,-672.363,-663.086,-978.516,-388.672
1745822960.761,-1000.0,-71.777,-489.746,-1000.0
1745822960.764,-214.844,274.414,405.762,-202.148
1745822960.768,999.512,776.367,999.512,999.512
1745822960.772,782.227,-487.305,146.484,858.887
1745822960.776,-572.754,-710.938,-910.645,-450.684
1745822960.78,-1000.0,-336.914,-652.832,-1000.0
1745822960.737,-1000.0,-634.766,-1000.0,-1000.0
1745822960.741,-1000.0,33.691,-533.691,-1000.0
1745822960.745,-56.641,698.242,526.367,-8.301
1745822960.749,999.512,600.586,999.512,999.512
1745822960.753,659.18,-886.719,52.734,858.398
1745822960.757,-672.363,-663.086,-978.516,-388.672
1745822960.761,-1000.0,-71.777,-489.746,-1000.0
1745822960.764,-214.844,274.414,405.762,-202.148
1745822960.768,999.512,776.367,999.512,999.512
1745822960.772,782.227,-487.305,146.484,858.887
1745822960.776,-572.754,-710.938,-910.645,-450.684
1745822960.78,-1000.0,-336.914,-652.832,-1000.0
1745822960.782,-198.73,419.922,202.637,-179.688
1745822960.786,999.512,799.316,999.512,999.512
1745822960.79,899.902,-513.184,247.07,971.68
1745822960.794,-396.973,-927.734,-963.867,-252.93
1745822960.798,-1000.0,-482.422,-779.297,-1000.0
1745822960.802,-199.219,417.48,144.043,-192.871
1745822960.806,999.512,928.711,999.512,999.512
1745822960.809,884.766,-472.656,300.293,955.566
1745822960.813,-395.02,-954.59,-970.703,-262.695
1745822960.817,-1000.0,-344.238,-777.832,-1000.0
1745822960.821,-447.754,271.973,133.301,-451.172
1745822960.825,871.094,880.371,999.512,864.258
1745822960.827,999.512,33.203,689.453,999.512
1745822960.831,-50.781,-985.84,-634.277,11.719
1745822960.835,-1000.0,-686.035,-1000.0,-1000.0
1745822960.839,-802.246,202.637,-71.289,-792.969
1745822960.843,520.02,999.512,999.512,528.32
1745822960.847,999.512,504.883,866.211,999.512
1745822960.851,44.922,-861.328,-383.789,110.84
1745822960.854,-1000.0,-1000.0,-1000.0,-1000.0
1745822960.858,-1000.0,-23.438,-332.52,-1000.0
1745822960.862,115.234,999.512,933.105,166.992
1745822960.866,999.512,218.75,992.676,999.512
1745822960.87,126.953,-1000.0,-275.879,128.906
1745822960.827,999.512,33.203,689.453,999.512
1745822960.831,-50.781,-985.84,-634.277,11.719
1745822960.835,-1000.0,-686.035,-1000.0,-1000.0
1745822960.839,-802.246,202.637,-71.289,-792.969
1745822960.843,520.02,999.512,999.512,528.32
1745822960.847,999.512,504.883,866.211,999.512
1745822960.851,44.922,-861.328,-383.789,110.84
1745822960.854,-1000.0,-1000.0,-1000.0,-1000.0
1745822960.858,-1000.0,-23.438,-332.52,-1000.0
1745822960.862,115.234,999.512,933.105,166.992
1745822960.866,999.512,218.75,992.676,999.512
1745822960.87,126.953,-1000.0,-275.879,128.906
1745822960.872,-1000.0,-264.16,-921.875,-1000.0
1745822960.876,-1000.0,-183.594,-198.73,-1000.0
1745822960.88,-246.582,455.566,698.73,-211.426
1745822960.884,999.512,530.762,999.512,999.512
1745822960.888,168.457,-1000.0,-95.215,164.062
1745822960.892,-1000.0,-363.77,-959.961,-1000.0
1745822960.896,-1000.0,-276.855,-497.07,-1000.0
1745822960.899,-256.348,191.406,429.199,-256.348
1745822960.903,999.512,934.082,999.512,999.512
1745822960.907,164.062,-577.148,66.895,166.016
1745822960.911,-1000.0,-790.527,-1000.0,-1000.0
1745822960.915,-1000.0,-163.574,-746.094,-1000.0
1745822960.872,-1000.0,-264.16,-921.875,-1000.0
1745822960.876,-1000.0,-183.594,-198.73,-1000.0
1745822960.88,-246.582,455.566,698.73,-211.426
1745822960.884,999.512,530.762,999.512,999.512
1745822960.888,168.457,-1000.0,-95.215,164.062
1745822960.892,-1000.0,-363.77,-959.961,-1000.0
1745822960.896,-1000.0,-276.855,-497.07,-1000.0
1745822960.899,-256.348,191.406,429.199,-256.348
1745822960.903,999.512,934.082,999.512,999.512
1745822960.907,164.062,-577.148,66.895,166.016
1745822960.911,-1000.0,-790.527,-1000.0,-1000.0
1745822960.915,-1000.0,-163.574,-746.094,-1000.0
1745822960.916,-375.977,490.723,275.391,-345.703
1745822960.92,999.512,865.234,999.512,999.512
1745822960.924,248.535,-446.289,150.391,321.777
1745822960.928,-1000.0,-1000.0,-1000.0,-979.004
1745822960.932,-1000.0,-250.977,-972.656,-1000.0
1745822960.936,-472.656,751.953,80.078,-435.059
1745822960.94,999.512,999.512,999.512,999.512
1745822960.943,356.934,-269.531,184.082,410.156
1745822960.947,-1000.0,-875.488,-1000.0,-966.797
1745822960.951,-1000.0,-335.449,-1000.0,-1000.0
1745822960.955,-899.902,288.086,-195.312,-844.727
1745822960.959,618.164,999.512,999.512,652.832
1745822960.916,-375.977,490.723,275.391,-345.703
1745822960.92,999.512,865.234,999.512,999.512
1745822960.924,248.535,-446.289,150.391,321.777
1745822960.928,-1000.0,-1000.0,-1000.0,-979.004
1745822960.932,-1000.0,-250.977,-972.656,-1000.0
1745822960.936,-472.656,751.953,80.078,-435.059
1745822960.94,999.512,999.512,999.512,999.512
1745822960.943,356.934,-269.531,184.082,410.156
1745822960.947,-1000.0,-875.488,-1000.0,-966.797
1745822960.951,-1000.0,-335.449,-1000.0,-1000.0
1745822960.955,-899.902,288.086,-195.312,-844.727
1745822960.959,618.164,999.512,999.512,652.832
1745822960.977,735.84,119.629,360.352,786.621
1745822960.981,-867.676,-991.699,-932.129,-789.551
1745822960.985,-1000.0,-508.301,-1000.0,-1000.0
1745822960.989,-1000.0,125.977,-329.59,-1000.0
1745822960.993,95.703,999.512,999.512,125.977
1745822960.997,921.875,346.191,548.34,964.844
1745822961.001,-668.945,-1000.0,-806.152,-606.445
1745822961.004,-1000.0,-635.742,-1000.0,-1000.0
1745822961.008,-1000.0,327.148,-419.922,-1000.0
1745822961.012,-237.305,999.512,980.469,-231.445
1745822961.016,999.512,255.371,713.379,999.512
1745822961.02,-304.199,-995.605,-665.039,-321.777
1745822960.977,735.84,119.629,360.352,786.621
1745822960.981,-867.676,-991.699,-932.129,-789.551
1745822960.985,-1000.0,-508.301,-1000.0,-1000.0
1745822960.989,-1000.0,125.977,-329.59,-1000.0
1745822960.993,95.703,999.512,999.512,125.977
1745822960.997,921.875,346.191,548.34,964.844
1745822961.001,-668.945,-1000.0,-806.152,-606.445
1745822961.004,-1000.0,-635.742,-1000.0,-1000.0
1745822961.008,-1000.0,327.148,-419.922,-1000.0
1745822961.012,-237.305,999.512,980.469,-231.445
1745822961.016,999.512,255.371,713.379,999.512
1745822961.02,-304.199,-995.605,-665.039,-321.777
1745822961.022,-1000.0,-416.992,-1000.0,-1000.0
1745822961.026,-1000.0,138.184,-637.695,-1000.0
1745822961.03,-256.348,974.121,729.004,-250.977
1745822961.034,999.512,352.539,887.695,999.512
1745822961.038,-52.246,-946.289,-515.137,-30.273
1745822961.042,-1000.0,-275.879,-1000.0,-1000.0
1745822961.046,-1000.0,-71.289,-783.691,-1000.0
1745822961.049,-270.508,638.184,438.965,-266.602
1745822961.053,999.512,614.258,999.512,999.512
1745822961.057,145.02,-929.688,-279.297,125.488
1745822961.061,-1000.0,-407.227,-1000.0,-1000.0
1745822961.065,-1000.0,-182.129,-984.863,-1000.0
1745822961.022,-1000.0,-416.992,-1000.0,-1000.0
1745822961.026,-1000.0,138.184,-637.695,-1000.0
1745822961.03,-256.348,974.121,729.004,-250.977
1745822961.034,999.512,352.539,887.695,999.512
1745822961.038,-52.246,-946.289,-515.137,-30.273
1745822961.042,-1000.0,-275.879,-1000.0,-1000.0
1745822961.046,-1000.0,-71.289,-783.691,-1000.0
1745822961.049,-270.508,638.184,438.965,-266.602
1745822961.053,999.512,614.258,999.512,999.512
1745822961.057,145.02,-929.688,-279.297,125.488
1745822961.061,-1000.0,-407.227,-1000.0,-1000.0
1745822961.065,-1000.0,-182.129,-984.863,-1000.0
1745822961.067,-258.301,315.918,103.027,-259.277
1745822961.071,999.512,614.258,999.512,999.512
1745822961.075,169.434,-812.988,-53.223,165.527
1745822961.079,-1000.0,-878.418,-1000.0,-1000.0
1745822961.083,-1000.0,-199.707,-1000.0,-1000.0
1745822961.087,-260.742,757.812,16.602,-346.191
1745822961.091,999.512,817.383,999.512,999.512
1745822961.094,159.668,-673.34,56.641,171.387
1745822961.098,-1000.0,-724.609,-1000.0,-1000.0
1745822961.102,-1000.0,-257.812,-1000.0,-1000.0
1745822961.106,-506.836,299.805,-169.922,-626.953
1745822961.11,999.512,865.234,999.512,981.934
1745822961.111,464.844,-422.852,194.824,469.727
1745822961.115,-931.641,-659.18,-1000.0,-951.66
1745822961.119,-1000.0,-448.73,-1000.0,-1000.0
1745822961.123,-542.969,99.121,-228.027,-655.762
1745822961.127,972.656,999.512,999.512,883.301
1745822961.131,731.934,17.578,299.805,735.352
1745822961.135,-731.445,-888.672,-971.68,-774.902
1745822961.138,-1000.0,-802.246,-1000.0,-1000.0
1745822961.142,-848.145,-60.547,-451.172,-987.305
1745822961.146,541.504,999.512,999.512,338.867
1745822961.15,999.512,107.422,410.645,993.652
1745822961.154,-495.117,-1000.0,-952.637,-556.641
1745822961.111,464.844,-422.852,194.824,469.727
1745822961.115,-931.641,-659.18,-1000.0,-951.66
1745822961.119,-1000.0,-448.73,-1000.0,-1000.0
1745822961.123,-542.969,99.121,-228.027,-655.762
1745822961.127,972.656,999.512,999.512,883.301
1745822961.131,731.934,17.578,299.805,735.352
1745822961.135,-731.445,-888.672,-971.68,-774.902
1745822961.138,-1000.0,-802.246,-1000.0,-1000.0
1745822961.142,-848.145,-60.547,-451.172,-987.305
1745822961.146,541.504,999.512,999.512,338.867
1745822961.15,999.512,107.422,410.645,993.652
1745822961.154,-495.117,-1000.0,-952.637,-556.641
1745822961.157,-1000.0,-161.133,-1000.0,-1000.0
1745822961.161,-1000.0,-133.301,-748.047,-1000.0
1745822961.165,100.586,746.582,713.379,20.996
1745822961.169,999.512,430.664,665.527,999.512
1745822961.173,-135.254,-986.328,-810.059,-182.129
1745822961.177,-1000.0,-303.223,-1000.0,-1000.0
1745822961.181,-1000.0,-174.316,-776.855,-1000.0
1745822961.184,-38.574,611.328,554.688,-127.441
1745822961.188,999.512,513.672,903.809,999.512
1745822961.192,141.602,-956.543,-532.227,83.008
1745822961.196,-1000.0,-671.387,-1000.0,-1000.0
1745822961.2,-1000.0,-175.781,-867.188,-1000.0
1745822961.202,-32.715,700.684,354.004,-135.742
1745822961.206,999.512,659.18,999.512,999.512
1745822961.21,146.484,-785.645,-282.715,154.297
1745822961.214,-1000.0,-1000.0,-1000.0,-1000.0
1745822961.218,-1000.0,-145.508,-923.34,-1000.0
1745822961.222,-166.016,954.102,202.637,-233.398
1745822961.226,999.512,799.316,999.512,999.512
1745822961.229,300.293,-621.094,-81.543,265.137
1745822961.233,-975.098,-788.574,-1000.0,-997.07
1745822961.237,-1000.0,-142.09,-1000.0,-1000.0
1745822961.241,-248.047,453.613,-64.941,-250.488
1745822961.245,999.512,929.688,999.512,999.512
1745822961.202,-32.715,700.684,354.004,-135.742
1745822961.206,999.512,659.18,999.512,999.512
1745822961.21,146.484,-785.645,-282.715,154.297
1745822961.214,-1000.0,-1000.0,-1000.0,-1000.0
1745822961.218,-1000.0,-145.508,-923.34,-1000.0
1745822961.222,-166.016,954.102,202.637,-233.398
1745822961.226,999.512,799.316,999.512,999.512
1745822961.229,300.293,-621.094,-81.543,265.137
1745822961.233,-975.098,-788.574,-1000.0,-997.07
1745822961.237,-1000.0,-142.09,-1000.0,-1000.0
1745822961.241,-248.047,453.613,-64.941,-250.488
1745822961.245,999.512,929.688,999.512,999.512
1745822961.247,671.387,-192.383,103.516,658.203
1745822961.251,-712.891,-1000.0,-1000.0,-711.426
1745822961.255,-1000.0,-451.172,-1000.0,-1000.0
1745822961.259,-229.98,553.223,-201.172,-244.141
1745822961.263,999.512,964.844,999.512,999.512
1745822961.267,916.016,-143.555,145.996,944.824
1745822961.271,-351.074,-1000.0,-1000.0,-291.504
1745822961.274,-1000.0,-1000.0,-1000.0,-1000.0
1745822961.278,-444.824,167.969,-464.844,-436.035
1745822961.282,894.043,778.32,999.512,896.484
1745822961.286,999.512,-592.285,118.652,999.512
1745822961.29,-157.227,-989.258,-1000.0,-119.141
1745822961.247,671.387,-192.383,103.516,658.203
1745822961.251,-712.891,-1000.0,-1000.0,-711.426
1745822961.255,-1000.0,-451.172,-1000.0,-1000.0
1745822961.259,-229.98,553.223,-201.172,-244.141
1745822961.263,999.512,964.844,999.512,999.512
1745822961.267,916.016,-143.555,145.996,944.824
1745822961.271,-351.074,-1000.0,-1000.0,-291.504
1745822961.274,-1000.0,-1000.0,-1000.0,-1000.0
1745822961.278,-444.824,167.969,-464.844,-436.035
1745822961.282,894.043,778.32,999.512,896.484
1745822961.286,999.512,-592.285,118.652,999.512
1745822961.29,-157.227,-989.258,-1000.0,-119.141
1745822961.291,-1000.0,-436.523,-1000.0,-1000.0
1745822961.295,-785.156,152.344,-779.297,-768.066
1745822961.299,511.719,999.512,751.465,535.156
1745822961.303,999.512,73.73,312.012,999.512
1745822961.307,115.723,-1000.0,-1000.0,133.789
1745822961.311,-1000.0,-380.371,-997.559,-1000.0
1745822961.315,-1000.0,79.59,-954.59,-1000.0
1745822961.318,114.746,807.129,465.332,182.129
1745822961.322,999.512,198.242,431.641,999.512
1745822961.326,142.578,-1000.0,-1000.0,136.719
1745822961.33,-1000.0,-550.293,-991.699,-1000.0
1745822961.334,-1000.0,-87.402,-1000.0,-1000.0
1745822961.291,-1000.0,-436.523,-1000.0,-1000.0
1745822961.295,-785.156,152.344,-779.297,-768.066
1745822961.299,511.719,999.512,751.465,535.156
1745822961.303,999.512,73.73,312.012,999.512
1745822961.307,115.723,-1000.0,-1000.0,133.789
1745822961.311,-1000.0,-380.371,-997.559,-1000.0
1745822961.315,-1000.0,79.59,-954.59,-1000.0
1745822961.318,114.746,807.129,465.332,182.129
1745822961.322,999.512,198.242,431.641,999.512
1745822961.326,142.578,-1000.0,-1000.0,136.719
1745822961.33,-1000.0,-550.293,-991.699,-1000.0
1745822961.334,-1000.0,-87.402,-1000.0,-1000.0
1745822961.351,-6.348,548.828,280.762,9.766
1745822961.355,999.512,133.301,583.984,999.512
1745822961.359,145.02,-1000.0,-933.105,143.555
1745822961.363,-1000.0,-914.551,-1000.0,-1000.0
1745822961.367,-1000.0,-153.32,-1000.0,-1000.0
1745822961.371,-144.043,999.512,83.008,-148.926
1745822961.375,999.512,385.742,845.703,999.512
1745822961.378,260.254,-980.957,-667.48,262.695
1745822961.382,-988.281,-882.324,-1000.0,-987.305
1745822961.386,-1000.0,-385.742,-1000.0,-1000.0
1745822961.39,-258.301,650.391,-139.648,-256.348
1745822961.394,999.512,507.812,990.723,999.512
1745822961.397,389.16,-992.188,-379.395,358.398
1745822961.401,-947.266,-497.07,-1000.0,-959.473
1745822961.405,-1000.0,-164.551,-1000.0,-1000.0
1745822961.409,-227.051,251.465,-274.414,-232.422
1745822961.413,999.512,999.512,999.512,999.512
1745822961.417,829.59,-201.172,24.902,784.18
1745822961.421,-497.559,-992.188,-1000.0,-543.457
1745822961.424,-1000.0,-831.543,-1000.0,-1000.0
1745822961.428,-264.16,236.816,-312.012,-309.57
1745822961.432,999.512,999.512,999.512,999.512
1745822961.436,953.613,-279.785,124.512,880.859
1745822961.44,-301.758,-1000.0,-1000.0,-420.898
1745822961.397,389.16,-992.188,-379.395,358.398
1745822961.401,-947.266,-497.07,-1000.0,-959.473
1745822961.405,-1000.0,-164.551,-1000.0,-1000.0
1745822961.409,-227.051,251.465,-274.414,-232.422
1745822961.413,999.512,999.512,999.512,999.512
1745822961.417,829.59,-201.172,24.902,784.18
1745822961.421,-497.559,-992.188,-1000.0,-543.457
1745822961.424,-1000.0,-831.543,-1000.0,-1000.0
1745822961.428,-264.16,236.816,-312.012,-309.57
1745822961.432,999.512,999.512,999.512,999.512
1745822961.436,953.613,-279.785,124.512,880.859
1745822961.44,-301.758,-1000.0,-1000.0,-420.898
1745822961.442,-1000.0,-14.16,-1000.0,-1000.0
1745822961.446,-420.898,442.383,-414.062,-440.918
1745822961.45,932.617,968.75,999.512,916.016
1745822961.454,935.059,-144.043,218.75,943.848
1745822961.458,999.512,-411.133,-1000.0,999.512
1745822961.462,833.984,60.547,-1000.0,831.543
1745822961.466,-306.641,-606.445,-437.988,-198.242
1745822961.469,430.664,565.43,999.512,496.094
1745822961.473,999.512,32.715,416.016,999.512
1745822961.477,100.098,-1000.0,-937.5,179.688
1745822961.481,-1000.0,-652.344,-1000.0,-1000.0
1745822961.485,-699.707,166.992,-609.375,-655.762
1745822961.442,-1000.0,-14.16,-1000.0,-1000.0
1745822961.446,-420.898,442.383,-414.062,-440.918
1745822961.45,932.617,968.75,999.512,916.016
1745822961.454,935.059,-144.043,218.75,943.848
1745822961.458,999.512,-411.133,-1000.0,999.512
1745822961.462,833.984,60.547,-1000.0,831.543
1745822961.466,-306.641,-606.445,-437.988,-198.242
1745822961.469,430.664,565.43,999.512,496.094
1745822961.473,999.512,32.715,416.016,999.512
1745822961.477,100.098,-1000.0,-937.5,179.688
1745822961.481,-1000.0,-652.344,-1000.0,-1000.0
1745822961.485,-699.707,166.992,-609.375,-655.762
1745822961.488,751.465,999.512,877.441,806.641
1745822961.492,958.984,72.266,583.496,982.422
1745822961.496,999.512,-527.832,-852.051,959.961
1745822961.5,485.84,-303.223,-1000.0,941.895
1745822961.504,-937.5,-640.625,-783.691,-232.91
1745822961.508,219.238,833.984,611.328,263.184
1745822961.512,999.512,473.145,847.168,999.512
1745822961.515,129.395,-931.641,-627.441,546.387
1745822961.519,-1000.0,-920.41,-1000.0,-804.688
1745822961.523,-1000.0,-149.414,-916.504,-1000.0
1745822961.527,154.785,834.961,298.34,279.785
1745822961.531,999.512,540.527,999.512,999.512
1745822961.488,751.465,999.512,877.441,806.641
1745822961.492,958.984,72.266,583.496,982.422
1745822961.496,999.512,-527.832,-852.051,959.961
1745822961.5,485.84,-303.223,-1000.0,941.895
1745822961.504,-937.5,-640.625,-783.691,-232.91
1745822961.508,219.238,833.984,611.328,263.184
1745822961.512,999.512,473.145,847.168,999.512
1745822961.515,129.395,-931.641,-627.441,546.387
1745822961.519,-1000.0,-920.41,-1000.0,-804.688
1745822961.523,-1000.0,-149.414,-916.504,-1000.0
1745822961.527,154.785,834.961,298.34,279.785
1745822961.531,999.512,540.527,999.512,999.512
1745822961.532,848.633,-683.105,-333.496,840.332
1745822961.536,999.512,-598.145,-1000.0,999.512
1745822961.54,22.461,-759.277,-931.152,174.316
1745822961.544,-371.094,-67.383,151.367,-172.363
1745822961.548,999.512,930.664,999.512,999.512
1745822961.552,389.648,-387.207,8.301,916.992
1745822961.556,-962.891,-791.992,-1000.0,999.512
1745822961.559,-1000.0,-849.609,-1000.0,-29.297
1745822961.563,-250.0,108.887,-134.277,-316.895
1745822961.567,999.512,766.602,999.512,999.512
1745822961.571,542.969,-689.941,-104.004,999.512
1745822961.575,-839.355,-1000.0,-1000.0,-9.766
1745822961.595,-1000.0,-362.305,-1000.0,-1000.0
1745822961.599,-206.055,574.219,-347.168,-183.594
1745822961.603,999.512,931.152,999.512,993.164
1745822961.607,900.879,-326.172,102.051,999.512
1745822961.611,-366.699,-1000.0,-1000.0,173.34
1745822961.615,-1000.0,-230.469,-1000.0,-1000.0
1745822961.619,-331.543,592.285,-334.961,-301.758
1745822961.622,971.68,699.707,999.512,988.281
1745822961.626,994.141,-393.066,213.867,999.512
1745822961.63,-242.188,-998.047,-1000.0,-1.953
1745822961.634,-1000.0,-561.035,-1000.0,-1000.0
1745822961.638,-677.734,351.562,-488.77,-637.695
1745822961.595,-1000.0,-362.305,-1000.0,-1000.0
1745822961.599,-206.055,574.219,-347.168,-183.594
1745822961.603,999.512,931.152,999.512,993.164
1745822961.607,900.879,-326.172,102.051,999.512
1745822961.611,-366.699,-1000.0,-1000.0,173.34
1745822961.615,-1000.0,-230.469,-1000.0,-1000.0
1745822961.619,-331.543,592.285,-334.961,-301.758
1745822961.622,971.68,699.707,999.512,988.281
1745822961.626,994.141,-393.066,213.867,999.512
1745822961.63,-242.188,-998.047,-1000.0,-1.953
1745822961.634,-1000.0,-561.035,-1000.0,-1000.0
1745822961.638,-677.734,351.562,-488.77,-637.695
1745822961.622,734.863,983.398,999.512,768.066
1745822961.626,999.512,-239.258,286.133,999.512
1745822961.63,-332.52,-1000.0,-1000.0,-175.781
1745822961.634,-1000.0,-687.5,-1000.0,-1000.0
1745822961.638,-1000.0,49.805,-764.648,-1000.0
1745822961.642,151.855,999.512,731.934,188.477
1745822961.646,999.512,255.859,523.438,999.512
1745822961.649,-324.219,-1000.0,-937.5,-153.809
1745822961.653,-1000.0,-658.203,-1000.0,-1000.0
1745822961.657,-1000.0,1.953,-837.891,-1000.0
1745822961.661,-66.406,902.344,536.621,-58.594
1745822961.665,999.512,250.977,786.133,999.512
1745822961.622,734.863,983.398,999.512,768.066
1745822961.626,999.512,-239.258,286.133,999.512
1745822961.63,-332.52,-1000.0,-1000.0,-175.781
1745822961.634,-1000.0,-687.5,-1000.0,-1000.0
1745822961.638,-1000.0,49.805,-764.648,-1000.0
1745822961.642,151.855,999.512,731.934,188.477
1745822961.646,999.512,255.859,523.438,999.512
1745822961.649,-324.219,-1000.0,-937.5,-153.809
1745822961.653,-1000.0,-658.203,-1000.0,-1000.0
1745822961.657,-1000.0,1.953,-837.891,-1000.0
1745822961.661,-66.406,902.344,536.621,-58.594
1745822961.665,999.512,250.977,786.133,999.512
1745822961.668,4.395,-1000.0,-691.406,84.473
1745822961.672,-1000.0,-230.469,-1000.0,-1000.0
1745822961.676,-1000.0,75.684,-916.504,-1000.0
1745822961.68,-245.605,452.148,270.02,-217.773
1745822961.684,999.512,772.949,999.512,999.512
1745822961.688,174.316,-688.965,-319.336,169.922
1745822961.692,-1000.0,-728.027,-1000.0,-1000.0
1745822961.695,-1000.0,-395.02,-583.008,-1000.0
1745822961.699,-69.336,501.465,566.406,-102.539
1745822961.703,999.512,877.93,999.512,999.512
1745822961.707,932.617,-528.809,718.75,937.988
1745822961.711,955.566,-468.262,808.105,953.613
1745822961.668,4.395,-1000.0,-691.406,84.473
1745822961.672,-1000.0,-230.469,-1000.0,-1000.0
1745822961.676,-1000.0,75.684,-916.504,-1000.0
1745822961.68,-245.605,452.148,270.02,-217.773
1745822961.684,999.512,772.949,999.512,999.512
1745822961.688,174.316,-688.965,-319.336,169.922
1745822961.692,-1000.0,-728.027,-1000.0,-1000.0
1745822961.695,-1000.0,-395.02,-583.008,-1000.0
1745822961.699,-69.336,501.465,566.406,-102.539
1745822961.703,999.512,877.93,999.512,999.512
1745822961.707,932.617,-528.809,718.75,937.988
1745822961.711,955.566,-468.262,808.105,953.613
1745822961.727,948.242,338.867,978.516,949.707
1745822961.731,957.52,584.961,953.125,958.008
1745822961.735,958.496,621.094,949.707,958.984
1745822961.739,-104.492,-547.363,-136.719,-103.027
1745822961.743,-975.586,-572.266,-1000.0,-976.562
1745822961.747,-1000.0,175.293,-1000.0,-1000.0
1745822961.751,-578.125,658.691,-63.965,-553.711
1745822961.754,999.512,732.91,999.512,999.512
1745822961.758,321.289,-531.738,108.398,372.07
1745822961.762,-1000.0,-658.691,-1000.0,-990.234
1745822961.766,-1000.0,-56.152,-1000.0,-1000.0
1745822961.77,-725.098,315.43,-312.988,-731.445
1745822961.771,857.91,999.512,999.512,819.336
1745822961.775,651.855,-6.348,196.777,711.914
1745822961.779,-844.727,-807.129,-1000.0,-782.227
1745822961.783,-1000.0,-295.41,-1000.0,-1000.0
1745822961.787,-655.273,228.027,-458.984,-666.992
1745822961.791,710.938,999.512,999.512,682.617
1745822961.795,999.512,107.91,349.609,999.512
1745822961.798,-159.18,-1000.0,-986.328,-125.0
1745822961.802,-1000.0,-666.504,-1000.0,-1000.0
1745822961.806,-876.953,105.469,-628.418,-877.441
1745822961.81,375.977,999.512,868.164,381.836
1745822961.814,999.512,206.543,533.203,999.512
1745822961.814,999.512,206.543,533.203,999.512
1745822961.814,999.512,206.543,533.203,999.512
1745822962.281,-659.668,441.895,-559.082,-664.551
1745822962.285,686.523,999.512,867.676,676.758
1745822962.289,999.512,113.281,811.523,999.512
1745822962.293,257.324,-1000.0,-708.984,337.891
1745822962.297,-1000.0,-461.914,-752.93,-1000.0
1745822962.301,-279.785,789.062,465.332,-312.988
1745822962.305,985.352,999.512,999.512,983.398
1745822962.308,999.512,-64.941,798.828,999.512
1745822962.312,165.039,-1000.0,-469.238,171.875
1745822962.316,-1000.0,-525.879,-1000.0,-1000.0
1745822962.32,-1000.0,126.953,-926.758,-1000.0
1745822962.324,-15.137,783.203,315.918,72.754
1745822961.817,121.094,-1000.0,-905.762,112.793
1745822961.821,-1000.0,-847.168,-1000.0,-1000.0
1745822961.825,-1000.0,-19.043,-837.402,-1000.0
1745822961.829,65.918,789.062,520.02,51.758
1745822961.833,999.512,363.77,835.938,999.512
