timestamps,TP9,AF7,AF8,TP10
1745822798.723,-256.836,-245.117,26.367,962.891
1745822798.727,999.512,999.512,999.512,967.773
1745822798.731,180.664,169.922,120.605,898.926
1745822798.735,-1000.0,-1000.0,-1000.0,999.512
1745822798.739,-1000.0,-1000.0,-1000.0,-32.715
1745822798.743,-263.672,-261.23,-104.98,-288.574
1745822798.747,999.512,999.512,999.512,999.512
1745822798.75,307.617,249.512,152.344,931.641
1745822798.754,-969.238,-996.094,-1000.0,999.512
1745822798.758,-1000.0,-1000.0,-1000.0,-130.859
1745822798.762,-486.816,-417.48,-264.648,-373.047
1745822798.766,999.512,999.512,999.512,999.512
1745822798.766,999.512,999.512,999.512,999.512
1745822798.766,999.512,999.512,999.512,999.512
1745822798.767,584.961,468.262,246.094,917.48
1745822798.771,-844.727,-912.109,-1000.0,999.512
1745822798.775,-1000.0,-1000.0,-1000.0,4.395
1745822798.779,-608.398,-525.879,-389.648,-554.688
1745822798.783,784.668,887.207,999.512,908.691
1745822798.787,999.512,996.094,444.336,987.305
1745822798.791,-246.094,-345.703,-922.852,999.512
1745822798.794,-1000.0,-1000.0,-1000.0,-132.324
1745822798.798,-904.785,-876.465,-579.59,-865.234
1745822798.802,377.441,454.102,902.344,700.684
1745822798.806,999.512,999.512,694.336,993.652
1745822798.81,-136.23,-296.387,-756.348,999.512
1745822798.767,584.961,468.262,246.094,917.48
1745822798.771,-844.727,-912.109,-1000.0,999.512
1745822798.775,-1000.0,-1000.0,-1000.0,4.395
1745822798.779,-608.398,-525.879,-389.648,-554.688
1745822798.783,784.668,887.207,999.512,908.691
1745822798.787,999.512,996.094,444.336,987.305
1745822798.791,-246.094,-345.703,-922.852,999.512
1745822798.794,-1000.0,-1000.0,-1000.0,-132.324
1745822798.798,-904.785,-876.465,-579.59,-865.234
1745822798.802,377.441,454.102,902.344,700.684
1745822798.806,999.512,999.512,694.336,993.652
1745822798.81,-136.23,-296.387,-756.348,999.512
1745822798.812,-1000.0,-1000.0,-1000.0,426.27
1745822798.816,-1000.0,-975.098,-610.352,-880.371
1745822798.82,129.883,232.422,745.605,371.094
1745822798.824,999.512,999.512,931.641,999.512
1745822798.828,106.445,-70.801,-482.91,925.293
1745822798.832,-1000.0,-1000.0,-1000.0,867.188
1745822798.836,-1000.0,-1000.0,-700.684,-495.117
1745822798.839,-3.906,45.898,528.32,131.348
1745822798.843,999.512,999.512,999.512,999.512
1745822798.847,137.207,39.062,-259.766,910.645
1745822798.851,-1000.0,-1000.0,-1000.0,886.23
1745822798.855,-1000.0,-1000.0,-966.309,-635.742
1745822798.812,-1000.0,-1000.0,-1000.0,426.27
1745822798.816,-1000.0,-975.098,-610.352,-880.371
1745822798.82,129.883,232.422,745.605,371.094
1745822798.824,999.512,999.512,931.641,999.512
1745822798.828,106.445,-70.801,-482.91,925.293
1745822798.832,-1000.0,-1000.0,-1000.0,867.188
1745822798.836,-1000.0,-1000.0,-700.684,-495.117
1745822798.839,-3.906,45.898,528.32,131.348
1745822798.843,999.512,999.512,999.512,999.512
1745822798.847,137.207,39.062,-259.766,910.645
1745822798.851,-1000.0,-1000.0,-1000.0,886.23
1745822798.855,-1000.0,-1000.0,-966.309,-635.742
1745822798.857,-256.348,-238.77,100.586,-338.867
1745822798.861,999.512,999.512,999.512,999.512
1745822798.865,169.922,166.992,-26.855,712.891
1745822798.869,-1000.0,-1000.0,-1000.0,-618.652
1745822798.873,-1000.0,-1000.0,-1000.0,-1000.0
1745822798.877,-262.695,-257.324,-92.773,-223.145
1745822798.881,999.512,999.512,999.512,999.512
1745822798.884,265.137,182.617,107.422,647.461
1745822798.888,-986.816,-1000.0,-1000.0,-711.426
1745822798.892,-1000.0,-1000.0,-1000.0,-1000.0
1745822798.896,-481.934,-356.934,-190.43,-383.789
1745822798.9,999.512,999.512,999.512,999.512
1745822798.857,-256.348,-238.77,100.586,-338.867
1745822798.861,999.512,999.512,999.512,999.512
1745822798.865,169.922,166.992,-26.855,712.891
1745822798.869,-1000.0,-1000.0,-1000.0,-618.652
1745822798.873,-1000.0,-1000.0,-1000.0,-1000.0
1745822798.877,-262.695,-257.324,-92.773,-223.145
1745822798.881,999.512,999.512,999.512,999.512
1745822798.884,265.137,182.617,107.422,647.461
1745822798.888,-986.816,-1000.0,-1000.0,-711.426
1745822798.892,-1000.0,-1000.0,-1000.0,-1000.0
1745822798.896,-481.934,-356.934,-190.43,-383.789
1745822798.9,999.512,999.512,999.512,999.512
1745822799.367,-1000.0,-1000.0,-1000.0,-1000.0
1745822799.371,-181.641,-266.602,-125.488,-171.875
1745822799.375,999.512,999.512,999.512,994.141
1745822799.379,999.512,410.156,166.992,999.512
1745822799.383,-179.688,-938.477,-1000.0,21.484
1745822799.387,-1000.0,-1000.0,-1000.0,-1000.0
1745822799.391,-305.664,-216.309,-237.793,-289.551
1745822799.394,958.008,999.512,999.512,961.914
1745822799.398,999.512,361.816,224.609,999.512
1745822799.402,-59.082,-937.988,-1000.0,102.539
1745822799.406,-1000.0,-1000.0,-1000.0,-1000.0
1745822799.41,-677.246,-611.816,-470.215,-645.508
1745822798.902,390.137,242.676,161.621,623.047
1745822798.906,-965.332,-1000.0,-1000.0,-775.879
1745822798.91,-1000.0,-1000.0,-1000.0,-1000.0
1745822798.914,-520.508,-357.91,-262.207,-432.129
1745822798.918,836.426,983.887,999.512,864.258
1745822798.922,999.512,944.824,268.066,999.512
1745822798.926,-52.734,-284.18,-989.746,18.066
1745822798.929,-1000.0,-1000.0,-1000.0,-1000.0
1745822798.933,-821.289,-691.895,-416.504,-773.926
1745822798.937,500.0,782.227,999.512,565.918
1745822798.941,999.512,905.762,463.379,999.512
1745822798.945,29.785,-548.828,-920.898,69.336
1745822798.963,-1000.0,-1000.0,-1000.0,-1000.0
1745822798.967,-1000.0,-804.688,-473.145,-1000.0
1745822798.971,182.617,550.781,967.285,192.871
1745822798.975,999.512,999.512,709.473,999.512
1745822798.979,65.43,-289.551,-702.637,15.137
1745822798.983,-1000.0,-1000.0,-1000.0,-1000.0
1745822798.987,-1000.0,-792.48,-441.406,-1000.0
1745822798.99,90.332,507.324,907.227,-53.223
1745822798.994,999.512,999.512,913.574,999.512
1745822798.998,67.383,-195.801,-437.012,28.32
1745822799.002,-1000.0,-1000.0,-1000.0,-1000.0
1745822799.006,-1000.0,-1000.0,-717.285,-1000.0
1745822798.963,-1000.0,-1000.0,-1000.0,-1000.0
1745822798.967,-1000.0,-804.688,-473.145,-1000.0
1745822798.971,182.617,550.781,967.285,192.871
1745822798.975,999.512,999.512,709.473,999.512
1745822798.979,65.43,-289.551,-702.637,15.137
1745822798.983,-1000.0,-1000.0,-1000.0,-1000.0
1745822798.987,-1000.0,-792.48,-441.406,-1000.0
1745822798.99,90.332,507.324,907.227,-53.223
1745822798.994,999.512,999.512,913.574,999.512
1745822798.998,67.383,-195.801,-437.012,28.32
1745822799.002,-1000.0,-1000.0,-1000.0,-1000.0
1745822799.006,-1000.0,-1000.0,-717.285,-1000.0
1745822799.008,-174.805,-26.367,545.898,-272.949
1745822799.012,999.512,999.512,999.512,999.512
1745822799.016,405.762,371.582,-153.32,334.473
1745822799.02,-925.293,-928.223,-1000.0,-972.168
1745822799.024,-1000.0,-1000.0,-903.32,-1000.0
1745822799.028,-241.699,-171.387,259.277,-246.094
1745822799.032,999.512,999.512,999.512,999.512
1745822799.035,254.883,160.645,-6.348,215.82
1745822799.039,-1000.0,-1000.0,-1000.0,-1000.0
1745822799.043,-1000.0,-1000.0,-1000.0,-1000.0
1745822799.047,-249.512,-259.766,25.391,-283.691
1745822799.051,999.512,999.512,999.512,999.512
1745822799.008,-174.805,-26.367,545.898,-272.949
1745822799.012,999.512,999.512,999.512,999.512
1745822799.016,405.762,371.582,-153.32,334.473
1745822799.02,-925.293,-928.223,-1000.0,-972.168
1745822799.024,-1000.0,-1000.0,-903.32,-1000.0
1745822799.028,-241.699,-171.387,259.277,-246.094
1745822799.032,999.512,999.512,999.512,999.512
1745822799.035,254.883,160.645,-6.348,215.82
1745822799.039,-1000.0,-1000.0,-1000.0,-1000.0
1745822799.043,-1000.0,-1000.0,-1000.0,-1000.0
1745822799.047,-249.512,-259.766,25.391,-283.691
1745822799.051,999.512,999.512,999.512,999.512
1745822799.037,716.797,233.398,115.723,560.059
1745822799.041,-662.598,-1000.0,-1000.0,-812.012
1745822799.045,-1000.0,-1000.0,-1000.0,-1000.0
1745822799.049,-181.641,-210.938,-123.047,-330.078
1745822799.053,983.887,999.512,999.512,947.266
1745822799.057,999.512,989.258,159.668,999.512
1745822799.061,-32.715,-177.246,-1000.0,-149.414
1745822799.064,-1000.0,-1000.0,-1000.0,-1000.0
1745822799.068,-597.168,-678.711,-295.41,-662.598
1745822799.072,786.621,898.438,999.512,723.145
1745822799.076,999.512,620.117,262.695,999.512
1745822799.08,-33.203,-858.398,-997.559,-147.461
1745822799.037,716.797,233.398,115.723,560.059
1745822799.041,-662.598,-1000.0,-1000.0,-812.012
1745822799.045,-1000.0,-1000.0,-1000.0,-1000.0
1745822799.049,-181.641,-210.938,-123.047,-330.078
1745822799.053,983.887,999.512,999.512,947.266
1745822799.057,999.512,989.258,159.668,999.512
1745822799.061,-32.715,-177.246,-1000.0,-149.414
1745822799.064,-1000.0,-1000.0,-1000.0,-1000.0
1745822799.068,-597.168,-678.711,-295.41,-662.598
1745822799.072,786.621,898.438,999.512,723.145
1745822799.076,999.512,620.117,262.695,999.512
1745822799.08,-33.203,-858.398,-997.559,-147.461
1745822799.098,-1000.0,-1000.0,-1000.0,-1000.0
1745822799.102,-616.211,-545.41,-413.086,-655.273
1745822799.106,735.352,890.625,999.512,673.828
1745822799.11,999.512,948.73,465.82,999.512
1745822799.114,166.504,-422.363,-912.598,159.668
1745822799.118,-1000.0,-1000.0,-1000.0,-1000.0
1745822799.122,-850.586,-791.992,-460.938,-831.543
1745822799.125,494.141,595.703,991.699,509.277
1745822799.129,999.512,999.512,654.785,999.512
1745822799.133,144.531,-372.559,-778.809,192.871
1745822799.137,-1000.0,-1000.0,-1000.0,-1000.0
1745822799.141,-1000.0,-979.492,-755.859,-1000.0
1745822799.098,-1000.0,-1000.0,-1000.0,-1000.0
1745822799.102,-616.211,-545.41,-413.086,-655.273
1745822799.106,735.352,890.625,999.512,673.828
1745822799.11,999.512,948.73,465.82,999.512
1745822799.114,166.504,-422.363,-912.598,159.668
1745822799.118,-1000.0,-1000.0,-1000.0,-1000.0
1745822799.122,-850.586,-791.992,-460.938,-831.543
1745822799.125,494.141,595.703,991.699,509.277
1745822799.129,999.512,999.512,654.785,999.512
1745822799.133,144.531,-372.559,-778.809,192.871
1745822799.137,-1000.0,-1000.0,-1000.0,-1000.0
1745822799.141,-1000.0,-979.492,-755.859,-1000.0
1745822799.142,122.07,216.309,592.285,179.199
1745822799.146,999.512,999.512,938.965,999.512
1745822799.15,133.301,-77.148,-535.156,206.055
1745822799.154,-1000.0,-1000.0,-1000.0,-990.234
1745822799.158,-1000.0,-1000.0,-975.098,-1000.0
1745822799.162,-190.918,-2.441,162.109,-151.367
1745822799.166,999.512,999.512,999.512,999.512
1745822799.169,332.52,126.465,-253.906,393.555
1745822799.173,-964.355,-1000.0,-1000.0,-929.199
1745822799.177,-1000.0,-1000.0,-974.609,-1000.0
1745822799.181,-253.418,-233.398,33.203,-235.84
1745822799.185,999.512,999.512,999.512,999.512
1745822799.142,122.07,216.309,592.285,179.199
1745822799.146,999.512,999.512,938.965,999.512
1745822799.15,133.301,-77.148,-535.156,206.055
1745822799.154,-1000.0,-1000.0,-1000.0,-990.234
1745822799.158,-1000.0,-1000.0,-975.098,-1000.0
1745822799.162,-190.918,-2.441,162.109,-151.367
1745822799.166,999.512,999.512,999.512,999.512
1745822799.169,332.52,126.465,-253.906,393.555
1745822799.173,-964.355,-1000.0,-1000.0,-929.199
1745822799.177,-1000.0,-1000.0,-974.609,-1000.0
1745822799.181,-253.418,-233.398,33.203,-235.84
1745822799.185,999.512,999.512,999.512,999.512
1745822799.232,-1000.0,-1000.0,-1000.0,-1000.0
1745822799.236,-488.77,-451.172,-299.805,-438.477
1745822799.24,884.277,999.512,999.512,883.789
1745822799.244,999.512,592.285,260.254,999.512
1745822799.248,-242.676,-822.754,-997.559,-14.16
1745822799.252,-1000.0,-1000.0,-1000.0,-1000.0
1745822799.256,-677.734,-553.223,-435.059,-665.527
1745822799.259,732.422,978.516,999.512,721.191
1745822799.263,999.512,662.598,421.875,999.512
1745822799.267,-316.895,-809.57,-951.172,-95.215
1745822799.271,-1000.0,-1000.0,-1000.0,-1000.0
1745822799.275,-1000.0,-835.449,-634.766,-997.559
1745822799.232,-1000.0,-1000.0,-1000.0,-1000.0
1745822799.236,-488.77,-451.172,-299.805,-438.477
1745822799.24,884.277,999.512,999.512,883.789
1745822799.244,999.512,592.285,260.254,999.512
1745822799.248,-242.676,-822.754,-997.559,-14.16
1745822799.252,-1000.0,-1000.0,-1000.0,-1000.0
1745822799.256,-677.734,-553.223,-435.059,-665.527
1745822799.259,732.422,978.516,999.512,721.191
1745822799.263,999.512,662.598,421.875,999.512
1745822799.267,-316.895,-809.57,-951.172,-95.215
1745822799.271,-1000.0,-1000.0,-1000.0,-1000.0
1745822799.275,-1000.0,-835.449,-634.766,-997.559
1745822799.281,123.535,482.91,842.285,175.293
1745822799.285,999.512,999.512,720.703,999.512
1745822799.289,115.723,-201.66,-749.512,130.371
1745822799.293,-1000.0,-1000.0,-1000.0,-1000.0
1745822799.297,-1000.0,-1000.0,-710.449,-1000.0
1745822799.301,-31.25,161.621,632.324,-2.441
1745822799.305,999.512,999.512,951.66,999.512
1745822799.308,147.949,-113.77,-471.68,142.578
1745822799.312,-1000.0,-1000.0,-1000.0,-1000.0
1745822799.316,-1000.0,-1000.0,-769.531,-1000.0
1745822799.32,-136.719,-25.391,472.656,-150.391
1745822799.324,999.512,999.512,999.512,999.512
1745822799.281,123.535,482.91,842.285,175.293
1745822799.285,999.512,999.512,720.703,999.512
1745822799.289,115.723,-201.66,-749.512,130.371
1745822799.293,-1000.0,-1000.0,-1000.0,-1000.0
1745822799.297,-1000.0,-1000.0,-710.449,-1000.0
1745822799.301,-31.25,161.621,632.324,-2.441
1745822799.305,999.512,999.512,951.66,999.512
1745822799.308,147.949,-113.77,-471.68,142.578
1745822799.312,-1000.0,-1000.0,-1000.0,-1000.0
1745822799.316,-1000.0,-1000.0,-769.531,-1000.0
1745822799.32,-136.719,-25.391,472.656,-150.391
1745822799.324,999.512,999.512,999.512,999.512
1745822799.322,329.102,127.93,-147.949,371.582
1745822799.326,-958.984,-1000.0,-1000.0,-941.895
1745822799.33,-1000.0,-1000.0,-867.188,-1000.0
1745822799.334,-196.289,-212.402,305.176,-159.18
1745822799.338,991.699,999.512,999.512,976.074
1745822799.342,999.512,717.773,35.156,999.512
1745822799.346,-47.363,-604.004,-1000.0,149.902
1745822799.349,-1000.0,-1000.0,-1000.0,-1000.0
1745822799.353,-223.145,-222.656,30.273,-231.445
1745822799.357,999.512,999.512,999.512,999.512
1745822799.361,834.961,170.41,123.047,938.965
1745822799.365,-498.535,-1000.0,-1000.0,-298.828
1745822799.322,329.102,127.93,-147.949,371.582
1745822799.326,-958.984,-1000.0,-1000.0,-941.895
1745822799.33,-1000.0,-1000.0,-867.188,-1000.0
1745822799.334,-196.289,-212.402,305.176,-159.18
1745822799.338,991.699,999.512,999.512,976.074
1745822799.342,999.512,717.773,35.156,999.512
1745822799.346,-47.363,-604.004,-1000.0,149.902
1745822799.349,-1000.0,-1000.0,-1000.0,-1000.0
1745822799.353,-223.145,-222.656,30.273,-231.445
1745822799.357,999.512,999.512,999.512,999.512
1745822799.361,834.961,170.41,123.047,938.965
1745822799.365,-498.535,-1000.0,-1000.0,-298.828
1745822799.322,329.102,127.93,-147.949,371.582
1745822799.326,-958.984,-1000.0,-1000.0,-941.895
1745822799.33,-1000.0,-1000.0,-867.188,-1000.0
1745822799.334,-196.289,-212.402,305.176,-159.18
1745822799.338,991.699,999.512,999.512,976.074
1745822799.342,999.512,717.773,35.156,999.512
1745822799.346,-47.363,-604.004,-1000.0,149.902
1745822799.349,-1000.0,-1000.0,-1000.0,-1000.0
1745822799.353,-223.145,-222.656,30.273,-231.445
1745822799.357,999.512,999.512,999.512,999.512
1745822799.361,834.961,170.41,123.047,938.965
1745822799.365,-498.535,-1000.0,-1000.0,-298.828
1745822799.412,705.566,893.066,999.512,723.145
1745822799.416,999.512,841.797,424.805,999.512
1745822799.42,-93.262,-617.676,-955.078,133.301
1745822799.424,-1000.0,-1000.0,-1000.0,-1000.0
1745822799.428,-1000.0,-860.84,-648.926,-992.676
1745822799.432,133.789,380.859,819.824,246.582
1745822799.436,999.512,999.512,761.719,999.512
1745822799.439,182.129,77.148,-694.336,208.008
1745822799.443,-1000.0,-1000.0,-1000.0,-1000.0
1745822799.447,-807.617,-808.594,-349.121,-702.148
1745822799.451,619.141,536.621,944.824,741.699
1745822799.455,999.512,999.512,999.512,999.512
1745822799.412,705.566,893.066,999.512,723.145
1745822799.416,999.512,841.797,424.805,999.512
1745822799.42,-93.262,-617.676,-955.078,133.301
1745822799.424,-1000.0,-1000.0,-1000.0,-1000.0
1745822799.428,-1000.0,-860.84,-648.926,-992.676
1745822799.432,133.789,380.859,819.824,246.582
1745822799.436,999.512,999.512,761.719,999.512
1745822799.439,182.129,77.148,-694.336,208.008
1745822799.443,-1000.0,-1000.0,-1000.0,-1000.0
1745822799.447,-807.617,-808.594,-349.121,-702.148
1745822799.451,619.141,536.621,944.824,741.699
1745822799.455,999.512,999.512,999.512,999.512
1745822799.472,899.902,148.926,-187.5,905.273
1745822799.476,979.492,-1000.0,-1000.0,980.957
1745822799.48,979.492,-471.68,-336.426,966.797
1745822799.484,901.367,879.883,883.301,966.797
1745822799.488,999.512,999.512,999.512,967.285
1745822799.492,670.41,157.715,20.508,967.285
1745822799.496,-789.062,-1000.0,-1000.0,966.797
1745822799.499,-1000.0,-1000.0,-747.07,967.285
1745822799.503,316.895,48.34,504.395,967.285
1745822799.507,999.512,999.512,999.512,966.797
1745822799.511,603.516,134.277,82.031,966.797
1745822799.515,-723.633,-1000.0,-1000.0,967.285
1745822799.472,899.902,148.926,-187.5,905.273
1745822799.476,979.492,-1000.0,-1000.0,980.957
1745822799.48,979.492,-471.68,-336.426,966.797
1745822799.484,901.367,879.883,883.301,966.797
1745822799.488,999.512,999.512,999.512,967.285
1745822799.492,670.41,157.715,20.508,967.285
1745822799.496,-789.062,-1000.0,-1000.0,966.797
1745822799.499,-1000.0,-1000.0,-747.07,967.285
1745822799.503,316.895,48.34,504.395,967.285
1745822799.507,999.512,999.512,999.512,966.797
1745822799.511,603.516,134.277,82.031,966.797
1745822799.515,-723.633,-1000.0,-1000.0,967.285
1745822799.472,899.902,148.926,-187.5,905.273
1745822799.476,979.492,-1000.0,-1000.0,980.957
1745822799.48,979.492,-471.68,-336.426,966.797
1745822799.484,901.367,879.883,883.301,966.797
1745822799.488,999.512,999.512,999.512,967.285
1745822799.492,670.41,157.715,20.508,967.285
1745822799.496,-789.062,-1000.0,-1000.0,966.797
1745822799.499,-1000.0,-1000.0,-747.07,967.285
1745822799.503,316.895,48.34,504.395,967.285
1745822799.507,999.512,999.512,999.512,966.797
1745822799.511,603.516,134.277,82.031,966.797
1745822799.515,-723.633,-1000.0,-1000.0,967.285
1745822799.517,-1000.0,-1000.0,-958.008,967.285
1745822799.521,-60.059,-242.188,133.301,967.285
1745822799.525,999.512,999.512,999.512,966.797
1745822799.529,863.281,209.961,118.652,966.797
1745822799.533,-419.922,-1000.0,-1000.0,966.797
1745822799.537,-1000.0,-1000.0,-1000.0,966.797
1745822799.541,-146.484,-159.18,-82.031,966.797
1745822799.544,999.512,999.512,999.512,966.797
1745822799.548,927.246,260.742,192.383,967.285
1745822799.552,-321.289,-991.211,-1000.0,967.285
1745822799.556,-1000.0,-1000.0,-1000.0,967.285
1745822799.56,-150.879,-251.465,-59.082,966.797
1745822799.517,-1000.0,-1000.0,-958.008,967.285
1745822799.521,-60.059,-242.188,133.301,967.285
1745822799.525,999.512,999.512,999.512,966.797
1745822799.529,863.281,209.961,118.652,966.797
1745822799.533,-419.922,-1000.0,-1000.0,966.797
1745822799.537,-1000.0,-1000.0,-1000.0,966.797
1745822799.541,-146.484,-159.18,-82.031,966.797
1745822799.544,999.512,999.512,999.512,966.797
1745822799.548,927.246,260.742,192.383,967.285
1745822799.552,-321.289,-991.211,-1000.0,967.285
1745822799.556,-1000.0,-1000.0,-1000.0,967.285
1745822799.56,-150.879,-251.465,-59.082,966.797
1745822799.564,999.512,999.512,999.512,966.797
1745822799.568,872.559,621.582,380.371,966.797
1745822799.572,999.512,-726.562,-905.762,966.797
1745822799.576,284.18,-1000.0,-1000.0,967.285
1745822799.58,-174.805,-383.301,-200.195,967.285
1745822799.584,939.941,983.398,999.512,967.285
1745822799.588,999.512,868.164,591.797,966.797
1745822799.591,293.457,-513.672,-777.832,966.797
1745822799.595,-1000.0,-1000.0,-1000.0,966.797
1745822799.599,-217.773,-225.098,-243.652,966.797
1745822799.603,999.512,999.512,999.512,966.797
1745822799.607,999.512,999.512,750.977,966.797
1745822799.564,999.512,999.512,999.512,966.797
1745822799.568,872.559,621.582,380.371,966.797
1745822799.572,999.512,-726.562,-905.762,966.797
1745822799.576,284.18,-1000.0,-1000.0,967.285
1745822799.58,-174.805,-383.301,-200.195,967.285
1745822799.584,939.941,983.398,999.512,967.285
1745822799.588,999.512,868.164,591.797,966.797
1745822799.591,293.457,-513.672,-777.832,966.797
1745822799.595,-1000.0,-1000.0,-1000.0,966.797
1745822799.599,-217.773,-225.098,-243.652,966.797
1745822799.603,999.512,999.512,999.512,966.797
1745822799.607,999.512,999.512,750.977,966.797
1745822799.564,999.512,999.512,999.512,966.797
1745822799.568,872.559,621.582,380.371,966.797
1745822799.572,999.512,-726.562,-905.762,966.797
1745822799.576,284.18,-1000.0,-1000.0,967.285
1745822799.58,-174.805,-383.301,-200.195,967.285
1745822799.584,939.941,983.398,999.512,967.285
1745822799.588,999.512,868.164,591.797,966.797
1745822799.591,293.457,-513.672,-777.832,966.797
1745822799.595,-1000.0,-1000.0,-1000.0,966.797
1745822799.599,-217.773,-225.098,-243.652,966.797
1745822799.603,999.512,999.512,999.512,966.797
1745822799.607,999.512,999.512,750.977,966.797
1745822799.607,221.191,-227.539,-596.68,966.797
1745822799.611,-1000.0,-1000.0,-1000.0,966.797
1745822799.615,-873.535,-944.336,-597.168,966.797
1745822799.619,454.59,276.367,734.375,967.285
1745822799.623,999.512,999.512,979.004,967.285
1745822799.627,135.742,0.488,-383.301,966.797
1745822799.631,-1000.0,-1000.0,-1000.0,966.797
1745822799.634,-1000.0,-1000.0,-765.137,966.797
1745822799.638,-12.207,4.395,494.629,967.285
1745822799.642,999.512,999.512,999.512,966.797
1745822799.646,126.953,-24.902,-201.66,966.797
1745822799.65,-1000.0,-1000.0,-1000.0,966.797
1745822799.607,221.191,-227.539,-596.68,966.797
1745822799.611,-1000.0,-1000.0,-1000.0,966.797
1745822799.615,-873.535,-944.336,-597.168,966.797
1745822799.619,454.59,276.367,734.375,967.285
1745822799.623,999.512,999.512,979.004,967.285
1745822799.627,135.742,0.488,-383.301,966.797
1745822799.631,-1000.0,-1000.0,-1000.0,966.797
1745822799.634,-1000.0,-1000.0,-765.137,966.797
1745822799.638,-12.207,4.395,494.629,967.285
1745822799.642,999.512,999.512,999.512,966.797
1745822799.646,126.953,-24.902,-201.66,966.797
1745822799.65,-1000.0,-1000.0,-1000.0,966.797
1745822799.652,-1000.0,-1000.0,-974.121,966.797
1745822799.656,-257.324,-243.164,57.617,966.797
1745822799.66,999.512,999.512,999.512,966.797
1745822799.664,169.922,168.457,28.809,967.285
1745822799.668,-1000.0,-1000.0,-1000.0,966.797
1745822799.672,-1000.0,-1000.0,-1000.0,967.285
1745822799.676,-256.348,-225.098,-88.867,967.285
1745822799.679,999.512,999.512,999.512,966.797
1745822799.683,158.203,164.062,111.816,966.797
1745822799.687,-1000.0,-1000.0,-1000.0,967.285
1745822799.691,-1000.0,-1000.0,-1000.0,967.285
1745822799.695,-510.742,-307.129,-247.07,966.797
1745822799.697,999.512,999.512,999.512,966.797
1745822799.701,314.453,259.277,160.645,966.797
1745822799.705,-1000.0,-996.582,-1000.0,967.285
1745822799.709,-1000.0,-1000.0,-1000.0,967.285
1745822799.713,-837.402,-645.996,-463.379,972.656
1745822799.717,740.234,940.43,999.512,937.988
1745822799.721,571.777,589.355,275.391,950.684
1745822799.724,-955.078,-887.695,-1000.0,999.512
1745822799.728,-1000.0,-1000.0,-1000.0,-376.465
1745822799.732,-926.758,-716.797,-638.672,-770.02
1745822799.736,509.766,775.879,941.895,764.648
1745822799.74,871.094,829.59,481.445,999.512
1745822799.697,999.512,999.512,999.512,966.797
1745822799.701,314.453,259.277,160.645,966.797
1745822799.705,-1000.0,-996.582,-1000.0,967.285
1745822799.709,-1000.0,-1000.0,-1000.0,967.285
1745822799.713,-837.402,-645.996,-463.379,972.656
1745822799.717,740.234,940.43,999.512,937.988
1745822799.721,571.777,589.355,275.391,950.684
1745822799.724,-955.078,-887.695,-1000.0,999.512
1745822799.728,-1000.0,-1000.0,-1000.0,-376.465
1745822799.732,-926.758,-716.797,-638.672,-770.02
1745822799.736,509.766,775.879,941.895,764.648
1745822799.74,871.094,829.59,481.445,999.512
1745822799.742,-680.664,-661.133,-954.102,186.035
1745822799.746,-1000.0,-1000.0,-1000.0,-1000.0
1745822799.75,-884.766,-764.648,-543.945,-774.902
1745822799.754,341.797,542.969,899.902,672.363
1745822799.758,999.512,999.512,747.07,980.469
1745822799.762,72.266,-32.227,-691.895,999.512
1745822799.766,-1000.0,-1000.0,-1000.0,667.969
1745822799.769,-1000.0,-1000.0,-657.227,-710.938
1745822799.773,108.398,188.965,666.992,286.133
1745822799.777,999.512,999.512,998.047,999.512
1745822799.781,112.793,-45.41,-392.09,887.207
1745822799.785,-1000.0,-1000.0,-1000.0,999.512
1745822799.742,-680.664,-661.133,-954.102,186.035
1745822799.746,-1000.0,-1000.0,-1000.0,-1000.0
1745822799.75,-884.766,-764.648,-543.945,-774.902
1745822799.754,341.797,542.969,899.902,672.363
1745822799.758,999.512,999.512,747.07,980.469
1745822799.762,72.266,-32.227,-691.895,999.512
1745822799.766,-1000.0,-1000.0,-1000.0,667.969
1745822799.769,-1000.0,-1000.0,-657.227,-710.938
1745822799.773,108.398,188.965,666.992,286.133
1745822799.777,999.512,999.512,998.047,999.512
1745822799.781,112.793,-45.41,-392.09,887.207
1745822799.785,-1000.0,-1000.0,-1000.0,999.512
1745822799.788,-1000.0,-1000.0,-855.957,-238.77
1745822799.792,-124.023,-33.691,349.609,-135.742
1745822799.796,999.512,999.512,999.512,999.512
1745822799.8,140.137,85.938,-237.305,471.191
1745822799.804,-1000.0,-1000.0,-1000.0,-851.074
1745822799.808,-1000.0,-1000.0,-1000.0,-1000.0
1745822799.812,-257.324,-240.723,-166.016,-239.746
1745822799.815,999.512,999.512,931.152,999.512
1745822799.819,169.922,167.48,-462.891,547.363
1745822799.823,-1000.0,-1000.0,-1000.0,-833.496
1745822799.827,-1000.0,-1000.0,-1000.0,-1000.0
1745822799.831,-266.113,-258.789,-220.215,-221.68
1745822799.788,-1000.0,-1000.0,-855.957,-238.77
1745822799.792,-124.023,-33.691,349.609,-135.742
1745822799.796,999.512,999.512,999.512,999.512
1745822799.8,140.137,85.938,-237.305,471.191
1745822799.804,-1000.0,-1000.0,-1000.0,-851.074
1745822799.808,-1000.0,-1000.0,-1000.0,-1000.0
1745822799.812,-257.324,-240.723,-166.016,-239.746
1745822799.815,999.512,999.512,931.152,999.512
1745822799.819,169.922,167.48,-462.891,547.363
1745822799.823,-1000.0,-1000.0,-1000.0,-833.496
1745822799.827,-1000.0,-1000.0,-1000.0,-1000.0
1745822799.831,-266.113,-258.789,-220.215,-221.68
1745822799.847,999.512,999.512,999.512,999.512
1745822799.851,361.816,210.938,142.578,749.023
1745822799.855,-945.312,-1000.0,-1000.0,-591.309
1745822799.859,-1000.0,-1000.0,-1000.0,-1000.0
1745822799.863,-440.43,-339.844,-197.754,-305.176
1745822799.867,999.512,999.512,999.512,989.258
1745822799.871,607.91,367.188,143.066,958.496
1745822799.874,-816.895,-952.148,-1000.0,-303.711
1745822799.878,-1000.0,-1000.0,-1000.0,-1000.0
1745822799.882,-764.648,-557.129,-591.797,-699.707
1745822799.886,643.555,982.91,956.055,671.387
1745822799.89,999.512,663.086,123.535,999.512
1745822799.847,999.512,999.512,999.512,999.512
1745822799.851,361.816,210.938,142.578,749.023
1745822799.855,-945.312,-1000.0,-1000.0,-591.309
1745822799.859,-1000.0,-1000.0,-1000.0,-1000.0
1745822799.863,-440.43,-339.844,-197.754,-305.176
1745822799.867,999.512,999.512,999.512,989.258
1745822799.871,607.91,367.188,143.066,958.496
1745822799.874,-816.895,-952.148,-1000.0,-303.711
1745822799.878,-1000.0,-1000.0,-1000.0,-1000.0
1745822799.882,-764.648,-557.129,-591.797,-699.707
1745822799.886,643.555,982.91,956.055,671.387
1745822799.89,999.512,663.086,123.535,999.512
1745822799.892,-412.109,-793.945,-1000.0,-198.73
1745822799.896,-1000.0,-1000.0,-1000.0,-1000.0
1745822799.9,-995.605,-762.207,-764.16,-989.258
1745822799.904,289.551,699.707,838.867,307.129
1745822799.908,999.512,878.418,456.543,999.512
1745822799.912,-449.219,-625.488,-1000.0,-405.273
1745822799.916,-1000.0,-1000.0,-1000.0,-1000.0
1745822799.919,-1000.0,-925.293,-921.387,-1000.0
1745822799.923,-222.168,380.859,567.383,-216.797
1745822799.927,999.512,999.512,426.27,999.512
1745822799.931,-254.883,-380.371,-1000.0,-309.082
1745822799.935,-1000.0,-1000.0,-968.262,-1000.0
1745822799.892,-412.109,-793.945,-1000.0,-198.73
1745822799.896,-1000.0,-1000.0,-1000.0,-1000.0
1745822799.9,-995.605,-762.207,-764.16,-989.258
1745822799.904,289.551,699.707,838.867,307.129
1745822799.908,999.512,878.418,456.543,999.512
1745822799.912,-449.219,-625.488,-1000.0,-405.273
1745822799.916,-1000.0,-1000.0,-1000.0,-1000.0
1745822799.919,-1000.0,-925.293,-921.387,-1000.0
1745822799.923,-222.168,380.859,567.383,-216.797
1745822799.927,999.512,999.512,426.27,999.512
1745822799.931,-254.883,-380.371,-1000.0,-309.082
1745822799.935,-1000.0,-1000.0,-968.262,-1000.0
1745822799.937,-1000.0,-1000.0,-1000.0,-1000.0
1745822799.941,-269.531,-32.715,161.133,-373.047
1745822799.945,999.512,999.512,990.723,999.512
1745822799.949,27.832,7.324,-514.648,-55.664
1745822799.953,-1000.0,-1000.0,-1000.0,-1000.0
1745822799.957,-1000.0,-904.297,-924.805,-1000.0
1745822799.961,-267.09,295.898,219.238,-290.527
1745822799.964,999.512,999.512,999.512,999.512
1745822799.968,169.922,130.371,-298.828,157.227
1745822799.972,-1000.0,-1000.0,-1000.0,-1000.0
1745822799.976,-1000.0,-1000.0,-1000.0,-1000.0
1745822799.98,-261.719,-225.586,-96.68,-264.648
1745822799.937,-1000.0,-1000.0,-1000.0,-1000.0
1745822799.941,-269.531,-32.715,161.133,-373.047
1745822799.945,999.512,999.512,990.723,999.512
1745822799.949,27.832,7.324,-514.648,-55.664
1745822799.953,-1000.0,-1000.0,-1000.0,-1000.0
1745822799.957,-1000.0,-904.297,-924.805,-1000.0
1745822799.961,-267.09,295.898,219.238,-290.527
1745822799.964,999.512,999.512,999.512,999.512
1745822799.968,169.922,130.371,-298.828,157.227
1745822799.972,-1000.0,-1000.0,-1000.0,-1000.0
1745822799.976,-1000.0,-1000.0,-1000.0,-1000.0
1745822799.98,-261.719,-225.586,-96.68,-264.648
1745822799.982,999.512,999.512,999.512,999.512
1745822799.986,649.414,373.047,-62.5,614.746
1745822799.99,-744.141,-943.848,-1000.0,-782.227
1745822799.994,-1000.0,-1000.0,-1000.0,-1000.0
1745822799.998,-189.941,-240.234,-78.125,-192.383
1745822800.002,999.512,999.512,999.512,999.512
1745822800.006,978.027,336.914,118.164,960.938
1745822800.009,-230.957,-959.961,-1000.0,-244.629
1745822800.013,-1000.0,-1000.0,-1000.0,-1000.0
1745822800.017,-355.957,-357.91,-192.383,-358.887
1745822800.021,940.43,999.512,999.512,936.035
1745822800.025,999.512,390.137,169.922,999.512
1745822800.027,-111.328,-945.801,-1000.0,-88.867
1745822800.031,-1000.0,-1000.0,-1000.0,-1000.0
1745822800.035,-492.676,-509.766,-216.797,-486.816
1745822800.039,845.703,999.512,999.512,846.191
1745822800.043,999.512,584.473,355.469,999.512
1745822800.047,65.43,-846.191,-944.824,113.281
1745822800.051,-1000.0,-1000.0,-1000.0,-1000.0
1745822800.054,-635.742,-615.723,-198.242,-616.211
1745822800.058,731.934,851.562,999.512,756.836
1745822800.062,999.512,906.738,508.789,999.512
1745822800.066,165.039,-527.832,-846.191,170.41
1745822800.07,-1000.0,-1000.0,-1000.0,-1000.0
1745822800.073,-931.152,-843.75,-372.07,-915.527
1745822800.077,373.047,482.91,999.512,391.602
1745822800.081,999.512,999.512,775.879,999.512
1745822800.085,145.508,-251.953,-595.215,147.949
1745822800.089,-1000.0,-1000.0,-1000.0,-1000.0
1745822800.093,-1000.0,-857.91,-430.176,-1000.0
1745822800.097,134.277,393.066,907.715,149.902
1745822800.1,999.512,999.512,970.703,999.512
1745822800.104,107.422,-129.883,-373.047,118.652
1745822800.108,-1000.0,-1000.0,-1000.0,-1000.0
1745822800.112,-1000.0,-1000.0,-939.941,-1000.0
1745822800.116,-257.812,-184.57,226.074,-256.836
1745822800.073,-931.152,-843.75,-372.07,-915.527
1745822800.077,373.047,482.91,999.512,391.602
1745822800.081,999.512,999.512,775.879,999.512
1745822800.085,145.508,-251.953,-595.215,147.949
1745822800.089,-1000.0,-1000.0,-1000.0,-1000.0
1745822800.093,-1000.0,-857.91,-430.176,-1000.0
1745822800.097,134.277,393.066,907.715,149.902
1745822800.1,999.512,999.512,970.703,999.512
1745822800.104,107.422,-129.883,-373.047,118.652
1745822800.108,-1000.0,-1000.0,-1000.0,-1000.0
1745822800.112,-1000.0,-1000.0,-939.941,-1000.0
1745822800.116,-257.812,-184.57,226.074,-256.836
1745822800.132,999.512,999.512,999.512,999.512
1745822800.136,158.203,130.859,-324.707,157.227
1745822800.14,-1000.0,-1000.0,-1000.0,-1000.0
1745822800.144,-1000.0,-1000.0,-1000.0,-1000.0
1745822800.148,-507.324,-255.859,-192.383,-582.52
1745822800.152,999.512,999.512,999.512,999.512
1745822800.156,207.031,169.434,-304.688,218.75
1745822800.159,-1000.0,-1000.0,-1000.0,-1000.0
1745822800.163,-1000.0,-1000.0,-1000.0,-1000.0
1745822800.167,-407.227,-275.391,-288.086,-515.625
1745822800.171,999.512,999.512,999.512,999.512
1745822800.175,353.516,244.629,132.324,334.961
1745822800.132,999.512,999.512,999.512,999.512
1745822800.136,158.203,130.859,-324.707,157.227
1745822800.14,-1000.0,-1000.0,-1000.0,-1000.0
1745822800.144,-1000.0,-1000.0,-1000.0,-1000.0
1745822800.148,-507.324,-255.859,-192.383,-582.52
1745822800.152,999.512,999.512,999.512,999.512
1745822800.156,207.031,169.434,-304.688,218.75
1745822800.159,-1000.0,-1000.0,-1000.0,-1000.0
1745822800.163,-1000.0,-1000.0,-1000.0,-1000.0
1745822800.167,-407.227,-275.391,-288.086,-515.625
1745822800.171,999.512,999.512,999.512,999.512
1745822800.175,353.516,244.629,132.324,334.961
1745822800.642,-1000.0,-1000.0,-1000.0,-1000.0
1745822800.646,-1000.0,-1000.0,-998.047,-935.059
1745822800.65,-1000.0,-1000.0,-1000.0,-1000.0
1745822800.654,-1000.0,-1000.0,-1000.0,-1000.0
1745822800.658,-1000.0,-1000.0,-1000.0,-1000.0
1745822800.662,-1000.0,-1000.0,-1000.0,-1000.0
1745822800.666,-1000.0,-1000.0,-1000.0,-1000.0
1745822800.669,-1000.0,-1000.0,-1000.0,-1000.0
1745822800.673,-1000.0,-1000.0,-1000.0,-1000.0
1745822800.677,-1000.0,-1000.0,-1000.0,-1000.0
1745822800.681,-1000.0,-1000.0,-1000.0,-1000.0
1745822800.685,-1000.0,-1000.0,-1000.0,-1000.0
1745822800.162,-985.352,-1000.0,-1000.0,-1000.0
1745822800.166,-1000.0,-1000.0,-1000.0,-1000.0
1745822800.17,-231.445,-226.562,-140.625,-342.773
1745822800.174,997.07,999.512,999.512,978.516
1745822800.178,999.512,411.133,233.887,988.77
1745822800.182,-160.156,-930.664,-995.117,-263.672
1745822800.186,-1000.0,-1000.0,-892.09,-1000.0
1745822800.189,-164.551,-242.676,44.434,-193.848
1745822800.193,981.934,999.512,999.512,967.285
1745822800.197,999.512,603.027,387.207,999.512
1745822800.201,157.715,-761.719,-919.434,170.898
1745822800.205,-1000.0,-1000.0,-1000.0,-1000.0
1745822800.162,-985.352,-1000.0,-1000.0,-1000.0
1745822800.166,-1000.0,-1000.0,-1000.0,-1000.0
1745822800.17,-231.445,-226.562,-140.625,-342.773
1745822800.174,997.07,999.512,999.512,978.516
1745822800.178,999.512,411.133,233.887,988.77
1745822800.182,-160.156,-930.664,-995.117,-263.672
1745822800.186,-1000.0,-1000.0,-892.09,-1000.0
1745822800.189,-164.551,-242.676,44.434,-193.848
1745822800.193,981.934,999.512,999.512,967.285
1745822800.197,999.512,603.027,387.207,999.512
1745822800.201,157.715,-761.719,-919.434,170.898
1745822800.205,-1000.0,-1000.0,-1000.0,-1000.0
1745822800.239,-423.828,-519.531,-146.484,-378.418
1745822800.243,976.562,888.672,999.512,999.023
1745822800.247,896.484,985.84,666.016,905.762
1745822800.251,999.512,-348.145,-687.012,999.512
1745822800.255,379.395,-1000.0,-1000.0,610.84
1745822800.259,-651.367,-693.848,-121.582,-161.621
1745822800.263,645.508,686.035,999.512,830.078
1745822800.266,999.512,999.512,898.926,999.512
1745822800.27,188.965,-218.75,-343.262,908.691
1745822800.274,-1000.0,-1000.0,-1000.0,967.285
1745822800.278,-366.211,-373.047,-151.367,954.59
1745822800.282,999.512,904.785,975.098,969.727
1745822800.239,-423.828,-519.531,-146.484,-378.418
1745822800.243,976.562,888.672,999.512,999.023
1745822800.247,896.484,985.84,666.016,905.762
1745822800.251,999.512,-348.145,-687.012,999.512
1745822800.255,379.395,-1000.0,-1000.0,610.84
1745822800.259,-651.367,-693.848,-121.582,-161.621
1745822800.263,645.508,686.035,999.512,830.078
1745822800.266,999.512,999.512,898.926,999.512
1745822800.27,188.965,-218.75,-343.262,908.691
1745822800.274,-1000.0,-1000.0,-1000.0,967.285
1745822800.278,-366.211,-373.047,-151.367,954.59
1745822800.282,999.512,904.785,975.098,969.727
1745822800.266,969.727,999.512,999.512,966.309
1745822800.27,919.434,97.656,-80.566,966.797
1745822800.274,975.098,-1000.0,-340.82,966.797
1745822800.278,967.285,-268.066,657.715,967.285
1745822800.282,965.82,874.512,902.832,967.285
1745822800.286,966.309,999.512,999.512,966.797
1745822800.29,966.309,183.105,25.391,966.797
1745822800.293,966.309,-1000.0,-1000.0,967.285
1745822800.297,966.309,-899.902,-1000.0,966.797
1745822800.301,966.309,421.875,-77.637,966.797
1745822800.305,966.309,999.512,999.512,966.797
1745822800.309,966.309,723.633,-138.184,966.797
1745822800.266,969.727,999.512,999.512,966.309
1745822800.27,919.434,97.656,-80.566,966.797
1745822800.274,975.098,-1000.0,-340.82,966.797
1745822800.278,967.285,-268.066,657.715,967.285
1745822800.282,965.82,874.512,902.832,967.285
1745822800.286,966.309,999.512,999.512,966.797
1745822800.29,966.309,183.105,25.391,966.797
1745822800.293,966.309,-1000.0,-1000.0,967.285
1745822800.297,966.309,-899.902,-1000.0,966.797
1745822800.301,966.309,421.875,-77.637,966.797
1745822800.305,966.309,999.512,999.512,966.797
1745822800.309,966.309,723.633,-138.184,966.797
1745822800.266,969.727,999.512,999.512,966.309
1745822800.27,919.434,97.656,-80.566,966.797
1745822800.274,975.098,-1000.0,-340.82,966.797
1745822800.278,967.285,-268.066,657.715,967.285
1745822800.282,965.82,874.512,902.832,967.285
1745822800.286,966.309,999.512,999.512,966.797
1745822800.29,966.309,183.105,25.391,966.797
1745822800.293,966.309,-1000.0,-1000.0,967.285
1745822800.297,966.309,-899.902,-1000.0,966.797
1745822800.301,966.309,421.875,-77.637,966.797
1745822800.305,966.309,999.512,999.512,966.797
1745822800.309,966.309,723.633,-138.184,966.797
1745822800.312,966.797,914.551,-1000.0,966.797
1745822800.316,966.309,-49.316,-1000.0,966.797
1745822800.32,966.309,-177.734,-190.43,966.797
1745822800.324,966.309,999.512,999.512,966.797
1745822800.328,966.309,159.668,102.539,966.797
1745822800.332,966.309,-1000.0,-1000.0,966.797
1745822800.336,966.309,-1000.0,-1000.0,966.797
1745822800.339,966.309,-288.086,-405.762,966.797
1745822800.343,968.75,999.512,999.512,966.797
1745822800.347,892.09,296.875,180.664,966.797
1745822800.351,999.512,-976.074,-1000.0,967.285
1745822800.355,93.262,-1000.0,-1000.0,966.797
1745822800.312,966.797,914.551,-1000.0,966.797
1745822800.316,966.309,-49.316,-1000.0,966.797
1745822800.32,966.309,-177.734,-190.43,966.797
1745822800.324,966.309,999.512,999.512,966.797
1745822800.328,966.309,159.668,102.539,966.797
1745822800.332,966.309,-1000.0,-1000.0,966.797
1745822800.336,966.309,-1000.0,-1000.0,966.797
1745822800.339,966.309,-288.086,-405.762,966.797
1745822800.343,968.75,999.512,999.512,966.797
1745822800.347,892.09,296.875,180.664,966.797
1745822800.351,999.512,-976.074,-1000.0,967.285
1745822800.355,93.262,-1000.0,-1000.0,966.797
1745822800.358,-492.188,-488.281,-283.203,966.797
1745822800.362,984.863,999.512,998.047,967.285
1745822800.366,999.512,495.605,-186.035,966.797
1745822800.37,-339.844,-921.875,-1000.0,966.797
1745822800.374,-1000.0,-1000.0,-977.051,967.285
1745822800.378,-1000.0,-780.273,-974.121,967.285
1745822800.382,383.789,776.367,406.738,966.797
1745822800.385,828.125,616.211,150.879,966.797
1745822800.389,-782.715,-917.969,-1000.0,966.797
1745822800.393,-1000.0,-1000.0,-1000.0,967.285
1745822800.397,-1000.0,-922.852,-631.348,967.285
1745822800.401,36.133,374.512,824.707,966.797
1745822800.402,999.512,999.512,808.594,967.285
1745822800.406,-240.723,-238.281,-644.531,967.285
1745822800.41,-1000.0,-1000.0,-1000.0,966.797
1745822800.414,-1000.0,-592.285,-819.336,966.797
1745822800.418,-12.695,732.91,457.52,966.797
1745822800.422,999.512,999.512,999.512,966.797
1745822800.426,-17.578,-25.879,-337.402,967.285
1745822800.429,-1000.0,-1000.0,-1000.0,967.285
1745822800.433,-1000.0,-1000.0,-766.113,966.797
1745822800.437,-253.418,-117.676,455.078,966.797
1745822800.441,999.512,999.512,999.512,966.797
1745822800.445,97.168,69.336,-270.508,966.797
1745822800.447,-1000.0,-1000.0,-1000.0,966.797
1745822800.451,-1000.0,-1000.0,-1000.0,967.285
1745822800.455,-199.219,-205.078,-249.512,966.797
1745822800.459,999.512,999.512,999.512,966.797
1745822800.463,950.195,788.574,25.391,966.797
1745822800.467,939.453,716.309,-994.629,966.797
1745822800.471,973.145,999.512,-496.094,966.797
1745822800.474,966.309,900.879,477.051,966.797
1745822800.478,966.309,999.512,999.512,966.797
1745822800.482,966.309,227.539,98.633,966.797
1745822800.486,966.309,-1000.0,-992.676,967.285
1745822800.49,966.309,-1000.0,-1000.0,967.285
1745822800.447,-1000.0,-1000.0,-1000.0,966.797
1745822800.451,-1000.0,-1000.0,-1000.0,967.285
1745822800.455,-199.219,-205.078,-249.512,966.797
1745822800.459,999.512,999.512,999.512,966.797
1745822800.463,950.195,788.574,25.391,966.797
1745822800.467,939.453,716.309,-994.629,966.797
1745822800.471,973.145,999.512,-496.094,966.797
1745822800.474,966.309,900.879,477.051,966.797
1745822800.478,966.309,999.512,999.512,966.797
1745822800.482,966.309,227.539,98.633,966.797
1745822800.486,966.309,-1000.0,-992.676,967.285
1745822800.49,966.309,-1000.0,-1000.0,967.285
1745822800.507,966.309,-40.527,-279.297,966.797
1745822800.511,966.309,999.512,999.512,966.797
1745822800.515,966.309,446.777,195.801,966.797
1745822800.519,966.309,-934.082,-1000.0,967.285
1745822800.523,966.309,-975.586,-855.469,966.797
1745822800.527,966.309,273.926,86.914,966.797
1745822800.531,966.309,999.512,999.512,967.285
1745822800.534,966.309,999.512,441.406,966.797
1745822800.538,966.309,-22.461,-473.633,967.285
1745822800.542,966.309,-221.68,153.32,966.797
1745822800.546,966.309,999.512,593.262,966.797
1745822800.55,966.309,966.309,999.512,966.797
1745822800.507,966.309,-40.527,-279.297,966.797
1745822800.511,966.309,999.512,999.512,966.797
1745822800.515,966.309,446.777,195.801,966.797
1745822800.519,966.309,-934.082,-1000.0,967.285
1745822800.523,966.309,-975.586,-855.469,966.797
1745822800.527,966.309,273.926,86.914,966.797
1745822800.531,966.309,999.512,999.512,967.285
1745822800.534,966.309,999.512,441.406,966.797
1745822800.538,966.309,-22.461,-473.633,967.285
1745822800.542,966.309,-221.68,153.32,966.797
1745822800.546,966.309,999.512,593.262,966.797
1745822800.55,966.309,966.309,999.512,966.797
1745822800.537,966.309,999.512,316.406,967.285
1745822800.541,966.309,-453.613,-1000.0,967.285
1745822800.545,966.309,-344.727,59.082,966.797
1745822800.549,966.309,999.512,999.512,967.285
1745822800.553,966.309,883.789,956.055,966.797
1745822800.557,966.309,999.512,943.848,966.797
1745822800.561,966.309,255.371,463.379,966.797
1745822800.564,966.797,-1000.0,733.398,967.285
1745822800.568,971.68,-933.594,958.008,967.285
1745822800.572,897.949,390.137,999.023,966.797
1745822800.576,999.512,999.512,768.066,966.797
1745822800.58,271.484,-167.969,-629.883,966.797
1745822800.537,966.309,999.512,316.406,967.285
1745822800.541,966.309,-453.613,-1000.0,967.285
1745822800.545,966.309,-344.727,59.082,966.797
1745822800.549,966.309,999.512,999.512,967.285
1745822800.553,966.309,883.789,956.055,966.797
1745822800.557,966.309,999.512,943.848,966.797
1745822800.561,966.309,255.371,463.379,966.797
1745822800.564,966.797,-1000.0,733.398,967.285
1745822800.568,971.68,-933.594,958.008,967.285
1745822800.572,897.949,390.137,999.023,966.797
1745822800.576,999.512,999.512,768.066,966.797
1745822800.58,271.484,-167.969,-629.883,966.797
1745822800.598,-961.914,-1000.0,-1000.0,967.285
1745822800.602,-1000.0,-1000.0,-1000.0,966.797
1745822800.606,-455.078,-280.273,-36.133,966.797
1745822800.61,999.512,999.512,999.512,967.285
1745822800.614,56.641,-113.281,-229.004,966.797
1745822800.618,-1000.0,-1000.0,-1000.0,966.797
1745822800.622,-950.195,-940.43,-1000.0,967.285
1745822800.625,-984.375,-993.652,-98.633,976.562
1745822800.629,-1000.0,-1000.0,539.551,929.688
1745822800.633,-1000.0,-1000.0,-927.734,975.586
1745822800.637,-1000.0,-1000.0,-1000.0,966.309
1745822800.641,-1000.0,-1000.0,-944.336,-350.586
1745822800.598,-961.914,-1000.0,-1000.0,967.285
1745822800.602,-1000.0,-1000.0,-1000.0,966.797
1745822800.606,-455.078,-280.273,-36.133,966.797
1745822800.61,999.512,999.512,999.512,967.285
1745822800.614,56.641,-113.281,-229.004,966.797
1745822800.618,-1000.0,-1000.0,-1000.0,966.797
1745822800.622,-950.195,-940.43,-1000.0,967.285
1745822800.625,-984.375,-993.652,-98.633,976.562
1745822800.629,-1000.0,-1000.0,539.551,929.688
1745822800.633,-1000.0,-1000.0,-927.734,975.586
1745822800.637,-1000.0,-1000.0,-1000.0,966.309
1745822800.641,-1000.0,-1000.0,-944.336,-350.586
1745822800.687,-1000.0,-1000.0,-1000.0,-1000.0
1745822800.691,-1000.0,-1000.0,-1000.0,-1000.0
1745822800.695,-1000.0,-1000.0,-1000.0,-1000.0
1745822800.699,-1000.0,-1000.0,-1000.0,-1000.0
1745822800.703,-1000.0,-1000.0,-1000.0,-1000.0
1745822800.707,-1000.0,-1000.0,-1000.0,-1000.0
1745822800.711,-1000.0,-1000.0,-999.512,-1000.0
1745822800.714,-1000.0,-1000.0,-1000.0,-1000.0
1745822800.718,-1000.0,-1000.0,-998.047,-1000.0
1745822800.722,-1000.0,-1000.0,-987.793,-1000.0
1745822800.726,-1000.0,-1000.0,-999.023,-1000.0
1745822800.73,-1000.0,-1000.0,-1000.0,-1000.0
1745822800.687,-1000.0,-1000.0,-1000.0,-1000.0
1745822800.691,-1000.0,-1000.0,-1000.0,-1000.0
1745822800.695,-1000.0,-1000.0,-1000.0,-1000.0
1745822800.699,-1000.0,-1000.0,-1000.0,-1000.0
1745822800.703,-1000.0,-1000.0,-1000.0,-1000.0
1745822800.707,-1000.0,-1000.0,-1000.0,-1000.0
1745822800.711,-1000.0,-1000.0,-999.512,-1000.0
1745822800.714,-1000.0,-1000.0,-1000.0,-1000.0
1745822800.718,-1000.0,-1000.0,-998.047,-1000.0
1745822800.722,-1000.0,-1000.0,-987.793,-1000.0
1745822800.726,-1000.0,-1000.0,-999.023,-1000.0
1745822800.73,-1000.0,-1000.0,-1000.0,-1000.0
1745822800.732,-1000.0,-1000.0,-931.152,-1000.0
1745822800.736,-1000.0,-1000.0,-1000.0,-1000.0
1745822800.74,-1000.0,-1000.0,-231.445,-1000.0
1745822800.744,-1000.0,-930.664,648.926,-1000.0
1745822800.748,-1000.0,-1000.0,-696.777,-1000.0
1745822800.752,-1000.0,-349.609,43.945,-1000.0
1745822800.756,-1000.0,990.234,999.512,-1000.0
1745822800.759,-1000.0,972.656,909.18,-1000.0
1745822800.763,-1000.0,929.688,974.609,-1000.0
1745822800.767,-1000.0,977.539,888.184,-1000.0
1745822800.771,-1000.0,967.285,898.926,-1000.0
1745822800.775,-1000.0,967.285,983.887,-1000.0
1745822800.732,-1000.0,-1000.0,-931.152,-1000.0
1745822800.736,-1000.0,-1000.0,-1000.0,-1000.0
1745822800.74,-1000.0,-1000.0,-231.445,-1000.0
1745822800.744,-1000.0,-930.664,648.926,-1000.0
1745822800.748,-1000.0,-1000.0,-696.777,-1000.0
1745822800.752,-1000.0,-349.609,43.945,-1000.0
1745822800.756,-1000.0,990.234,999.512,-1000.0
1745822800.759,-1000.0,972.656,909.18,-1000.0
1745822800.763,-1000.0,929.688,974.609,-1000.0
1745822800.767,-1000.0,977.539,888.184,-1000.0
1745822800.771,-1000.0,967.285,898.926,-1000.0
1745822800.775,-1000.0,967.285,983.887,-1000.0
1745822800.777,-1000.0,967.285,960.938,-1000.0
1745822800.781,-1000.0,967.285,970.703,-1000.0
1745822800.785,-1000.0,967.285,955.566,-1000.0
1745822800.789,-961.426,967.285,952.148,-1000.0
1745822800.793,-1000.0,967.285,971.68,-1000.0
1745822800.797,-983.398,967.285,907.715,-1000.0
1745822800.801,342.285,967.285,999.512,-1000.0
1745822800.804,999.512,967.285,128.906,-1000.0
1745822800.808,900.879,967.285,-150.391,-1000.0
1745822800.812,972.656,967.285,999.512,-1000.0
1745822800.816,966.797,967.285,902.344,-1000.0
1745822800.82,966.309,967.285,999.512,-1000.0
1745822800.852,966.309,967.285,101.074,-1000.0
1745822800.856,966.797,967.285,-223.145,-1000.0
1745822800.86,966.309,967.285,802.246,-1000.0
1745822800.864,966.309,967.285,670.898,-1000.0
1745822800.868,966.309,966.797,928.711,-1000.0
1745822800.872,966.309,967.285,-58.105,-1000.0
1745822800.876,966.309,967.285,-1000.0,-1000.0
1745822800.879,966.309,967.285,-1000.0,-938.965
1745822800.883,966.309,972.656,-680.664,-1000.0
1745822800.887,966.309,942.383,500.977,-270.996
1745822800.891,966.309,946.289,-161.133,999.512
1745822800.895,966.309,999.512,-1000.0,301.27
1745822800.852,966.309,967.285,101.074,-1000.0
1745822800.856,966.797,967.285,-223.145,-1000.0
1745822800.86,966.309,967.285,802.246,-1000.0
1745822800.864,966.309,967.285,670.898,-1000.0
1745822800.868,966.309,966.797,928.711,-1000.0
1745822800.872,966.309,967.285,-58.105,-1000.0
1745822800.876,966.309,967.285,-1000.0,-1000.0
1745822800.879,966.309,967.285,-1000.0,-938.965
1745822800.883,966.309,972.656,-680.664,-1000.0
1745822800.887,966.309,942.383,500.977,-270.996
1745822800.891,966.309,946.289,-161.133,999.512
1745822800.895,966.309,999.512,-1000.0,301.27
1745822800.867,966.309,-332.031,-1000.0,-1000.0
1745822800.871,966.797,-388.184,-692.871,-413.086
1745822800.875,966.309,999.512,466.309,985.84
1745822800.879,966.309,999.512,-287.109,978.516
1745822800.883,966.309,286.133,-1000.0,923.34
1745822800.887,966.309,-1000.0,-929.688,979.492
1745822800.891,966.309,-519.043,-1000.0,967.285
1745822800.894,966.309,871.094,-45.898,966.797
1745822800.898,966.309,999.512,-210.449,966.797
1745822800.902,966.309,-50.293,-1000.0,966.797
1745822800.906,966.309,-1000.0,-874.512,966.797
1745822800.91,966.309,-1000.0,-1000.0,966.797
1745822801.392,-1000.0,-1000.0,-563.477,-1000.0
1745822801.396,-1000.0,-1000.0,-1000.0,-1000.0
1745822801.4,-1000.0,-1000.0,-834.473,-1000.0
1745822801.404,-1000.0,-1000.0,310.059,-1000.0
1745822801.408,-1000.0,-1000.0,999.512,-1000.0
1745822801.412,-1000.0,-1000.0,1.465,-1000.0
1745822801.416,-1000.0,-1000.0,-1000.0,-1000.0
1745822801.419,-1000.0,-1000.0,-1000.0,-1000.0
1745822801.423,-1000.0,-1000.0,-153.32,-1000.0
1745822801.427,-1000.0,-1000.0,999.512,-1000.0
1745822801.431,-1000.0,-1000.0,-109.863,-1000.0
1745822801.435,-1000.0,-1000.0,-1000.0,-1000.0
1745822800.867,966.309,-332.031,-1000.0,-1000.0
1745822800.871,966.797,-388.184,-692.871,-413.086
1745822800.875,966.309,999.512,466.309,985.84
1745822800.879,966.309,999.512,-287.109,978.516
1745822800.883,966.309,286.133,-1000.0,923.34
1745822800.887,966.309,-1000.0,-929.688,979.492
1745822800.891,966.309,-519.043,-1000.0,967.285
1745822800.894,966.309,871.094,-45.898,966.797
1745822800.898,966.309,999.512,-210.449,966.797
1745822800.902,966.309,-50.293,-1000.0,966.797
1745822800.906,966.309,-1000.0,-874.512,966.797
1745822800.91,966.309,-1000.0,-1000.0,966.797
1745822800.867,966.309,-332.031,-1000.0,-1000.0
1745822800.871,966.797,-388.184,-692.871,-413.086
1745822800.875,966.309,999.512,466.309,985.84
1745822800.879,966.309,999.512,-287.109,978.516
1745822800.883,966.309,286.133,-1000.0,923.34
1745822800.887,966.309,-1000.0,-929.688,979.492
1745822800.891,966.309,-519.043,-1000.0,967.285
1745822800.894,966.309,871.094,-45.898,966.797
1745822800.898,966.309,999.512,-210.449,966.797
1745822800.902,966.309,-50.293,-1000.0,966.797
1745822800.906,966.309,-1000.0,-874.512,966.797
1745822800.91,966.309,-1000.0,-1000.0,966.797
1745822800.913,966.309,-33.691,-53.711,967.285
1745822800.917,966.309,999.512,-50.293,967.285
1745822800.921,966.309,176.758,-1000.0,966.797
1745822800.925,966.309,-1000.0,-822.754,966.797
1745822800.929,966.309,-1000.0,-162.598,966.797
1745822800.933,966.309,181.152,820.312,966.797
1745822800.937,966.309,999.512,999.512,966.797
1745822800.94,966.309,144.043,151.855,966.797
1745822800.944,966.309,-1000.0,13.184,966.797
1745822800.948,966.309,-1000.0,999.512,966.797
1745822800.952,966.309,-205.078,888.672,966.797
1745822800.956,966.309,999.512,999.512,966.797
1745822800.913,966.309,-33.691,-53.711,967.285
1745822800.917,966.309,999.512,-50.293,967.285
1745822800.921,966.309,176.758,-1000.0,966.797
1745822800.925,966.309,-1000.0,-822.754,966.797
1745822800.929,966.309,-1000.0,-162.598,966.797
1745822800.933,966.309,181.152,820.312,966.797
1745822800.937,966.309,999.512,999.512,966.797
1745822800.94,966.309,144.043,151.855,966.797
1745822800.944,966.309,-1000.0,13.184,966.797
1745822800.948,966.309,-1000.0,999.512,966.797
1745822800.952,966.309,-205.078,888.672,966.797
1745822800.956,966.309,999.512,999.512,966.797
1745822800.913,966.309,-33.691,-53.711,967.285
1745822800.917,966.309,999.512,-50.293,967.285
1745822800.921,966.309,176.758,-1000.0,966.797
1745822800.925,966.309,-1000.0,-822.754,966.797
1745822800.929,966.309,-1000.0,-162.598,966.797
1745822800.933,966.309,181.152,820.312,966.797
1745822800.937,966.309,999.512,999.512,966.797
1745822800.94,966.309,144.043,151.855,966.797
1745822800.944,966.309,-1000.0,13.184,966.797
1745822800.948,966.309,-1000.0,999.512,966.797
1745822800.952,966.309,-205.078,888.672,966.797
1745822800.956,966.309,999.512,999.512,966.797
1745822800.972,966.309,300.293,202.637,967.285
1745822800.976,966.309,-979.004,-188.965,966.797
1745822800.98,966.309,-1000.0,999.512,966.797
1745822800.984,966.309,-189.941,901.367,966.797
1745822800.988,966.309,999.512,999.512,966.797
1745822800.992,966.309,511.23,366.211,966.797
1745822800.996,966.309,-832.52,-365.723,967.285
1745822800.999,966.309,-1000.0,341.309,967.285
1745822801.003,966.309,-495.605,602.051,966.797
1745822801.007,966.309,999.512,999.512,966.797
1745822801.011,966.309,696.777,441.406,967.285
1745822801.015,966.309,-759.766,-793.945,966.797
1745822800.972,966.309,300.293,202.637,967.285
1745822800.976,966.309,-979.004,-188.965,966.797
1745822800.98,966.309,-1000.0,999.512,966.797
1745822800.984,966.309,-189.941,901.367,966.797
1745822800.988,966.309,999.512,999.512,966.797
1745822800.992,966.309,511.23,366.211,966.797
1745822800.996,966.309,-832.52,-365.723,967.285
1745822800.999,966.309,-1000.0,341.309,967.285
1745822801.003,966.309,-495.605,602.051,966.797
1745822801.007,966.309,999.512,999.512,966.797
1745822801.011,966.309,696.777,441.406,967.285
1745822801.015,966.309,-759.766,-793.945,966.797
1745822801.017,966.309,-1000.0,-906.738,967.285
1745822801.021,966.309,-184.082,1.953,967.285
1745822801.025,966.309,999.512,999.512,966.797
1745822801.029,966.309,999.512,571.777,966.797
1745822801.033,966.309,-352.539,-582.031,966.797
1745822801.037,966.309,-316.406,-872.07,966.797
1745822801.041,966.309,999.512,-152.832,966.797
1745822801.044,966.309,917.969,999.512,966.797
1745822801.048,966.309,999.512,775.391,966.797
1745822801.052,966.309,-254.395,-434.082,966.797
1745822801.056,966.309,-409.18,-427.246,966.797
1745822801.06,965.82,999.512,324.707,966.797
1745822801.017,966.309,-1000.0,-906.738,967.285
1745822801.021,966.309,-184.082,1.953,967.285
1745822801.025,966.309,999.512,999.512,966.797
1745822801.029,966.309,999.512,571.777,966.797
1745822801.033,966.309,-352.539,-582.031,966.797
1745822801.037,966.309,-316.406,-872.07,966.797
1745822801.041,966.309,999.512,-152.832,966.797
1745822801.044,966.309,917.969,999.512,966.797
1745822801.048,966.309,999.512,775.391,966.797
1745822801.052,966.309,-254.395,-434.082,966.797
1745822801.056,966.309,-409.18,-427.246,966.797
1745822801.06,965.82,999.512,324.707,966.797
1745822801.062,966.309,969.727,958.984,967.285
1745822801.066,966.309,915.039,972.656,966.797
1745822801.07,966.309,815.43,-268.555,966.797
1745822801.074,966.309,529.297,-1000.0,967.285
1745822801.078,966.309,-499.023,-874.023,967.285
1745822801.082,966.309,204.59,369.141,966.797
1745822801.086,966.309,999.512,624.512,966.797
1745822801.089,966.309,165.039,-811.523,967.285
1745822801.093,966.309,-1000.0,-897.949,967.285
1745822801.097,966.309,-744.141,-216.797,967.285
1745822801.101,966.309,570.312,738.77,966.797
1745822801.105,966.309,999.512,999.512,966.797
1745822801.062,966.309,969.727,958.984,967.285
1745822801.066,966.309,915.039,972.656,966.797
1745822801.07,966.309,815.43,-268.555,966.797
1745822801.074,966.309,529.297,-1000.0,967.285
1745822801.078,966.309,-499.023,-874.023,967.285
1745822801.082,966.309,204.59,369.141,966.797
1745822801.086,966.309,999.512,624.512,966.797
1745822801.089,966.309,165.039,-811.523,967.285
1745822801.093,966.309,-1000.0,-897.949,967.285
1745822801.097,966.309,-744.141,-216.797,967.285
1745822801.101,966.309,570.312,738.77,966.797
1745822801.105,966.309,999.512,999.512,966.797
1745822801.107,966.309,45.41,46.875,967.285
1745822801.111,966.309,-825.195,-898.926,966.797
1745822801.115,966.309,679.199,-792.969,966.797
1745822801.119,966.309,999.512,193.359,966.797
1745822801.123,966.309,905.762,938.477,966.797
1745822801.127,966.309,887.695,-493.164,966.797
1745822801.131,966.309,999.512,-1000.0,966.797
1745822801.134,966.309,45.898,-1000.0,966.797
1745822801.138,966.309,-470.703,-328.125,966.797
1745822801.142,966.309,999.512,999.512,966.797
1745822801.146,966.309,941.406,24.902,967.285
1745822801.15,966.309,-394.531,-859.375,967.285
1745822801.107,966.309,45.41,46.875,967.285
1745822801.111,966.309,-825.195,-898.926,966.797
1745822801.115,966.309,679.199,-792.969,966.797
1745822801.119,966.309,999.512,193.359,966.797
1745822801.123,966.309,905.762,938.477,966.797
1745822801.127,966.309,887.695,-493.164,966.797
1745822801.131,966.309,999.512,-1000.0,966.797
1745822801.134,966.309,45.898,-1000.0,966.797
1745822801.138,966.309,-470.703,-328.125,966.797
1745822801.142,966.309,999.512,999.512,966.797
1745822801.146,966.309,941.406,24.902,967.285
1745822801.15,966.309,-394.531,-859.375,967.285
1745822801.154,966.309,-1000.0,-786.621,966.797
1745822801.158,966.309,-65.918,-478.027,966.797
1745822801.162,966.309,981.445,863.281,966.797
1745822801.166,966.309,999.512,10.254,966.797
1745822801.17,966.309,37.109,-1000.0,966.797
1745822801.174,966.309,-809.082,-1000.0,966.797
1745822801.178,966.309,693.848,-884.766,966.797
1745822801.181,966.309,999.512,293.945,966.797
1745822801.185,966.309,900.391,-31.738,966.797
1745822801.189,966.309,979.98,-891.113,967.285
1745822801.193,966.309,967.285,-818.848,966.797
1745822801.197,966.309,967.285,-99.609,966.797
1745822801.198,966.309,967.285,999.512,967.285
1745822801.202,966.309,966.797,785.645,966.797
1745822801.206,966.309,967.285,-4.883,966.797
1745822801.21,966.309,967.285,663.574,966.797
1745822801.214,966.309,966.797,999.512,966.797
1745822801.218,966.309,966.797,909.18,966.797
1745822801.222,966.309,966.797,979.492,966.797
1745822801.225,966.309,966.797,966.797,966.797
1745822801.229,966.309,966.797,966.797,966.797
1745822801.233,966.309,966.797,966.309,966.797
1745822801.237,966.309,967.285,967.773,966.797
1745822801.241,966.309,966.797,968.262,966.797
1745822801.242,966.309,966.797,947.266,966.797
1745822801.246,966.309,967.285,956.543,966.797
1745822801.25,966.309,967.285,970.703,967.285
1745822801.254,966.309,966.797,971.68,966.797
1745822801.258,966.309,967.285,911.621,966.797
1745822801.262,966.309,967.285,999.512,967.285
1745822801.266,966.309,967.285,519.531,966.797
1745822801.269,966.309,976.074,-793.945,967.285
1745822801.273,966.309,930.664,-981.445,967.285
1745822801.277,966.309,974.609,-915.039,966.797
1745822801.281,966.309,952.148,-1000.0,967.285
1745822801.285,966.309,-288.086,-993.164,967.285
1745822801.242,966.309,966.797,947.266,966.797
1745822801.246,966.309,967.285,956.543,966.797
1745822801.25,966.309,967.285,970.703,967.285
1745822801.254,966.309,966.797,971.68,966.797
1745822801.258,966.309,967.285,911.621,966.797
1745822801.262,966.309,967.285,999.512,967.285
1745822801.266,966.309,967.285,519.531,966.797
1745822801.269,966.309,976.074,-793.945,967.285
1745822801.273,966.309,930.664,-981.445,967.285
1745822801.277,966.309,974.609,-915.039,966.797
1745822801.281,966.309,952.148,-1000.0,967.285
1745822801.285,966.309,-288.086,-993.164,967.285
1745822801.287,966.309,-1000.0,-1000.0,966.797
1745822801.291,966.309,-824.707,-974.609,966.797
1745822801.295,966.309,696.777,-956.543,966.797
1745822801.299,966.309,285.645,-1000.0,966.797
1745822801.303,966.309,-1000.0,-1000.0,967.285
1745822801.307,979.98,-973.145,-998.535,967.285
1745822801.311,892.09,-973.145,-1000.0,967.285
1745822801.314,999.512,-1000.0,-1000.0,966.797
1745822801.318,485.84,-1000.0,-1000.0,967.285
1745822801.322,-937.988,-1000.0,-974.609,966.797
1745822801.326,-1000.0,-1000.0,-1000.0,966.797
1745822801.33,-948.73,-1000.0,-1000.0,966.797
1745822801.287,966.309,-1000.0,-1000.0,966.797
1745822801.291,966.309,-824.707,-974.609,966.797
1745822801.295,966.309,696.777,-956.543,966.797
1745822801.299,966.309,285.645,-1000.0,966.797
1745822801.303,966.309,-1000.0,-1000.0,967.285
1745822801.307,979.98,-973.145,-998.535,967.285
1745822801.311,892.09,-973.145,-1000.0,967.285
1745822801.314,999.512,-1000.0,-1000.0,966.797
1745822801.318,485.84,-1000.0,-1000.0,967.285
1745822801.322,-937.988,-1000.0,-974.609,966.797
1745822801.326,-1000.0,-1000.0,-1000.0,966.797
1745822801.33,-948.73,-1000.0,-1000.0,966.797
1745822801.347,-1000.0,-1000.0,-46.875,966.797
1745822801.351,-1000.0,-1000.0,-177.734,966.797
1745822801.355,-1000.0,-1000.0,-1000.0,966.797
1745822801.359,-1000.0,-1000.0,-978.027,973.145
1745822801.363,-1000.0,-1000.0,-988.281,940.918
1745822801.367,-1000.0,-1000.0,-1000.0,949.707
1745822801.371,-1000.0,-1000.0,-1000.0,999.512
1745822801.374,-1000.0,-1000.0,-997.07,-205.078
1745822801.378,-1000.0,-1000.0,-934.082,-1000.0
1745822801.382,-1000.0,-1000.0,-1000.0,-940.918
1745822801.386,-1000.0,-1000.0,-111.328,-999.512
1745822801.39,-1000.0,-1000.0,836.426,-1000.0
1745822801.347,-1000.0,-1000.0,-46.875,966.797
1745822801.351,-1000.0,-1000.0,-177.734,966.797
1745822801.355,-1000.0,-1000.0,-1000.0,966.797
1745822801.359,-1000.0,-1000.0,-978.027,973.145
1745822801.363,-1000.0,-1000.0,-988.281,940.918
1745822801.367,-1000.0,-1000.0,-1000.0,949.707
1745822801.371,-1000.0,-1000.0,-1000.0,999.512
1745822801.374,-1000.0,-1000.0,-997.07,-205.078
1745822801.378,-1000.0,-1000.0,-934.082,-1000.0
1745822801.382,-1000.0,-1000.0,-1000.0,-940.918
1745822801.386,-1000.0,-1000.0,-111.328,-999.512
1745822801.39,-1000.0,-1000.0,836.426,-1000.0
1745822801.857,-1000.0,-1000.0,-1000.0,966.797
1745822801.861,-943.848,-1000.0,-901.855,966.797
1745822801.865,-1000.0,-1000.0,-877.441,966.797
1745822801.869,-1000.0,-1000.0,-1000.0,966.797
1745822801.873,-1000.0,-1000.0,-998.047,967.285
1745822801.877,-1000.0,-1000.0,-998.047,970.215
1745822801.881,-1000.0,-1000.0,-1000.0,901.367
1745822801.884,-1000.0,-1000.0,-1000.0,999.512
1745822801.888,-1000.0,-1000.0,-1000.0,231.934
1745822801.892,-1000.0,-1000.0,-980.469,-1000.0
1745822801.896,-1000.0,-1000.0,-1000.0,-991.211
1745822801.9,-1000.0,-1000.0,-844.238,-969.727
1745822801.438,-1000.0,-1000.0,-1000.0,-1000.0
1745822801.442,-1000.0,-1000.0,-741.211,-1000.0
1745822801.446,-1000.0,-1000.0,-528.32,-1000.0
1745822801.45,-1000.0,-1000.0,-999.512,-1000.0
1745822801.454,-1000.0,-1000.0,-1000.0,-1000.0
1745822801.458,-1000.0,-1000.0,-980.957,-1000.0
1745822801.462,-1000.0,-1000.0,-1000.0,-1000.0
1745822801.465,-1000.0,-1000.0,-1000.0,-1000.0
1745822801.469,-1000.0,-1000.0,-1000.0,-1000.0
1745822801.473,-1000.0,-1000.0,-1000.0,-1000.0
1745822801.477,-1000.0,-1000.0,-1000.0,-1000.0
1745822801.481,-1000.0,-1000.0,-1000.0,-1000.0
1745822801.438,-1000.0,-1000.0,-1000.0,-1000.0
1745822801.442,-1000.0,-1000.0,-741.211,-1000.0
1745822801.446,-1000.0,-1000.0,-528.32,-1000.0
1745822801.45,-1000.0,-1000.0,-999.512,-1000.0
1745822801.454,-1000.0,-1000.0,-1000.0,-1000.0
1745822801.458,-1000.0,-1000.0,-980.957,-1000.0
1745822801.462,-1000.0,-1000.0,-1000.0,-1000.0
1745822801.465,-1000.0,-1000.0,-1000.0,-1000.0
1745822801.469,-1000.0,-1000.0,-1000.0,-1000.0
1745822801.473,-1000.0,-1000.0,-1000.0,-1000.0
1745822801.477,-1000.0,-1000.0,-1000.0,-1000.0
1745822801.481,-1000.0,-1000.0,-1000.0,-1000.0
1745822801.498,-1000.0,-1000.0,-1000.0,-1000.0
1745822801.502,-1000.0,-1000.0,-976.562,-1000.0
1745822801.506,-1000.0,-1000.0,-989.746,-1000.0
1745822801.51,-1000.0,-1000.0,-998.047,-1000.0
1745822801.514,-1000.0,-1000.0,128.906,-1000.0
1745822801.518,-1000.0,-1000.0,999.512,-1000.0
1745822801.522,-1000.0,-1000.0,833.984,-1000.0
1745822801.525,-1000.0,-1000.0,882.812,-1000.0
1745822801.529,-1000.0,-929.688,666.992,-1000.0
1745822801.533,-1000.0,-1000.0,427.246,-1000.0
1745822801.537,-1000.0,-371.582,961.914,-1000.0
1745822801.541,-1000.0,980.469,989.746,-1000.0
1745822801.498,-1000.0,-1000.0,-1000.0,-1000.0
1745822801.502,-1000.0,-1000.0,-976.562,-1000.0
1745822801.506,-1000.0,-1000.0,-989.746,-1000.0
1745822801.51,-1000.0,-1000.0,-998.047,-1000.0
1745822801.514,-1000.0,-1000.0,128.906,-1000.0
1745822801.518,-1000.0,-1000.0,999.512,-1000.0
1745822801.522,-1000.0,-1000.0,833.984,-1000.0
1745822801.525,-1000.0,-1000.0,882.812,-1000.0
1745822801.529,-1000.0,-929.688,666.992,-1000.0
1745822801.533,-1000.0,-1000.0,427.246,-1000.0
1745822801.537,-1000.0,-371.582,961.914,-1000.0
1745822801.541,-1000.0,980.469,989.746,-1000.0
1745822801.527,-1000.0,976.562,928.223,-1000.0
1745822801.531,-1000.0,927.734,965.82,-1000.0
1745822801.535,-1000.0,978.516,970.215,-1000.0
1745822801.539,-1000.0,967.285,966.309,-1000.0
1745822801.543,-1000.0,967.285,967.773,-1000.0
1745822801.547,-1000.0,967.285,967.285,-1000.0
1745822801.551,-1000.0,967.285,967.285,-1000.0
1745822801.554,-1000.0,967.285,967.285,-1000.0
1745822801.558,-1000.0,967.285,967.285,-1000.0
1745822801.562,-1000.0,967.285,967.285,-1000.0
1745822801.566,-1000.0,967.285,967.285,-1000.0
1745822801.57,-937.5,967.285,967.285,-1000.0
1745822801.527,-1000.0,976.562,928.223,-1000.0
1745822801.531,-1000.0,927.734,965.82,-1000.0
1745822801.535,-1000.0,978.516,970.215,-1000.0
1745822801.539,-1000.0,967.285,966.309,-1000.0
1745822801.543,-1000.0,967.285,967.773,-1000.0
1745822801.547,-1000.0,967.285,967.285,-1000.0
1745822801.551,-1000.0,967.285,967.285,-1000.0
1745822801.554,-1000.0,967.285,967.285,-1000.0
1745822801.558,-1000.0,967.285,967.285,-1000.0
1745822801.562,-1000.0,967.285,967.285,-1000.0
1745822801.566,-1000.0,967.285,967.285,-1000.0
1745822801.57,-937.5,967.285,967.285,-1000.0
1745822801.527,-1000.0,976.562,928.223,-1000.0
1745822801.531,-1000.0,927.734,965.82,-1000.0
1745822801.535,-1000.0,978.516,970.215,-1000.0
1745822801.539,-1000.0,967.285,966.309,-1000.0
1745822801.543,-1000.0,967.285,967.773,-1000.0
1745822801.547,-1000.0,967.285,967.285,-1000.0
1745822801.551,-1000.0,967.285,967.285,-1000.0
1745822801.554,-1000.0,967.285,967.285,-1000.0
1745822801.558,-1000.0,967.285,967.285,-1000.0
1745822801.562,-1000.0,967.285,967.285,-1000.0
1745822801.566,-1000.0,967.285,967.285,-1000.0
1745822801.57,-937.5,967.285,967.285,-1000.0
1745822801.572,-1000.0,967.285,967.285,-1000.0
1745822801.576,-222.168,967.285,967.285,-1000.0
1745822801.58,999.512,967.285,967.285,-1000.0
1745822801.584,950.195,967.285,967.285,-1000.0
1745822801.588,938.965,967.285,967.285,-1000.0
1745822801.592,973.145,967.285,967.773,-1000.0
1745822801.596,966.309,967.285,965.332,-1000.0
1745822801.599,966.309,967.285,971.68,-1000.0
1745822801.603,966.309,967.285,955.078,-1000.0
1745822801.607,966.309,967.285,941.895,-1000.0
1745822801.611,966.309,967.285,968.262,-925.781
1745822801.615,966.309,967.285,967.285,-1000.0
1745822801.572,-1000.0,967.285,967.285,-1000.0
1745822801.576,-222.168,967.285,967.285,-1000.0
1745822801.58,999.512,967.285,967.285,-1000.0
1745822801.584,950.195,967.285,967.285,-1000.0
1745822801.588,938.965,967.285,967.285,-1000.0
1745822801.592,973.145,967.285,967.773,-1000.0
1745822801.596,966.309,967.285,965.332,-1000.0
1745822801.599,966.309,967.285,971.68,-1000.0
1745822801.603,966.309,967.285,955.078,-1000.0
1745822801.607,966.309,967.285,941.895,-1000.0
1745822801.611,966.309,967.285,968.262,-925.781
1745822801.615,966.309,967.285,967.285,-1000.0
1745822801.617,966.309,967.285,968.262,-511.23
1745822801.621,966.309,967.285,964.355,910.645
1745822801.625,966.309,967.285,951.66,999.512
1745822801.629,966.309,967.285,975.098,916.016
1745822801.633,966.309,967.285,923.34,981.445
1745822801.637,966.309,967.285,999.512,967.285
1745822801.641,966.309,966.797,877.441,966.797
1745822801.644,966.309,967.285,-461.426,966.797
1745822801.648,966.309,967.285,-440.43,967.285
1745822801.652,966.309,966.797,892.578,966.797
1745822801.656,966.309,966.797,999.512,966.797
1745822801.66,966.309,967.285,923.34,967.285
1745822801.617,966.309,967.285,968.262,-511.23
1745822801.621,966.309,967.285,964.355,910.645
1745822801.625,966.309,967.285,951.66,999.512
1745822801.629,966.309,967.285,975.098,916.016
1745822801.633,966.309,967.285,923.34,981.445
1745822801.637,966.309,967.285,999.512,967.285
1745822801.641,966.309,966.797,877.441,966.797
1745822801.644,966.309,967.285,-461.426,966.797
1745822801.648,966.309,967.285,-440.43,967.285
1745822801.652,966.309,966.797,892.578,966.797
1745822801.656,966.309,966.797,999.512,966.797
1745822801.66,966.309,967.285,923.34,967.285
1745822801.662,966.309,966.797,973.145,966.797
1745822801.666,966.309,966.797,974.609,966.797
1745822801.67,966.309,966.797,925.781,966.797
1745822801.674,966.309,966.797,999.512,966.797
1745822801.678,966.309,966.797,904.785,966.797
1745822801.682,966.309,967.285,-229.492,966.797
1745822801.686,966.309,966.797,-827.148,966.797
1745822801.689,966.309,966.797,-147.461,966.797
1745822801.693,966.309,966.797,939.941,966.797
1745822801.697,966.309,966.797,994.141,966.797
1745822801.701,966.309,966.797,600.586,966.797
1745822801.705,966.309,967.285,839.355,966.797
1745822801.662,966.309,966.797,973.145,966.797
1745822801.666,966.309,966.797,974.609,966.797
1745822801.67,966.309,966.797,925.781,966.797
1745822801.674,966.309,966.797,999.512,966.797
1745822801.678,966.309,966.797,904.785,966.797
1745822801.682,966.309,967.285,-229.492,966.797
1745822801.686,966.309,966.797,-827.148,966.797
1745822801.689,966.309,966.797,-147.461,966.797
1745822801.693,966.309,966.797,939.941,966.797
1745822801.697,966.309,966.797,994.141,966.797
1745822801.701,966.309,966.797,600.586,966.797
1745822801.705,966.309,967.285,839.355,966.797
1745822801.738,966.309,966.797,999.512,966.797
1745822801.742,966.309,967.285,942.383,967.285
1745822801.746,966.309,966.797,973.633,967.285
1745822801.75,966.309,967.285,966.797,967.285
1745822801.754,966.309,966.797,966.797,966.797
1745822801.758,966.309,966.797,966.797,967.285
1745822801.762,966.309,966.797,966.797,966.797
1745822801.765,966.309,966.797,966.797,966.797
1745822801.769,966.309,967.285,966.797,966.797
1745822801.773,966.309,966.797,966.797,966.797
1745822801.777,966.309,966.797,974.609,966.797
1745822801.781,966.309,967.285,931.641,966.797
1745822801.738,966.309,966.797,999.512,966.797
1745822801.742,966.309,967.285,942.383,967.285
1745822801.746,966.309,966.797,973.633,967.285
1745822801.75,966.309,967.285,966.797,967.285
1745822801.754,966.309,966.797,966.797,966.797
1745822801.758,966.309,966.797,966.797,967.285
1745822801.762,966.309,966.797,966.797,966.797
1745822801.765,966.309,966.797,966.797,966.797
1745822801.769,966.309,967.285,966.797,966.797
1745822801.773,966.309,966.797,966.797,966.797
1745822801.777,966.309,966.797,974.609,966.797
1745822801.781,966.309,967.285,931.641,966.797
1745822801.768,966.309,965.332,999.512,967.285
1745822801.772,966.309,893.555,683.105,966.797
1745822801.776,966.309,999.512,569.824,966.797
1745822801.78,966.309,72.754,22.949,967.285
1745822801.784,966.309,-904.785,-77.637,966.797
1745822801.788,966.309,810.547,999.512,966.797
1745822801.792,966.309,297.852,-19.531,967.285
1745822801.795,966.309,-1000.0,-1000.0,967.285
1745822801.799,966.797,-971.191,-960.938,966.797
1745822801.803,966.797,-973.145,-985.352,966.797
1745822801.807,966.309,-1000.0,-1000.0,967.285
1745822801.811,966.309,-1000.0,-1000.0,967.285
1745822801.768,966.309,965.332,999.512,967.285
1745822801.772,966.309,893.555,683.105,966.797
1745822801.776,966.309,999.512,569.824,966.797
1745822801.78,966.309,72.754,22.949,967.285
1745822801.784,966.309,-904.785,-77.637,966.797
1745822801.788,966.309,810.547,999.512,966.797
1745822801.792,966.309,297.852,-19.531,967.285
1745822801.795,966.309,-1000.0,-1000.0,967.285
1745822801.799,966.797,-971.191,-960.938,966.797
1745822801.803,966.797,-973.145,-985.352,966.797
1745822801.807,966.309,-1000.0,-1000.0,967.285
1745822801.811,966.309,-1000.0,-1000.0,967.285
1745822801.768,966.309,965.332,999.512,967.285
1745822801.772,966.309,893.555,683.105,966.797
1745822801.776,966.309,999.512,569.824,966.797
1745822801.78,966.309,72.754,22.949,967.285
1745822801.784,966.309,-904.785,-77.637,966.797
1745822801.788,966.309,810.547,999.512,966.797
1745822801.792,966.309,297.852,-19.531,967.285
1745822801.795,966.309,-1000.0,-1000.0,967.285
1745822801.799,966.797,-971.191,-960.938,966.797
1745822801.803,966.797,-973.145,-985.352,966.797
1745822801.807,966.309,-1000.0,-1000.0,967.285
1745822801.811,966.309,-1000.0,-1000.0,967.285
1745822801.812,966.797,-1000.0,-1000.0,967.285
1745822801.816,966.309,-1000.0,-1000.0,967.285
1745822801.82,966.309,-1000.0,-1000.0,966.797
1745822801.824,966.309,-1000.0,-1000.0,967.285
1745822801.828,966.309,-1000.0,-1000.0,966.797
1745822801.832,966.309,-1000.0,-994.629,966.797
1745822801.836,966.309,-1000.0,-993.164,966.797
1745822801.839,979.98,-1000.0,-1000.0,966.797
1745822801.843,896.973,-1000.0,-680.664,966.797
1745822801.847,999.512,-1000.0,-700.195,966.797
1745822801.851,578.613,-1000.0,-1000.0,966.797
1745822801.855,-844.727,-1000.0,-981.934,967.285
1745822801.812,966.797,-1000.0,-1000.0,967.285
1745822801.816,966.309,-1000.0,-1000.0,967.285
1745822801.82,966.309,-1000.0,-1000.0,966.797
1745822801.824,966.309,-1000.0,-1000.0,967.285
1745822801.828,966.309,-1000.0,-1000.0,966.797
1745822801.832,966.309,-1000.0,-994.629,966.797
1745822801.836,966.309,-1000.0,-993.164,966.797
1745822801.839,979.98,-1000.0,-1000.0,966.797
1745822801.843,896.973,-1000.0,-680.664,966.797
1745822801.847,999.512,-1000.0,-700.195,966.797
1745822801.851,578.613,-1000.0,-1000.0,966.797
1745822801.855,-844.727,-1000.0,-981.934,967.285
1745822801.902,-1000.0,-1000.0,-654.297,-1000.0
1745822801.906,-1000.0,-1000.0,-976.074,-1000.0
1745822801.91,-1000.0,-929.688,-956.543,-1000.0
1745822801.914,-1000.0,-1000.0,-1000.0,-1000.0
1745822801.918,-1000.0,-436.523,-107.91,-1000.0
1745822801.922,-1000.0,999.512,999.512,-1000.0
1745822801.926,-1000.0,291.016,83.984,-1000.0
1745822801.929,-1000.0,-1000.0,-1000.0,-1000.0
1745822801.933,-1000.0,-988.77,-973.145,-1000.0
1745822801.937,-1000.0,-965.332,-977.051,-1000.0
1745822801.941,-1000.0,-1000.0,-1000.0,-1000.0
1745822801.945,-1000.0,-1000.0,-1000.0,-1000.0
1745822801.947,-1000.0,-1000.0,-1000.0,-1000.0
1745822801.951,-1000.0,-1000.0,-1000.0,-1000.0
1745822801.955,-1000.0,-1000.0,-1000.0,-1000.0
1745822801.959,-1000.0,-1000.0,-1000.0,-1000.0
1745822801.963,-1000.0,-1000.0,-1000.0,-1000.0
1745822801.967,-1000.0,-1000.0,-999.512,-1000.0
1745822801.971,-1000.0,-1000.0,-1000.0,-1000.0
1745822801.974,-1000.0,-1000.0,-998.535,-1000.0
1745822801.978,-1000.0,-1000.0,-988.77,-1000.0
1745822801.982,-1000.0,-1000.0,-1000.0,-1000.0
1745822801.986,-1000.0,-1000.0,-972.168,-1000.0
1745822801.99,-1000.0,-926.758,-983.887,-1000.0
1745822801.947,-1000.0,-1000.0,-1000.0,-1000.0
1745822801.951,-1000.0,-1000.0,-1000.0,-1000.0
1745822801.955,-1000.0,-1000.0,-1000.0,-1000.0
1745822801.959,-1000.0,-1000.0,-1000.0,-1000.0
1745822801.963,-1000.0,-1000.0,-1000.0,-1000.0
1745822801.967,-1000.0,-1000.0,-999.512,-1000.0
1745822801.971,-1000.0,-1000.0,-1000.0,-1000.0
1745822801.974,-1000.0,-1000.0,-998.535,-1000.0
1745822801.978,-1000.0,-1000.0,-988.77,-1000.0
1745822801.982,-1000.0,-1000.0,-1000.0,-1000.0
1745822801.986,-1000.0,-1000.0,-972.168,-1000.0
1745822801.99,-1000.0,-926.758,-983.887,-1000.0
1745822801.993,-1000.0,-1000.0,-1000.0,-1000.0
1745822801.997,-1000.0,-480.957,219.238,-1000.0
1745822802.001,-1000.0,999.512,983.398,-1000.0
1745822802.005,-1000.0,131.348,-395.996,-1000.0
1745822802.009,-1000.0,-1000.0,-1000.0,-1000.0
1745822802.013,-1000.0,-463.867,-678.223,-1000.0
1745822802.017,-1000.0,924.805,532.715,-1000.0
1745822802.02,-1000.0,999.512,999.512,-1000.0
1745822802.024,-1000.0,916.504,111.328,-1000.0
1745822802.028,-1000.0,981.445,-5.859,-1000.0
1745822802.032,-1000.0,966.797,74.219,-1000.0
1745822802.036,-1000.0,966.797,584.961,-1000.0
1745822801.993,-1000.0,-1000.0,-1000.0,-1000.0
1745822801.997,-1000.0,-480.957,219.238,-1000.0
1745822802.001,-1000.0,999.512,983.398,-1000.0
1745822802.005,-1000.0,131.348,-395.996,-1000.0
1745822802.009,-1000.0,-1000.0,-1000.0,-1000.0
1745822802.013,-1000.0,-463.867,-678.223,-1000.0
1745822802.017,-1000.0,924.805,532.715,-1000.0
1745822802.02,-1000.0,999.512,999.512,-1000.0
1745822802.024,-1000.0,916.504,111.328,-1000.0
1745822802.028,-1000.0,981.445,-5.859,-1000.0
1745822802.032,-1000.0,966.797,74.219,-1000.0
1745822802.036,-1000.0,966.797,584.961,-1000.0
1745822802.052,-1000.0,970.215,851.074,-1000.0
1745822802.056,-1000.0,946.777,-544.922,-1000.0
1745822802.06,-1000.0,952.148,-819.824,-1000.0
1745822802.064,-1000.0,971.68,-856.445,-1000.0
1745822802.068,-1000.0,967.285,-212.891,-1000.0
1745822802.072,-1000.0,956.055,999.512,-1000.0
1745822802.076,-1000.0,925.781,26.367,-1000.0
1745822802.079,-938.477,999.512,-405.762,-1000.0
1745822802.083,-1000.0,-118.652,0.488,-1000.0
1745822802.087,-209.961,-142.578,237.305,-1000.0
1745822802.091,999.512,999.512,999.512,-1000.0
1745822802.095,948.73,936.523,99.121,-1000.0
1745822802.052,-1000.0,970.215,851.074,-1000.0
1745822802.056,-1000.0,946.777,-544.922,-1000.0
1745822802.06,-1000.0,952.148,-819.824,-1000.0
1745822802.064,-1000.0,971.68,-856.445,-1000.0
1745822802.068,-1000.0,967.285,-212.891,-1000.0
1745822802.072,-1000.0,956.055,999.512,-1000.0
1745822802.076,-1000.0,925.781,26.367,-1000.0
1745822802.079,-938.477,999.512,-405.762,-1000.0
1745822802.083,-1000.0,-118.652,0.488,-1000.0
1745822802.087,-209.961,-142.578,237.305,-1000.0
1745822802.091,999.512,999.512,999.512,-1000.0
1745822802.095,948.73,936.523,99.121,-1000.0
1745822802.097,939.941,944.336,-823.73,-1000.0
1745822802.101,972.656,970.703,-322.266,-1000.0
1745822802.105,966.309,966.797,399.414,-1000.0
1745822802.109,966.309,967.773,999.512,-1000.0
1745822802.113,966.309,966.309,366.699,-1000.0
1745822802.117,966.309,961.426,-99.609,-979.492
1745822802.121,966.309,966.309,929.199,-978.027
1745822802.124,966.309,967.773,955.566,-1000.0
1745822802.128,966.309,966.797,987.305,98.145
1745822802.132,966.309,966.797,806.152,999.512
1745822802.136,966.309,966.797,620.605,920.41
1745822802.14,966.309,967.285,806.641,958.984
1745822802.097,939.941,944.336,-823.73,-1000.0
1745822802.101,972.656,970.703,-322.266,-1000.0
1745822802.105,966.309,966.797,399.414,-1000.0
1745822802.109,966.309,967.773,999.512,-1000.0
1745822802.113,966.309,966.309,366.699,-1000.0
1745822802.117,966.309,961.426,-99.609,-979.492
1745822802.121,966.309,966.309,929.199,-978.027
1745822802.124,966.309,967.773,955.566,-1000.0
1745822802.128,966.309,966.797,987.305,98.145
1745822802.132,966.309,966.797,806.152,999.512
1745822802.136,966.309,966.797,620.605,920.41
1745822802.14,966.309,967.285,806.641,958.984
1745822802.142,966.309,966.309,835.449,969.238
1745822802.146,966.309,976.562,999.512,967.285
1745822802.15,966.309,896.484,795.898,966.797
1745822802.154,966.309,999.512,-187.5,966.797
1745822802.158,966.309,245.117,-27.832,967.285
1745822802.162,966.309,-185.059,373.535,966.797
1745822802.166,966.309,950.684,543.945,966.797
1745822802.169,966.309,999.512,-368.652,967.285
1745822802.173,966.309,95.215,-1000.0,966.797
1745822802.177,966.309,-273.926,-888.672,966.797
1745822802.181,966.309,999.512,-1000.0,967.285
1745822802.185,966.309,999.512,28.32,966.797
1745822802.142,966.309,966.309,835.449,969.238
1745822802.146,966.309,976.562,999.512,967.285
1745822802.15,966.309,896.484,795.898,966.797
1745822802.154,966.309,999.512,-187.5,966.797
1745822802.158,966.309,245.117,-27.832,967.285
1745822802.162,966.309,-185.059,373.535,966.797
1745822802.166,966.309,950.684,543.945,966.797
1745822802.169,966.309,999.512,-368.652,967.285
1745822802.173,966.309,95.215,-1000.0,966.797
1745822802.177,966.309,-273.926,-888.672,966.797
1745822802.181,966.309,999.512,-1000.0,967.285
1745822802.185,966.309,999.512,28.32,966.797
1745822802.202,966.309,867.188,46.875,966.797
1745822802.206,966.309,999.512,-1000.0,966.797
1745822802.21,966.309,729.004,-906.738,967.285
1745822802.214,966.309,-860.352,-1000.0,966.797
1745822802.218,966.309,-297.852,-193.359,966.797
1745822802.222,966.309,999.512,107.422,966.797
1745822802.226,966.309,174.316,-1000.0,966.797
1745822802.229,966.309,-1000.0,-936.035,967.285
1745822802.233,966.309,-1000.0,-1000.0,967.285
1745822802.237,966.309,-253.906,10.742,967.285
1745822802.241,966.309,999.512,491.211,967.285
1745822802.245,966.309,171.387,-967.773,967.285
1745822802.232,966.309,-1000.0,-988.77,967.285
1745822802.236,973.633,-908.203,-987.793,966.797
1745822802.24,936.035,-1000.0,-695.801,966.797
1745822802.244,958.984,-425.781,-379.395,966.797
1745822802.248,999.512,61.523,-944.336,966.797
1745822802.252,-261.719,-1000.0,-1000.0,967.285
1745822802.256,-1000.0,-1000.0,-1000.0,976.074
1745822802.259,-938.965,-958.984,-877.441,928.711
1745822802.263,-1000.0,-1000.0,-645.996,980.957
1745822802.267,-1000.0,-1000.0,-858.887,919.922
1745822802.271,-944.824,-925.781,-951.66,-294.434
1745822802.275,-1000.0,-1000.0,-1000.0,-1000.0
1745822802.278,-848.633,-556.152,-344.727,-530.762
1745822802.282,558.594,880.859,999.512,843.75
1745822802.286,999.512,999.512,353.516,999.512
1745822802.29,899.414,932.129,-451.66,910.645
1745822802.294,978.516,837.891,141.602,981.934
1745822802.298,966.309,859.375,575.195,966.797
1745822802.302,966.309,995.117,999.512,966.797
1745822802.305,966.309,958.008,943.848,966.797
1745822802.309,966.309,968.75,952.637,966.797
1745822802.313,966.309,953.613,967.773,966.797
1745822802.317,966.309,961.914,955.566,967.285
1745822802.321,966.309,969.238,982.422,967.285
1745822802.278,-848.633,-556.152,-344.727,-530.762
1745822802.282,558.594,880.859,999.512,843.75
1745822802.286,999.512,999.512,353.516,999.512
1745822802.29,899.414,932.129,-451.66,910.645
1745822802.294,978.516,837.891,141.602,981.934
1745822802.298,966.309,859.375,575.195,966.797
1745822802.302,966.309,995.117,999.512,966.797
1745822802.305,966.309,958.008,943.848,966.797
1745822802.309,966.309,968.75,952.637,966.797
1745822802.313,966.309,953.613,967.773,966.797
1745822802.317,966.309,961.914,955.566,967.285
1745822802.321,966.309,969.238,982.422,967.285
1745822802.322,966.309,965.82,957.52,966.797
1745822802.326,966.309,967.285,729.98,966.797
1745822802.33,966.309,966.797,890.625,967.285
1745822802.334,966.309,966.797,987.305,966.797
1745822802.338,966.309,969.238,927.734,966.797
1745822802.342,966.309,957.031,999.512,967.285
1745822802.346,966.309,992.676,29.297,966.797
1745822802.349,966.309,886.23,-740.723,966.797
1745822802.353,966.309,831.055,-972.656,967.285
1745822802.357,966.309,979.004,-23.926,967.285
1745822802.361,966.309,963.867,845.703,966.797
1745822802.365,966.309,975.586,-614.746,967.285
1745822802.322,966.309,965.82,957.52,966.797
1745822802.326,966.309,967.285,729.98,966.797
1745822802.33,966.309,966.797,890.625,967.285
1745822802.334,966.309,966.797,987.305,966.797
1745822802.338,966.309,969.238,927.734,966.797
1745822802.342,966.309,957.031,999.512,967.285
1745822802.346,966.309,992.676,29.297,966.797
1745822802.349,966.309,886.23,-740.723,966.797
1745822802.353,966.309,831.055,-972.656,967.285
1745822802.357,966.309,979.004,-23.926,967.285
1745822802.361,966.309,963.867,845.703,966.797
1745822802.365,966.309,975.586,-614.746,967.285
1745822802.368,966.309,930.176,-790.527,966.797
1745822802.372,966.309,912.598,-615.723,966.797
1745822802.376,966.309,916.992,117.188,966.797
1745822802.38,966.309,999.512,983.398,966.797
1745822802.384,966.309,844.727,-245.117,966.797
1745822802.388,966.309,-545.41,-37.109,966.797
1745822802.392,966.309,-1000.0,999.512,966.797
1745822802.395,966.309,342.773,943.359,966.797
1745822802.399,966.309,999.512,955.078,966.797
1745822802.403,966.309,832.52,953.613,966.797
1745822802.407,966.309,995.117,929.199,966.797
1745822802.411,966.309,-31.25,965.82,966.797
1745822802.412,966.309,-168.457,969.238,966.797
1745822802.416,966.309,999.512,965.332,966.797
1745822802.42,966.309,959.961,967.285,966.797
1745822802.424,966.309,943.359,966.797,967.285
1745822802.428,966.309,970.703,967.285,967.285
1745822802.432,966.309,966.797,966.797,966.797
1745822802.436,965.82,966.797,966.797,966.797
1745822802.439,966.309,966.797,966.797,966.797
1745822802.443,966.309,966.797,966.797,966.797
1745822802.447,966.309,966.797,966.797,966.797
1745822802.451,966.309,966.797,966.797,967.285
1745822802.455,966.309,966.797,966.797,966.797
1745822802.412,966.309,-168.457,969.238,966.797
1745822802.416,966.309,999.512,965.332,966.797
1745822802.42,966.309,959.961,967.285,966.797
1745822802.424,966.309,943.359,966.797,967.285
1745822802.428,966.309,970.703,967.285,967.285
1745822802.432,966.309,966.797,966.797,966.797
1745822802.436,965.82,966.797,966.797,966.797
1745822802.439,966.309,966.797,966.797,966.797
1745822802.443,966.309,966.797,966.797,966.797
1745822802.447,966.309,966.797,966.797,966.797
1745822802.451,966.309,966.797,966.797,967.285
1745822802.455,966.309,966.797,966.797,966.797
1745822802.472,966.309,966.797,966.797,966.797
1745822802.476,966.309,966.797,966.797,966.797
1745822802.48,966.309,966.797,967.285,966.797
1745822802.484,966.309,966.797,967.285,966.797
1745822802.488,966.309,966.797,967.285,967.285
1745822802.492,966.309,966.797,967.285,966.797
1745822802.496,966.309,967.285,966.797,966.797
1745822802.499,966.309,967.285,975.098,967.285
1745822802.503,966.309,966.797,929.688,966.797
1745822802.507,966.309,967.285,982.91,966.797
1745822802.511,966.309,965.332,916.992,966.797
1745822802.515,966.309,971.68,-309.57,966.797
1745822802.472,966.309,966.797,966.797,966.797
1745822802.476,966.309,966.797,966.797,966.797
1745822802.48,966.309,966.797,967.285,966.797
1745822802.484,966.309,966.797,967.285,966.797
1745822802.488,966.309,966.797,967.285,967.285
1745822802.492,966.309,966.797,967.285,966.797
1745822802.496,966.309,967.285,966.797,966.797
1745822802.499,966.309,967.285,975.098,967.285
1745822802.503,966.309,966.797,929.688,966.797
1745822802.507,966.309,967.285,982.91,966.797
1745822802.511,966.309,965.332,916.992,966.797
1745822802.515,966.309,971.68,-309.57,966.797
1745822802.517,966.309,951.66,-1000.0,966.797
1745822802.521,966.309,928.223,-395.02,966.797
1745822802.525,966.309,935.059,995.605,966.797
1745822802.529,966.309,999.512,686.035,966.797
1745822802.533,966.309,-75.195,-826.66,966.797
1745822802.537,966.309,-1000.0,-1000.0,967.285
1745822802.541,980.957,-951.172,-939.941,966.797
1745822802.544,905.273,-991.699,-1000.0,967.285
1745822802.548,999.512,-1000.0,-1000.0,966.797
1745822802.552,750.977,-1000.0,-1000.0,966.797
1745822802.556,-676.27,-1000.0,-1000.0,966.797
1745822802.56,-1000.0,-1000.0,-1000.0,966.797
1745822803.028,966.309,173.828,-92.773,966.797
1745822803.032,966.309,-1000.0,-556.641,966.797
1745822803.036,966.309,336.426,-224.609,966.797
1745822803.04,966.309,999.512,85.938,966.797
1745822803.044,966.309,923.828,999.512,966.797
1745822803.048,966.309,893.066,81.055,966.797
1745822803.052,966.309,-314.941,-586.426,967.285
1745822803.055,966.309,-1000.0,-456.543,967.285
1745822803.059,966.309,-469.238,-269.531,967.285
1745822803.063,966.309,948.242,999.512,966.797
1745822803.067,966.309,799.316,42.969,966.797
1745822803.071,966.309,695.801,-750.0,966.797
1745822802.562,-935.059,-1000.0,-1000.0,966.797
1745822802.566,-1000.0,-1000.0,-1000.0,966.797
1745822802.57,-1000.0,-1000.0,-1000.0,966.797
1745822802.574,-1000.0,-1000.0,-1000.0,967.285
1745822802.578,-1000.0,-1000.0,-1000.0,967.773
1745822802.582,-1000.0,-1000.0,-1000.0,904.297
1745822802.586,-1000.0,-1000.0,-1000.0,999.512
1745822802.589,-1000.0,-1000.0,-1000.0,186.523
1745822802.593,-1000.0,-1000.0,-1000.0,-1000.0
1745822802.597,-1000.0,-1000.0,-1000.0,-983.887
1745822802.601,-1000.0,-1000.0,-1000.0,-973.145
1745822802.605,-1000.0,-1000.0,-1000.0,-1000.0
1745822802.562,-935.059,-1000.0,-1000.0,966.797
1745822802.566,-1000.0,-1000.0,-1000.0,966.797
1745822802.57,-1000.0,-1000.0,-1000.0,966.797
1745822802.574,-1000.0,-1000.0,-1000.0,967.285
1745822802.578,-1000.0,-1000.0,-1000.0,967.773
1745822802.582,-1000.0,-1000.0,-1000.0,904.297
1745822802.586,-1000.0,-1000.0,-1000.0,999.512
1745822802.589,-1000.0,-1000.0,-1000.0,186.523
1745822802.593,-1000.0,-1000.0,-1000.0,-1000.0
1745822802.597,-1000.0,-1000.0,-1000.0,-983.887
1745822802.601,-1000.0,-1000.0,-1000.0,-973.145
1745822802.605,-1000.0,-1000.0,-1000.0,-1000.0
1745822802.607,-1000.0,-1000.0,-1000.0,-1000.0
1745822802.611,-1000.0,-1000.0,-1000.0,-1000.0
1745822802.615,-1000.0,-1000.0,-1000.0,-1000.0
1745822802.619,-1000.0,-1000.0,-1000.0,-1000.0
1745822802.623,-1000.0,-1000.0,-1000.0,-1000.0
1745822802.627,-1000.0,-1000.0,-1000.0,-1000.0
1745822802.631,-1000.0,-1000.0,-1000.0,-1000.0
1745822802.634,-1000.0,-1000.0,-1000.0,-1000.0
1745822802.638,-1000.0,-1000.0,-1000.0,-1000.0
1745822802.642,-1000.0,-1000.0,-1000.0,-1000.0
1745822802.646,-1000.0,-1000.0,-1000.0,-1000.0
1745822802.65,-1000.0,-1000.0,-1000.0,-1000.0
1745822802.607,-1000.0,-1000.0,-1000.0,-1000.0
1745822802.611,-1000.0,-1000.0,-1000.0,-1000.0
1745822802.615,-1000.0,-1000.0,-1000.0,-1000.0
1745822802.619,-1000.0,-1000.0,-1000.0,-1000.0
1745822802.623,-1000.0,-1000.0,-1000.0,-1000.0
1745822802.627,-1000.0,-1000.0,-1000.0,-1000.0
1745822802.631,-1000.0,-1000.0,-1000.0,-1000.0
1745822802.634,-1000.0,-1000.0,-1000.0,-1000.0
1745822802.638,-1000.0,-1000.0,-1000.0,-1000.0
1745822802.642,-1000.0,-1000.0,-1000.0,-1000.0
1745822802.646,-1000.0,-1000.0,-1000.0,-1000.0
1745822802.65,-1000.0,-1000.0,-1000.0,-1000.0
1745822802.653,-1000.0,-1000.0,-1000.0,-1000.0
1745822802.657,-1000.0,-1000.0,-1000.0,-1000.0
1745822802.661,-1000.0,-1000.0,-1000.0,-1000.0
1745822802.665,-1000.0,-1000.0,-1000.0,-1000.0
1745822802.669,-1000.0,-1000.0,-1000.0,-1000.0
1745822802.673,-1000.0,-1000.0,-997.559,-1000.0
1745822802.677,-1000.0,-1000.0,-1000.0,-1000.0
1745822802.68,-1000.0,-1000.0,-984.863,-1000.0
1745822802.684,-1000.0,-1000.0,-960.938,-1000.0
1745822802.688,-1000.0,-1000.0,-1000.0,-1000.0
1745822802.692,-1000.0,-1000.0,-950.684,-1000.0
1745822802.696,-1000.0,-1000.0,-1000.0,-1000.0
1745822802.697,-1000.0,-1000.0,-488.281,-1000.0
1745822802.701,-1000.0,-1000.0,71.289,-1000.0
1745822802.705,-1000.0,-1000.0,-882.324,-1000.0
1745822802.709,-1000.0,-931.152,-895.02,-1000.0
1745822802.713,-1000.0,-1000.0,-883.301,-1000.0
1745822802.717,-1000.0,-362.793,-208.984,-1000.0
1745822802.721,-1000.0,998.535,999.512,-1000.0
1745822802.724,-1000.0,996.582,-86.914,-1000.0
1745822802.728,-1000.0,426.27,-418.457,-1000.0
1745822802.732,-1000.0,657.715,-29.785,-1000.0
1745822802.736,-1000.0,996.582,79.102,-1000.0
1745822802.74,-1000.0,991.699,999.512,-1000.0
1745822802.697,-1000.0,-1000.0,-488.281,-1000.0
1745822802.701,-1000.0,-1000.0,71.289,-1000.0
1745822802.705,-1000.0,-1000.0,-882.324,-1000.0
1745822802.709,-1000.0,-931.152,-895.02,-1000.0
1745822802.713,-1000.0,-1000.0,-883.301,-1000.0
1745822802.717,-1000.0,-362.793,-208.984,-1000.0
1745822802.721,-1000.0,998.535,999.512,-1000.0
1745822802.724,-1000.0,996.582,-86.914,-1000.0
1745822802.728,-1000.0,426.27,-418.457,-1000.0
1745822802.732,-1000.0,657.715,-29.785,-1000.0
1745822802.736,-1000.0,996.582,79.102,-1000.0
1745822802.74,-1000.0,991.699,999.512,-1000.0
1745822802.742,-1000.0,803.223,-38.086,-1000.0
1745822802.746,-1000.0,-537.109,-934.57,-1000.0
1745822802.75,-1000.0,-1000.0,-960.449,-1000.0
1745822802.754,-1000.0,-992.188,-583.984,-1000.0
1745822802.758,-1000.0,337.402,601.562,-1000.0
1745822802.762,-1000.0,926.27,-199.219,-1000.0
1745822802.766,-1000.0,-569.824,-726.562,-1000.0
1745822802.769,-968.262,-1000.0,-575.684,-1000.0
1745822802.773,-1000.0,-542.48,-292.969,-1000.0
1745822802.777,-1000.0,750.977,999.512,-1000.0
1745822802.781,125.488,999.512,401.855,-1000.0
1745822802.785,-164.551,-59.082,-397.949,-1000.0
1745822802.742,-1000.0,803.223,-38.086,-1000.0
1745822802.746,-1000.0,-537.109,-934.57,-1000.0
1745822802.75,-1000.0,-1000.0,-960.449,-1000.0
1745822802.754,-1000.0,-992.188,-583.984,-1000.0
1745822802.758,-1000.0,337.402,601.562,-1000.0
1745822802.762,-1000.0,926.27,-199.219,-1000.0
1745822802.766,-1000.0,-569.824,-726.562,-1000.0
1745822802.769,-968.262,-1000.0,-575.684,-1000.0
1745822802.773,-1000.0,-542.48,-292.969,-1000.0
1745822802.777,-1000.0,750.977,999.512,-1000.0
1745822802.781,125.488,999.512,401.855,-1000.0
1745822802.785,-164.551,-59.082,-397.949,-1000.0
1745822802.787,-1000.0,-478.027,-219.727,-1000.0
1745822802.791,-163.574,970.703,84.961,-1000.0
1745822802.795,999.512,999.512,999.512,-1000.0
1745822802.799,952.148,919.434,743.652,-1000.0
1745822802.803,938.477,978.027,3.418,-1000.0
1745822802.807,973.633,967.285,64.453,-1000.0
1745822802.811,966.309,967.285,249.023,-1000.0
1745822802.814,966.309,966.797,936.523,-1000.0
1745822802.818,966.309,967.285,876.953,-1000.0
1745822802.822,966.309,967.285,-52.734,-1000.0
1745822802.826,966.309,966.797,-12.207,-1000.0
1745822802.83,966.309,967.285,193.359,-1000.0
1745822802.787,-1000.0,-478.027,-219.727,-1000.0
1745822802.791,-163.574,970.703,84.961,-1000.0
1745822802.795,999.512,999.512,999.512,-1000.0
1745822802.799,952.148,919.434,743.652,-1000.0
1745822802.803,938.477,978.027,3.418,-1000.0
1745822802.807,973.633,967.285,64.453,-1000.0
1745822802.811,966.309,967.285,249.023,-1000.0
1745822802.814,966.309,966.797,936.523,-1000.0
1745822802.818,966.309,967.285,876.953,-1000.0
1745822802.822,966.309,967.285,-52.734,-1000.0
1745822802.826,966.309,966.797,-12.207,-1000.0
1745822802.83,966.309,967.285,193.359,-1000.0
1745822802.847,966.309,967.285,757.812,-1000.0
1745822802.851,966.309,967.285,996.094,-1000.0
1745822802.855,966.309,967.285,-210.938,-1000.0
1745822802.859,966.309,966.797,-123.047,-1000.0
1745822802.863,966.309,973.633,217.773,-1000.0
1745822802.867,966.309,941.895,582.031,-1000.0
1745822802.871,966.309,999.512,999.512,-1000.0
1745822802.874,966.309,798.34,-261.719,-1000.0
1745822802.878,966.797,748.047,-305.176,-1000.0
1745822802.882,966.309,-162.598,406.25,-1000.0
1745822802.886,966.309,-325.684,520.996,-1000.0
1745822802.89,966.309,999.512,999.512,-1000.0
1745822802.847,966.309,967.285,757.812,-1000.0
1745822802.851,966.309,967.285,996.094,-1000.0
1745822802.855,966.309,967.285,-210.938,-1000.0
1745822802.859,966.309,966.797,-123.047,-1000.0
1745822802.863,966.309,973.633,217.773,-1000.0
1745822802.867,966.309,941.895,582.031,-1000.0
1745822802.871,966.309,999.512,999.512,-1000.0
1745822802.874,966.309,798.34,-261.719,-1000.0
1745822802.878,966.797,748.047,-305.176,-1000.0
1745822802.882,966.309,-162.598,406.25,-1000.0
1745822802.886,966.309,-325.684,520.996,-1000.0
1745822802.89,966.309,999.512,999.512,-1000.0
1745822802.892,966.309,172.363,72.266,-1000.0
1745822802.896,966.309,-431.641,-290.039,-1000.0
1745822802.9,966.309,970.215,368.164,-1000.0
1745822802.904,966.309,975.098,384.766,-1000.0
1745822802.908,966.309,937.988,999.512,-1000.0
1745822802.912,966.309,997.07,266.602,-1000.0
1745822802.916,966.309,-488.77,-278.809,-1000.0
1745822802.919,966.309,-214.844,434.082,-1000.0
1745822802.923,966.309,999.512,489.746,-1000.0
1745822802.927,966.309,950.195,999.512,-1000.0
1745822802.931,966.309,957.031,433.105,-1000.0
1745822802.935,966.797,-556.641,-163.574,-1000.0
1745822802.892,966.309,172.363,72.266,-1000.0
1745822802.896,966.309,-431.641,-290.039,-1000.0
1745822802.9,966.309,970.215,368.164,-1000.0
1745822802.904,966.309,975.098,384.766,-1000.0
1745822802.908,966.309,937.988,999.512,-1000.0
1745822802.912,966.309,997.07,266.602,-1000.0
1745822802.916,966.309,-488.77,-278.809,-1000.0
1745822802.919,966.309,-214.844,434.082,-1000.0
1745822802.923,966.309,999.512,489.746,-1000.0
1745822802.927,966.309,950.195,999.512,-1000.0
1745822802.931,966.309,957.031,433.105,-1000.0
1745822802.935,966.797,-556.641,-163.574,-1000.0
1745822802.937,966.309,-341.309,52.734,-1000.0
1745822802.941,966.309,999.512,151.367,-1000.0
1745822802.945,966.309,907.715,999.512,-1000.0
1745822802.949,966.309,999.512,588.379,-1000.0
1745822802.953,966.309,-148.438,-145.996,-1000.0
1745822802.957,966.309,-298.34,-71.289,-1000.0
1745822802.961,966.309,999.512,119.141,-1000.0
1745822802.964,966.309,916.504,973.145,-1000.0
1745822802.968,966.309,999.512,786.621,-989.258
1745822802.972,966.309,-208.984,-254.395,-993.164
1745822802.976,966.309,-452.148,-448.73,-942.383
1745822802.98,966.797,999.512,-107.422,-1000.0
1745822802.937,966.309,-341.309,52.734,-1000.0
1745822802.941,966.309,999.512,151.367,-1000.0
1745822802.945,966.309,907.715,999.512,-1000.0
1745822802.949,966.309,999.512,588.379,-1000.0
1745822802.953,966.309,-148.438,-145.996,-1000.0
1745822802.957,966.309,-298.34,-71.289,-1000.0
1745822802.961,966.309,999.512,119.141,-1000.0
1745822802.964,966.309,916.504,973.145,-1000.0
1745822802.968,966.309,999.512,786.621,-989.258
1745822802.972,966.309,-208.984,-254.395,-993.164
1745822802.976,966.309,-452.148,-448.73,-942.383
1745822802.98,966.797,999.512,-107.422,-1000.0
1745822802.982,966.309,904.297,817.871,-264.648
1745822802.986,966.309,999.512,999.512,999.512
1745822802.99,966.309,478.027,-161.621,537.109
1745822802.994,966.309,-905.762,-398.438,-754.395
1745822802.998,966.309,-1000.0,-69.336,-1000.0
1745822803.002,966.309,51.758,561.523,47.363
1745822803.006,966.309,999.512,999.512,999.512
1745822803.009,966.309,998.535,-14.648,921.387
1745822803.013,966.309,191.895,-536.133,956.055
1745822803.017,966.309,-1000.0,-410.156,969.238
1745822803.021,966.309,-268.555,149.902,966.797
1745822803.025,966.309,999.512,999.512,966.797
1745822802.982,966.309,904.297,817.871,-264.648
1745822802.986,966.309,999.512,999.512,999.512
1745822802.99,966.309,478.027,-161.621,537.109
1745822802.994,966.309,-905.762,-398.438,-754.395
1745822802.998,966.309,-1000.0,-69.336,-1000.0
1745822803.002,966.309,51.758,561.523,47.363
1745822803.006,966.309,999.512,999.512,999.512
1745822803.009,966.309,998.535,-14.648,921.387
1745822803.013,966.309,191.895,-536.133,956.055
1745822803.017,966.309,-1000.0,-410.156,969.238
1745822803.021,966.309,-268.555,149.902,966.797
1745822803.025,966.309,999.512,999.512,966.797
1745822803.072,966.309,39.062,-649.414,966.797
1745822803.076,966.309,-667.969,-238.77,966.797
1745822803.08,966.309,860.84,999.512,966.797
1745822803.084,966.309,999.512,303.223,966.797
1745822803.088,966.309,-606.934,-503.418,966.797
1745822803.092,966.309,-286.621,-325.684,966.797
1745822803.096,966.309,999.512,-67.871,967.285
1745822803.099,966.309,946.289,961.426,966.797
1745822803.103,966.309,909.18,580.566,966.797
1745822803.107,966.309,-281.25,-277.832,967.285
1745822803.111,966.309,-1000.0,-464.355,966.797
1745822803.115,966.309,-198.73,-406.738,966.797
1745822803.072,966.309,39.062,-649.414,966.797
1745822803.076,966.309,-667.969,-238.77,966.797
1745822803.08,966.309,860.84,999.512,966.797
1745822803.084,966.309,999.512,303.223,966.797
1745822803.088,966.309,-606.934,-503.418,966.797
1745822803.092,966.309,-286.621,-325.684,966.797
1745822803.096,966.309,999.512,-67.871,967.285
1745822803.099,966.309,946.289,961.426,966.797
1745822803.103,966.309,909.18,580.566,966.797
1745822803.107,966.309,-281.25,-277.832,967.285
1745822803.111,966.309,-1000.0,-464.355,966.797
1745822803.115,966.309,-198.73,-406.738,966.797
1745822803.118,966.309,894.531,742.188,967.285
1745822803.122,966.309,999.512,673.828,967.285
1745822803.126,966.309,283.203,-435.059,966.797
1745822803.13,966.309,-952.637,-540.527,966.797
1745822803.134,966.309,-880.859,-277.344,967.285
1745822803.138,966.309,371.582,708.496,966.797
1745822803.142,966.309,999.512,999.512,966.797
1745822803.145,966.309,188.965,-137.695,967.285
1745822803.149,966.309,-1000.0,-301.27,967.285
1745822803.153,966.309,-670.41,-97.168,966.797
1745822803.157,966.309,624.512,524.902,966.797
1745822803.161,965.332,999.512,999.512,966.797
1745822803.118,966.309,894.531,742.188,967.285
1745822803.122,966.309,999.512,673.828,967.285
1745822803.126,966.309,283.203,-435.059,966.797
1745822803.13,966.309,-952.637,-540.527,966.797
1745822803.134,966.309,-880.859,-277.344,967.285
1745822803.138,966.309,371.582,708.496,966.797
1745822803.142,966.309,999.512,999.512,966.797
1745822803.145,966.309,188.965,-137.695,967.285
1745822803.149,966.309,-1000.0,-301.27,967.285
1745822803.153,966.309,-670.41,-97.168,966.797
1745822803.157,966.309,624.512,524.902,966.797
1745822803.161,965.332,999.512,999.512,966.797
1745822803.162,966.797,120.117,-235.352,966.797
1745822803.166,966.797,-981.934,-673.828,966.797
1745822803.17,957.031,-1000.0,-617.676,966.797
1745822803.174,882.812,-238.77,16.602,966.797
1745822803.178,999.512,999.512,999.512,966.797
1745822803.182,395.508,197.266,-228.027,966.797
1745822803.186,-904.785,-1000.0,-907.227,966.797
1745822803.189,-1000.0,-1000.0,-881.836,966.797
1745822803.193,-533.691,-575.195,-236.816,966.797
1745822803.197,999.512,999.512,959.961,967.285
1745822803.201,504.883,367.188,-176.758,966.797
1745822803.205,-916.992,-990.234,-751.953,967.285
1745822803.162,966.797,120.117,-235.352,966.797
1745822803.166,966.797,-981.934,-673.828,966.797
1745822803.17,957.031,-1000.0,-617.676,966.797
1745822803.174,882.812,-238.77,16.602,966.797
1745822803.178,999.512,999.512,999.512,966.797
1745822803.182,395.508,197.266,-228.027,966.797
1745822803.186,-904.785,-1000.0,-907.227,966.797
1745822803.189,-1000.0,-1000.0,-881.836,966.797
1745822803.193,-533.691,-575.195,-236.816,966.797
1745822803.197,999.512,999.512,959.961,967.285
1745822803.201,504.883,367.188,-176.758,966.797
1745822803.205,-916.992,-990.234,-751.953,967.285
1745822803.222,-1000.0,-1000.0,-593.262,967.285
1745822803.226,-483.887,-457.52,-205.078,966.797
1745822803.23,947.266,977.539,999.512,966.797
1745822803.234,904.297,874.023,246.582,966.797
1745822803.238,-483.398,-506.348,-657.227,967.285
1745822803.242,-1000.0,-1000.0,-500.0,967.285
1745822803.246,-182.129,-201.172,-8.789,966.797
1745822803.249,999.512,999.512,882.812,966.797
1745822803.253,991.211,784.668,-108.398,966.797
1745822803.257,-221.68,-551.27,-663.086,966.797
1745822803.261,-1000.0,-1000.0,-696.289,966.797
1745822803.265,-193.848,-280.762,-193.848,966.797
1745822803.222,-1000.0,-1000.0,-593.262,967.285
1745822803.226,-483.887,-457.52,-205.078,966.797
1745822803.23,947.266,977.539,999.512,966.797
1745822803.234,904.297,874.023,246.582,966.797
1745822803.238,-483.398,-506.348,-657.227,967.285
1745822803.242,-1000.0,-1000.0,-500.0,967.285
1745822803.246,-182.129,-201.172,-8.789,966.797
1745822803.249,999.512,999.512,882.812,966.797
1745822803.253,991.211,784.668,-108.398,966.797
1745822803.257,-221.68,-551.27,-663.086,966.797
1745822803.261,-1000.0,-1000.0,-696.289,966.797
1745822803.265,-193.848,-280.762,-193.848,966.797
1745822803.267,955.566,918.457,999.512,967.285
1745822803.271,999.512,999.512,536.621,966.797
1745822803.275,181.641,-42.969,-234.375,966.797
1745822803.279,-177.246,-421.875,-367.188,966.797
1745822803.283,999.512,981.934,-825.684,967.285
1745822803.287,918.457,949.707,-232.91,966.797
1745822803.291,999.512,999.512,-428.711,966.797
1745822803.294,292.48,31.738,-1000.0,966.797
1745822803.298,-973.145,-1000.0,-845.215,966.797
1745822803.302,-1000.0,-1000.0,-999.023,966.797
1745822803.306,-239.746,-215.332,-188.477,966.797
1745822803.31,999.512,999.512,-228.516,966.797
1745822803.313,303.711,142.578,-1000.0,966.797
1745822803.317,-983.398,-1000.0,-728.027,967.285
1745822803.321,-1000.0,-1000.0,-946.289,967.285
1745822803.325,-237.793,-241.699,-61.523,966.797
1745822803.329,999.512,999.512,533.203,966.797
1745822803.333,778.809,759.277,-727.539,966.797
1745822803.337,-554.688,-574.219,-824.219,966.797
1745822803.34,-1000.0,-1000.0,-848.145,966.797
1745822803.344,-362.793,-425.293,-20.508,967.285
1745822803.348,999.512,999.512,812.012,966.797
1745822803.352,401.855,364.746,-543.945,966.797
1745822803.356,-943.848,-976.074,-836.914,966.797
1745822803.313,303.711,142.578,-1000.0,966.797
1745822803.317,-983.398,-1000.0,-728.027,967.285
1745822803.321,-1000.0,-1000.0,-946.289,967.285
1745822803.325,-237.793,-241.699,-61.523,966.797
1745822803.329,999.512,999.512,533.203,966.797
1745822803.333,778.809,759.277,-727.539,966.797
1745822803.337,-554.688,-574.219,-824.219,966.797
1745822803.34,-1000.0,-1000.0,-848.145,966.797
1745822803.344,-362.793,-425.293,-20.508,967.285
1745822803.348,999.512,999.512,812.012,966.797
1745822803.352,401.855,364.746,-543.945,966.797
1745822803.356,-943.848,-976.074,-836.914,966.797
1745822803.357,-1000.0,-1000.0,-821.289,967.285
1745822803.361,-525.879,-388.672,-278.32,966.797
1745822803.365,999.512,999.512,905.273,966.797
1745822803.369,412.109,388.672,-227.539,966.797
1745822803.373,-962.402,-932.129,-851.074,966.797
1745822803.377,-1000.0,-1000.0,-729.004,966.797
1745822803.381,-610.84,-419.922,-201.66,966.797
1745822803.384,987.793,999.512,855.957,966.797
1745822803.388,430.664,322.266,-269.531,966.797
1745822803.392,-984.863,-996.582,-654.297,967.285
1745822803.396,-1000.0,-1000.0,-529.297,967.285
1745822803.4,-793.945,-599.609,-305.176,966.797
1745822803.357,-1000.0,-1000.0,-821.289,967.285
1745822803.361,-525.879,-388.672,-278.32,966.797
1745822803.365,999.512,999.512,905.273,966.797
1745822803.369,412.109,388.672,-227.539,966.797
1745822803.373,-962.402,-932.129,-851.074,966.797
1745822803.377,-1000.0,-1000.0,-729.004,966.797
1745822803.381,-610.84,-419.922,-201.66,966.797
1745822803.384,987.793,999.512,855.957,966.797
1745822803.388,430.664,322.266,-269.531,966.797
1745822803.392,-984.863,-996.582,-654.297,967.285
1745822803.396,-1000.0,-1000.0,-529.297,967.285
1745822803.4,-793.945,-599.609,-305.176,966.797
1745822803.403,639.16,829.102,900.879,966.797
1745822803.407,999.512,999.512,-36.621,966.797
1745822803.411,-472.656,-327.148,-646.484,967.285
1745822803.415,-1000.0,-1000.0,-546.875,967.285
1745822803.419,-1000.0,-947.266,-464.844,966.797
1745822803.423,156.25,303.223,782.227,966.797
1745822803.427,999.512,999.512,200.684,966.797
1745822803.43,-230.957,-187.988,-566.406,966.797
1745822803.434,-1000.0,-1000.0,-496.582,966.797
1745822803.438,-1000.0,-1000.0,-381.348,966.797
1745822803.442,-8.301,143.555,863.77,966.797
1745822803.446,999.512,999.512,482.91,966.797
1745822803.403,639.16,829.102,900.879,966.797
1745822803.407,999.512,999.512,-36.621,966.797
1745822803.411,-472.656,-327.148,-646.484,967.285
1745822803.415,-1000.0,-1000.0,-546.875,967.285
1745822803.419,-1000.0,-947.266,-464.844,966.797
1745822803.423,156.25,303.223,782.227,966.797
1745822803.427,999.512,999.512,200.684,966.797
1745822803.43,-230.957,-187.988,-566.406,966.797
1745822803.434,-1000.0,-1000.0,-496.582,966.797
1745822803.438,-1000.0,-1000.0,-381.348,966.797
1745822803.442,-8.301,143.555,863.77,966.797
1745822803.446,999.512,999.512,482.91,966.797
1745822803.447,-70.312,-62.5,-560.547,966.797
1745822803.451,-1000.0,-1000.0,-366.211,966.797
1745822803.455,-1000.0,-1000.0,-474.609,967.285
1745822803.459,-231.934,-59.57,519.043,966.797
1745822803.463,999.512,999.512,563.477,966.797
1745822803.467,150.391,128.906,-662.598,966.797
1745822803.471,-1000.0,-967.285,-356.445,966.797
1745822803.474,-1000.0,-1000.0,-412.109,966.797
1745822803.478,-257.324,-267.578,276.367,966.797
1745822803.482,999.512,999.512,999.512,966.797
1745822803.486,168.945,165.527,-346.68,966.797
1745822803.49,-1000.0,-1000.0,-303.223,966.797
1745822803.447,-70.312,-62.5,-560.547,966.797
1745822803.451,-1000.0,-1000.0,-366.211,966.797
1745822803.455,-1000.0,-1000.0,-474.609,967.285
1745822803.459,-231.934,-59.57,519.043,966.797
1745822803.463,999.512,999.512,563.477,966.797
1745822803.467,150.391,128.906,-662.598,966.797
1745822803.471,-1000.0,-967.285,-356.445,966.797
1745822803.474,-1000.0,-1000.0,-412.109,966.797
1745822803.478,-257.324,-267.578,276.367,966.797
1745822803.482,999.512,999.512,999.512,966.797
1745822803.486,168.945,165.527,-346.68,966.797
1745822803.49,-1000.0,-1000.0,-303.223,966.797
1745822803.492,-1000.0,-1000.0,-170.898,968.262
1745822803.496,-257.324,-259.766,143.555,961.914
1745822803.5,999.512,999.512,999.512,985.352
1745822803.504,166.016,186.523,-286.133,900.879
1745822803.508,-1000.0,-1000.0,-683.594,970.703
1745822803.512,-1000.0,-1000.0,-456.543,787.109
1745822803.516,-490.234,-302.246,-3.418,464.355
1745822803.519,999.512,999.512,778.32,999.512
1745822803.523,265.137,239.746,-341.309,582.52
1745822803.527,-1000.0,-1000.0,-856.445,-891.602
1745822803.531,-979.492,-962.402,-857.422,-1000.0
1745822803.535,-968.75,-979.004,-294.434,-946.289
1745822803.537,-1000.0,-582.031,842.773,-1000.0
1745822803.541,-1000.0,-65.43,-145.02,-990.234
1745822803.545,-1000.0,-792.969,-645.508,-1000.0
1745822803.549,-996.582,-1000.0,-611.328,-1000.0
1745822803.553,-1000.0,-954.59,-430.176,-1000.0
1745822803.557,-993.164,461.426,889.16,-1000.0
1745822803.561,-946.289,846.191,37.598,-1000.0
1745822803.564,-996.582,-724.609,-583.984,-1000.0
1745822803.568,-926.27,-1000.0,-476.562,-1000.0
1745822803.572,-1000.0,-936.523,-403.809,-1000.0
1745822803.576,-324.707,330.078,827.148,-1000.0
1745822803.58,916.504,999.512,233.887,-1000.0
1745822803.537,-1000.0,-582.031,842.773,-1000.0
1745822803.541,-1000.0,-65.43,-145.02,-990.234
1745822803.545,-1000.0,-792.969,-645.508,-1000.0
1745822803.549,-996.582,-1000.0,-611.328,-1000.0
1745822803.553,-1000.0,-954.59,-430.176,-1000.0
1745822803.557,-993.164,461.426,889.16,-1000.0
1745822803.561,-946.289,846.191,37.598,-1000.0
1745822803.564,-996.582,-724.609,-583.984,-1000.0
1745822803.568,-926.27,-1000.0,-476.562,-1000.0
1745822803.572,-1000.0,-936.523,-403.809,-1000.0
1745822803.576,-324.707,330.078,827.148,-1000.0
1745822803.58,916.504,999.512,233.887,-1000.0
1745822803.614,-457.031,-368.652,-513.184,-1000.0
1745822803.618,-1000.0,-1000.0,-414.551,-1000.0
1745822803.622,-1000.0,-999.023,-137.207,-1000.0
1745822803.626,-251.465,67.871,954.59,-1000.0
1745822803.63,999.512,999.512,999.512,-1000.0
1745822803.634,121.094,131.836,344.727,-1000.0
1745822803.638,-1000.0,-1000.0,276.855,-1000.0
1745822803.641,-1000.0,-1000.0,604.004,-1000.0
1745822803.645,-637.695,-199.707,921.875,-1000.0
1745822803.649,967.773,999.512,999.512,-1000.0
1745822803.653,240.723,158.691,168.945,-1000.0
1745822803.657,-1000.0,-1000.0,-93.262,-1000.0
1745822803.614,-457.031,-368.652,-513.184,-1000.0
1745822803.618,-1000.0,-1000.0,-414.551,-1000.0
1745822803.622,-1000.0,-999.023,-137.207,-1000.0
1745822803.626,-251.465,67.871,954.59,-1000.0
1745822803.63,999.512,999.512,999.512,-1000.0
1745822803.634,121.094,131.836,344.727,-1000.0
1745822803.638,-1000.0,-1000.0,276.855,-1000.0
1745822803.641,-1000.0,-1000.0,604.004,-1000.0
1745822803.645,-637.695,-199.707,921.875,-1000.0
1745822803.649,967.773,999.512,999.512,-1000.0
1745822803.653,240.723,158.691,168.945,-1000.0
1745822803.657,-1000.0,-1000.0,-93.262,-1000.0
1745822803.642,-1000.0,-1000.0,133.789,-1000.0
1745822803.646,-253.418,-244.141,670.41,-1000.0
1745822803.65,999.512,999.512,995.117,-1000.0
1745822803.654,169.434,164.551,-359.375,-1000.0
1745822803.658,-1000.0,-1000.0,-810.059,-1000.0
1745822803.662,-1000.0,-1000.0,-799.805,-1000.0
1745822803.666,-259.277,-244.141,-0.488,-1000.0
1745822803.669,999.512,999.512,999.512,-1000.0
1745822803.673,200.195,159.668,-394.531,-1000.0
1745822803.677,-1000.0,-1000.0,-817.383,-1000.0
1745822803.681,-1000.0,-1000.0,-697.754,-1000.0
1745822803.685,-577.148,-493.164,-167.48,-1000.0
1745822803.642,-1000.0,-1000.0,133.789,-1000.0
1745822803.646,-253.418,-244.141,670.41,-1000.0
1745822803.65,999.512,999.512,995.117,-1000.0
1745822803.654,169.434,164.551,-359.375,-1000.0
1745822803.658,-1000.0,-1000.0,-810.059,-1000.0
1745822803.662,-1000.0,-1000.0,-799.805,-1000.0
1745822803.666,-259.277,-244.141,-0.488,-1000.0
1745822803.669,999.512,999.512,999.512,-1000.0
1745822803.673,200.195,159.668,-394.531,-1000.0
1745822803.677,-1000.0,-1000.0,-817.383,-1000.0
1745822803.681,-1000.0,-1000.0,-697.754,-1000.0
1745822803.685,-577.148,-493.164,-167.48,-1000.0
1745822803.69,999.512,999.512,941.895,-1000.0
1745822803.694,305.664,308.594,-235.84,-1000.0
1745822803.698,-1000.0,-1000.0,-684.57,-1000.0
1745822803.702,-952.148,-1000.0,-511.23,-1000.0
1745822803.706,-1000.0,-785.645,-220.215,-1000.0
1745822803.71,282.227,795.41,999.512,-1000.0
1745822803.714,569.336,552.734,105.957,-1000.0
1745822803.717,-1000.0,-953.125,-787.598,-1000.0
1745822803.721,-951.172,-1000.0,-806.152,-1000.0
1745822803.725,-1000.0,-854.98,-485.352,-1000.0
1745822803.729,-271.973,634.277,769.043,-1000.0
1745822803.733,407.715,735.84,-23.438,-1000.0
1745822803.732,-963.867,-828.613,-776.367,-1000.0
1745822803.736,-986.816,-1000.0,-784.668,-1000.0
1745822803.74,-1000.0,-953.125,-608.398,-1000.0
1745822803.744,-270.996,318.848,696.777,-1000.0
1745822803.748,899.902,999.512,190.918,-1000.0
1745822803.752,-526.855,-352.051,-653.32,-1000.0
1745822803.756,-1000.0,-1000.0,-511.719,-1000.0
1745822803.759,-1000.0,-1000.0,-538.574,-1000.0
1745822803.763,-312.012,-144.531,682.617,-1000.0
1745822803.767,999.512,999.512,480.469,-1000.0
1745822803.771,-139.648,-92.285,-601.074,-1000.0
1745822803.775,-1000.0,-1000.0,-347.656,-1000.0
1745822803.775,-1000.0,-1000.0,-347.656,-1000.0
1745822803.775,-1000.0,-1000.0,-347.656,-1000.0
1745822803.779,-1000.0,-1000.0,-533.203,-1000.0
1745822803.783,-278.809,-132.324,383.789,-1000.0
1745822803.787,999.512,999.512,887.695,-1000.0
1745822803.791,200.195,195.312,-360.84,-1000.0
1745822803.795,-1000.0,-1000.0,-302.734,-1000.0
1745822803.799,-1000.0,-822.266,488.281,-1000.0
1745822803.803,232.422,512.207,873.047,-1000.0
1745822803.806,999.512,999.512,999.512,-1000.0
1745822803.81,814.453,87.891,732.91,-1000.0
1745822803.814,801.758,-876.465,733.398,-1000.0
1745822803.818,985.84,-894.043,986.816,-1000.0
1745822803.822,933.105,-170.41,957.52,-1000.0
1745822803.822,967.285,999.512,969.727,-1000.0
1745822803.826,968.75,221.191,953.613,-1000.0
1745822803.83,-304.688,-1000.0,945.312,-1000.0
1745822803.834,-1000.0,-1000.0,968.75,-1000.0
1745822803.838,-68.359,-26.855,967.773,-1000.0
1745822803.842,999.512,999.512,966.309,-1000.0
1745822803.846,950.195,948.242,967.285,-1000.0
1745822803.849,941.406,892.09,967.285,-999.512
1745822803.853,973.145,-354.98,967.285,-940.918
1745822803.857,966.309,-432.617,966.309,-1000.0
1745822803.861,966.309,967.773,969.238,-196.289
1745822803.865,964.844,973.145,961.426,999.512
1745822803.822,967.285,999.512,969.727,-1000.0
1745822803.826,968.75,221.191,953.613,-1000.0
1745822803.83,-304.688,-1000.0,945.312,-1000.0
1745822803.834,-1000.0,-1000.0,968.75,-1000.0
1745822803.838,-68.359,-26.855,967.773,-1000.0
1745822803.842,999.512,999.512,966.309,-1000.0
1745822803.846,950.195,948.242,967.285,-1000.0
1745822803.849,941.406,892.09,967.285,-999.512
1745822803.853,973.145,-354.98,967.285,-940.918
1745822803.857,966.309,-432.617,966.309,-1000.0
1745822803.861,966.309,967.773,969.238,-196.289
1745822803.865,964.844,973.145,961.426,999.512
1745822803.87,966.797,899.414,948.242,941.406
1745822803.874,969.727,-176.758,960.449,925.781
1745822803.878,924.316,-1000.0,965.82,-6.836
1745822803.882,942.871,386.23,968.262,300.781
1745822803.886,974.609,999.512,959.473,999.512
1745822803.89,962.891,999.512,953.613,917.969
1745822803.894,967.285,215.82,916.504,969.727
1745822803.897,966.309,-1000.0,919.434,967.285
1745822803.901,966.309,252.441,999.512,966.797
1745822803.905,966.309,999.512,928.223,967.285
1745822803.909,966.309,-303.711,668.457,967.285
1745822803.913,966.309,-1000.0,545.41,967.285
1745822803.87,966.797,899.414,948.242,941.406
1745822803.874,969.727,-176.758,960.449,925.781
1745822803.878,924.316,-1000.0,965.82,-6.836
1745822803.882,942.871,386.23,968.262,300.781
1745822803.886,974.609,999.512,959.473,999.512
1745822803.89,962.891,999.512,953.613,917.969
1745822803.894,967.285,215.82,916.504,969.727
1745822803.897,966.309,-1000.0,919.434,967.285
1745822803.901,966.309,252.441,999.512,966.797
1745822803.905,966.309,999.512,928.223,967.285
1745822803.909,966.309,-303.711,668.457,967.285
1745822803.913,966.309,-1000.0,545.41,967.285
1745822803.918,966.797,-304.199,642.578,966.309
1745822803.922,907.715,942.871,972.656,967.285
1745822803.926,999.512,999.512,999.512,970.215
1745822803.93,177.246,-130.371,200.195,934.082
1745822803.934,-862.793,-1000.0,-191.895,945.801
1745822803.938,-990.723,-1000.0,249.512,975.098
1745822803.942,-117.188,-43.945,843.262,949.707
1745822803.945,999.512,999.512,999.512,999.512
1745822803.949,142.09,94.727,97.656,782.715
1745822803.953,-1000.0,-1000.0,-298.828,731.445
1745822803.957,-1000.0,-1000.0,81.055,999.023
1745822803.961,-269.531,-258.301,568.848,962.891
1745822803.918,966.797,-304.199,642.578,966.309
1745822803.922,907.715,942.871,972.656,967.285
1745822803.926,999.512,999.512,999.512,970.215
1745822803.93,177.246,-130.371,200.195,934.082
1745822803.934,-862.793,-1000.0,-191.895,945.801
1745822803.938,-990.723,-1000.0,249.512,975.098
1745822803.942,-117.188,-43.945,843.262,949.707
1745822803.945,999.512,999.512,999.512,999.512
1745822803.949,142.09,94.727,97.656,782.715
1745822803.953,-1000.0,-1000.0,-298.828,731.445
1745822803.957,-1000.0,-1000.0,81.055,999.023
1745822803.961,-269.531,-258.301,568.848,962.891
1745822803.972,999.512,999.512,999.512,962.402
1745822803.976,165.039,166.504,41.016,967.285
1745822803.98,-915.527,-1000.0,-340.82,966.797
1745822803.984,-58.594,458.008,-9.277,966.797
1745822803.988,319.824,999.512,255.859,966.797
1745822803.992,999.512,999.512,999.512,966.797
1745822803.996,369.141,253.906,145.508,966.797
1745822803.999,-969.238,-988.77,-922.852,967.285
1745822804.003,-1000.0,-1000.0,-915.039,967.285
1745822804.007,-236.328,-252.441,-126.953,966.797
1745822804.011,999.512,999.512,999.512,966.797
1745822804.015,991.699,674.316,195.312,966.797
1745822803.972,999.512,999.512,999.512,962.402
1745822803.976,165.039,166.504,41.016,967.285
1745822803.98,-915.527,-1000.0,-340.82,966.797
1745822803.984,-58.594,458.008,-9.277,966.797
1745822803.988,319.824,999.512,255.859,966.797
1745822803.992,999.512,999.512,999.512,966.797
1745822803.996,369.141,253.906,145.508,966.797
1745822803.999,-969.238,-988.77,-922.852,967.285
1745822804.003,-1000.0,-1000.0,-915.039,967.285
1745822804.007,-236.328,-252.441,-126.953,966.797
1745822804.011,999.512,999.512,999.512,966.797
1745822804.015,991.699,674.316,195.312,966.797
1745822804.017,-188.965,-651.367,-983.398,966.797
1745822804.021,-1000.0,-1000.0,-1000.0,966.797
1745822804.025,-415.039,-420.41,-574.707,966.797
1745822804.029,873.535,999.512,840.332,966.797
1745822804.033,999.512,557.129,96.191,966.797
1745822804.037,137.695,-877.93,-1000.0,966.797
1745822804.041,-1000.0,-1000.0,-1000.0,966.797
1745822804.044,-263.184,-221.68,-536.621,966.797
1745822804.048,999.512,999.512,949.707,966.797
1745822804.052,999.512,757.812,719.727,966.797
1745822804.056,-50.781,-595.215,-253.418,966.797
1745822804.06,-858.887,-1000.0,-580.566,966.797
1745822804.062,-625.0,-854.492,-267.578,967.285
1745822804.066,504.883,468.262,937.988,966.797
1745822804.07,999.512,999.512,937.5,966.797
1745822804.074,-0.977,-222.168,-72.754,966.797
1745822804.078,-1000.0,-1000.0,-625.977,966.797
1745822804.082,-789.062,-513.672,-244.629,966.797
1745822804.086,537.109,818.359,840.82,966.797
1745822804.089,999.512,999.512,999.512,966.797
1745822804.093,48.34,-114.746,3.906,966.797
1745822804.097,-1000.0,-1000.0,-658.203,966.797
1745822804.101,-1000.0,-1000.0,-456.543,967.285
1745822804.105,-217.285,-138.672,478.516,967.285
1745822804.062,-625.0,-854.492,-267.578,967.285
1745822804.066,504.883,468.262,937.988,966.797
1745822804.07,999.512,999.512,937.5,966.797
1745822804.074,-0.977,-222.168,-72.754,966.797
1745822804.078,-1000.0,-1000.0,-625.977,966.797
1745822804.082,-789.062,-513.672,-244.629,966.797
1745822804.086,537.109,818.359,840.82,966.797
1745822804.089,999.512,999.512,999.512,966.797
1745822804.093,48.34,-114.746,3.906,966.797
1745822804.097,-1000.0,-1000.0,-658.203,966.797
1745822804.101,-1000.0,-1000.0,-456.543,967.285
1745822804.105,-217.285,-138.672,478.516,967.285
1745822804.137,999.512,999.512,999.512,966.797
1745822804.141,157.715,124.512,39.062,967.285
1745822804.145,-1000.0,-1000.0,-526.855,966.797
1745822804.149,-1000.0,-1000.0,-382.812,967.285
1745822804.153,-268.555,-258.301,226.074,965.82
1745822804.157,999.512,999.512,999.512,969.238
1745822804.161,588.867,575.195,100.586,954.59
1745822804.164,-779.785,-786.133,-729.492,977.539
1745822804.168,-1000.0,-1000.0,-786.621,813.477
1745822804.172,-425.293,-361.816,-436.523,792.48
1745822804.176,999.512,999.512,-49.316,999.512
1745822804.18,420.898,214.355,-942.383,859.375
1745822804.152,-983.398,-1000.0,-1000.0,965.332
1745822804.156,-1000.0,-1000.0,-967.285,-78.125
1745822804.16,-984.863,-604.98,-1000.0,-704.59
1745822804.164,286.621,989.258,-1000.0,824.707
1745822804.168,999.512,533.691,-1000.0,973.633
1745822804.172,-289.062,-960.449,-1000.0,999.512
1745822804.176,-1000.0,-932.129,-996.582,396.973
1745822804.179,-1000.0,-1000.0,-1000.0,-1000.0
