timestamps,TP9,AF7,AF8,TP10
1745824273.266,999.512,56.152,288.574,999.512
1745824273.27,14.16,-292.969,-900.391,-20.02
1745824273.274,-1000.0,-168.457,-998.047,-1000.0
1745824273.278,-552.246,138.184,-339.355,-788.086
1745824273.282,807.129,504.395,999.512,537.109
1745824273.286,999.512,272.949,482.91,999.512
1745824273.29,139.648,-144.531,-742.188,122.559
1745824273.293,-1000.0,-219.727,-984.375,-1000.0
1745824273.297,-1000.0,-113.77,-540.039,-1000.0
1745824273.301,85.938,375.0,850.098,14.648
1745824273.305,999.512,395.02,707.52,999.512
1745824273.309,127.93,-65.918,-582.031,164.062
1745824273.311,-1000.0,-105.469,-1000.0,-1000.0
1745824273.315,-1000.0,138.672,-517.578,-1000.0
1745824273.319,16.113,533.691,789.062,-19.043
1745824273.323,999.512,496.094,942.871,999.512
1745824273.327,138.672,1.953,-317.871,225.098
1745824273.331,-1000.0,27.344,-853.516,-989.746
1745824273.335,-1000.0,109.375,-454.102,-1000.0
1745824273.338,-178.223,324.219,629.395,-244.629
1745824273.342,999.512,479.98,999.512,999.512
1745824273.346,381.348,31.25,-183.594,405.762
1745824273.35,-940.918,-127.93,-932.129,-934.082
1745824273.354,-1000.0,35.645,-713.867,-1000.0
1745824273.311,-1000.0,-105.469,-1000.0,-1000.0
1745824273.315,-1000.0,138.672,-517.578,-1000.0
1745824273.319,16.113,533.691,789.062,-19.043
1745824273.323,999.512,496.094,942.871,999.512
1745824273.327,138.672,1.953,-317.871,225.098
1745824273.331,-1000.0,27.344,-853.516,-989.746
1745824273.335,-1000.0,109.375,-454.102,-1000.0
1745824273.338,-178.223,324.219,629.395,-244.629
1745824273.342,999.512,479.98,999.512,999.512
1745824273.346,381.348,31.25,-183.594,405.762
1745824273.35,-940.918,-127.93,-932.129,-934.082
1745824273.354,-1000.0,35.645,-713.867,-1000.0
1745824273.359,-220.703,438.965,329.59,-241.699
1745824273.363,999.512,588.867,999.512,999.512
1745824273.367,253.418,-15.137,39.551,245.117
1745824273.371,-1000.0,-197.266,-867.188,-998.047
1745824273.375,-1000.0,-6.836,-687.012,-1000.0
1745824273.379,-258.301,360.84,142.09,-418.457
1745824273.383,999.512,601.074,999.512,999.512
1745824273.386,333.496,-130.859,113.281,378.418
1745824273.39,-960.449,-458.496,-986.816,-962.891
1745824273.394,-1000.0,-173.34,-940.918,-1000.0
1745824273.398,-427.734,127.441,-37.109,-652.832
1745824273.402,999.512,475.586,999.512,851.562
1745824273.359,-220.703,438.965,329.59,-241.699
1745824273.363,999.512,588.867,999.512,999.512
1745824273.367,253.418,-15.137,39.551,245.117
1745824273.371,-1000.0,-197.266,-867.188,-998.047
1745824273.375,-1000.0,-6.836,-687.012,-1000.0
1745824273.379,-258.301,360.84,142.09,-418.457
1745824273.383,999.512,601.074,999.512,999.512
1745824273.386,333.496,-130.859,113.281,378.418
1745824273.39,-960.449,-458.496,-986.816,-962.891
1745824273.394,-1000.0,-173.34,-940.918,-1000.0
1745824273.398,-427.734,127.441,-37.109,-652.832
1745824273.402,999.512,475.586,999.512,851.562
1745824273.431,650.391,-31.25,183.594,801.27
1745824273.435,-763.184,-461.426,-934.57,-661.621
1745824273.439,-1000.0,-250.0,-972.168,-1000.0
1745824273.443,-646.973,-36.133,-179.199,-820.801
1745824273.447,797.852,284.18,999.512,520.996
1745824273.451,944.824,-39.062,343.75,999.512
1745824273.455,-498.535,-645.508,-859.863,-305.664
1745824273.458,-1000.0,-514.16,-1000.0,-1000.0
1745824273.462,-968.75,-199.707,-350.586,-1000.0
1745824273.466,296.387,174.316,999.512,54.688
1745824273.47,999.512,17.578,500.977,999.512
1745824273.474,-320.801,-452.637,-782.227,-258.789
1745824273.431,650.391,-31.25,183.594,801.27
1745824273.435,-763.184,-461.426,-934.57,-661.621
1745824273.439,-1000.0,-250.0,-972.168,-1000.0
1745824273.443,-646.973,-36.133,-179.199,-820.801
1745824273.447,797.852,284.18,999.512,520.996
1745824273.451,944.824,-39.062,343.75,999.512
1745824273.455,-498.535,-645.508,-859.863,-305.664
1745824273.458,-1000.0,-514.16,-1000.0,-1000.0
1745824273.462,-968.75,-199.707,-350.586,-1000.0
1745824273.466,296.387,174.316,999.512,54.688
1745824273.47,999.512,17.578,500.977,999.512
1745824273.474,-320.801,-452.637,-782.227,-258.789
1745824273.431,650.391,-31.25,183.594,801.27
1745824273.435,-763.184,-461.426,-934.57,-661.621
1745824273.439,-1000.0,-250.0,-972.168,-1000.0
1745824273.443,-646.973,-36.133,-179.199,-820.801
1745824273.447,797.852,284.18,999.512,520.996
1745824273.451,944.824,-39.062,343.75,999.512
1745824273.455,-498.535,-645.508,-859.863,-305.664
1745824273.458,-1000.0,-514.16,-1000.0,-1000.0
1745824273.462,-968.75,-199.707,-350.586,-1000.0
1745824273.466,296.387,174.316,999.512,54.688
1745824273.47,999.512,17.578,500.977,999.512
1745824273.474,-320.801,-452.637,-782.227,-258.789
1745824273.462,-1000.0,-352.051,-1000.0,-1000.0
1745824273.466,-1000.0,-221.68,-452.637,-1000.0
1745824273.47,94.238,179.199,945.312,-187.012
1745824273.474,999.512,97.656,733.398,999.512
1745824273.478,-112.305,-532.227,-604.492,-64.941
1745824273.482,-1000.0,-447.754,-1000.0,-1000.0
1745824273.486,-1000.0,-177.246,-501.953,-1000.0
1745824273.489,-99.121,122.559,798.828,-240.234
1745824273.493,999.512,26.855,888.672,999.512
1745824273.497,94.238,-515.625,-424.805,138.184
1745824273.501,-1000.0,-478.516,-1000.0,-1000.0
1745824273.505,-1000.0,-271.484,-706.543,-1000.0
1745824273.462,-1000.0,-352.051,-1000.0,-1000.0
1745824273.466,-1000.0,-221.68,-452.637,-1000.0
1745824273.47,94.238,179.199,945.312,-187.012
1745824273.474,999.512,97.656,733.398,999.512
1745824273.478,-112.305,-532.227,-604.492,-64.941
1745824273.482,-1000.0,-447.754,-1000.0,-1000.0
1745824273.486,-1000.0,-177.246,-501.953,-1000.0
1745824273.489,-99.121,122.559,798.828,-240.234
1745824273.493,999.512,26.855,888.672,999.512
1745824273.497,94.238,-515.625,-424.805,138.184
1745824273.501,-1000.0,-478.516,-1000.0,-1000.0
1745824273.505,-1000.0,-271.484,-706.543,-1000.0
1745824273.462,-1000.0,-352.051,-1000.0,-1000.0
1745824273.466,-1000.0,-221.68,-452.637,-1000.0
1745824273.47,94.238,179.199,945.312,-187.012
1745824273.474,999.512,97.656,733.398,999.512
1745824273.478,-112.305,-532.227,-604.492,-64.941
1745824273.482,-1000.0,-447.754,-1000.0,-1000.0
1745824273.486,-1000.0,-177.246,-501.953,-1000.0
1745824273.489,-99.121,122.559,798.828,-240.234
1745824273.493,999.512,26.855,888.672,999.512
1745824273.497,94.238,-515.625,-424.805,138.184
1745824273.501,-1000.0,-478.516,-1000.0,-1000.0
1745824273.505,-1000.0,-271.484,-706.543,-1000.0
1745824273.506,-260.254,-27.832,485.352,-258.789
1745824273.51,999.512,74.707,999.512,999.512
1745824273.514,169.922,-367.188,-172.852,175.781
1745824273.518,-1000.0,-458.008,-1000.0,-1000.0
1745824273.522,-1000.0,-284.668,-832.52,-1000.0
1745824273.526,-256.348,124.023,195.801,-344.238
1745824273.53,999.512,353.516,999.512,999.512
1745824273.533,166.016,-398.438,-15.137,197.754
1745824273.537,-1000.0,-622.07,-1000.0,-1000.0
1745824273.541,-1000.0,-324.707,-911.133,-1000.0
1745824273.545,-343.75,65.43,86.914,-631.348
1745824273.549,999.512,378.418,999.512,955.566
1745824273.506,-260.254,-27.832,485.352,-258.789
1745824273.51,999.512,74.707,999.512,999.512
1745824273.514,169.922,-367.188,-172.852,175.781
1745824273.518,-1000.0,-458.008,-1000.0,-1000.0
1745824273.522,-1000.0,-284.668,-832.52,-1000.0
1745824273.526,-256.348,124.023,195.801,-344.238
1745824273.53,999.512,353.516,999.512,999.512
1745824273.533,166.016,-398.438,-15.137,197.754
1745824273.537,-1000.0,-622.07,-1000.0,-1000.0
1745824273.541,-1000.0,-324.707,-911.133,-1000.0
1745824273.545,-343.75,65.43,86.914,-631.348
1745824273.549,999.512,378.418,999.512,955.566
1745824273.551,291.992,-318.848,59.57,368.164
1745824273.555,-985.352,-565.43,-973.145,-1000.0
1745824273.559,-1000.0,-187.988,-925.781,-1000.0
1745824273.563,-551.758,-0.488,-99.609,-810.059
1745824273.567,972.656,298.34,999.512,657.715
1745824273.571,742.676,-42.969,177.734,889.648
1745824273.575,-704.102,-406.738,-849.121,-607.422
1745824273.578,-1000.0,-216.797,-825.195,-1000.0
1745824273.582,-768.555,49.805,-172.363,-917.48
1745824273.586,705.078,331.055,999.512,429.688
1745824273.59,851.562,-36.621,319.824,992.188
1745824273.594,-669.434,-469.727,-873.047,-530.273
1745824273.551,291.992,-318.848,59.57,368.164
1745824273.555,-985.352,-565.43,-973.145,-1000.0
1745824273.559,-1000.0,-187.988,-925.781,-1000.0
1745824273.563,-551.758,-0.488,-99.609,-810.059
1745824273.567,972.656,298.34,999.512,657.715
1745824273.571,742.676,-42.969,177.734,889.648
1745824273.575,-704.102,-406.738,-849.121,-607.422
1745824273.578,-1000.0,-216.797,-825.195,-1000.0
1745824273.582,-768.555,49.805,-172.363,-917.48
1745824273.586,705.078,331.055,999.512,429.688
1745824273.59,851.562,-36.621,319.824,992.188
1745824273.594,-669.434,-469.727,-873.047,-530.273
1745824273.596,-1000.0,-326.66,-997.559,-1000.0
1745824273.6,-948.242,-128.906,-323.242,-1000.0
1745824273.604,325.195,279.297,999.512,16.113
1745824273.608,999.512,72.266,499.023,999.512
1745824273.612,-322.754,-388.184,-739.746,-258.789
1745824273.616,-1000.0,-244.141,-987.793,-1000.0
1745824273.62,-1000.0,-116.699,-384.766,-1000.0
1745824273.623,7.324,137.207,980.469,-180.664
1745824273.627,999.512,60.547,700.195,999.512
1745824273.631,-74.219,-325.684,-557.129,26.855
1745824273.635,-1000.0,-300.781,-928.223,-1000.0
1745824273.639,-1000.0,-203.613,-498.047,-1000.0
1745824273.641,-111.816,175.781,748.047,-229.98
1745824273.645,999.512,214.844,975.098,999.512
1745824273.649,139.648,-304.688,-292.969,149.902
1745824273.653,-1000.0,-353.027,-966.309,-1000.0
1745824273.657,-1000.0,-134.277,-568.359,-1000.0
1745824273.661,-196.777,240.723,578.613,-257.812
1745824273.665,999.512,375.488,999.512,999.512
1745824273.668,161.621,-63.965,-114.746,176.27
1745824273.672,-1000.0,-333.984,-995.117,-1000.0
1745824273.676,-1000.0,-247.07,-729.98,-1000.0
1745824273.68,-262.207,166.504,324.219,-331.055
1745824273.684,999.512,390.625,999.512,999.512
1745824273.641,-111.816,175.781,748.047,-229.98
1745824273.645,999.512,214.844,975.098,999.512
1745824273.649,139.648,-304.688,-292.969,149.902
1745824273.653,-1000.0,-353.027,-966.309,-1000.0
1745824273.657,-1000.0,-134.277,-568.359,-1000.0
1745824273.661,-196.777,240.723,578.613,-257.812
1745824273.665,999.512,375.488,999.512,999.512
1745824273.668,161.621,-63.965,-114.746,176.27
1745824273.672,-1000.0,-333.984,-995.117,-1000.0
1745824273.676,-1000.0,-247.07,-729.98,-1000.0
1745824273.68,-262.207,166.504,324.219,-331.055
1745824273.684,999.512,390.625,999.512,999.512
1745824273.641,-111.816,175.781,748.047,-229.98
1745824273.645,999.512,214.844,975.098,999.512
1745824273.649,139.648,-304.688,-292.969,149.902
1745824273.653,-1000.0,-353.027,-966.309,-1000.0
1745824273.657,-1000.0,-134.277,-568.359,-1000.0
1745824273.661,-196.777,240.723,578.613,-257.812
1745824273.665,999.512,375.488,999.512,999.512
1745824273.668,161.621,-63.965,-114.746,176.27
1745824273.672,-1000.0,-333.984,-995.117,-1000.0
1745824273.676,-1000.0,-247.07,-729.98,-1000.0
1745824273.68,-262.207,166.504,324.219,-331.055
1745824273.684,999.512,390.625,999.512,999.512
1745824273.687,262.695,-230.469,38.086,391.113
1745824273.691,-997.07,-484.863,-922.852,-941.406
1745824273.695,-1000.0,-238.281,-765.625,-1000.0
1745824273.699,-315.43,97.656,105.957,-408.203
1745824273.703,999.512,358.887,999.512,999.512
1745824273.707,645.02,-83.496,99.121,774.902
1745824273.711,-735.352,-361.328,-909.18,-605.469
1745824273.714,-1000.0,-270.508,-812.5,-1000.0
1745824273.718,-438.965,9.766,-28.32,-653.32
1745824273.722,996.094,360.352,999.512,808.105
1745824273.726,790.527,-54.688,180.176,866.699
1745824273.73,-606.934,-455.566,-925.781,-575.684
1745824273.732,-1000.0,-257.324,-925.781,-1000.0
1745824273.736,-497.559,77.637,-167.969,-746.582
1745824273.74,866.211,412.598,999.512,591.797
1745824273.744,999.512,-9.766,339.355,999.512
1745824273.748,-210.938,-467.773,-901.855,-166.992
1745824273.752,-1000.0,-293.945,-1000.0,-1000.0
1745824273.756,-697.266,-51.27,-264.648,-958.496
1745824273.759,658.203,266.113,999.512,280.273
1745824273.763,999.512,-40.527,438.965,999.512
1745824273.767,-142.578,-472.656,-771.484,-73.242
1745824273.771,-1000.0,-332.52,-1000.0,-1000.0
1745824273.775,-998.535,-139.648,-416.504,-1000.0
1745824273.732,-1000.0,-257.324,-925.781,-1000.0
1745824273.736,-497.559,77.637,-167.969,-746.582
1745824273.74,866.211,412.598,999.512,591.797
1745824273.744,999.512,-9.766,339.355,999.512
1745824273.748,-210.938,-467.773,-901.855,-166.992
1745824273.752,-1000.0,-293.945,-1000.0,-1000.0
1745824273.756,-697.266,-51.27,-264.648,-958.496
1745824273.759,658.203,266.113,999.512,280.273
1745824273.763,999.512,-40.527,438.965,999.512
1745824273.767,-142.578,-472.656,-771.484,-73.242
1745824273.771,-1000.0,-332.52,-1000.0,-1000.0
1745824273.775,-998.535,-139.648,-416.504,-1000.0
1745824273.791,150.879,172.852,926.27,-19.043
1745824273.795,999.512,144.531,753.418,999.512
1745824273.799,110.352,-279.297,-484.863,144.043
1745824273.803,-1000.0,-375.0,-1000.0,-1000.0
1745824273.807,-1000.0,-107.422,-502.441,-1000.0
1745824273.811,45.898,230.469,765.625,-53.223
1745824273.815,999.512,150.879,979.492,999.512
1745824273.818,131.348,-378.906,-307.129,229.492
1745824273.822,-1000.0,-443.359,-1000.0,-989.746
1745824273.826,-1000.0,-223.633,-660.156,-1000.0
1745824273.83,-192.383,132.324,488.77,-258.301
1745824273.834,999.512,302.734,999.512,999.512
1745824273.791,150.879,172.852,926.27,-19.043
1745824273.795,999.512,144.531,753.418,999.512
1745824273.799,110.352,-279.297,-484.863,144.043
1745824273.803,-1000.0,-375.0,-1000.0,-1000.0
1745824273.807,-1000.0,-107.422,-502.441,-1000.0
1745824273.811,45.898,230.469,765.625,-53.223
1745824273.815,999.512,150.879,979.492,999.512
1745824273.818,131.348,-378.906,-307.129,229.492
1745824273.822,-1000.0,-443.359,-1000.0,-989.746
1745824273.826,-1000.0,-223.633,-660.156,-1000.0
1745824273.83,-192.383,132.324,488.77,-258.301
1745824273.834,999.512,302.734,999.512,999.512
1745824273.837,394.531,-241.699,-121.582,474.121
1745824273.841,-933.594,-405.762,-974.121,-891.113
1745824273.845,-1000.0,-154.785,-732.422,-1000.0
1745824273.849,-246.582,207.031,291.992,-222.656
1745824273.853,999.512,318.848,999.512,999.512
1745824273.857,533.691,-108.398,20.508,797.852
1745824273.861,-845.215,-323.242,-891.113,-536.133
1745824273.864,-1000.0,-194.824,-746.582,-1000.0
1745824273.868,-218.75,139.648,120.605,-216.309
1745824273.872,999.512,250.488,999.512,999.512
1745824273.876,793.945,-164.551,37.598,951.172
1745824273.88,-533.691,-348.145,-955.566,-270.508
1745824273.837,394.531,-241.699,-121.582,474.121
1745824273.841,-933.594,-405.762,-974.121,-891.113
1745824273.845,-1000.0,-154.785,-732.422,-1000.0
1745824273.849,-246.582,207.031,291.992,-222.656
1745824273.853,999.512,318.848,999.512,999.512
1745824273.857,533.691,-108.398,20.508,797.852
1745824273.861,-845.215,-323.242,-891.113,-536.133
1745824273.864,-1000.0,-194.824,-746.582,-1000.0
1745824273.868,-218.75,139.648,120.605,-216.309
1745824273.872,999.512,250.488,999.512,999.512
1745824273.876,793.945,-164.551,37.598,951.172
1745824273.88,-533.691,-348.145,-955.566,-270.508
1745824273.837,394.531,-241.699,-121.582,474.121
1745824273.841,-933.594,-405.762,-974.121,-891.113
1745824273.845,-1000.0,-154.785,-732.422,-1000.0
1745824273.849,-246.582,207.031,291.992,-222.656
1745824273.853,999.512,318.848,999.512,999.512
1745824273.857,533.691,-108.398,20.508,797.852
1745824273.861,-845.215,-323.242,-891.113,-536.133
1745824273.864,-1000.0,-194.824,-746.582,-1000.0
1745824273.868,-218.75,139.648,120.605,-216.309
1745824273.872,999.512,250.488,999.512,999.512
1745824273.876,793.945,-164.551,37.598,951.172
1745824273.88,-533.691,-348.145,-955.566,-270.508
1745824273.897,-1000.0,-291.504,-890.625,-1000.0
1745824273.901,-299.316,41.504,-98.145,-395.02
1745824273.905,947.754,436.035,999.512,882.812
1745824273.909,999.512,47.363,196.777,999.512
1745824273.913,-67.383,-362.793,-920.41,139.648
1745824273.917,-1000.0,-248.535,-969.727,-1000.0
1745824273.921,-415.039,166.992,-176.27,-458.496
1745824273.924,919.922,343.75,999.512,886.23
1745824273.928,999.512,58.594,267.09,999.512
1745824273.932,-74.707,-169.434,-799.805,166.504
1745824273.936,-1000.0,-250.488,-874.512,-1000.0
1745824273.94,-688.477,-55.664,-356.934,-744.141
1745824273.897,-1000.0,-291.504,-890.625,-1000.0
1745824273.901,-299.316,41.504,-98.145,-395.02
1745824273.905,947.754,436.035,999.512,882.812
1745824273.909,999.512,47.363,196.777,999.512
1745824273.913,-67.383,-362.793,-920.41,139.648
1745824273.917,-1000.0,-248.535,-969.727,-1000.0
1745824273.921,-415.039,166.992,-176.27,-458.496
1745824273.924,919.922,343.75,999.512,886.23
1745824273.928,999.512,58.594,267.09,999.512
1745824273.932,-74.707,-169.434,-799.805,166.504
1745824273.936,-1000.0,-250.488,-874.512,-1000.0
1745824273.94,-688.477,-55.664,-356.934,-744.141
1745824273.897,-1000.0,-291.504,-890.625,-1000.0
1745824273.901,-299.316,41.504,-98.145,-395.02
1745824273.905,947.754,436.035,999.512,882.812
1745824273.909,999.512,47.363,196.777,999.512
1745824273.913,-67.383,-362.793,-920.41,139.648
1745824273.917,-1000.0,-248.535,-969.727,-1000.0
1745824273.921,-415.039,166.992,-176.27,-458.496
1745824273.924,919.922,343.75,999.512,886.23
1745824273.928,999.512,58.594,267.09,999.512
1745824273.932,-74.707,-169.434,-799.805,166.504
1745824273.936,-1000.0,-250.488,-874.512,-1000.0
1745824273.94,-688.477,-55.664,-356.934,-744.141
1745824273.926,643.066,250.977,999.512,615.723
1745824273.93,999.512,68.848,483.398,999.512
1745824273.934,160.156,-268.066,-639.648,173.828
1745824273.938,-1000.0,-339.355,-909.18,-1000.0
1745824273.942,-910.645,-66.895,-440.918,-995.605
1745824273.946,403.809,354.492,925.781,230.469
1745824273.95,999.512,246.094,796.875,999.512
1745824273.953,134.277,-312.988,-384.277,306.641
1745824273.957,-1000.0,-555.176,-908.203,-970.703
1745824273.961,-1000.0,-194.824,-573.242,-1000.0
1745824273.965,61.035,296.387,693.848,42.48
1745824273.969,999.512,236.328,983.887,999.512
1745824273.926,643.066,250.977,999.512,615.723
1745824273.93,999.512,68.848,483.398,999.512
1745824273.934,160.156,-268.066,-639.648,173.828
1745824273.938,-1000.0,-339.355,-909.18,-1000.0
1745824273.942,-910.645,-66.895,-440.918,-995.605
1745824273.946,403.809,354.492,925.781,230.469
1745824273.95,999.512,246.094,796.875,999.512
1745824273.953,134.277,-312.988,-384.277,306.641
1745824273.957,-1000.0,-555.176,-908.203,-970.703
1745824273.961,-1000.0,-194.824,-573.242,-1000.0
1745824273.965,61.035,296.387,693.848,42.48
1745824273.969,999.512,236.328,983.887,999.512
1745824273.926,643.066,250.977,999.512,615.723
1745824273.93,999.512,68.848,483.398,999.512
1745824273.934,160.156,-268.066,-639.648,173.828
1745824273.938,-1000.0,-339.355,-909.18,-1000.0
1745824273.942,-910.645,-66.895,-440.918,-995.605
1745824273.946,403.809,354.492,925.781,230.469
1745824273.95,999.512,246.094,796.875,999.512
1745824273.953,134.277,-312.988,-384.277,306.641
1745824273.957,-1000.0,-555.176,-908.203,-970.703
1745824273.961,-1000.0,-194.824,-573.242,-1000.0
1745824273.965,61.035,296.387,693.848,42.48
1745824273.969,999.512,236.328,983.887,999.512
1745824273.986,206.543,-356.934,-252.93,575.195
1745824273.99,-1000.0,-467.285,-907.227,-755.371
1745824273.994,-1000.0,-127.93,-612.305,-1000.0
1745824273.998,-62.988,268.066,522.949,-42.969
1745824274.002,999.512,203.125,999.512,999.512
1745824274.006,903.809,-65.43,-217.773,901.367
1745824274.01,-114.258,-55.664,-645.996,999.512
1745824274.013,-1000.0,-395.02,-595.215,-256.836
1745824274.017,-259.277,-67.871,71.777,-427.246
1745824274.021,999.512,395.508,999.512,999.512
1745824274.025,323.242,-129.883,48.828,650.391
1745824274.029,-974.609,-372.07,-898.438,-739.746
1745824273.986,206.543,-356.934,-252.93,575.195
1745824273.99,-1000.0,-467.285,-907.227,-755.371
1745824273.994,-1000.0,-127.93,-612.305,-1000.0
1745824273.998,-62.988,268.066,522.949,-42.969
1745824274.002,999.512,203.125,999.512,999.512
1745824274.006,903.809,-65.43,-217.773,901.367
1745824274.01,-114.258,-55.664,-645.996,999.512
1745824274.013,-1000.0,-395.02,-595.215,-256.836
1745824274.017,-259.277,-67.871,71.777,-427.246
1745824274.021,999.512,395.508,999.512,999.512
1745824274.025,323.242,-129.883,48.828,650.391
1745824274.029,-974.609,-372.07,-898.438,-739.746
1745824274.016,-1000.0,-139.16,-757.324,-1000.0
1745824274.02,-240.234,213.379,94.238,-215.82
1745824274.024,999.512,467.773,999.512,999.512
1745824274.028,734.375,-73.242,114.746,964.844
1745824274.032,-621.582,-469.238,-994.629,-256.836
1745824274.036,-1000.0,-194.824,-947.754,-1000.0
1745824274.04,-223.145,217.285,-50.293,-275.879
1745824274.043,997.07,336.426,999.512,953.613
1745824274.047,995.117,-166.504,143.066,999.512
1745824274.051,-177.734,-418.945,-970.215,22.949
1745824274.055,-1000.0,-324.707,-1000.0,-1000.0
1745824274.059,-556.152,-45.898,-264.648,-674.316
1745824274.061,805.664,363.281,999.512,684.082
1745824274.065,999.512,32.227,301.27,999.512
1745824274.069,-88.379,-370.605,-924.805,72.266
1745824274.073,-1000.0,-314.453,-1000.0,-1000.0
1745824274.077,-973.633,-139.16,-451.66,-1000.0
1745824274.081,263.672,296.875,980.957,165.527
1745824274.085,999.512,187.5,528.809,999.512
1745824274.088,-29.785,-413.574,-786.621,119.141
1745824274.092,-1000.0,-437.012,-1000.0,-1000.0
1745824274.096,-1000.0,-160.156,-559.082,-1000.0
1745824274.1,41.992,198.73,807.617,-36.621
1745824274.104,999.512,154.785,724.609,999.512
1745824274.061,805.664,363.281,999.512,684.082
1745824274.065,999.512,32.227,301.27,999.512
1745824274.069,-88.379,-370.605,-924.805,72.266
1745824274.073,-1000.0,-314.453,-1000.0,-1000.0
1745824274.077,-973.633,-139.16,-451.66,-1000.0
1745824274.081,263.672,296.875,980.957,165.527
1745824274.085,999.512,187.5,528.809,999.512
1745824274.088,-29.785,-413.574,-786.621,119.141
1745824274.092,-1000.0,-437.012,-1000.0,-1000.0
1745824274.096,-1000.0,-160.156,-559.082,-1000.0
1745824274.1,41.992,198.73,807.617,-36.621
1745824274.104,999.512,154.785,724.609,999.512
1745824274.106,131.836,-354.004,-574.707,141.602
1745824274.11,-1000.0,-391.113,-1000.0,-1000.0
1745824274.114,-1000.0,-144.531,-617.676,-1000.0
1745824274.118,-93.75,223.633,665.527,-193.848
1745824274.122,999.512,231.445,922.363,999.512
1745824274.126,173.34,-221.68,-360.84,310.059
1745824274.13,-1000.0,-310.547,-925.781,-971.68
1745824274.133,-1000.0,-193.848,-725.098,-1000.0
1745824274.137,-254.395,166.504,388.672,-250.0
1745824274.141,999.512,206.543,999.512,999.512
1745824274.145,169.922,-391.602,-201.66,271.484
1745824274.149,-1000.0,-426.27,-976.562,-994.629
1745824274.106,131.836,-354.004,-574.707,141.602
1745824274.11,-1000.0,-391.113,-1000.0,-1000.0
1745824274.114,-1000.0,-144.531,-617.676,-1000.0
1745824274.118,-93.75,223.633,665.527,-193.848
1745824274.122,999.512,231.445,922.363,999.512
1745824274.126,173.34,-221.68,-360.84,310.059
1745824274.13,-1000.0,-310.547,-925.781,-971.68
1745824274.133,-1000.0,-193.848,-725.098,-1000.0
1745824274.137,-254.395,166.504,388.672,-250.0
1745824274.141,999.512,206.543,999.512,999.512
1745824274.145,169.922,-391.602,-201.66,271.484
1745824274.149,-1000.0,-426.27,-976.562,-994.629
1745824274.106,131.836,-354.004,-574.707,141.602
1745824274.11,-1000.0,-391.113,-1000.0,-1000.0
1745824274.114,-1000.0,-144.531,-617.676,-1000.0
1745824274.118,-93.75,223.633,665.527,-193.848
1745824274.122,999.512,231.445,922.363,999.512
1745824274.126,173.34,-221.68,-360.84,310.059
1745824274.13,-1000.0,-310.547,-925.781,-971.68
1745824274.133,-1000.0,-193.848,-725.098,-1000.0
1745824274.137,-254.395,166.504,388.672,-250.0
1745824274.141,999.512,206.543,999.512,999.512
1745824274.145,169.922,-391.602,-201.66,271.484
1745824274.149,-1000.0,-426.27,-976.562,-994.629
1745824274.167,-1000.0,-213.867,-837.891,-1000.0
1745824274.171,-267.578,171.387,128.906,-303.223
1745824274.175,999.512,455.566,999.512,999.512
1745824274.179,429.199,-154.297,36.133,485.84
1745824274.183,-923.828,-441.895,-986.816,-878.906
1745824274.187,-1000.0,-170.898,-872.07,-1000.0
1745824274.191,-260.254,188.965,78.125,-414.551
1745824274.194,999.512,383.789,999.512,999.512
1745824274.198,461.914,-256.348,65.918,537.598
1745824274.202,-889.16,-440.43,-989.258,-867.188
1745824274.206,-1000.0,-100.098,-962.891,-1000.0
1745824274.21,-570.312,34.668,-132.812,-725.098
1745824274.167,-1000.0,-213.867,-837.891,-1000.0
1745824274.171,-267.578,171.387,128.906,-303.223
1745824274.175,999.512,455.566,999.512,999.512
1745824274.179,429.199,-154.297,36.133,485.84
1745824274.183,-923.828,-441.895,-986.816,-878.906
1745824274.187,-1000.0,-170.898,-872.07,-1000.0
1745824274.191,-260.254,188.965,78.125,-414.551
1745824274.194,999.512,383.789,999.512,999.512
1745824274.198,461.914,-256.348,65.918,537.598
1745824274.202,-889.16,-440.43,-989.258,-867.188
1745824274.206,-1000.0,-100.098,-962.891,-1000.0
1745824274.21,-570.312,34.668,-132.812,-725.098
1745824274.167,-1000.0,-213.867,-837.891,-1000.0
1745824274.171,-267.578,171.387,128.906,-303.223
1745824274.175,999.512,455.566,999.512,999.512
1745824274.179,429.199,-154.297,36.133,485.84
1745824274.183,-923.828,-441.895,-986.816,-878.906
1745824274.187,-1000.0,-170.898,-872.07,-1000.0
1745824274.191,-260.254,188.965,78.125,-414.551
1745824274.194,999.512,383.789,999.512,999.512
1745824274.198,461.914,-256.348,65.918,537.598
1745824274.202,-889.16,-440.43,-989.258,-867.188
1745824274.206,-1000.0,-100.098,-962.891,-1000.0
1745824274.21,-570.312,34.668,-132.812,-725.098
1745824274.721,-929.199,23.438,-420.898,-1000.0
1745824274.725,300.781,377.93,999.512,159.668
1745824274.729,999.512,282.715,587.891,999.512
1745824274.733,108.398,-172.363,-697.754,137.695
1745824274.737,-1000.0,-275.879,-1000.0,-1000.0
1745824274.741,-1000.0,38.574,-438.965,-1000.0
1745824274.745,198.242,464.355,863.281,43.457
1745824274.748,999.512,208.984,771.484,999.512
1745824274.752,141.602,-309.082,-505.371,140.137
1745824274.756,-1000.0,-273.438,-1000.0,-1000.0
1745824274.76,-1000.0,20.02,-619.141,-1000.0
1745824274.764,10.742,342.285,646.973,-177.246
1745824274.226,976.562,329.102,999.512,758.301
1745824274.23,645.02,-91.309,167.969,828.613
1745824274.234,-820.801,-434.082,-963.867,-666.992
1745824274.238,-1000.0,-239.746,-1000.0,-1000.0
1745824274.242,-800.781,1.465,-261.719,-896.484
1745824274.246,642.578,406.25,999.512,417.48
1745824274.25,933.105,58.594,330.078,999.512
1745824274.253,-573.242,-468.75,-916.016,-351.562
1745824274.257,-1000.0,-348.633,-1000.0,-1000.0
1745824274.261,-967.773,-7.812,-423.828,-1000.0
1745824274.265,248.535,318.848,999.512,65.918
1745824274.269,999.512,89.355,520.508,999.512
1745824274.226,976.562,329.102,999.512,758.301
1745824274.23,645.02,-91.309,167.969,828.613
1745824274.234,-820.801,-434.082,-963.867,-666.992
1745824274.238,-1000.0,-239.746,-1000.0,-1000.0
1745824274.242,-800.781,1.465,-261.719,-896.484
1745824274.246,642.578,406.25,999.512,417.48
1745824274.25,933.105,58.594,330.078,999.512
1745824274.253,-573.242,-468.75,-916.016,-351.562
1745824274.257,-1000.0,-348.633,-1000.0,-1000.0
1745824274.261,-967.773,-7.812,-423.828,-1000.0
1745824274.265,248.535,318.848,999.512,65.918
1745824274.269,999.512,89.355,520.508,999.512
1745824274.226,976.562,329.102,999.512,758.301
1745824274.23,645.02,-91.309,167.969,828.613
1745824274.234,-820.801,-434.082,-963.867,-666.992
1745824274.238,-1000.0,-239.746,-1000.0,-1000.0
1745824274.242,-800.781,1.465,-261.719,-896.484
1745824274.246,642.578,406.25,999.512,417.48
1745824274.25,933.105,58.594,330.078,999.512
1745824274.253,-573.242,-468.75,-916.016,-351.562
1745824274.257,-1000.0,-348.633,-1000.0,-1000.0
1745824274.261,-967.773,-7.812,-423.828,-1000.0
1745824274.265,248.535,318.848,999.512,65.918
1745824274.269,999.512,89.355,520.508,999.512
1745824274.256,-158.203,-417.969,-772.461,-75.684
1745824274.26,-1000.0,-394.043,-1000.0,-1000.0
1745824274.264,-1000.0,-145.996,-539.062,-1000.0
1745824274.268,24.902,205.078,821.289,-101.562
1745824274.272,999.512,174.316,767.09,999.512
1745824274.276,120.117,-239.258,-497.559,130.859
1745824274.28,-1000.0,-335.449,-958.984,-1000.0
1745824274.283,-1000.0,-254.883,-676.758,-1000.0
1745824274.287,-214.355,112.305,551.758,-246.094
1745824274.291,999.512,208.984,978.027,999.512
1745824274.295,160.645,-309.57,-342.773,159.668
1745824274.299,-1000.0,-387.695,-1000.0,-1000.0
1745824274.256,-158.203,-417.969,-772.461,-75.684
1745824274.26,-1000.0,-394.043,-1000.0,-1000.0
1745824274.264,-1000.0,-145.996,-539.062,-1000.0
1745824274.268,24.902,205.078,821.289,-101.562
1745824274.272,999.512,174.316,767.09,999.512
1745824274.276,120.117,-239.258,-497.559,130.859
1745824274.28,-1000.0,-335.449,-958.984,-1000.0
1745824274.283,-1000.0,-254.883,-676.758,-1000.0
1745824274.287,-214.355,112.305,551.758,-246.094
1745824274.291,999.512,208.984,978.027,999.512
1745824274.295,160.645,-309.57,-342.773,159.668
1745824274.299,-1000.0,-387.695,-1000.0,-1000.0
1745824274.256,-158.203,-417.969,-772.461,-75.684
1745824274.26,-1000.0,-394.043,-1000.0,-1000.0
1745824274.264,-1000.0,-145.996,-539.062,-1000.0
1745824274.268,24.902,205.078,821.289,-101.562
1745824274.272,999.512,174.316,767.09,999.512
1745824274.276,120.117,-239.258,-497.559,130.859
1745824274.28,-1000.0,-335.449,-958.984,-1000.0
1745824274.283,-1000.0,-254.883,-676.758,-1000.0
1745824274.287,-214.355,112.305,551.758,-246.094
1745824274.291,999.512,208.984,978.027,999.512
1745824274.295,160.645,-309.57,-342.773,159.668
1745824274.299,-1000.0,-387.695,-1000.0,-1000.0
1745824274.301,-1000.0,-212.891,-742.676,-1000.0
1745824274.305,-249.512,172.852,371.094,-262.207
1745824274.309,999.512,355.957,999.512,999.512
1745824274.313,215.82,-214.844,-99.121,258.301
1745824274.317,-1000.0,-512.695,-1000.0,-1000.0
1745824274.321,-1000.0,-225.586,-780.762,-1000.0
1745824274.325,-260.742,241.211,261.719,-300.293
1745824274.328,999.512,334.961,999.512,999.512
1745824274.332,316.406,-363.281,-4.883,434.57
1745824274.336,-974.121,-481.934,-956.055,-914.062
1745824274.34,-1000.0,-186.523,-875.488,-1000.0
1745824274.344,-318.359,119.629,-23.438,-400.879
1745824274.301,-1000.0,-212.891,-742.676,-1000.0
1745824274.305,-249.512,172.852,371.094,-262.207
1745824274.309,999.512,355.957,999.512,999.512
1745824274.313,215.82,-214.844,-99.121,258.301
1745824274.317,-1000.0,-512.695,-1000.0,-1000.0
1745824274.321,-1000.0,-225.586,-780.762,-1000.0
1745824274.325,-260.742,241.211,261.719,-300.293
1745824274.328,999.512,334.961,999.512,999.512
1745824274.332,316.406,-363.281,-4.883,434.57
1745824274.336,-974.121,-481.934,-956.055,-914.062
1745824274.34,-1000.0,-186.523,-875.488,-1000.0
1745824274.344,-318.359,119.629,-23.438,-400.879
1745824274.346,999.512,403.32,999.512,997.559
1745824274.35,750.977,-111.328,66.406,848.633
1745824274.354,-609.375,-404.297,-985.84,-505.859
1745824274.358,-1000.0,-234.375,-967.285,-1000.0
1745824274.362,-501.953,21.973,-170.898,-649.414
1745824274.366,892.578,437.012,999.512,730.469
1745824274.37,993.164,96.191,215.332,999.512
1745824274.373,-328.613,-353.027,-946.289,-254.883
1745824274.377,-1000.0,-312.5,-1000.0,-1000.0
1745824274.381,-656.738,-53.711,-285.156,-817.383
1745824274.385,692.871,344.238,999.512,469.238
1745824274.389,999.512,58.594,365.723,999.512
1745824274.391,-77.637,-400.879,-895.508,43.457
1745824274.395,-1000.0,-326.66,-1000.0,-1000.0
1745824274.399,-776.855,-38.086,-376.953,-948.242
1745824274.403,529.297,305.176,999.512,303.223
1745824274.407,999.512,91.797,520.996,999.512
1745824274.411,148.926,-291.504,-675.293,140.625
1745824274.415,-1000.0,-281.25,-927.246,-1000.0
1745824274.418,-1000.0,-126.953,-479.98,-1000.0
1745824274.422,161.133,181.641,878.906,37.598
1745824274.426,999.512,91.309,744.141,999.512
1745824274.43,65.918,-356.934,-568.359,137.695
1745824274.434,-1000.0,-353.516,-987.793,-1000.0
1745824274.391,-77.637,-400.879,-895.508,43.457
1745824274.395,-1000.0,-326.66,-1000.0,-1000.0
1745824274.399,-776.855,-38.086,-376.953,-948.242
1745824274.403,529.297,305.176,999.512,303.223
1745824274.407,999.512,91.797,520.996,999.512
1745824274.411,148.926,-291.504,-675.293,140.625
1745824274.415,-1000.0,-281.25,-927.246,-1000.0
1745824274.418,-1000.0,-126.953,-479.98,-1000.0
1745824274.422,161.133,181.641,878.906,37.598
1745824274.426,999.512,91.309,744.141,999.512
1745824274.43,65.918,-356.934,-568.359,137.695
1745824274.434,-1000.0,-353.516,-987.793,-1000.0
1745824274.438,-1000.0,-174.805,-640.625,-1000.0
1745824274.442,-202.148,201.66,577.637,-221.68
1745824274.446,999.512,279.297,999.512,999.512
1745824274.45,164.062,-285.156,-258.789,299.805
1745824274.454,-1000.0,-446.777,-1000.0,-984.375
1745824274.458,-1000.0,-126.953,-673.828,-1000.0
1745824274.462,-185.547,263.672,518.555,-222.656
1745824274.465,999.512,209.473,999.512,999.512
1745824274.469,456.543,-262.207,-117.676,557.129
1745824274.473,-896.973,-398.926,-934.082,-813.965
1745824274.477,-1000.0,-191.895,-770.02,-1000.0
1745824274.481,-239.258,179.688,205.078,-217.285
1745824274.438,-1000.0,-174.805,-640.625,-1000.0
1745824274.442,-202.148,201.66,577.637,-221.68
1745824274.446,999.512,279.297,999.512,999.512
1745824274.45,164.062,-285.156,-258.789,299.805
1745824274.454,-1000.0,-446.777,-1000.0,-984.375
1745824274.458,-1000.0,-126.953,-673.828,-1000.0
1745824274.462,-185.547,263.672,518.555,-222.656
1745824274.465,999.512,209.473,999.512,999.512
1745824274.469,456.543,-262.207,-117.676,557.129
1745824274.473,-896.973,-398.926,-934.082,-813.965
1745824274.477,-1000.0,-191.895,-770.02,-1000.0
1745824274.481,-239.258,179.688,205.078,-217.285
1745824274.438,-1000.0,-174.805,-640.625,-1000.0
1745824274.442,-202.148,201.66,577.637,-221.68
1745824274.446,999.512,279.297,999.512,999.512
1745824274.45,164.062,-285.156,-258.789,299.805
1745824274.454,-1000.0,-446.777,-1000.0,-984.375
1745824274.458,-1000.0,-126.953,-673.828,-1000.0
1745824274.462,-185.547,263.672,518.555,-222.656
1745824274.465,999.512,209.473,999.512,999.512
1745824274.469,456.543,-262.207,-117.676,557.129
1745824274.473,-896.973,-398.926,-934.082,-813.965
1745824274.477,-1000.0,-191.895,-770.02,-1000.0
1745824274.481,-239.258,179.688,205.078,-217.285
1745824274.481,999.512,300.293,999.512,999.512
1745824274.485,588.379,-142.578,16.602,793.457
1745824274.489,-786.133,-312.5,-898.438,-529.785
1745824274.493,-1000.0,-228.027,-828.125,-1000.0
1745824274.497,-322.754,100.098,-23.438,-325.684
1745824274.501,999.512,473.145,999.512,981.445
1745824274.505,600.586,19.043,135.254,969.238
1745824274.508,-780.762,-381.836,-948.73,-288.086
1745824274.512,-1000.0,-312.5,-947.266,-1000.0
1745824274.516,-403.32,122.07,-152.832,-421.387
1745824274.52,924.316,459.961,999.512,876.465
1745824274.524,999.512,0.488,200.195,999.512
1745824274.481,999.512,300.293,999.512,999.512
1745824274.485,588.379,-142.578,16.602,793.457
1745824274.489,-786.133,-312.5,-898.438,-529.785
1745824274.493,-1000.0,-228.027,-828.125,-1000.0
1745824274.497,-322.754,100.098,-23.438,-325.684
1745824274.501,999.512,473.145,999.512,981.445
1745824274.505,600.586,19.043,135.254,969.238
1745824274.508,-780.762,-381.836,-948.73,-288.086
1745824274.512,-1000.0,-312.5,-947.266,-1000.0
1745824274.516,-403.32,122.07,-152.832,-421.387
1745824274.52,924.316,459.961,999.512,876.465
1745824274.524,999.512,0.488,200.195,999.512
1745824274.481,999.512,300.293,999.512,999.512
1745824274.485,588.379,-142.578,16.602,793.457
1745824274.489,-786.133,-312.5,-898.438,-529.785
1745824274.493,-1000.0,-228.027,-828.125,-1000.0
1745824274.497,-322.754,100.098,-23.438,-325.684
1745824274.501,999.512,473.145,999.512,981.445
1745824274.505,600.586,19.043,135.254,969.238
1745824274.508,-780.762,-381.836,-948.73,-288.086
1745824274.512,-1000.0,-312.5,-947.266,-1000.0
1745824274.516,-403.32,122.07,-152.832,-421.387
1745824274.52,924.316,459.961,999.512,876.465
1745824274.524,999.512,0.488,200.195,999.512
1745824274.527,-203.125,-296.387,-942.383,57.129
1745824274.531,-1000.0,-213.379,-967.773,-1000.0
1745824274.535,-544.922,70.312,-289.062,-619.141
1745824274.539,788.574,381.836,999.512,733.398
1745824274.543,999.512,71.289,330.566,999.512
1745824274.547,83.984,-250.488,-788.086,200.195
1745824274.551,-1000.0,-250.977,-904.785,-1000.0
1745824274.554,-895.508,-95.703,-491.699,-934.082
1745824274.558,403.32,243.164,956.055,364.746
1745824274.562,999.512,86.426,573.242,999.512
1745824274.566,125.0,-304.688,-694.336,143.066
1745824274.57,-1000.0,-297.363,-1000.0,-1000.0
1745824274.527,-203.125,-296.387,-942.383,57.129
1745824274.531,-1000.0,-213.379,-967.773,-1000.0
1745824274.535,-544.922,70.312,-289.062,-619.141
1745824274.539,788.574,381.836,999.512,733.398
1745824274.543,999.512,71.289,330.566,999.512
1745824274.547,83.984,-250.488,-788.086,200.195
1745824274.551,-1000.0,-250.977,-904.785,-1000.0
1745824274.554,-895.508,-95.703,-491.699,-934.082
1745824274.558,403.32,243.164,956.055,364.746
1745824274.562,999.512,86.426,573.242,999.512
1745824274.566,125.0,-304.688,-694.336,143.066
1745824274.57,-1000.0,-297.363,-1000.0,-1000.0
1745824274.586,-1000.0,-88.379,-553.711,-1000.0
1745824274.59,165.527,304.199,802.246,63.965
1745824274.594,999.512,276.855,803.711,999.512
1745824274.598,142.578,-201.66,-429.199,262.207
1745824274.602,-1000.0,-340.332,-959.473,-979.98
1745824274.606,-1000.0,13.672,-561.523,-1000.0
1745824274.61,1.953,390.625,710.938,-113.77
1745824274.613,999.512,253.906,964.844,999.512
1745824274.617,146.484,-314.941,-335.449,279.785
1745824274.621,-1000.0,-348.633,-1000.0,-979.98
1745824274.625,-1000.0,-104.004,-729.98,-1000.0
1745824274.629,-227.539,261.719,401.855,-232.91
1745824274.586,-1000.0,-88.379,-553.711,-1000.0
1745824274.59,165.527,304.199,802.246,63.965
1745824274.594,999.512,276.855,803.711,999.512
1745824274.598,142.578,-201.66,-429.199,262.207
1745824274.602,-1000.0,-340.332,-959.473,-979.98
1745824274.606,-1000.0,13.672,-561.523,-1000.0
1745824274.61,1.953,390.625,710.938,-113.77
1745824274.613,999.512,253.906,964.844,999.512
1745824274.617,146.484,-314.941,-335.449,279.785
1745824274.621,-1000.0,-348.633,-1000.0,-979.98
1745824274.625,-1000.0,-104.004,-729.98,-1000.0
1745824274.629,-227.539,261.719,401.855,-232.91
1745824274.631,999.512,342.285,999.512,999.512
1745824274.635,197.266,-222.168,-87.891,452.637
1745824274.639,-1000.0,-323.242,-958.008,-906.738
1745824274.643,-1000.0,-104.004,-727.539,-1000.0
1745824274.647,-263.672,217.773,245.117,-225.586
1745824274.651,999.512,458.984,999.512,999.512
1745824274.655,500.0,-5.371,79.59,774.902
1745824274.658,-860.352,-331.055,-926.27,-553.711
1745824274.662,-1000.0,-264.16,-898.438,-1000.0
1745824274.666,-341.797,145.02,-54.688,-417.48
1745824274.67,999.512,510.742,999.512,977.539
1745824274.674,737.305,-18.066,109.863,873.047
1745824274.631,999.512,342.285,999.512,999.512
1745824274.635,197.266,-222.168,-87.891,452.637
1745824274.639,-1000.0,-323.242,-958.008,-906.738
1745824274.643,-1000.0,-104.004,-727.539,-1000.0
1745824274.647,-263.672,217.773,245.117,-225.586
1745824274.651,999.512,458.984,999.512,999.512
1745824274.655,500.0,-5.371,79.59,774.902
1745824274.658,-860.352,-331.055,-926.27,-553.711
1745824274.662,-1000.0,-264.16,-898.438,-1000.0
1745824274.666,-341.797,145.02,-54.688,-417.48
1745824274.67,999.512,510.742,999.512,977.539
1745824274.674,737.305,-18.066,109.863,873.047
1745824274.676,-640.137,-298.828,-928.711,-472.168
1745824274.68,-1000.0,-109.863,-890.137,-1000.0
1745824274.684,-409.18,180.176,-131.348,-571.777
1745824274.688,928.711,483.398,999.512,793.945
1745824274.692,999.512,58.105,188.477,999.512
1745824274.696,-256.348,-246.094,-904.785,-159.18
1745824274.7,-1000.0,-120.605,-937.012,-1000.0
1745824274.703,-625.488,137.207,-270.02,-779.785
1745824274.707,734.375,521.484,999.512,535.156
1745824274.711,999.512,184.57,341.797,999.512
1745824274.715,-109.375,-268.066,-900.391,18.066
1745824274.719,-1000.0,-196.777,-1000.0,-1000.0
1745824274.676,-640.137,-298.828,-928.711,-472.168
1745824274.68,-1000.0,-109.863,-890.137,-1000.0
1745824274.684,-409.18,180.176,-131.348,-571.777
1745824274.688,928.711,483.398,999.512,793.945
1745824274.692,999.512,58.105,188.477,999.512
1745824274.696,-256.348,-246.094,-904.785,-159.18
1745824274.7,-1000.0,-120.605,-937.012,-1000.0
1745824274.703,-625.488,137.207,-270.02,-779.785
1745824274.707,734.375,521.484,999.512,535.156
1745824274.711,999.512,184.57,341.797,999.512
1745824274.715,-109.375,-268.066,-900.391,18.066
1745824274.719,-1000.0,-196.777,-1000.0,-1000.0
1745824274.766,999.512,272.949,956.055,999.512
1745824274.77,171.387,-159.18,-322.266,232.91
1745824274.774,-1000.0,-239.746,-960.938,-1000.0
1745824274.778,-1000.0,-47.363,-687.5,-1000.0
1745824274.782,-232.422,321.777,415.527,-260.254
1745824274.786,999.512,520.508,999.512,999.512
1745824274.79,251.953,-42.48,-20.02,395.996
1745824274.793,-1000.0,-301.27,-897.949,-936.523
1745824274.797,-1000.0,-166.504,-783.203,-1000.0
1745824274.801,-258.301,240.234,97.168,-295.41
1745824274.805,999.512,533.203,999.512,999.512
1745824274.809,340.82,-63.965,62.5,554.199
1745824274.766,999.512,272.949,956.055,999.512
1745824274.77,171.387,-159.18,-322.266,232.91
1745824274.774,-1000.0,-239.746,-960.938,-1000.0
1745824274.778,-1000.0,-47.363,-687.5,-1000.0
1745824274.782,-232.422,321.777,415.527,-260.254
1745824274.786,999.512,520.508,999.512,999.512
1745824274.79,251.953,-42.48,-20.02,395.996
1745824274.793,-1000.0,-301.27,-897.949,-936.523
1745824274.797,-1000.0,-166.504,-783.203,-1000.0
1745824274.801,-258.301,240.234,97.168,-295.41
1745824274.805,999.512,533.203,999.512,999.512
1745824274.809,340.82,-63.965,62.5,554.199
1745824274.814,-958.496,-235.84,-927.734,-837.891
1745824274.818,-1000.0,-17.09,-823.242,-1000.0
1745824274.822,-354.98,190.43,-0.488,-420.41
1745824274.826,999.512,469.238,999.512,989.746
1745824274.83,719.238,33.203,105.957,828.613
1745824274.834,-660.645,-209.473,-889.648,-539.062
1745824274.838,-1000.0,-129.883,-847.656,-1000.0
1745824274.841,-450.195,53.223,-181.152,-642.09
1745824274.845,921.387,448.73,999.512,762.695
1745824274.849,983.887,124.023,198.242,999.512
1745824274.853,-324.219,-207.031,-906.738,-355.469
1745824274.857,-1000.0,-86.914,-959.473,-1000.0
1745824274.814,-958.496,-235.84,-927.734,-837.891
1745824274.818,-1000.0,-17.09,-823.242,-1000.0
1745824274.822,-354.98,190.43,-0.488,-420.41
1745824274.826,999.512,469.238,999.512,989.746
1745824274.83,719.238,33.203,105.957,828.613
1745824274.834,-660.645,-209.473,-889.648,-539.062
1745824274.838,-1000.0,-129.883,-847.656,-1000.0
1745824274.841,-450.195,53.223,-181.152,-642.09
1745824274.845,921.387,448.73,999.512,762.695
1745824274.849,983.887,124.023,198.242,999.512
1745824274.853,-324.219,-207.031,-906.738,-355.469
1745824274.857,-1000.0,-86.914,-959.473,-1000.0
1745824274.856,-667.48,92.773,-312.988,-897.949
1745824274.86,689.453,433.105,999.512,362.793
1745824274.864,999.512,232.91,367.188,999.512
1745824274.868,-135.742,-184.082,-816.406,-109.375
1745824274.872,-1000.0,-160.645,-970.215,-1000.0
1745824274.876,-829.102,94.238,-347.656,-1000.0
1745824274.88,499.512,417.48,999.512,190.918
1745824274.883,999.512,188.965,597.656,999.512
1745824274.887,-156.25,-294.922,-688.477,-18.066
1745824274.891,-1000.0,-228.516,-1000.0,-1000.0
1745824274.895,-1000.0,45.41,-467.285,-1000.0
1745824274.899,41.992,360.352,872.07,-101.562
1745824274.916,999.512,291.992,818.359,999.512
1745824274.92,145.02,-182.129,-425.293,151.855
1745824274.924,-1000.0,-210.938,-944.824,-1000.0
1745824274.928,-1000.0,-8.789,-548.828,-1000.0
1745824274.932,-63.477,301.27,655.762,-197.754
1745824274.936,999.512,372.07,999.512,999.512
1745824274.94,145.02,-103.516,-191.895,227.051
1745824274.943,-1000.0,-281.25,-897.949,-1000.0
1745824274.947,-1000.0,-146.484,-747.559,-1000.0
1745824274.951,-249.023,307.617,281.738,-259.766
1745824274.955,999.512,495.117,999.512,999.512
1745824274.959,274.902,-125.0,-68.359,363.281
1745824274.916,999.512,291.992,818.359,999.512
1745824274.92,145.02,-182.129,-425.293,151.855
1745824274.924,-1000.0,-210.938,-944.824,-1000.0
1745824274.928,-1000.0,-8.789,-548.828,-1000.0
1745824274.932,-63.477,301.27,655.762,-197.754
1745824274.936,999.512,372.07,999.512,999.512
1745824274.94,145.02,-103.516,-191.895,227.051
1745824274.943,-1000.0,-281.25,-897.949,-1000.0
1745824274.947,-1000.0,-146.484,-747.559,-1000.0
1745824274.951,-249.023,307.617,281.738,-259.766
1745824274.955,999.512,495.117,999.512,999.512
1745824274.959,274.902,-125.0,-68.359,363.281
1745824274.961,-995.117,-298.34,-900.879,-953.125
1745824274.965,-1000.0,-86.426,-724.121,-1000.0
1745824274.969,-259.277,300.293,162.109,-281.25
1745824274.973,999.512,509.277,999.512,999.512
1745824274.977,485.84,-72.754,31.25,624.023
1745824274.981,-888.672,-209.473,-808.105,-747.559
1745824274.985,-1000.0,-21.973,-674.805,-1000.0
1745824274.988,-262.207,236.328,10.254,-368.652
1745824274.992,999.512,417.48,999.512,998.535
1745824274.996,767.578,-68.848,122.07,866.211
1745824275.0,-571.777,-294.434,-939.941,-466.309
1745824275.004,-1000.0,-155.273,-900.879,-1000.0
1745824274.961,-995.117,-298.34,-900.879,-953.125
1745824274.965,-1000.0,-86.426,-724.121,-1000.0
1745824274.969,-259.277,300.293,162.109,-281.25
1745824274.973,999.512,509.277,999.512,999.512
1745824274.977,485.84,-72.754,31.25,624.023
1745824274.981,-888.672,-209.473,-808.105,-747.559
1745824274.985,-1000.0,-21.973,-674.805,-1000.0
1745824274.988,-262.207,236.328,10.254,-368.652
1745824274.992,999.512,417.48,999.512,998.535
1745824274.996,767.578,-68.848,122.07,866.211
1745824275.0,-571.777,-294.434,-939.941,-466.309
1745824275.004,-1000.0,-155.273,-900.879,-1000.0
1745824275.021,-497.07,123.535,-109.863,-674.316
1745824275.025,901.367,521.484,999.512,704.102
1745824275.029,974.609,172.852,247.559,999.512
1745824275.033,-351.562,-270.996,-893.555,-241.211
1745824275.037,-1000.0,-179.199,-943.359,-1000.0
1745824275.041,-526.367,204.102,-214.844,-705.566
1745824275.045,821.289,530.273,999.512,620.605
1745824275.048,999.512,100.098,360.84,999.512
1745824275.052,-73.242,-321.289,-850.586,10.254
1745824275.056,-1000.0,-232.422,-1000.0,-1000.0
1745824275.06,-738.77,141.113,-403.32,-968.262
1745824275.064,585.449,495.605,999.512,267.578
1745824275.021,-497.07,123.535,-109.863,-674.316
1745824275.025,901.367,521.484,999.512,704.102
1745824275.029,974.609,172.852,247.559,999.512
1745824275.033,-351.562,-270.996,-893.555,-241.211
1745824275.037,-1000.0,-179.199,-943.359,-1000.0
1745824275.041,-526.367,204.102,-214.844,-705.566
1745824275.045,821.289,530.273,999.512,620.605
1745824275.048,999.512,100.098,360.84,999.512
1745824275.052,-73.242,-321.289,-850.586,10.254
1745824275.056,-1000.0,-232.422,-1000.0,-1000.0
1745824275.06,-738.77,141.113,-403.32,-968.262
1745824275.064,585.449,495.605,999.512,267.578
1745824275.051,999.512,127.93,535.156,999.512
1745824275.055,122.559,-246.094,-696.289,85.449
1745824275.059,-1000.0,-108.398,-970.215,-1000.0
1745824275.063,-1000.0,95.703,-441.895,-1000.0
1745824275.067,223.145,416.992,861.328,-77.148
1745824275.071,999.512,429.688,891.113,999.512
1745824275.075,125.488,-7.324,-295.898,146.484
1745824275.078,-1000.0,-104.98,-830.566,-1000.0
1745824275.082,-1000.0,32.227,-555.176,-1000.0
1745824275.086,-211.426,440.918,596.191,-243.164
1745824275.09,999.512,590.332,999.512,999.512
1745824275.094,164.062,47.363,-177.246,164.551
1745824275.051,999.512,127.93,535.156,999.512
1745824275.055,122.559,-246.094,-696.289,85.449
1745824275.059,-1000.0,-108.398,-970.215,-1000.0
1745824275.063,-1000.0,95.703,-441.895,-1000.0
1745824275.067,223.145,416.992,861.328,-77.148
1745824275.071,999.512,429.688,891.113,999.512
1745824275.075,125.488,-7.324,-295.898,146.484
1745824275.078,-1000.0,-104.98,-830.566,-1000.0
1745824275.082,-1000.0,32.227,-555.176,-1000.0
1745824275.086,-211.426,440.918,596.191,-243.164
1745824275.09,999.512,590.332,999.512,999.512
1745824275.094,164.062,47.363,-177.246,164.551
1745824275.051,999.512,127.93,535.156,999.512
1745824275.055,122.559,-246.094,-696.289,85.449
1745824275.059,-1000.0,-108.398,-970.215,-1000.0
1745824275.063,-1000.0,95.703,-441.895,-1000.0
1745824275.067,223.145,416.992,861.328,-77.148
1745824275.071,999.512,429.688,891.113,999.512
1745824275.075,125.488,-7.324,-295.898,146.484
1745824275.078,-1000.0,-104.98,-830.566,-1000.0
1745824275.082,-1000.0,32.227,-555.176,-1000.0
1745824275.086,-211.426,440.918,596.191,-243.164
1745824275.09,999.512,590.332,999.512,999.512
1745824275.094,164.062,47.363,-177.246,164.551
1745824275.099,-1000.0,12.207,-886.719,-1000.0
1745824275.103,-1000.0,259.277,-503.906,-1000.0
1745824275.107,-245.117,543.457,542.969,-264.16
1745824275.111,999.512,695.801,999.512,999.512
1745824275.115,210.938,75.684,-18.066,342.773
1745824275.119,-1000.0,-108.887,-783.203,-957.031
1745824275.123,-1000.0,112.793,-489.746,-1000.0
1745824275.126,-298.828,288.574,280.762,-375.977
1745824275.13,999.512,492.676,999.512,999.512
1745824275.134,406.25,-22.461,31.25,525.879
1745824275.138,-931.641,-230.957,-901.367,-859.375
1745824275.142,-1000.0,-3.906,-773.926,-1000.0
1745824275.099,-1000.0,12.207,-886.719,-1000.0
1745824275.103,-1000.0,259.277,-503.906,-1000.0
1745824275.107,-245.117,543.457,542.969,-264.16
1745824275.111,999.512,695.801,999.512,999.512
1745824275.115,210.938,75.684,-18.066,342.773
1745824275.119,-1000.0,-108.887,-783.203,-957.031
1745824275.123,-1000.0,112.793,-489.746,-1000.0
1745824275.126,-298.828,288.574,280.762,-375.977
1745824275.13,999.512,492.676,999.512,999.512
1745824275.134,406.25,-22.461,31.25,525.879
1745824275.138,-931.641,-230.957,-901.367,-859.375
1745824275.142,-1000.0,-3.906,-773.926,-1000.0
1745824275.141,-395.996,230.957,21.973,-573.73
1745824275.145,999.512,497.07,999.512,961.426
1745824275.149,499.512,-31.738,134.766,610.84
1745824275.153,-891.602,-326.66,-902.832,-848.633
1745824275.157,-1000.0,-127.441,-866.211,-1000.0
1745824275.161,-548.34,123.535,-138.672,-763.184
1745824275.165,952.637,497.07,999.512,689.453
1745824275.168,766.602,-62.988,246.094,900.391
1745824275.172,-675.781,-562.5,-946.777,-590.332
1745824275.176,-1000.0,-232.91,-1000.0,-1000.0
1745824275.18,-712.402,62.988,-254.883,-911.621
1745824275.184,672.363,381.348,999.512,361.328
1745824275.141,-395.996,230.957,21.973,-573.73
1745824275.145,999.512,497.07,999.512,961.426
1745824275.149,499.512,-31.738,134.766,610.84
1745824275.153,-891.602,-326.66,-902.832,-848.633
1745824275.157,-1000.0,-127.441,-866.211,-1000.0
1745824275.161,-548.34,123.535,-138.672,-763.184
1745824275.165,952.637,497.07,999.512,689.453
1745824275.168,766.602,-62.988,246.094,900.391
1745824275.172,-675.781,-562.5,-946.777,-590.332
1745824275.176,-1000.0,-232.91,-1000.0,-1000.0
1745824275.18,-712.402,62.988,-254.883,-911.621
1745824275.184,672.363,381.348,999.512,361.328
1745824275.186,999.512,72.754,389.648,999.512
1745824275.19,-349.609,-357.422,-812.012,-233.398
1745824275.194,-1000.0,-237.793,-1000.0,-1000.0
1745824275.198,-964.355,-88.379,-397.949,-1000.0
1745824275.202,233.887,220.215,994.629,42.969
1745824275.206,999.512,235.352,675.781,999.512
1745824275.21,-44.434,-413.086,-527.832,12.695
1745824275.213,-1000.0,-640.137,-952.148,-1000.0
1745824275.217,-1000.0,-218.75,-562.988,-1000.0
1745824275.221,36.133,243.652,765.625,-187.012
1745824275.225,999.512,245.117,883.301,999.512
1745824275.229,143.066,-280.762,-405.762,118.652
1745824275.231,-1000.0,-366.699,-957.52,-1000.0
1745824275.235,-1000.0,-180.176,-585.938,-1000.0
1745824275.239,-95.703,218.75,601.562,-250.977
1745824275.243,999.512,286.621,999.512,999.512
1745824275.247,148.926,-327.637,-229.492,168.945
1745824275.251,-1000.0,-271.973,-898.926,-1000.0
1745824275.255,-1000.0,68.848,-611.816,-1000.0
1745824275.258,-250.977,272.949,394.531,-260.742
1745824275.262,999.512,325.684,999.512,999.512
1745824275.266,175.781,-67.871,-85.449,239.258
1745824275.27,-1000.0,-60.059,-922.852,-999.512
1745824275.274,-1000.0,-93.75,-804.688,-1000.0
1745824275.231,-1000.0,-366.699,-957.52,-1000.0
1745824275.235,-1000.0,-180.176,-585.938,-1000.0
1745824275.239,-95.703,218.75,601.562,-250.977
1745824275.243,999.512,286.621,999.512,999.512
1745824275.247,148.926,-327.637,-229.492,168.945
1745824275.251,-1000.0,-271.973,-898.926,-1000.0
1745824275.255,-1000.0,68.848,-611.816,-1000.0
1745824275.258,-250.977,272.949,394.531,-260.742
1745824275.262,999.512,325.684,999.512,999.512
1745824275.266,175.781,-67.871,-85.449,239.258
1745824275.27,-1000.0,-60.059,-922.852,-999.512
1745824275.274,-1000.0,-93.75,-804.688,-1000.0
1745824275.291,-274.902,130.859,84.961,-430.176
1745824275.295,999.512,458.984,999.512,999.512
1745824275.299,347.168,-121.582,77.148,412.598
1745824275.303,-967.285,-371.094,-901.855,-945.312
1745824275.307,-1000.0,-146.973,-797.852,-1000.0
1745824275.311,-261.23,353.516,1.953,-474.609
1745824275.315,999.512,639.16,999.512,999.512
1745824275.318,524.414,-119.629,121.582,613.281
1745824275.322,-844.238,-438.965,-972.656,-803.711
1745824275.326,-1000.0,-147.949,-984.375,-1000.0
1745824275.33,-417.969,175.293,-137.207,-679.199
1745824275.334,952.148,512.695,999.512,737.305
1745824275.291,-274.902,130.859,84.961,-430.176
1745824275.295,999.512,458.984,999.512,999.512
1745824275.299,347.168,-121.582,77.148,412.598
1745824275.303,-967.285,-371.094,-901.855,-945.312
1745824275.307,-1000.0,-146.973,-797.852,-1000.0
1745824275.311,-261.23,353.516,1.953,-474.609
1745824275.315,999.512,639.16,999.512,999.512
1745824275.318,524.414,-119.629,121.582,613.281
1745824275.322,-844.238,-438.965,-972.656,-803.711
1745824275.326,-1000.0,-147.949,-984.375,-1000.0
1745824275.33,-417.969,175.293,-137.207,-679.199
1745824275.334,952.148,512.695,999.512,737.305
1745824275.336,946.289,59.57,247.07,999.512
1745824275.34,-365.723,-368.164,-922.363,-381.348
1745824275.344,-1000.0,-161.133,-1000.0,-1000.0
1745824275.348,-561.523,90.82,-292.48,-884.277
1745824275.352,771.484,404.297,999.512,364.258
1745824275.356,999.512,208.496,458.496,999.512
1745824275.36,-19.531,-230.957,-794.922,-19.043
1745824275.363,-1000.0,-313.965,-1000.0,-1000.0
1745824275.367,-988.77,-111.816,-434.57,-1000.0
1745824275.371,244.141,284.18,971.68,41.992
1745824275.375,999.512,158.203,683.594,999.512
1745824275.379,-18.066,-282.715,-571.777,125.488
1745824275.336,946.289,59.57,247.07,999.512
1745824275.34,-365.723,-368.164,-922.363,-381.348
1745824275.344,-1000.0,-161.133,-1000.0,-1000.0
1745824275.348,-561.523,90.82,-292.48,-884.277
1745824275.352,771.484,404.297,999.512,364.258
1745824275.356,999.512,208.496,458.496,999.512
1745824275.36,-19.531,-230.957,-794.922,-19.043
1745824275.363,-1000.0,-313.965,-1000.0,-1000.0
1745824275.367,-988.77,-111.816,-434.57,-1000.0
1745824275.371,244.141,284.18,971.68,41.992
1745824275.375,999.512,158.203,683.594,999.512
1745824275.379,-18.066,-282.715,-571.777,125.488
1745824275.336,946.289,59.57,247.07,999.512
1745824275.34,-365.723,-368.164,-922.363,-381.348
1745824275.344,-1000.0,-161.133,-1000.0,-1000.0
1745824275.348,-561.523,90.82,-292.48,-884.277
1745824275.352,771.484,404.297,999.512,364.258
1745824275.356,999.512,208.496,458.496,999.512
1745824275.36,-19.531,-230.957,-794.922,-19.043
1745824275.363,-1000.0,-313.965,-1000.0,-1000.0
1745824275.367,-988.77,-111.816,-434.57,-1000.0
1745824275.371,244.141,284.18,971.68,41.992
1745824275.375,999.512,158.203,683.594,999.512
1745824275.379,-18.066,-282.715,-571.777,125.488
1745824275.383,-1000.0,-330.566,-1000.0,-1000.0
1745824275.387,-1000.0,-64.453,-458.008,-1000.0
1745824275.391,31.738,327.148,862.305,-7.812
1745824275.395,999.512,208.008,899.414,999.512
1745824275.399,122.07,-310.547,-357.91,142.09
1745824275.403,-1000.0,-261.23,-958.008,-1000.0
1745824275.407,-1000.0,-35.645,-487.793,-1000.0
1745824275.41,-165.527,209.473,663.574,-247.559
1745824275.414,999.512,323.73,999.512,999.512
1745824275.418,284.18,-203.125,-158.691,332.031
1745824275.422,-984.375,-391.113,-960.449,-970.215
1745824275.426,-1000.0,-137.695,-629.883,-1000.0
1745824275.383,-1000.0,-330.566,-1000.0,-1000.0
1745824275.387,-1000.0,-64.453,-458.008,-1000.0
1745824275.391,31.738,327.148,862.305,-7.812
1745824275.395,999.512,208.008,899.414,999.512
1745824275.399,122.07,-310.547,-357.91,142.09
1745824275.403,-1000.0,-261.23,-958.008,-1000.0
1745824275.407,-1000.0,-35.645,-487.793,-1000.0
1745824275.41,-165.527,209.473,663.574,-247.559
1745824275.414,999.512,323.73,999.512,999.512
1745824275.418,284.18,-203.125,-158.691,332.031
1745824275.422,-984.375,-391.113,-960.449,-970.215
1745824275.426,-1000.0,-137.695,-629.883,-1000.0
1745824275.426,-222.656,234.375,450.195,-242.676
1745824275.43,999.512,358.887,999.512,999.512
1745824275.434,597.168,-130.859,27.344,686.035
1745824275.438,-789.551,-312.988,-939.453,-681.152
1745824275.442,-1000.0,-120.117,-807.617,-1000.0
1745824275.446,-221.68,198.242,163.574,-209.473
1745824275.45,999.512,420.898,999.512,999.512
1745824275.453,718.262,-92.285,99.609,876.953
1745824275.457,-632.812,-313.477,-982.422,-399.414
1745824275.461,-1000.0,-163.086,-946.777,-1000.0
1745824275.465,-331.543,114.258,-45.41,-429.688
1745824275.469,993.164,421.387,999.512,920.41
1745824275.426,-222.656,234.375,450.195,-242.676
1745824275.43,999.512,358.887,999.512,999.512
1745824275.434,597.168,-130.859,27.344,686.035
1745824275.438,-789.551,-312.988,-939.453,-681.152
1745824275.442,-1000.0,-120.117,-807.617,-1000.0
1745824275.446,-221.68,198.242,163.574,-209.473
1745824275.45,999.512,420.898,999.512,999.512
1745824275.453,718.262,-92.285,99.609,876.953
1745824275.457,-632.812,-313.477,-982.422,-399.414
1745824275.461,-1000.0,-163.086,-946.777,-1000.0
1745824275.465,-331.543,114.258,-45.41,-429.688
1745824275.469,993.164,421.387,999.512,920.41
1745824275.471,926.758,-73.242,143.066,999.512
1745824275.475,-368.652,-404.785,-973.145,-230.469
1745824275.479,-1000.0,-256.836,-975.586,-1000.0
1745824275.483,-369.141,74.219,-141.602,-525.879
1745824275.487,901.367,377.441,999.512,799.316
1745824275.491,999.512,69.824,298.34,999.512
1745824275.495,39.062,-284.18,-858.398,97.656
1745824275.498,-1000.0,-354.004,-988.77,-1000.0
1745824275.502,-747.559,-152.832,-360.84,-915.039
1745824275.506,589.844,284.18,999.512,370.605
1745824275.51,999.512,117.676,420.41,999.512
1745824275.514,160.645,-319.824,-807.617,144.531
1745824275.516,-1000.0,-362.305,-1000.0,-1000.0
1745824275.52,-928.223,-116.211,-419.922,-1000.0
1745824275.524,371.582,303.223,986.816,179.199
1745824275.528,999.512,171.875,662.598,999.512
1745824275.532,120.117,-363.281,-630.371,143.066
1745824275.536,-1000.0,-347.168,-1000.0,-1000.0
1745824275.54,-1000.0,-42.48,-472.168,-1000.0
1745824275.543,82.031,259.277,834.473,1.465
1745824275.547,999.512,167.48,855.957,999.512
1745824275.551,141.113,-321.289,-407.715,258.301
1745824275.555,-1000.0,-424.316,-1000.0,-970.703
1745824275.559,-1000.0,-189.453,-667.48,-1000.0
1745824275.516,-1000.0,-362.305,-1000.0,-1000.0
1745824275.52,-928.223,-116.211,-419.922,-1000.0
1745824275.524,371.582,303.223,986.816,179.199
1745824275.528,999.512,171.875,662.598,999.512
1745824275.532,120.117,-363.281,-630.371,143.066
1745824275.536,-1000.0,-347.168,-1000.0,-1000.0
1745824275.54,-1000.0,-42.48,-472.168,-1000.0
1745824275.543,82.031,259.277,834.473,1.465
1745824275.547,999.512,167.48,855.957,999.512
1745824275.551,141.113,-321.289,-407.715,258.301
1745824275.555,-1000.0,-424.316,-1000.0,-970.703
1745824275.559,-1000.0,-189.453,-667.48,-1000.0
1745824275.561,-178.223,191.406,552.734,-250.488
1745824275.565,999.512,261.23,999.512,999.512
1745824275.569,270.996,-251.465,-189.453,326.172
1745824275.573,-989.746,-382.324,-999.023,-975.098
1745824275.577,-1000.0,-235.352,-770.508,-1000.0
1745824275.581,-247.07,205.566,308.594,-252.93
1745824275.585,999.512,575.684,999.512,999.512
1745824275.588,394.531,-67.383,-13.672,545.898
1745824275.592,-940.918,-526.367,-1000.0,-833.984
1745824275.596,-1000.0,-269.043,-869.141,-1000.0
1745824275.6,-249.023,154.297,130.859,-276.855
1745824275.604,999.512,422.363,999.512,999.512
1745824275.561,-178.223,191.406,552.734,-250.488
1745824275.565,999.512,261.23,999.512,999.512
1745824275.569,270.996,-251.465,-189.453,326.172
1745824275.573,-989.746,-382.324,-999.023,-975.098
1745824275.577,-1000.0,-235.352,-770.508,-1000.0
1745824275.581,-247.07,205.566,308.594,-252.93
1745824275.585,999.512,575.684,999.512,999.512
1745824275.588,394.531,-67.383,-13.672,545.898
1745824275.592,-940.918,-526.367,-1000.0,-833.984
1745824275.596,-1000.0,-269.043,-869.141,-1000.0
1745824275.6,-249.023,154.297,130.859,-276.855
1745824275.604,999.512,422.363,999.512,999.512
1745824275.561,-178.223,191.406,552.734,-250.488
1745824275.565,999.512,261.23,999.512,999.512
1745824275.569,270.996,-251.465,-189.453,326.172
1745824275.573,-989.746,-382.324,-999.023,-975.098
1745824275.577,-1000.0,-235.352,-770.508,-1000.0
1745824275.581,-247.07,205.566,308.594,-252.93
1745824275.585,999.512,575.684,999.512,999.512
1745824275.588,394.531,-67.383,-13.672,545.898
1745824275.592,-940.918,-526.367,-1000.0,-833.984
1745824275.596,-1000.0,-269.043,-869.141,-1000.0
1745824275.6,-249.023,154.297,130.859,-276.855
1745824275.604,999.512,422.363,999.512,999.512
1745824275.607,441.895,-189.453,116.699,705.566
1745824275.611,-903.32,-502.441,-992.188,-654.297
1745824275.615,-1000.0,-146.484,-946.777,-1000.0
1745824275.619,-351.074,154.297,-22.461,-454.59
1745824275.623,948.242,342.773,999.512,875.488
1745824275.627,999.512,58.594,164.062,999.512
1745824275.631,-181.641,-39.551,-926.27,-117.188
1745824275.634,-1000.0,-155.762,-977.539,-1000.0
1745824275.638,-642.578,-122.559,-218.75,-778.32
1745824275.642,746.094,375.0,999.512,555.176
1745824275.646,999.512,150.391,266.113,999.512
1745824275.65,-160.645,-382.324,-931.152,-43.457
1745824275.607,441.895,-189.453,116.699,705.566
1745824275.611,-903.32,-502.441,-992.188,-654.297
1745824275.615,-1000.0,-146.484,-946.777,-1000.0
1745824275.619,-351.074,154.297,-22.461,-454.59
1745824275.623,948.242,342.773,999.512,875.488
1745824275.627,999.512,58.594,164.062,999.512
1745824275.631,-181.641,-39.551,-926.27,-117.188
1745824275.634,-1000.0,-155.762,-977.539,-1000.0
1745824275.638,-642.578,-122.559,-218.75,-778.32
1745824275.642,746.094,375.0,999.512,555.176
1745824275.646,999.512,150.391,266.113,999.512
1745824275.65,-160.645,-382.324,-931.152,-43.457
1745824275.607,441.895,-189.453,116.699,705.566
1745824275.611,-903.32,-502.441,-992.188,-654.297
1745824275.615,-1000.0,-146.484,-946.777,-1000.0
1745824275.619,-351.074,154.297,-22.461,-454.59
1745824275.623,948.242,342.773,999.512,875.488
1745824275.627,999.512,58.594,164.062,999.512
1745824275.631,-181.641,-39.551,-926.27,-117.188
1745824275.634,-1000.0,-155.762,-977.539,-1000.0
1745824275.638,-642.578,-122.559,-218.75,-778.32
1745824275.642,746.094,375.0,999.512,555.176
1745824275.646,999.512,150.391,266.113,999.512
1745824275.65,-160.645,-382.324,-931.152,-43.457
1745824275.666,-1000.0,-348.633,-1000.0,-1000.0
1745824275.67,-685.547,22.461,-312.012,-841.309
1745824275.674,669.922,394.043,999.512,460.449
1745824275.678,999.512,46.387,425.781,999.512
1745824275.682,-82.031,-471.68,-860.352,64.453
1745824275.686,-1000.0,-134.766,-1000.0,-1000.0
1745824275.69,-1000.0,210.449,-357.422,-1000.0
1745824275.693,124.512,149.902,999.512,-7.812
1745824275.697,999.512,62.5,687.988,999.512
1745824275.701,86.914,-344.238,-601.074,105.957
1745824275.705,-1000.0,-382.812,-1000.0,-1000.0
1745824275.709,-1000.0,-152.832,-492.188,-1000.0
1745824275.666,-1000.0,-348.633,-1000.0,-1000.0
1745824275.67,-685.547,22.461,-312.012,-841.309
1745824275.674,669.922,394.043,999.512,460.449
1745824275.678,999.512,46.387,425.781,999.512
1745824275.682,-82.031,-471.68,-860.352,64.453
1745824275.686,-1000.0,-134.766,-1000.0,-1000.0
1745824275.69,-1000.0,210.449,-357.422,-1000.0
1745824275.693,124.512,149.902,999.512,-7.812
1745824275.697,999.512,62.5,687.988,999.512
1745824275.701,86.914,-344.238,-601.074,105.957
1745824275.705,-1000.0,-382.812,-1000.0,-1000.0
1745824275.709,-1000.0,-152.832,-492.188,-1000.0
1745824275.711,-39.551,174.316,817.383,-190.918
1745824275.715,999.512,196.289,949.707,999.512
1745824275.719,145.508,-309.57,-340.82,160.645
1745824275.723,-1000.0,-422.852,-1000.0,-1000.0
1745824275.727,-1000.0,-141.602,-654.297,-1000.0
1745824275.731,-194.336,339.355,566.406,-264.648
1745824275.735,999.512,340.332,999.512,999.512
1745824275.738,197.754,-314.941,-174.805,332.031
1745824275.742,-1000.0,-535.156,-1000.0,-971.68
1745824275.746,-1000.0,-206.055,-817.383,-1000.0
1745824275.75,-257.812,254.395,340.82,-269.043
1745824275.754,999.512,345.703,999.512,999.512
1745824275.756,242.188,-300.293,10.254,342.285
1745824275.76,-1000.0,-475.098,-1000.0,-956.055
1745824275.764,-1000.0,-179.199,-863.281,-1000.0
1745824275.768,-310.059,130.859,160.645,-459.961
1745824275.772,999.512,369.629,999.512,999.512
1745824275.776,552.734,-144.043,61.523,674.805
1745824275.78,-821.289,-421.387,-991.211,-733.887
1745824275.783,-1000.0,-277.832,-975.586,-1000.0
1745824275.787,-477.539,-17.09,-68.848,-622.559
1745824275.791,951.172,342.773,999.512,786.133
1745824275.795,877.441,-91.797,129.395,998.047
1745824275.799,-494.141,-432.617,-989.258,-370.605
1745824275.756,242.188,-300.293,10.254,342.285
1745824275.76,-1000.0,-475.098,-1000.0,-956.055
1745824275.764,-1000.0,-179.199,-863.281,-1000.0
1745824275.768,-310.059,130.859,160.645,-459.961
1745824275.772,999.512,369.629,999.512,999.512
1745824275.776,552.734,-144.043,61.523,674.805
1745824275.78,-821.289,-421.387,-991.211,-733.887
1745824275.783,-1000.0,-277.832,-975.586,-1000.0
1745824275.787,-477.539,-17.09,-68.848,-622.559
1745824275.791,951.172,342.773,999.512,786.133
1745824275.795,877.441,-91.797,129.395,998.047
1745824275.799,-494.141,-432.617,-989.258,-370.605
1745824275.801,-1000.0,-512.207,-1000.0,-1000.0
1745824275.805,-608.887,-203.613,-220.215,-753.418
1745824275.809,828.125,407.715,999.512,600.098
1745824275.813,955.566,-12.695,255.371,999.512
1745824275.817,-452.637,-400.879,-946.777,-222.168
1745824275.821,-1000.0,-190.43,-1000.0,-1000.0
1745824275.825,-886.23,-22.949,-318.848,-975.586
1745824275.828,406.738,311.035,999.512,222.168
1745824275.832,999.512,254.395,377.441,999.512
1745824275.836,-195.801,-167.969,-861.328,-58.594
1745824275.84,-1000.0,-285.645,-1000.0,-1000.0
1745824275.844,-1000.0,-149.414,-466.309,-1000.0
1745824275.801,-1000.0,-512.207,-1000.0,-1000.0
1745824275.805,-608.887,-203.613,-220.215,-753.418
1745824275.809,828.125,407.715,999.512,600.098
1745824275.813,955.566,-12.695,255.371,999.512
1745824275.817,-452.637,-400.879,-946.777,-222.168
1745824275.821,-1000.0,-190.43,-1000.0,-1000.0
1745824275.825,-886.23,-22.949,-318.848,-975.586
1745824275.828,406.738,311.035,999.512,222.168
1745824275.832,999.512,254.395,377.441,999.512
1745824275.836,-195.801,-167.969,-861.328,-58.594
1745824275.84,-1000.0,-285.645,-1000.0,-1000.0
1745824275.844,-1000.0,-149.414,-466.309,-1000.0
1745824275.846,142.578,255.859,958.984,-32.715
1745824275.85,999.512,186.035,695.312,999.512
1745824275.854,110.84,-336.426,-658.691,125.0
1745824275.858,-1000.0,-332.52,-1000.0,-1000.0
1745824275.862,-1000.0,-138.672,-635.254,-1000.0
1745824275.866,-90.332,283.203,684.57,-184.082
1745824275.87,999.512,287.109,919.922,999.512
1745824275.873,130.859,-420.41,-433.594,160.156
1745824275.877,-1000.0,-482.422,-1000.0,-1000.0
1745824275.881,-1000.0,-173.34,-694.824,-1000.0
1745824275.885,-258.301,201.172,514.16,-261.23
1745824275.889,999.512,342.285,999.512,999.512
1745824275.846,142.578,255.859,958.984,-32.715
1745824275.85,999.512,186.035,695.312,999.512
1745824275.854,110.84,-336.426,-658.691,125.0
1745824275.858,-1000.0,-332.52,-1000.0,-1000.0
1745824275.862,-1000.0,-138.672,-635.254,-1000.0
1745824275.866,-90.332,283.203,684.57,-184.082
1745824275.87,999.512,287.109,919.922,999.512
1745824275.873,130.859,-420.41,-433.594,160.156
1745824275.877,-1000.0,-482.422,-1000.0,-1000.0
1745824275.881,-1000.0,-173.34,-694.824,-1000.0
1745824275.885,-258.301,201.172,514.16,-261.23
1745824275.889,999.512,342.285,999.512,999.512
1745824275.891,197.754,-253.906,-104.492,260.254
1745824275.895,-1000.0,-502.93,-1000.0,-1000.0
1745824275.899,-1000.0,-209.473,-815.43,-1000.0
1745824275.903,-259.766,251.465,301.758,-283.203
1745824275.907,999.512,347.656,999.512,999.512
1745824275.911,413.086,-194.824,-19.043,389.16
1745824275.915,-933.594,-387.207,-955.078,-934.082
1745824275.918,-1000.0,-202.148,-854.004,-1000.0
1745824275.922,-248.047,94.238,65.918,-406.738
1745824275.926,999.512,346.68,999.512,999.512
1745824275.93,464.844,-160.645,82.031,671.875
1745824275.934,-885.254,-452.637,-994.141,-724.121
1745824275.891,197.754,-253.906,-104.492,260.254
1745824275.895,-1000.0,-502.93,-1000.0,-1000.0
1745824275.899,-1000.0,-209.473,-815.43,-1000.0
1745824275.903,-259.766,251.465,301.758,-283.203
1745824275.907,999.512,347.656,999.512,999.512
1745824275.911,413.086,-194.824,-19.043,389.16
1745824275.915,-933.594,-387.207,-955.078,-934.082
1745824275.918,-1000.0,-202.148,-854.004,-1000.0
1745824275.922,-248.047,94.238,65.918,-406.738
1745824275.926,999.512,346.68,999.512,999.512
1745824275.93,464.844,-160.645,82.031,671.875
1745824275.934,-885.254,-452.637,-994.141,-724.121
1745824275.937,-1000.0,-291.016,-981.445,-1000.0
1745824275.941,-496.094,46.875,-85.938,-495.117
1745824275.945,999.512,465.332,999.512,905.273
1745824275.949,590.82,-105.469,148.438,968.262
1745824275.953,-833.008,-494.629,-984.375,-355.469
1745824275.957,-1000.0,-263.672,-1000.0,-1000.0
1745824275.961,-506.348,277.344,-162.109,-535.156
1745824275.964,871.094,590.82,999.512,804.199
1745824275.968,999.512,-43.945,251.953,999.512
1745824275.972,-237.793,-426.758,-940.918,-45.41
1745824275.976,-1000.0,-335.938,-1000.0,-1000.0
1745824275.98,-725.098,-95.703,-358.398,-930.664
1745824275.937,-1000.0,-291.016,-981.445,-1000.0
1745824275.941,-496.094,46.875,-85.938,-495.117
1745824275.945,999.512,465.332,999.512,905.273
1745824275.949,590.82,-105.469,148.438,968.262
1745824275.953,-833.008,-494.629,-984.375,-355.469
1745824275.957,-1000.0,-263.672,-1000.0,-1000.0
1745824275.961,-506.348,277.344,-162.109,-535.156
1745824275.964,871.094,590.82,999.512,804.199
1745824275.968,999.512,-43.945,251.953,999.512
1745824275.972,-237.793,-426.758,-940.918,-45.41
1745824275.976,-1000.0,-335.938,-1000.0,-1000.0
1745824275.98,-725.098,-95.703,-358.398,-930.664
1745824275.981,575.684,237.793,999.512,312.012
1745824275.985,999.512,29.785,465.82,999.512
1745824275.989,142.09,-361.816,-813.965,118.652
1745824275.993,-1000.0,-360.352,-1000.0,-1000.0
1745824275.997,-962.891,-128.418,-466.797,-1000.0
1745824276.001,307.617,276.367,949.707,78.125
1745824276.005,999.512,244.629,708.984,999.512
1745824276.008,121.582,-305.176,-610.352,131.348
1745824276.012,-1000.0,-524.902,-1000.0,-1000.0
1745824276.016,-1000.0,-217.285,-605.957,-1000.0
1745824276.02,-72.266,218.262,706.543,-184.082
1745824276.024,999.512,196.289,936.523,999.512
1745824275.981,575.684,237.793,999.512,312.012
1745824275.985,999.512,29.785,465.82,999.512
1745824275.989,142.09,-361.816,-813.965,118.652
1745824275.993,-1000.0,-360.352,-1000.0,-1000.0
1745824275.997,-962.891,-128.418,-466.797,-1000.0
1745824276.001,307.617,276.367,949.707,78.125
1745824276.005,999.512,244.629,708.984,999.512
1745824276.008,121.582,-305.176,-610.352,131.348
1745824276.012,-1000.0,-524.902,-1000.0,-1000.0
1745824276.016,-1000.0,-217.285,-605.957,-1000.0
1745824276.02,-72.266,218.262,706.543,-184.082
1745824276.024,999.512,196.289,936.523,999.512
1745824276.042,146.484,-361.816,-374.512,215.332
1745824276.046,-1000.0,-445.801,-1000.0,-1000.0
1745824276.05,-1000.0,-204.102,-674.316,-1000.0
1745824276.054,-236.816,168.457,529.297,-259.766
1745824276.058,999.512,290.039,999.512,999.512
1745824276.062,377.441,-190.918,-108.887,553.223
1745824276.066,-947.754,-390.625,-979.004,-823.242
1745824276.069,-1000.0,-257.324,-770.02,-1000.0
1745824276.073,-249.512,90.82,306.152,-229.98
1745824276.077,999.512,261.719,999.512,999.512
1745824276.081,525.879,-216.309,-11.719,676.758
1745824276.085,-855.957,-409.668,-976.562,-687.5
1745824276.042,146.484,-361.816,-374.512,215.332
1745824276.046,-1000.0,-445.801,-1000.0,-1000.0
1745824276.05,-1000.0,-204.102,-674.316,-1000.0
1745824276.054,-236.816,168.457,529.297,-259.766
1745824276.058,999.512,290.039,999.512,999.512
1745824276.062,377.441,-190.918,-108.887,553.223
1745824276.066,-947.754,-390.625,-979.004,-823.242
1745824276.069,-1000.0,-257.324,-770.02,-1000.0
1745824276.073,-249.512,90.82,306.152,-229.98
1745824276.077,999.512,261.719,999.512,999.512
1745824276.081,525.879,-216.309,-11.719,676.758
1745824276.085,-855.957,-409.668,-976.562,-687.5
1745824276.086,-1000.0,-262.207,-896.973,-1000.0
1745824276.09,-235.84,139.648,67.383,-294.434
1745824276.094,999.512,423.34,999.512,999.512
1745824276.098,753.906,-96.191,109.375,929.688
1745824276.102,-598.633,-345.703,-977.539,-346.68
1745824276.106,-1000.0,-174.805,-925.293,-1000.0
1745824276.11,-307.617,153.32,-20.996,-366.211
1745824276.113,999.512,430.176,999.512,957.52
1745824276.117,768.066,-212.891,143.066,992.676
1745824276.121,-583.496,-621.094,-984.863,-255.371
1745824276.125,-1000.0,-170.41,-1000.0,-1000.0
1745824276.129,-497.07,267.09,-227.051,-633.301
1745824276.086,-1000.0,-262.207,-896.973,-1000.0
1745824276.09,-235.84,139.648,67.383,-294.434
1745824276.094,999.512,423.34,999.512,999.512
1745824276.098,753.906,-96.191,109.375,929.688
1745824276.102,-598.633,-345.703,-977.539,-346.68
1745824276.106,-1000.0,-174.805,-925.293,-1000.0
1745824276.11,-307.617,153.32,-20.996,-366.211
1745824276.113,999.512,430.176,999.512,957.52
1745824276.117,768.066,-212.891,143.066,992.676
1745824276.121,-583.496,-621.094,-984.863,-255.371
1745824276.125,-1000.0,-170.41,-1000.0,-1000.0
1745824276.129,-497.07,267.09,-227.051,-633.301
1745824276.131,830.078,566.895,999.512,692.871
1745824276.135,999.512,254.883,319.336,999.512
1745824276.139,-7.812,29.297,-902.832,70.312
1745824276.143,-1000.0,100.586,-1000.0,-1000.0
1745824276.147,-854.492,232.422,-370.605,-993.652
1745824276.151,472.656,739.746,999.512,237.793
1745824276.155,999.512,544.922,543.457,999.512
1745824276.158,-53.711,-62.012,-763.184,77.148
1745824276.162,-1000.0,-133.301,-1000.0,-1000.0
1745824276.166,-1000.0,76.172,-408.203,-1000.0
1745824276.17,134.277,605.957,980.469,-2.93
1745824276.174,999.512,609.863,742.188,999.512
1745824276.131,830.078,566.895,999.512,692.871
1745824276.135,999.512,254.883,319.336,999.512
1745824276.139,-7.812,29.297,-902.832,70.312
1745824276.143,-1000.0,100.586,-1000.0,-1000.0
1745824276.147,-854.492,232.422,-370.605,-993.652
1745824276.151,472.656,739.746,999.512,237.793
1745824276.155,999.512,544.922,543.457,999.512
1745824276.158,-53.711,-62.012,-763.184,77.148
1745824276.162,-1000.0,-133.301,-1000.0,-1000.0
1745824276.166,-1000.0,76.172,-408.203,-1000.0
1745824276.17,134.277,605.957,980.469,-2.93
1745824276.174,999.512,609.863,742.188,999.512
1745824276.176,144.531,145.996,-437.5,227.051
1745824276.18,-1000.0,-86.426,-934.082,-1000.0
1745824276.184,-1000.0,150.391,-561.523,-1000.0
1745824276.188,54.199,546.387,770.996,-68.359
1745824276.192,999.512,380.859,910.645,999.512
1745824276.196,351.562,119.629,-321.289,541.016
1745824276.2,-924.805,116.211,-829.102,-783.691
1745824276.203,-1000.0,220.215,-669.922,-1000.0
1745824276.207,-218.262,474.609,437.012,-229.98
1745824276.211,999.512,601.562,999.512,999.512
1745824276.215,408.691,137.695,-145.996,581.543
1745824276.219,-933.105,-156.738,-1000.0,-793.457
1745824276.176,144.531,145.996,-437.5,227.051
1745824276.18,-1000.0,-86.426,-934.082,-1000.0
1745824276.184,-1000.0,150.391,-561.523,-1000.0
1745824276.188,54.199,546.387,770.996,-68.359
1745824276.192,999.512,380.859,910.645,999.512
1745824276.196,351.562,119.629,-321.289,541.016
1745824276.2,-924.805,116.211,-829.102,-783.691
1745824276.203,-1000.0,220.215,-669.922,-1000.0
1745824276.207,-218.262,474.609,437.012,-229.98
1745824276.211,999.512,601.562,999.512,999.512
1745824276.215,408.691,137.695,-145.996,581.543
1745824276.219,-933.105,-156.738,-1000.0,-793.457
1745824276.176,144.531,145.996,-437.5,227.051
1745824276.18,-1000.0,-86.426,-934.082,-1000.0
1745824276.184,-1000.0,150.391,-561.523,-1000.0
1745824276.188,54.199,546.387,770.996,-68.359
1745824276.192,999.512,380.859,910.645,999.512
1745824276.196,351.562,119.629,-321.289,541.016
1745824276.2,-924.805,116.211,-829.102,-783.691
1745824276.203,-1000.0,220.215,-669.922,-1000.0
1745824276.207,-218.262,474.609,437.012,-229.98
1745824276.211,999.512,601.562,999.512,999.512
1745824276.215,408.691,137.695,-145.996,581.543
1745824276.219,-933.105,-156.738,-1000.0,-793.457
1745824276.224,-1000.0,169.434,-773.926,-1000.0
1745824276.228,-238.77,570.312,341.309,-208.496
1745824276.232,999.512,673.828,999.512,999.512
1745824276.236,605.957,124.512,80.078,850.098
1745824276.24,-780.273,-128.418,-1000.0,-454.59
1745824276.244,-1000.0,457.031,-926.758,-1000.0
1745824276.248,-160.645,880.859,132.812,-156.25
1745824276.251,999.512,971.191,999.512,999.512
1745824276.255,875.488,858.887,55.176,875.0
1745824276.259,999.512,851.562,-970.703,999.512
1745824276.263,55.176,840.82,-924.316,62.988
1745824276.267,-583.496,861.328,-102.539,-585.938
1745824276.224,-1000.0,169.434,-773.926,-1000.0
1745824276.228,-238.77,570.312,341.309,-208.496
1745824276.232,999.512,673.828,999.512,999.512
1745824276.236,605.957,124.512,80.078,850.098
1745824276.24,-780.273,-128.418,-1000.0,-454.59
1745824276.244,-1000.0,457.031,-926.758,-1000.0
1745824276.248,-160.645,880.859,132.812,-156.25
1745824276.251,999.512,971.191,999.512,999.512
1745824276.255,875.488,858.887,55.176,875.0
1745824276.259,999.512,851.562,-970.703,999.512
1745824276.263,55.176,840.82,-924.316,62.988
1745824276.267,-583.496,861.328,-102.539,-585.938
1745824276.266,911.621,984.863,999.512,870.117
1745824276.27,999.512,961.914,166.504,999.512
1745824276.274,-132.812,967.285,-646.973,105.469
1745824276.278,-1000.0,967.285,131.348,-1000.0
1745824276.282,-649.902,966.797,674.316,-713.379
1745824276.286,658.691,967.285,991.699,636.23
1745824276.29,999.512,967.285,939.453,999.512
1745824276.293,904.297,966.797,953.125,904.297
1745824276.297,979.98,966.797,969.238,979.492
1745824276.301,963.867,967.285,967.285,966.797
1745824276.305,975.098,967.285,966.797,980.957
1745824276.309,895.02,967.285,966.797,905.762
1745824276.266,911.621,984.863,999.512,870.117
1745824276.27,999.512,961.914,166.504,999.512
1745824276.274,-132.812,967.285,-646.973,105.469
1745824276.278,-1000.0,967.285,131.348,-1000.0
1745824276.282,-649.902,966.797,674.316,-713.379
1745824276.286,658.691,967.285,991.699,636.23
1745824276.29,999.512,967.285,939.453,999.512
1745824276.293,904.297,966.797,953.125,904.297
1745824276.297,979.98,966.797,969.238,979.492
1745824276.301,963.867,967.285,967.285,966.797
1745824276.305,975.098,967.285,966.797,980.957
1745824276.309,895.02,967.285,966.797,905.762
1745824276.266,911.621,984.863,999.512,870.117
1745824276.27,999.512,961.914,166.504,999.512
1745824276.274,-132.812,967.285,-646.973,105.469
1745824276.278,-1000.0,967.285,131.348,-1000.0
1745824276.282,-649.902,966.797,674.316,-713.379
1745824276.286,658.691,967.285,991.699,636.23
1745824276.29,999.512,967.285,939.453,999.512
1745824276.293,904.297,966.797,953.125,904.297
1745824276.297,979.98,966.797,969.238,979.492
1745824276.301,963.867,967.285,967.285,966.797
1745824276.305,975.098,967.285,966.797,980.957
1745824276.309,895.02,967.285,966.797,905.762
1745824276.328,999.512,966.797,966.797,999.512
1745824276.332,450.684,967.285,967.285,795.898
1745824276.336,-1000.0,967.285,967.285,-822.266
1745824276.34,-504.395,967.285,967.285,-517.578
1745824276.344,888.184,967.285,966.797,992.676
1745824276.348,999.512,967.285,966.797,928.711
1745824276.352,597.656,967.285,966.797,999.512
1745824276.355,-942.871,963.867,967.285,-181.152
1745824276.359,-713.867,971.191,967.285,-653.32
1745824276.363,769.043,962.402,966.797,927.246
1745824276.367,999.512,887.207,966.797,944.824
1745824276.371,679.688,872.559,966.797,999.512
1745824276.328,999.512,966.797,966.797,999.512
1745824276.332,450.684,967.285,967.285,795.898
1745824276.336,-1000.0,967.285,967.285,-822.266
1745824276.34,-504.395,967.285,967.285,-517.578
1745824276.344,888.184,967.285,966.797,992.676
1745824276.348,999.512,967.285,966.797,928.711
1745824276.352,597.656,967.285,966.797,999.512
1745824276.355,-942.871,963.867,967.285,-181.152
1745824276.359,-713.867,971.191,967.285,-653.32
1745824276.363,769.043,962.402,966.797,927.246
1745824276.367,999.512,887.207,966.797,944.824
1745824276.371,679.688,872.559,966.797,999.512
1745824276.328,999.512,966.797,966.797,999.512
1745824276.332,450.684,967.285,967.285,795.898
1745824276.336,-1000.0,967.285,967.285,-822.266
1745824276.34,-504.395,967.285,967.285,-517.578
1745824276.344,888.184,967.285,966.797,992.676
1745824276.348,999.512,967.285,966.797,928.711
1745824276.352,597.656,967.285,966.797,999.512
1745824276.355,-942.871,963.867,967.285,-181.152
1745824276.359,-713.867,971.191,967.285,-653.32
1745824276.363,769.043,962.402,966.797,927.246
1745824276.367,999.512,887.207,966.797,944.824
1745824276.371,679.688,872.559,966.797,999.512
1745824276.356,-809.57,750.0,967.285,52.246
1745824276.36,-862.793,844.727,967.285,-664.551
1745824276.364,738.77,999.512,967.285,866.699
1745824276.368,999.512,845.215,966.797,999.512
1745824276.372,-291.992,511.719,966.797,905.273
1745824276.376,-1000.0,483.398,969.727,991.211
1745824276.38,-892.578,708.008,930.176,928.223
1745824276.383,629.395,845.703,999.512,981.445
1745824276.387,353.516,236.816,564.941,920.41
1745824276.391,-1000.0,-137.695,258.789,-304.688
1745824276.395,-1000.0,45.898,852.051,-1000.0
1745824276.399,-851.074,229.004,897.461,-610.352
1745824276.356,-809.57,750.0,967.285,52.246
1745824276.36,-862.793,844.727,967.285,-664.551
1745824276.364,738.77,999.512,967.285,866.699
1745824276.368,999.512,845.215,966.797,999.512
1745824276.372,-291.992,511.719,966.797,905.273
1745824276.376,-1000.0,483.398,969.727,991.211
1745824276.38,-892.578,708.008,930.176,928.223
1745824276.383,629.395,845.703,999.512,981.445
1745824276.387,353.516,236.816,564.941,920.41
1745824276.391,-1000.0,-137.695,258.789,-304.688
1745824276.395,-1000.0,45.898,852.051,-1000.0
1745824276.399,-851.074,229.004,897.461,-610.352
1745824276.416,687.012,573.242,999.512,772.461
1745824276.42,757.812,183.105,487.305,999.512
1745824276.424,-837.402,-268.555,-357.422,-324.219
1745824276.428,-994.141,-166.016,-162.598,-1000.0
1745824276.432,-1000.0,-62.5,376.953,-1000.0
1745824276.436,-89.355,496.582,999.512,-133.301
1745824276.44,943.359,175.781,491.699,999.512
1745824276.443,-570.801,-751.465,-816.406,-366.211
1745824276.447,-1000.0,-619.629,-1000.0,-1000.0
1745824276.451,-1000.0,-478.027,-737.793,-1000.0
1745824276.455,-241.699,-70.312,454.102,-266.602
1745824276.459,999.512,-146.973,725.586,999.512
1745824276.416,687.012,573.242,999.512,772.461
1745824276.42,757.812,183.105,487.305,999.512
1745824276.424,-837.402,-268.555,-357.422,-324.219
1745824276.428,-994.141,-166.016,-162.598,-1000.0
1745824276.432,-1000.0,-62.5,376.953,-1000.0
1745824276.436,-89.355,496.582,999.512,-133.301
1745824276.44,943.359,175.781,491.699,999.512
1745824276.443,-570.801,-751.465,-816.406,-366.211
1745824276.447,-1000.0,-619.629,-1000.0,-1000.0
1745824276.451,-1000.0,-478.027,-737.793,-1000.0
1745824276.455,-241.699,-70.312,454.102,-266.602
1745824276.459,999.512,-146.973,725.586,999.512
1745824276.476,-275.391,-840.82,-646.484,-60.547
1745824276.48,-1000.0,-951.172,-1000.0,-1000.0
1745824276.484,-1000.0,-928.711,-541.504,-1000.0
1745824276.488,-460.938,-646.484,841.309,-711.914
1745824276.492,999.512,-555.664,726.074,869.141
1745824276.496,-43.945,-958.008,-682.129,71.289
1745824276.5,-1000.0,-1000.0,-1000.0,-1000.0
1745824276.503,-1000.0,-1000.0,-809.57,-1000.0
1745824276.507,-360.84,-864.258,395.508,-604.492
1745824276.511,999.512,-733.398,933.594,999.512
1745824276.515,167.48,-996.582,-443.359,202.148
1745824276.519,-1000.0,-1000.0,-1000.0,-1000.0
1745824276.476,-275.391,-840.82,-646.484,-60.547
1745824276.48,-1000.0,-951.172,-1000.0,-1000.0
1745824276.484,-1000.0,-928.711,-541.504,-1000.0
1745824276.488,-460.938,-646.484,841.309,-711.914
1745824276.492,999.512,-555.664,726.074,869.141
1745824276.496,-43.945,-958.008,-682.129,71.289
1745824276.5,-1000.0,-1000.0,-1000.0,-1000.0
1745824276.503,-1000.0,-1000.0,-809.57,-1000.0
1745824276.507,-360.84,-864.258,395.508,-604.492
1745824276.511,999.512,-733.398,933.594,999.512
1745824276.515,167.48,-996.582,-443.359,202.148
1745824276.519,-1000.0,-1000.0,-1000.0,-1000.0
1745824276.506,-1000.0,-1000.0,-857.422,-1000.0
1745824276.51,-250.488,-858.887,244.629,-439.453
1745824276.514,999.512,-812.988,999.512,999.512
1745824276.518,160.645,-1000.0,-101.074,187.5
1745824276.522,-1000.0,-995.605,-1000.0,-1000.0
1745824276.526,-1000.0,-1000.0,-866.211,-1000.0
1745824276.53,-434.082,-969.727,240.234,-746.582
1745824276.533,999.512,-943.848,999.512,860.84
1745824276.537,193.848,-1000.0,-0.488,351.562
1745824276.541,-1000.0,-994.629,-1000.0,-1000.0
1745824276.545,-1000.0,-1000.0,-996.094,-1000.0
1745824276.549,-736.816,-966.309,-48.828,-910.156
1745824276.506,-1000.0,-1000.0,-857.422,-1000.0
1745824276.51,-250.488,-858.887,244.629,-439.453
1745824276.514,999.512,-812.988,999.512,999.512
1745824276.518,160.645,-1000.0,-101.074,187.5
1745824276.522,-1000.0,-995.605,-1000.0,-1000.0
1745824276.526,-1000.0,-1000.0,-866.211,-1000.0
1745824276.53,-434.082,-969.727,240.234,-746.582
1745824276.533,999.512,-943.848,999.512,860.84
1745824276.537,193.848,-1000.0,-0.488,351.562
1745824276.541,-1000.0,-994.629,-1000.0,-1000.0
1745824276.545,-1000.0,-1000.0,-996.094,-1000.0
1745824276.549,-736.816,-966.309,-48.828,-910.156
1745824276.551,867.188,-904.297,999.512,592.773
1745824276.555,558.105,-997.07,69.824,772.949
1745824276.559,-935.059,-999.023,-1000.0,-803.711
1745824276.563,-1000.0,-1000.0,-1000.0,-1000.0
1745824276.567,-840.82,-995.117,-391.113,-1000.0
1745824276.571,600.098,-812.5,999.512,235.84
1745824276.575,923.34,-898.438,197.266,966.309
1745824276.578,-608.887,-1000.0,-1000.0,-599.609
1745824276.582,-1000.0,-961.426,-1000.0,-1000.0
1745824276.586,-1000.0,-1000.0,-621.094,-1000.0
1745824276.59,178.223,-796.387,844.727,-103.027
1745824276.594,999.512,-818.359,357.91,999.512
1745824276.551,867.188,-904.297,999.512,592.773
1745824276.555,558.105,-997.07,69.824,772.949
1745824276.559,-935.059,-999.023,-1000.0,-803.711
1745824276.563,-1000.0,-1000.0,-1000.0,-1000.0
1745824276.567,-840.82,-995.117,-391.113,-1000.0
1745824276.571,600.098,-812.5,999.512,235.84
1745824276.575,923.34,-898.438,197.266,966.309
1745824276.578,-608.887,-1000.0,-1000.0,-599.609
1745824276.582,-1000.0,-961.426,-1000.0,-1000.0
1745824276.586,-1000.0,-1000.0,-621.094,-1000.0
1745824276.59,178.223,-796.387,844.727,-103.027
1745824276.594,999.512,-818.359,357.91,999.512
1745824276.551,867.188,-904.297,999.512,592.773
1745824276.555,558.105,-997.07,69.824,772.949
1745824276.559,-935.059,-999.023,-1000.0,-803.711
1745824276.563,-1000.0,-1000.0,-1000.0,-1000.0
1745824276.567,-840.82,-995.117,-391.113,-1000.0
1745824276.571,600.098,-812.5,999.512,235.84
1745824276.575,923.34,-898.438,197.266,966.309
1745824276.578,-608.887,-1000.0,-1000.0,-599.609
1745824276.582,-1000.0,-961.426,-1000.0,-1000.0
1745824276.586,-1000.0,-1000.0,-621.094,-1000.0
1745824276.59,178.223,-796.387,844.727,-103.027
1745824276.594,999.512,-818.359,357.91,999.512
1745824276.596,-368.164,-1000.0,-998.047,-241.211
1745824276.6,-1000.0,-994.141,-1000.0,-1000.0
1745824276.604,-958.008,-1000.0,-496.094,-1000.0
1745824276.608,237.793,-767.578,957.52,-79.102
1745824276.612,999.512,-810.547,488.77,999.512
1745824276.616,-64.941,-1000.0,-896.973,80.566
1745824276.62,-1000.0,-1000.0,-1000.0,-1000.0
1745824276.623,-1000.0,-967.285,-601.074,-1000.0
1745824276.627,166.016,-689.941,798.828,-87.402
1745824276.631,999.512,-814.941,749.512,999.512
1745824276.635,23.438,-1000.0,-673.34,109.375
1745824276.639,-1000.0,-981.934,-1000.0,-1000.0
1745824276.596,-368.164,-1000.0,-998.047,-241.211
1745824276.6,-1000.0,-994.141,-1000.0,-1000.0
1745824276.604,-958.008,-1000.0,-496.094,-1000.0
1745824276.608,237.793,-767.578,957.52,-79.102
1745824276.612,999.512,-810.547,488.77,999.512
1745824276.616,-64.941,-1000.0,-896.973,80.566
1745824276.62,-1000.0,-1000.0,-1000.0,-1000.0
1745824276.623,-1000.0,-967.285,-601.074,-1000.0
1745824276.627,166.016,-689.941,798.828,-87.402
1745824276.631,999.512,-814.941,749.512,999.512
1745824276.635,23.438,-1000.0,-673.34,109.375
1745824276.639,-1000.0,-981.934,-1000.0,-1000.0
1745824276.656,-1000.0,-1000.0,-702.148,-1000.0
1745824276.66,-89.355,-671.875,570.801,-254.395
1745824276.664,999.512,-583.984,991.211,999.512
1745824276.668,148.926,-972.168,-339.355,171.387
1745824276.672,-1000.0,-1000.0,-1000.0,-1000.0
1745824276.676,-1000.0,-973.633,-735.352,-1000.0
1745824276.68,-219.238,-510.742,478.516,-250.977
1745824276.683,999.512,-525.879,999.512,999.512
1745824276.687,163.086,-1000.0,-166.992,201.66
1745824276.691,-1000.0,-999.023,-1000.0,-1000.0
1745824276.695,-1000.0,-941.895,-908.691,-1000.0
1745824276.699,-292.969,-604.004,113.77,-488.77
1745824276.656,-1000.0,-1000.0,-702.148,-1000.0
1745824276.66,-89.355,-671.875,570.801,-254.395
1745824276.664,999.512,-583.984,991.211,999.512
1745824276.668,148.926,-972.168,-339.355,171.387
1745824276.672,-1000.0,-1000.0,-1000.0,-1000.0
1745824276.676,-1000.0,-973.633,-735.352,-1000.0
1745824276.68,-219.238,-510.742,478.516,-250.977
1745824276.683,999.512,-525.879,999.512,999.512
1745824276.687,163.086,-1000.0,-166.992,201.66
1745824276.691,-1000.0,-999.023,-1000.0,-1000.0
1745824276.695,-1000.0,-941.895,-908.691,-1000.0
1745824276.699,-292.969,-604.004,113.77,-488.77
1745824276.656,-1000.0,-1000.0,-702.148,-1000.0
1745824276.66,-89.355,-671.875,570.801,-254.395
1745824276.664,999.512,-583.984,991.211,999.512
1745824276.668,148.926,-972.168,-339.355,171.387
1745824276.672,-1000.0,-1000.0,-1000.0,-1000.0
1745824276.676,-1000.0,-973.633,-735.352,-1000.0
1745824276.68,-219.238,-510.742,478.516,-250.977
1745824276.683,999.512,-525.879,999.512,999.512
1745824276.687,163.086,-1000.0,-166.992,201.66
1745824276.691,-1000.0,-999.023,-1000.0,-1000.0
1745824276.695,-1000.0,-941.895,-908.691,-1000.0
1745824276.699,-292.969,-604.004,113.77,-488.77
1745824276.686,999.512,-578.613,999.512,999.512
1745824276.69,324.219,-982.422,11.23,428.711
1745824276.694,-977.051,-983.887,-1000.0,-947.266
1745824276.698,-1000.0,-1000.0,-971.68,-1000.0
1745824276.702,-305.664,-650.879,-14.648,-519.043
1745824276.706,999.512,-272.461,999.512,966.309
1745824276.71,581.055,-786.621,146.484,789.551
1745824276.713,-804.688,-1000.0,-1000.0,-621.582
1745824276.717,-1000.0,-1000.0,-1000.0,-1000.0
1745824276.721,-374.512,-649.902,-99.609,-466.309
1745824276.725,999.512,-423.828,999.512,894.043
1745824276.729,815.43,-907.227,156.738,999.512
1745824276.686,999.512,-578.613,999.512,999.512
1745824276.69,324.219,-982.422,11.23,428.711
1745824276.694,-977.051,-983.887,-1000.0,-947.266
1745824276.698,-1000.0,-1000.0,-971.68,-1000.0
1745824276.702,-305.664,-650.879,-14.648,-519.043
1745824276.706,999.512,-272.461,999.512,966.309
1745824276.71,581.055,-786.621,146.484,789.551
1745824276.713,-804.688,-1000.0,-1000.0,-621.582
1745824276.717,-1000.0,-1000.0,-1000.0,-1000.0
1745824276.721,-374.512,-649.902,-99.609,-466.309
1745824276.725,999.512,-423.828,999.512,894.043
1745824276.729,815.43,-907.227,156.738,999.512
1745824276.732,-539.062,-979.492,-1000.0,-241.699
1745824276.736,-1000.0,-1000.0,-1000.0,-1000.0
1745824276.74,-602.051,-791.504,-369.629,-715.82
1745824276.744,810.059,-274.414,999.512,619.141
1745824276.748,999.512,-708.984,309.082,999.512
1745824276.752,-342.773,-1000.0,-985.84,-36.133
1745824276.756,-1000.0,-861.328,-1000.0,-1000.0
1745824276.759,-807.129,-719.238,-412.598,-919.922
1745824276.763,517.578,-398.438,999.512,335.449
1745824276.767,999.512,-542.48,545.41,999.512
1745824276.771,-159.18,-926.758,-833.984,71.289
1745824276.775,-1000.0,-937.5,-1000.0,-1000.0
1745824276.732,-539.062,-979.492,-1000.0,-241.699
1745824276.736,-1000.0,-1000.0,-1000.0,-1000.0
1745824276.74,-602.051,-791.504,-369.629,-715.82
1745824276.744,810.059,-274.414,999.512,619.141
1745824276.748,999.512,-708.984,309.082,999.512
1745824276.752,-342.773,-1000.0,-985.84,-36.133
1745824276.756,-1000.0,-861.328,-1000.0,-1000.0
1745824276.759,-807.129,-719.238,-412.598,-919.922
1745824276.763,517.578,-398.438,999.512,335.449
1745824276.767,999.512,-542.48,545.41,999.512
1745824276.771,-159.18,-926.758,-833.984,71.289
1745824276.775,-1000.0,-937.5,-1000.0,-1000.0
1745824276.791,-1000.0,-744.629,-636.719,-1000.0
1745824276.795,115.723,-327.637,719.727,43.945
1745824276.799,999.512,-415.527,810.059,999.512
1745824276.803,129.395,-850.586,-608.398,288.574
1745824276.807,-1000.0,-1000.0,-1000.0,-981.934
1745824276.811,-1000.0,-631.836,-750.0,-1000.0
1745824276.815,6.348,-12.207,495.117,-5.371
1745824276.818,999.512,-388.184,947.754,999.512
1745824276.822,137.695,-880.371,-417.969,638.672
1745824276.826,-1000.0,-944.824,-1000.0,-662.598
1745824276.83,-1000.0,-884.766,-885.742,-1000.0
1745824276.834,-239.258,-469.238,201.66,-153.32
1745824276.791,-1000.0,-744.629,-636.719,-1000.0
1745824276.795,115.723,-327.637,719.727,43.945
1745824276.799,999.512,-415.527,810.059,999.512
1745824276.803,129.395,-850.586,-608.398,288.574
1745824276.807,-1000.0,-1000.0,-1000.0,-981.934
1745824276.811,-1000.0,-631.836,-750.0,-1000.0
1745824276.815,6.348,-12.207,495.117,-5.371
1745824276.818,999.512,-388.184,947.754,999.512
1745824276.822,137.695,-880.371,-417.969,638.672
1745824276.826,-1000.0,-944.824,-1000.0,-662.598
1745824276.83,-1000.0,-884.766,-885.742,-1000.0
1745824276.834,-239.258,-469.238,201.66,-153.32
1745824276.836,999.512,-294.922,999.512,999.512
1745824276.84,244.629,-815.918,-110.84,985.84
1745824276.844,-1000.0,-966.797,-1000.0,-32.227
1745824276.848,-1000.0,-841.797,-933.105,-1000.0
1745824276.852,-259.766,-405.762,96.68,-187.012
1745824276.856,999.512,-138.184,999.512,999.512
1745824276.86,508.301,-680.664,7.812,884.766
1745824276.863,-858.887,-837.402,-1000.0,999.512
1745824276.867,-1000.0,-884.766,-1000.0,-89.844
1745824276.871,-295.898,-263.672,-320.312,-395.996
1745824276.875,999.512,252.441,999.512,999.512
1745824276.879,777.344,-564.453,156.25,909.18
1745824276.836,999.512,-294.922,999.512,999.512
1745824276.84,244.629,-815.918,-110.84,985.84
1745824276.844,-1000.0,-966.797,-1000.0,-32.227
1745824276.848,-1000.0,-841.797,-933.105,-1000.0
1745824276.852,-259.766,-405.762,96.68,-187.012
1745824276.856,999.512,-138.184,999.512,999.512
1745824276.86,508.301,-680.664,7.812,884.766
1745824276.863,-858.887,-837.402,-1000.0,999.512
1745824276.867,-1000.0,-884.766,-1000.0,-89.844
1745824276.871,-295.898,-263.672,-320.312,-395.996
1745824276.875,999.512,252.441,999.512,999.512
1745824276.879,777.344,-564.453,156.25,909.18
1745824276.881,-574.707,-824.707,-1000.0,999.512
1745824276.885,-1000.0,-803.711,-1000.0,76.172
1745824276.889,-322.266,-466.797,-226.074,-415.527
1745824276.893,924.805,-95.215,999.512,999.512
1745824276.897,999.512,-663.574,199.219,999.512
1745824276.901,38.574,-881.836,-1000.0,921.875
1745824276.905,-1000.0,-785.645,-1000.0,977.539
1745824276.908,-221.191,-550.293,-404.785,966.797
1745824276.912,999.512,-158.203,999.512,977.051
1745824276.916,953.613,-392.578,410.645,917.48
1745824276.92,-326.172,-849.121,-950.195,999.512
1745824276.924,-1000.0,-781.738,-1000.0,902.832
1745824276.881,-574.707,-824.707,-1000.0,999.512
1745824276.885,-1000.0,-803.711,-1000.0,76.172
1745824276.889,-322.266,-466.797,-226.074,-415.527
1745824276.893,924.805,-95.215,999.512,999.512
1745824276.897,999.512,-663.574,199.219,999.512
1745824276.901,38.574,-881.836,-1000.0,921.875
1745824276.905,-1000.0,-785.645,-1000.0,977.539
1745824276.908,-221.191,-550.293,-404.785,966.797
1745824276.912,999.512,-158.203,999.512,977.051
1745824276.916,953.613,-392.578,410.645,917.48
1745824276.92,-326.172,-849.121,-950.195,999.512
1745824276.924,-1000.0,-781.738,-1000.0,902.832
1745824276.881,-574.707,-824.707,-1000.0,999.512
1745824276.885,-1000.0,-803.711,-1000.0,76.172
1745824276.889,-322.266,-466.797,-226.074,-415.527
1745824276.893,924.805,-95.215,999.512,999.512
1745824276.897,999.512,-663.574,199.219,999.512
1745824276.901,38.574,-881.836,-1000.0,921.875
1745824276.905,-1000.0,-785.645,-1000.0,977.539
1745824276.908,-221.191,-550.293,-404.785,966.797
1745824276.912,999.512,-158.203,999.512,977.051
1745824276.916,953.613,-392.578,410.645,917.48
1745824276.92,-326.172,-849.121,-950.195,999.512
1745824276.924,-1000.0,-781.738,-1000.0,902.832
1745824276.926,-1000.0,-717.285,-762.695,-445.801
1745824276.93,102.539,-249.023,603.027,80.078
1745824276.934,999.512,-241.699,650.391,999.512
1745824276.938,-249.023,-854.492,-794.434,81.543
1745824276.942,-1000.0,-804.688,-1000.0,-1000.0
1745824276.946,-1000.0,-499.512,-786.621,-1000.0
1745824276.95,-241.699,-66.895,557.129,-242.676
1745824276.953,999.512,3.418,729.004,999.512
1745824276.957,-18.555,-168.945,-746.582,99.609
1745824276.961,-1000.0,-302.246,-1000.0,-1000.0
1745824276.965,-1000.0,-534.668,-950.684,-1000.0
1745824276.969,-321.777,-44.434,216.797,-558.594
1745824276.926,-1000.0,-717.285,-762.695,-445.801
1745824276.93,102.539,-249.023,603.027,80.078
1745824276.934,999.512,-241.699,650.391,999.512
1745824276.938,-249.023,-854.492,-794.434,81.543
1745824276.942,-1000.0,-804.688,-1000.0,-1000.0
1745824276.946,-1000.0,-499.512,-786.621,-1000.0
1745824276.95,-241.699,-66.895,557.129,-242.676
1745824276.953,999.512,3.418,729.004,999.512
1745824276.957,-18.555,-168.945,-746.582,99.609
1745824276.961,-1000.0,-302.246,-1000.0,-1000.0
1745824276.965,-1000.0,-534.668,-950.684,-1000.0
1745824276.969,-321.777,-44.434,216.797,-558.594
1745824276.987,999.512,260.742,908.691,999.512
1745824276.991,113.281,-620.117,-503.906,136.23
1745824276.995,-1000.0,-761.719,-1000.0,-1000.0
1745824276.999,-1000.0,-416.016,-969.727,-1000.0
1745824277.003,-312.5,-140.625,46.387,-834.473
1745824277.007,999.512,207.52,999.512,744.629
1745824277.011,166.992,-485.84,-115.234,272.461
1745824277.014,-1000.0,-890.625,-1000.0,-1000.0
1745824277.018,-1000.0,-524.414,-1000.0,-921.875
1745824277.022,-502.441,-165.527,-195.312,-1000.0
1745824277.026,999.512,263.184,999.512,38.086
1745824277.03,200.195,-331.543,46.387,276.855
1745824276.987,999.512,260.742,908.691,999.512
1745824276.991,113.281,-620.117,-503.906,136.23
1745824276.995,-1000.0,-761.719,-1000.0,-1000.0
1745824276.999,-1000.0,-416.016,-969.727,-1000.0
1745824277.003,-312.5,-140.625,46.387,-834.473
1745824277.007,999.512,207.52,999.512,744.629
1745824277.011,166.992,-485.84,-115.234,272.461
1745824277.014,-1000.0,-890.625,-1000.0,-1000.0
1745824277.018,-1000.0,-524.414,-1000.0,-921.875
1745824277.022,-502.441,-165.527,-195.312,-1000.0
1745824277.026,999.512,263.184,999.512,38.086
1745824277.03,200.195,-331.543,46.387,276.855
1745824276.987,999.512,260.742,908.691,999.512
1745824276.991,113.281,-620.117,-503.906,136.23
1745824276.995,-1000.0,-761.719,-1000.0,-1000.0
1745824276.999,-1000.0,-416.016,-969.727,-1000.0
1745824277.003,-312.5,-140.625,46.387,-834.473
1745824277.007,999.512,207.52,999.512,744.629
1745824277.011,166.992,-485.84,-115.234,272.461
1745824277.014,-1000.0,-890.625,-1000.0,-1000.0
1745824277.018,-1000.0,-524.414,-1000.0,-921.875
1745824277.022,-502.441,-165.527,-195.312,-1000.0
1745824277.026,999.512,263.184,999.512,38.086
1745824277.03,200.195,-331.543,46.387,276.855
1745824277.031,-1000.0,-649.902,-1000.0,-1000.0
1745824277.035,-1000.0,-317.871,-1000.0,-949.707
1745824277.039,-583.008,-169.434,-253.418,-1000.0
1745824277.043,999.512,245.605,999.512,68.359
1745824277.047,380.371,-308.594,168.457,406.25
1745824277.051,-987.793,-679.688,-1000.0,-1000.0
1745824277.055,-1000.0,-272.949,-1000.0,-949.707
1745824277.058,-556.641,-92.285,-313.477,-1000.0
1745824277.062,987.793,182.129,999.512,-43.945
1745824277.066,671.387,-163.086,286.621,679.688
1745824277.07,-800.781,-675.293,-997.07,-868.164
1745824277.074,-1000.0,-620.605,-1000.0,-1000.0
1745824277.031,-1000.0,-649.902,-1000.0,-1000.0
1745824277.035,-1000.0,-317.871,-1000.0,-949.707
1745824277.039,-583.008,-169.434,-253.418,-1000.0
1745824277.043,999.512,245.605,999.512,68.359
1745824277.047,380.371,-308.594,168.457,406.25
1745824277.051,-987.793,-679.688,-1000.0,-1000.0
1745824277.055,-1000.0,-272.949,-1000.0,-949.707
1745824277.058,-556.641,-92.285,-313.477,-1000.0
1745824277.062,987.793,182.129,999.512,-43.945
1745824277.066,671.387,-163.086,286.621,679.688
1745824277.07,-800.781,-675.293,-997.07,-868.164
1745824277.074,-1000.0,-620.605,-1000.0,-1000.0
1745824277.061,-825.195,-335.938,-553.223,-1000.0
1745824277.065,529.785,240.723,898.438,-150.879
1745824277.069,999.512,61.035,483.398,999.512
1745824277.073,-330.566,-480.469,-897.461,-352.051
1745824277.077,-1000.0,-441.895,-1000.0,-1000.0
1745824277.081,-845.703,-62.988,-468.75,-1000.0
1745824277.085,430.176,288.086,937.5,-14.648
1745824277.088,999.512,16.602,678.223,999.512
1745824277.092,-41.992,-511.23,-701.66,24.902
1745824277.096,-1000.0,-400.879,-1000.0,-1000.0
1745824277.1,-1000.0,-169.434,-594.727,-1000.0
1745824277.104,53.711,163.574,687.012,-172.852
1745824277.061,-825.195,-335.938,-553.223,-1000.0
1745824277.065,529.785,240.723,898.438,-150.879
1745824277.069,999.512,61.035,483.398,999.512
1745824277.073,-330.566,-480.469,-897.461,-352.051
1745824277.077,-1000.0,-441.895,-1000.0,-1000.0
1745824277.081,-845.703,-62.988,-468.75,-1000.0
1745824277.085,430.176,288.086,937.5,-14.648
1745824277.088,999.512,16.602,678.223,999.512
1745824277.092,-41.992,-511.23,-701.66,24.902
1745824277.096,-1000.0,-400.879,-1000.0,-1000.0
1745824277.1,-1000.0,-169.434,-594.727,-1000.0
1745824277.104,53.711,163.574,687.012,-172.852
1745824277.106,999.512,294.434,999.512,999.512
1745824277.11,144.043,-358.887,-170.41,174.805
1745824277.114,-1000.0,-464.844,-985.84,-1000.0
1745824277.118,-1000.0,-124.512,-308.594,-1000.0
1745824277.122,-66.895,215.82,766.113,-242.188
1745824277.126,999.512,344.727,999.512,999.512
1745824277.13,324.219,-118.164,73.73,477.051
1745824277.133,-951.66,-366.211,-949.707,-889.16
1745824277.137,-1000.0,-232.91,-731.445,-1000.0
1745824277.141,-230.469,217.773,391.113,-238.77
1745824277.145,999.512,478.027,999.512,999.512
1745824277.149,408.691,-234.863,97.168,582.52
1745824277.106,999.512,294.434,999.512,999.512
1745824277.11,144.043,-358.887,-170.41,174.805
1745824277.114,-1000.0,-464.844,-985.84,-1000.0
1745824277.118,-1000.0,-124.512,-308.594,-1000.0
1745824277.122,-66.895,215.82,766.113,-242.188
1745824277.126,999.512,344.727,999.512,999.512
1745824277.13,324.219,-118.164,73.73,477.051
1745824277.133,-951.66,-366.211,-949.707,-889.16
1745824277.137,-1000.0,-232.91,-731.445,-1000.0
1745824277.141,-230.469,217.773,391.113,-238.77
1745824277.145,999.512,478.027,999.512,999.512
1745824277.149,408.691,-234.863,97.168,582.52
1745824277.166,-934.57,-567.383,-1000.0,-803.711
1745824277.17,-1000.0,-192.871,-723.633,-1000.0
1745824277.174,-228.516,348.145,432.617,-204.59
1745824277.178,999.512,519.531,999.512,999.512
1745824277.182,534.18,-99.609,156.738,895.508
1745824277.186,-841.309,-293.945,-833.984,-377.93
1745824277.19,-1000.0,-151.367,-606.934,-1000.0
1745824277.193,-267.09,85.449,164.062,-304.199
1745824277.197,999.512,472.656,999.512,982.91
1745824277.201,750.977,-56.152,303.223,988.281
1745824277.205,-600.586,-553.223,-953.125,-239.746
1745824277.209,-1000.0,-334.473,-1000.0,-1000.0
1745824277.166,-934.57,-567.383,-1000.0,-803.711
1745824277.17,-1000.0,-192.871,-723.633,-1000.0
1745824277.174,-228.516,348.145,432.617,-204.59
1745824277.178,999.512,519.531,999.512,999.512
1745824277.182,534.18,-99.609,156.738,895.508
1745824277.186,-841.309,-293.945,-833.984,-377.93
1745824277.19,-1000.0,-151.367,-606.934,-1000.0
1745824277.193,-267.09,85.449,164.062,-304.199
1745824277.197,999.512,472.656,999.512,982.91
1745824277.201,750.977,-56.152,303.223,988.281
1745824277.205,-600.586,-553.223,-953.125,-239.746
1745824277.209,-1000.0,-334.473,-1000.0,-1000.0
1745824277.166,-934.57,-567.383,-1000.0,-803.711
1745824277.17,-1000.0,-192.871,-723.633,-1000.0
1745824277.174,-228.516,348.145,432.617,-204.59
1745824277.178,999.512,519.531,999.512,999.512
1745824277.182,534.18,-99.609,156.738,895.508
1745824277.186,-841.309,-293.945,-833.984,-377.93
1745824277.19,-1000.0,-151.367,-606.934,-1000.0
1745824277.193,-267.09,85.449,164.062,-304.199
1745824277.197,999.512,472.656,999.512,982.91
1745824277.201,750.977,-56.152,303.223,988.281
1745824277.205,-600.586,-553.223,-953.125,-239.746
1745824277.209,-1000.0,-334.473,-1000.0,-1000.0
1745824277.211,-458.984,-14.16,-80.566,-605.469
1745824277.215,892.09,339.844,999.512,743.164
1745824277.219,999.512,121.094,450.195,999.512
1745824277.223,-206.543,-386.23,-825.195,-4.395
1745824277.227,-1000.0,-395.02,-1000.0,-1000.0
1745824277.231,-515.625,94.238,-224.609,-642.09
1745824277.235,859.375,557.129,999.512,738.77
1745824277.238,999.512,81.055,488.281,999.512
1745824277.242,-172.363,-543.457,-834.473,-70.312
1745824277.246,-1000.0,-477.051,-1000.0,-1000.0
1745824277.25,-933.594,-138.184,-550.781,-1000.0
1745824277.254,320.312,335.449,865.234,-10.254
1745824277.211,-458.984,-14.16,-80.566,-605.469
1745824277.215,892.09,339.844,999.512,743.164
1745824277.219,999.512,121.094,450.195,999.512
1745824277.223,-206.543,-386.23,-825.195,-4.395
1745824277.227,-1000.0,-395.02,-1000.0,-1000.0
1745824277.231,-515.625,94.238,-224.609,-642.09
1745824277.235,859.375,557.129,999.512,738.77
1745824277.238,999.512,81.055,488.281,999.512
1745824277.242,-172.363,-543.457,-834.473,-70.312
1745824277.246,-1000.0,-477.051,-1000.0,-1000.0
1745824277.25,-933.594,-138.184,-550.781,-1000.0
1745824277.254,320.312,335.449,865.234,-10.254
1745824277.257,999.512,64.453,634.766,999.512
1745824277.261,-117.676,-458.008,-762.695,-19.531
1745824277.265,-1000.0,-352.539,-1000.0,-1000.0
1745824277.269,-1000.0,-108.887,-638.672,-1000.0
1745824277.273,-73.73,275.391,645.996,-237.793
1745824277.277,999.512,372.07,970.703,999.512
1745824277.281,146.484,-311.035,-349.609,166.016
1745824277.284,-1000.0,-595.703,-1000.0,-1000.0
1745824277.288,-1000.0,87.402,-840.82,-1000.0
1745824277.292,-208.496,645.02,333.984,-256.836
1745824277.296,999.512,377.441,999.512,999.512
1745824277.3,163.086,-348.633,-136.719,178.223
1745824277.257,999.512,64.453,634.766,999.512
1745824277.261,-117.676,-458.008,-762.695,-19.531
1745824277.265,-1000.0,-352.539,-1000.0,-1000.0
1745824277.269,-1000.0,-108.887,-638.672,-1000.0
1745824277.273,-73.73,275.391,645.996,-237.793
1745824277.277,999.512,372.07,970.703,999.512
1745824277.281,146.484,-311.035,-349.609,166.016
1745824277.284,-1000.0,-595.703,-1000.0,-1000.0
1745824277.288,-1000.0,87.402,-840.82,-1000.0
1745824277.292,-208.496,645.02,333.984,-256.836
1745824277.296,999.512,377.441,999.512,999.512
1745824277.3,163.086,-348.633,-136.719,178.223
1745824277.257,999.512,64.453,634.766,999.512
1745824277.261,-117.676,-458.008,-762.695,-19.531
1745824277.265,-1000.0,-352.539,-1000.0,-1000.0
1745824277.269,-1000.0,-108.887,-638.672,-1000.0
1745824277.273,-73.73,275.391,645.996,-237.793
1745824277.277,999.512,372.07,970.703,999.512
1745824277.281,146.484,-311.035,-349.609,166.016
1745824277.284,-1000.0,-595.703,-1000.0,-1000.0
1745824277.288,-1000.0,87.402,-840.82,-1000.0
1745824277.292,-208.496,645.02,333.984,-256.836
1745824277.296,999.512,377.441,999.512,999.512
1745824277.3,163.086,-348.633,-136.719,178.223
1745824277.303,-1000.0,-485.84,-1000.0,-1000.0
1745824277.307,-1000.0,-165.039,-827.637,-1000.0
1745824277.311,-258.301,200.195,277.344,-307.129
1745824277.315,999.512,392.578,999.512,999.512
1745824277.319,230.469,-167.969,-2.93,309.082
1745824277.323,-1000.0,-389.16,-1000.0,-978.516
1745824277.327,-1000.0,-164.062,-914.551,-1000.0
1745824277.33,-293.457,205.566,131.348,-408.203
1745824277.334,999.512,508.789,999.512,999.512
1745824277.338,340.332,-103.027,95.703,546.387
1745824277.342,-959.961,-464.844,-1000.0,-853.027
1745824277.346,-1000.0,-227.051,-1000.0,-1000.0
1745824277.303,-1000.0,-485.84,-1000.0,-1000.0
1745824277.307,-1000.0,-165.039,-827.637,-1000.0
1745824277.311,-258.301,200.195,277.344,-307.129
1745824277.315,999.512,392.578,999.512,999.512
1745824277.319,230.469,-167.969,-2.93,309.082
1745824277.323,-1000.0,-389.16,-1000.0,-978.516
1745824277.327,-1000.0,-164.062,-914.551,-1000.0
1745824277.33,-293.457,205.566,131.348,-408.203
1745824277.334,999.512,508.789,999.512,999.512
1745824277.338,340.332,-103.027,95.703,546.387
1745824277.342,-959.961,-464.844,-1000.0,-853.027
1745824277.346,-1000.0,-227.051,-1000.0,-1000.0
1745824277.361,-458.984,155.762,-103.027,-448.73
1745824277.365,999.512,500.977,999.512,888.672
1745824277.369,720.703,-46.875,250.0,999.512
1745824277.373,-697.754,-404.297,-963.379,-141.602
1745824277.377,-1000.0,-257.324,-1000.0,-1000.0
1745824277.381,-353.027,219.238,-123.047,-372.559
1745824277.385,948.242,456.055,999.512,898.438
1745824277.388,999.512,30.762,356.445,999.512
1745824277.392,-200.195,-291.992,-913.086,186.523
1745824277.396,-1000.0,-390.137,-1000.0,-1000.0
1745824277.4,-523.926,101.562,-302.734,-596.191
1745824277.404,846.191,530.762,999.512,786.133
1745824277.391,999.512,109.375,544.434,999.512
1745824277.395,-114.746,-456.543,-784.668,186.523
1745824277.399,-1000.0,-425.293,-1000.0,-1000.0
1745824277.403,-878.418,-33.691,-537.598,-902.344
1745824277.407,394.043,369.141,822.754,408.203
1745824277.411,999.512,299.805,834.473,999.512
1745824277.415,43.945,-201.172,-538.086,670.41
1745824277.418,-1000.0,-376.953,-1000.0,-587.402
1745824277.422,-1000.0,-257.324,-810.547,-1000.0
1745824277.426,-77.637,151.855,412.109,83.496
1745824277.43,999.512,250.977,967.773,999.512
1745824277.434,152.832,-241.211,-365.723,999.512
1745824277.391,999.512,109.375,544.434,999.512
1745824277.395,-114.746,-456.543,-784.668,186.523
1745824277.399,-1000.0,-425.293,-1000.0,-1000.0
1745824277.403,-878.418,-33.691,-537.598,-902.344
1745824277.407,394.043,369.141,822.754,408.203
1745824277.411,999.512,299.805,834.473,999.512
1745824277.415,43.945,-201.172,-538.086,670.41
1745824277.418,-1000.0,-376.953,-1000.0,-587.402
1745824277.422,-1000.0,-257.324,-810.547,-1000.0
1745824277.426,-77.637,151.855,412.109,83.496
1745824277.43,999.512,250.977,967.773,999.512
1745824277.434,152.832,-241.211,-365.723,999.512
1745824277.436,-1000.0,-365.723,-1000.0,681.152
1745824277.44,-1000.0,-285.156,-742.676,-881.836
1745824277.444,-129.883,266.602,443.359,-148.926
1745824277.448,999.512,438.965,999.512,999.512
1745824277.452,152.832,-287.109,-105.957,895.508
1745824277.456,-1000.0,-413.574,-1000.0,-104.98
1745824277.46,-1000.0,-124.512,-799.316,-1000.0
1745824277.463,-250.488,125.488,237.793,-135.742
1745824277.467,999.512,261.23,999.512,999.512
1745824277.471,288.574,-256.836,102.539,870.605
1745824277.475,-990.234,-540.039,-1000.0,999.512
1745824277.479,-1000.0,-476.074,-922.363,283.691
1745824277.436,-1000.0,-365.723,-1000.0,681.152
1745824277.44,-1000.0,-285.156,-742.676,-881.836
1745824277.444,-129.883,266.602,443.359,-148.926
1745824277.448,999.512,438.965,999.512,999.512
1745824277.452,152.832,-287.109,-105.957,895.508
1745824277.456,-1000.0,-413.574,-1000.0,-104.98
1745824277.46,-1000.0,-124.512,-799.316,-1000.0
1745824277.463,-250.488,125.488,237.793,-135.742
1745824277.467,999.512,261.23,999.512,999.512
1745824277.471,288.574,-256.836,102.539,870.605
1745824277.475,-990.234,-540.039,-1000.0,999.512
1745824277.479,-1000.0,-476.074,-922.363,283.691
1745824277.961,314.941,-188.965,78.613,327.148
1745824277.965,-981.445,-425.293,-1000.0,-964.355
1745824277.969,-1000.0,-84.473,-896.973,-1000.0
1745824277.973,-252.93,319.336,125.0,-435.059
1745824277.977,999.512,685.547,999.512,999.512
1745824277.981,589.844,106.445,277.832,690.43
1745824277.985,-786.133,-396.484,-936.523,-722.656
1745824277.988,-1000.0,-178.223,-1000.0,-1000.0
1745824277.992,-412.109,162.109,-67.383,-720.215
1745824277.996,990.234,682.617,999.512,689.941
1745824278.0,844.238,339.355,320.801,999.512
1745824278.004,-525.391,-314.941,-931.152,-383.789
1745824277.436,-1000.0,-365.723,-1000.0,681.152
1745824277.44,-1000.0,-285.156,-742.676,-881.836
1745824277.444,-129.883,266.602,443.359,-148.926
1745824277.448,999.512,438.965,999.512,999.512
1745824277.452,152.832,-287.109,-105.957,895.508
1745824277.456,-1000.0,-413.574,-1000.0,-104.98
1745824277.46,-1000.0,-124.512,-799.316,-1000.0
1745824277.463,-250.488,125.488,237.793,-135.742
1745824277.467,999.512,261.23,999.512,999.512
1745824277.471,288.574,-256.836,102.539,870.605
1745824277.475,-990.234,-540.039,-1000.0,999.512
1745824277.479,-1000.0,-476.074,-922.363,283.691
1745824277.496,-253.906,-65.918,120.117,-168.457
1745824277.5,999.512,323.242,999.512,999.512
1745824277.504,305.664,-273.438,172.363,995.605
1745824277.508,-984.863,-474.121,-943.359,928.223
1745824277.512,-1000.0,-314.941,-893.066,973.145
1745824277.516,-256.836,27.344,15.625,966.309
1745824277.52,999.512,314.941,999.512,966.797
1745824277.523,494.141,-231.934,327.148,966.797
1745824277.527,-878.906,-597.656,-914.062,966.797
1745824277.531,-1000.0,-360.352,-1000.0,966.797
1745824277.535,-317.383,97.656,-171.387,966.797
1745824277.539,999.512,350.586,999.512,971.68
1745824277.496,-253.906,-65.918,120.117,-168.457
1745824277.5,999.512,323.242,999.512,999.512
1745824277.504,305.664,-273.438,172.363,995.605
1745824277.508,-984.863,-474.121,-943.359,928.223
1745824277.512,-1000.0,-314.941,-893.066,973.145
1745824277.516,-256.836,27.344,15.625,966.309
1745824277.52,999.512,314.941,999.512,966.797
1745824277.523,494.141,-231.934,327.148,966.797
1745824277.527,-878.906,-597.656,-914.062,966.797
1745824277.531,-1000.0,-360.352,-1000.0,966.797
1745824277.535,-317.383,97.656,-171.387,966.797
1745824277.539,999.512,350.586,999.512,971.68
1745824277.541,561.035,-252.441,337.891,884.277
1745824277.545,-836.914,-422.852,-910.156,999.512
1745824277.549,-1000.0,-233.887,-1000.0,180.664
1745824277.553,-749.512,-109.375,-200.684,-749.023
1745824277.557,590.82,341.797,999.512,662.598
1745824277.561,999.512,219.238,742.188,999.512
1745824277.565,-140.625,-280.273,-502.441,143.066
1745824277.568,-1000.0,-451.172,-1000.0,-1000.0
1745824277.572,-982.422,-146.484,-534.668,-1000.0
1745824277.576,198.242,500.0,813.965,144.531
1745824277.58,999.512,444.824,881.348,999.512
1745824277.584,170.41,-314.941,-411.621,215.82
1745824277.541,561.035,-252.441,337.891,884.277
1745824277.545,-836.914,-422.852,-910.156,999.512
1745824277.549,-1000.0,-233.887,-1000.0,180.664
1745824277.553,-749.512,-109.375,-200.684,-749.023
1745824277.557,590.82,341.797,999.512,662.598
1745824277.561,999.512,219.238,742.188,999.512
1745824277.565,-140.625,-280.273,-502.441,143.066
1745824277.568,-1000.0,-451.172,-1000.0,-1000.0
1745824277.572,-982.422,-146.484,-534.668,-1000.0
1745824277.576,198.242,500.0,813.965,144.531
1745824277.58,999.512,444.824,881.348,999.512
1745824277.584,170.41,-314.941,-411.621,215.82
1745824277.586,-1000.0,-444.336,-1000.0,-1000.0
1745824277.59,-834.961,12.207,-329.59,-986.328
1745824277.594,502.441,471.68,909.18,262.695
1745824277.598,999.512,253.906,998.535,999.512
1745824277.602,180.176,-262.695,-122.07,381.836
1745824277.606,-1000.0,-235.84,-832.52,-905.762
1745824277.61,-1000.0,104.004,-147.461,-1000.0
1745824277.613,-38.086,345.703,778.809,-110.352
1745824277.617,999.512,249.023,999.512,999.512
1745824277.621,192.871,-305.664,64.941,504.883
1745824277.625,-1000.0,-386.719,-834.473,-845.703
1745824277.629,-1000.0,-92.285,-331.055,-1000.0
1745824277.586,-1000.0,-444.336,-1000.0,-1000.0
1745824277.59,-834.961,12.207,-329.59,-986.328
1745824277.594,502.441,471.68,909.18,262.695
1745824277.598,999.512,253.906,998.535,999.512
1745824277.602,180.176,-262.695,-122.07,381.836
1745824277.606,-1000.0,-235.84,-832.52,-905.762
1745824277.61,-1000.0,104.004,-147.461,-1000.0
1745824277.613,-38.086,345.703,778.809,-110.352
1745824277.617,999.512,249.023,999.512,999.512
1745824277.621,192.871,-305.664,64.941,504.883
1745824277.625,-1000.0,-386.719,-834.473,-845.703
1745824277.629,-1000.0,-92.285,-331.055,-1000.0
1745824277.586,-1000.0,-444.336,-1000.0,-1000.0
1745824277.59,-834.961,12.207,-329.59,-986.328
1745824277.594,502.441,471.68,909.18,262.695
1745824277.598,999.512,253.906,998.535,999.512
1745824277.602,180.176,-262.695,-122.07,381.836
1745824277.606,-1000.0,-235.84,-832.52,-905.762
1745824277.61,-1000.0,104.004,-147.461,-1000.0
1745824277.613,-38.086,345.703,778.809,-110.352
1745824277.617,999.512,249.023,999.512,999.512
1745824277.621,192.871,-305.664,64.941,504.883
1745824277.625,-1000.0,-386.719,-834.473,-845.703
1745824277.629,-1000.0,-92.285,-331.055,-1000.0
1745824277.631,-241.211,264.648,620.605,-180.664
1745824277.635,999.512,440.43,999.512,999.512
1745824277.639,489.746,-2.93,213.867,942.871
1745824277.643,-881.836,-357.91,-839.844,-278.32
1745824277.647,-1000.0,-128.418,-560.059,-1000.0
1745824277.651,-241.211,432.617,428.711,-222.656
1745824277.655,999.512,464.844,999.512,999.512
1745824277.658,535.156,-214.355,184.57,700.684
1745824277.662,-848.633,-434.57,-999.023,-648.438
1745824277.666,-1000.0,-165.039,-707.031,-1000.0
1745824277.67,-265.625,225.098,316.406,-507.812
1745824277.674,999.512,454.102,999.512,903.32
1745824277.631,-241.211,264.648,620.605,-180.664
1745824277.635,999.512,440.43,999.512,999.512
1745824277.639,489.746,-2.93,213.867,942.871
1745824277.643,-881.836,-357.91,-839.844,-278.32
1745824277.647,-1000.0,-128.418,-560.059,-1000.0
1745824277.651,-241.211,432.617,428.711,-222.656
1745824277.655,999.512,464.844,999.512,999.512
1745824277.658,535.156,-214.355,184.57,700.684
1745824277.662,-848.633,-434.57,-999.023,-648.438
1745824277.666,-1000.0,-165.039,-707.031,-1000.0
1745824277.67,-265.625,225.098,316.406,-507.812
1745824277.674,999.512,454.102,999.512,903.32
1745824277.676,816.895,-106.445,459.473,951.66
1745824277.68,-515.625,-460.449,-488.281,-437.988
1745824277.684,-1000.0,-255.371,-353.516,-1000.0
1745824277.688,-606.445,42.48,383.789,-952.637
1745824277.692,728.516,320.312,999.512,237.305
1745824277.696,999.512,94.727,675.781,999.512
1745824277.7,-88.379,-420.41,-282.715,-51.758
1745824277.703,-1000.0,-404.297,-513.184,-1000.0
1745824277.707,-911.621,-360.84,207.031,-1000.0
1745824277.711,354.98,-85.449,999.512,-141.113
1745824277.715,999.512,83.496,754.395,999.512
1745824277.719,-1.953,-420.898,-384.277,-16.113
1745824277.721,-1000.0,-456.543,-845.703,-1000.0
1745824277.725,-821.777,-157.227,-28.809,-1000.0
1745824277.729,484.375,250.488,977.051,-158.203
1745824277.733,999.512,155.273,938.965,999.512
1745824277.737,145.508,-531.738,-200.195,146.484
1745824277.741,-1000.0,-487.305,-797.363,-1000.0
1745824277.745,-1000.0,-86.914,83.984,-1000.0
1745824277.748,112.305,-65.918,927.734,-158.691
1745824277.752,999.512,-11.23,999.512,999.512
1745824277.756,266.602,-246.582,85.449,474.609
1745824277.76,-977.539,-565.918,-1000.0,-878.906
1745824277.764,-1000.0,-385.742,-642.578,-1000.0
1745824277.721,-1000.0,-456.543,-845.703,-1000.0
1745824277.725,-821.777,-157.227,-28.809,-1000.0
1745824277.729,484.375,250.488,977.051,-158.203
1745824277.733,999.512,155.273,938.965,999.512
1745824277.737,145.508,-531.738,-200.195,146.484
1745824277.741,-1000.0,-487.305,-797.363,-1000.0
1745824277.745,-1000.0,-86.914,83.984,-1000.0
1745824277.748,112.305,-65.918,927.734,-158.691
1745824277.752,999.512,-11.23,999.512,999.512
1745824277.756,266.602,-246.582,85.449,474.609
1745824277.76,-977.539,-565.918,-1000.0,-878.906
1745824277.764,-1000.0,-385.742,-642.578,-1000.0
1745824277.766,-89.844,128.906,614.258,-197.754
1745824277.77,999.512,347.656,999.512,999.512
1745824277.774,253.418,-358.398,-2.93,389.648
1745824277.778,-996.094,-668.945,-1000.0,-938.477
1745824277.782,-1000.0,-272.461,-772.949,-1000.0
1745824277.786,-159.18,313.965,412.109,-242.676
1745824277.79,999.512,440.918,999.512,999.512
1745824277.793,313.965,-434.082,96.191,406.738
1745824277.797,-969.238,-807.617,-1000.0,-926.27
1745824277.801,-1000.0,-373.047,-967.773,-1000.0
1745824277.805,-255.371,222.168,70.312,-364.746
1745824277.809,999.512,605.469,999.512,999.512
1745824277.766,-89.844,128.906,614.258,-197.754
1745824277.77,999.512,347.656,999.512,999.512
1745824277.774,253.418,-358.398,-2.93,389.648
