timestamps,TP9,AF7,AF8,TP10
1745825757.458,-997.559,-163.086,-26.855,-956.055
1745825757.462,256.836,999.512,958.984,304.199
1745825757.466,999.512,505.859,130.371,999.512
1745825757.47,-394.043,-865.234,-556.641,-368.164
1745825757.474,-1000.0,-1000.0,-504.883,-1000.0
1745825757.478,-1000.0,24.414,-147.461,-995.605
1745825757.482,118.652,999.512,925.781,158.203
1745825757.485,999.512,77.637,185.547,999.512
1745825757.489,-212.891,-964.844,-606.934,-179.688
1745825757.493,-1000.0,-979.492,-501.465,-1000.0
1745825757.497,-1000.0,-237.305,-234.863,-1000.0
1745825757.501,-267.578,999.512,833.984,-197.754
1745825758.538,-385.254,-179.199,154.785,-370.117
1745825758.542,943.359,999.512,927.246,954.59
1745825758.546,999.512,293.945,96.68,999.512
1745825758.55,-201.66,-1000.0,-547.852,-217.285
1745825758.554,-1000.0,-924.316,-423.828,-1000.0
1745825758.558,-468.262,261.23,18.555,-419.434
1745825758.562,877.93,999.512,988.77,895.996
1745825758.565,999.512,103.516,228.027,999.512
1745825758.569,-95.703,-982.91,-540.527,-59.082
1745825758.573,-1000.0,-1000.0,-392.09,-1000.0
1745825758.577,-621.094,-144.043,-30.762,-579.102
1745825758.581,721.68,999.512,915.527,757.812
1745825759.707,-1000.0,-630.371,-277.832,-999.512
1745825759.711,-1000.0,286.621,419.434,-1000.0
1745825759.715,-1000.0,831.055,829.102,-1000.0
1745825759.719,-1000.0,999.512,995.605,-970.215
1745825759.723,-1000.0,-286.133,-206.543,-989.258
1745825759.727,-1000.0,39.062,-491.211,-956.055
1745825759.731,-1000.0,18.066,312.5,-1000.0
1745825759.734,-1000.0,-71.777,675.781,-881.348
1745825759.738,-1000.0,999.512,964.355,670.898
1745825759.742,-1000.0,161.133,-147.949,267.578
1745825759.746,-1000.0,-1000.0,-547.852,-1000.0
1745825759.75,-1000.0,-435.059,94.238,-1000.0
1745825760.459,999.512,999.512,689.941,966.797
1745825760.463,166.504,-101.074,-323.242,966.797
1745825760.467,-1000.0,-261.719,-481.934,967.285
1745825760.471,305.664,999.512,541.016,966.797
1745825760.475,999.512,902.344,788.574,966.797
1745825760.479,895.508,999.512,999.512,966.797
1745825760.483,970.215,115.234,133.789,967.285
1745825760.486,966.309,-65.43,-441.895,966.797
1745825760.49,966.309,231.445,383.301,966.797
1745825760.494,966.309,78.613,668.457,966.797
1745825760.498,966.309,999.512,985.352,966.797
1745825760.502,966.309,199.707,141.113,966.797
1745825760.562,966.309,950.684,597.656,966.797
1745825760.566,966.309,941.406,985.84,966.797
1745825760.57,966.309,975.586,720.215,967.285
1745825760.574,966.309,918.945,337.891,967.285
1745825760.578,966.309,949.219,654.785,966.797
1745825760.582,966.309,974.609,842.285,966.797
1745825760.586,966.309,962.891,979.98,966.797
1745825760.589,966.309,968.262,919.434,966.797
1745825760.593,966.309,966.797,546.387,966.797
1745825760.597,966.309,966.797,697.266,966.797
1745825760.601,966.309,966.797,872.07,966.797
1745825760.605,966.309,966.797,951.66,966.797
1745825762.302,-1000.0,-954.102,-202.637,-1000.0
1745825762.306,-43.945,227.539,295.898,-92.773
1745825762.31,999.512,999.512,939.453,999.512
1745825762.314,999.512,78.125,-43.945,999.512
1745825762.318,91.309,-1000.0,-616.211,-44.922
1745825762.322,-1000.0,-562.012,-218.75,-1000.0
1745825762.326,-182.617,210.938,208.496,-175.781
1745825762.329,991.211,999.512,870.605,999.512
1745825762.333,999.512,226.074,33.203,999.512
1745825762.337,198.73,-1000.0,-555.664,44.922
1745825762.341,-1000.0,-1000.0,-356.934,-1000.0
1745825762.345,-196.289,-63.965,119.141,-185.547
1745825763.922,966.309,-263.672,402.832,966.797
1745825763.926,966.309,999.512,920.898,966.797
1745825763.93,966.309,104.98,50.293,967.285
1745825763.934,966.309,-290.039,-630.859,966.797
1745825763.938,966.309,95.703,-196.289,966.797
1745825763.942,966.309,-84.473,392.09,966.797
1745825763.946,966.309,999.512,997.559,966.797
1745825763.949,966.309,220.215,243.164,966.797
1745825763.953,966.309,-612.793,-464.844,966.797
1745825763.957,966.309,20.996,-122.07,966.797
1745825763.961,966.309,-60.059,422.852,967.285
1745825763.965,966.309,999.512,999.512,966.797
1745825765.424,-191.895,599.121,-70.312,-181.641
1745825765.428,999.512,999.512,140.625,999.512
1745825765.432,952.148,44.434,-505.371,773.926
1745825765.436,-324.219,-1000.0,-912.109,-545.41
1745825765.44,-1000.0,-1000.0,-643.066,-1000.0
1745825765.444,-105.469,159.18,37.109,-159.18
1745825765.448,999.512,999.512,451.66,999.512
1745825765.451,999.512,145.508,-297.852,853.027
1745825765.455,-177.734,-1000.0,-838.867,-433.105
1745825765.459,-1000.0,-963.379,-483.887,-1000.0
1745825765.463,-83.984,275.391,141.602,-130.859
1745825765.467,999.512,999.512,533.691,999.512
1745825765.662,-1000.0,-886.719,-506.836,-1000.0
1745825765.666,222.168,465.82,430.176,-190.43
1745825765.67,999.512,999.512,946.777,999.512
1745825765.674,264.648,-40.527,-203.613,179.688
1745825765.678,-1000.0,-1000.0,-676.27,-1000.0
1745825765.682,-1000.0,-528.809,-234.375,-1000.0
1745825765.686,178.711,620.117,417.48,-104.492
1745825765.689,999.512,999.512,896.484,999.512
1745825765.693,201.172,-297.363,-197.754,154.785
1745825765.697,-984.863,-1000.0,-898.438,-1000.0
1745825765.701,-1000.0,-878.418,-595.215,-1000.0
1745825765.705,-223.633,475.586,258.789,-341.309
1745825765.992,998.535,499.023,693.848,995.605
1745825765.996,914.062,-887.207,-368.652,896.484
1745825766.0,980.957,-10.254,-486.328,952.637
1745825766.004,967.285,341.797,125.0,930.664
1745825766.008,959.961,665.039,821.289,948.73
1745825766.012,985.352,999.512,864.258,999.512
1745825766.016,897.461,-244.629,-227.051,801.758
1745825766.019,874.023,-340.82,-522.949,746.094
1745825766.023,979.492,268.555,69.336,965.82
1745825766.027,963.867,577.637,695.312,949.707
1745825766.031,966.309,999.512,936.523,988.77
1745825766.035,959.473,-351.562,-204.102,885.742
1745825766.697,-322.266,-809.57,-394.531,-103.516
1745825766.701,-1000.0,-1000.0,-402.344,-1000.0
1745825766.705,-1000.0,-269.043,11.23,-1000.0
1745825766.709,-246.094,999.512,886.23,63.965
1745825766.713,999.512,521.484,621.094,999.512
1745825766.717,-132.812,-788.574,-354.492,91.797
1745825766.721,-1000.0,-1000.0,-365.234,-1000.0
1745825766.724,-1000.0,-441.895,44.434,-1000.0
1745825766.728,-162.109,954.59,784.668,151.855
1745825766.732,999.512,788.574,820.801,999.512
1745825766.736,14.16,-583.984,-308.594,132.324
1745825766.74,-1000.0,-1000.0,-538.086,-1000.0
1745825767.717,966.309,895.02,596.191,999.512
1745825767.721,966.309,-535.156,-309.082,874.023
1745825767.725,976.562,-1000.0,-880.859,-499.023
1745825767.729,925.293,-942.383,-915.527,-1000.0
1745825767.733,984.863,-977.051,-548.828,-934.082
1745825767.737,932.617,-915.527,-100.098,-1000.0
1745825767.741,-401.367,-995.117,-749.023,-1000.0
1745825767.744,-1000.0,-1000.0,-914.062,-1000.0
1745825767.748,-935.059,-999.023,-948.242,-1000.0
1745825767.752,-1000.0,-987.793,-596.68,-1000.0
1745825767.756,-1000.0,-965.332,-74.219,-1000.0
1745825767.76,-1000.0,-993.164,-752.441,-1000.0
1745825770.014,697.754,999.512,664.551,616.211
1745825770.018,999.512,684.57,382.324,999.512
1745825770.022,147.949,-667.969,-341.309,99.609
1745825770.026,-1000.0,-1000.0,-459.961,-1000.0
1745825770.03,-1000.0,-523.926,-83.496,-1000.0
1745825770.034,109.863,930.664,633.301,44.434
1745825770.038,999.512,781.25,514.648,999.512
1745825770.041,161.133,-643.066,-342.773,158.691
1745825770.045,-1000.0,-1000.0,-469.238,-1000.0
1745825770.049,-1000.0,-583.496,0.488,-1000.0
1745825770.053,210.938,777.344,618.164,187.988
1745825770.057,999.512,999.512,616.699,999.512
1745825774.932,966.309,591.309,190.918,966.797
1745825774.936,966.309,864.746,623.535,966.797
1745825774.94,966.309,958.496,984.863,967.285
1745825774.944,966.309,981.934,603.027,966.797
1745825774.948,966.309,113.77,-304.199,966.797
1745825774.952,966.309,-9.766,-231.934,966.797
1745825774.956,966.309,274.414,375.0,966.797
1745825774.959,966.309,843.75,934.57,967.285
1745825774.963,966.309,999.023,600.586,966.797
1745825774.967,966.309,-428.223,-354.492,966.797
1745825774.971,966.309,-538.574,-508.789,966.797
1745825774.975,966.309,671.875,41.504,966.797
1745825775.549,999.512,980.469,876.953,999.512
1745825775.553,923.34,-592.773,-236.816,921.387
1745825775.557,962.891,30.273,-614.746,960.449
1745825775.561,966.797,208.008,74.219,969.727
1745825775.565,965.332,281.25,626.465,952.637
1745825775.569,981.934,999.512,967.773,999.512
1745825775.573,887.695,-452.148,-128.418,844.727
1745825775.576,999.512,-528.809,-742.676,964.355
1745825775.58,359.375,-249.512,-90.82,191.895
1745825775.584,-151.367,-213.867,560.547,-176.27
1745825775.588,996.094,999.512,986.328,999.512
1745825775.592,999.512,-259.277,-43.945,978.027
1745825777.333,156.738,-777.344,-357.422,159.18
1745825777.337,-1000.0,-942.871,-593.262,-1000.0
1745825777.341,-1000.0,122.07,-197.754,-1000.0
1745825777.345,-208.496,999.512,598.633,-183.105
1745825777.349,999.512,603.516,806.152,999.512
1745825777.353,173.34,-357.91,-339.355,191.895
1745825777.357,-1000.0,-1000.0,-641.113,-1000.0
1745825777.36,-1000.0,-757.812,-246.582,-1000.0
1745825777.364,-263.184,632.324,319.336,-227.539
1745825777.368,999.512,999.512,853.027,999.512
1745825777.372,302.734,-352.051,-182.129,279.297
1745825777.376,-987.793,-1000.0,-750.0,-994.629
1745825779.672,-946.289,601.562,-175.781,-990.234
1745825779.676,319.336,934.57,649.414,236.816
1745825779.68,999.512,999.512,787.598,999.512
1745825779.684,375.0,-203.125,-363.281,292.48
1745825779.688,-950.684,-867.676,-705.078,-986.328
1745825779.692,-1000.0,629.395,-196.777,-1000.0
1745825779.696,134.277,999.512,562.012,91.797
1745825779.699,999.512,818.359,843.75,999.512
1745825779.703,583.496,-58.105,-305.664,464.844
1745825779.707,-771.973,-1000.0,-773.926,-859.863
1745825779.711,-1000.0,-272.949,-382.324,-1000.0
1745825779.715,8.789,878.418,305.176,-57.129
1745825780.047,4.395,-1000.0,-1000.0,-1000.0
1745825780.051,-1000.0,-866.699,-1000.0,-945.312
1745825780.055,-1000.0,-1000.0,-1000.0,-1000.0
1745825780.059,-60.547,-238.77,-999.512,-291.992
1745825780.063,832.52,162.598,-997.559,358.887
1745825780.067,-699.707,-1000.0,-1000.0,-980.469
1745825780.071,-1000.0,-1000.0,-1000.0,-1000.0
1745825780.074,-968.75,-939.453,-941.406,-949.707
1745825780.078,-908.691,-853.027,-894.043,-1000.0
1745825780.082,-774.902,-887.207,-954.102,-998.047
1745825780.086,-930.176,-937.012,-969.727,-933.105
1745825780.09,-1000.0,-1000.0,-986.328,-1000.0
1745825780.377,-978.516,913.086,952.148,-828.613
1745825780.381,566.406,999.512,938.477,763.184
1745825780.385,303.711,-10.742,364.746,278.809
1745825780.389,-1000.0,-232.422,508.789,-1000.0
1745825780.393,-1000.0,261.719,947.266,-1000.0
1745825780.397,-291.992,572.266,932.129,-252.93
1745825780.401,999.512,999.512,989.746,999.512
1745825780.404,166.016,-70.801,393.555,232.422
1745825780.408,-1000.0,-389.648,379.395,-1000.0
1745825780.412,-1000.0,997.07,895.996,-1000.0
1745825780.416,-460.938,932.129,921.387,-357.91
1745825780.42,999.512,999.512,999.512,999.512
1745825782.763,-1000.0,-609.863,-236.816,-1000.0
1745825782.767,-68.848,444.824,497.559,-69.824
1745825782.771,999.512,999.512,991.211,999.512
1745825782.775,499.512,-227.051,-100.098,461.914
1745825782.779,-860.84,-1000.0,-799.316,-875.0
1745825782.783,-1000.0,145.508,-366.699,-1000.0
1745825782.787,-184.57,999.512,373.535,-188.965
1745825782.79,999.512,628.418,979.98,999.512
1745825782.794,717.285,-368.164,-67.871,636.23
1745825782.798,-651.855,-900.879,-808.594,-735.84
1745825782.802,-1000.0,-601.562,-469.238,-1000.0
1745825782.806,-187.5,411.621,225.586,-198.242
1745825785.013,168.945,-926.758,-549.316,106.445
1745825785.017,-1000.0,-907.227,-627.441,-1000.0
1745825785.021,-561.523,-18.555,-122.07,-626.953
1745825785.025,821.289,999.512,929.688,738.77
1745825785.029,999.512,146.973,515.625,999.512
1745825785.033,181.641,-949.707,-500.488,142.09
1745825785.037,-1000.0,-161.133,-582.52,-1000.0
1745825785.04,-867.676,-125.0,-21.973,-915.039
1745825785.044,467.285,798.34,880.371,375.0
1745825785.048,999.512,707.031,753.418,999.512
1745825785.052,136.719,-822.266,-432.129,138.184
1745825785.056,-1000.0,-977.051,-736.328,-1000.0
1745825785.342,-231.445,63.477,46.387,-1000.0
1745825785.346,999.512,999.512,999.512,-91.797
1745825785.35,939.941,55.664,190.43,834.961
1745825785.354,-321.289,-967.285,-655.762,-699.219
1745825785.358,-1000.0,-819.336,-790.527,-1000.0
1745825785.362,-661.621,214.355,-257.812,-1000.0
1745825785.366,712.402,999.512,752.441,-562.5
1745825785.369,999.512,139.16,51.758,716.797
1745825785.373,-283.691,-965.332,-784.668,-468.75
1745825785.377,-1000.0,-879.883,-866.699,-1000.0
1745825785.381,-1000.0,-152.832,-468.75,-1000.0
1745825785.385,-247.559,999.512,522.949,-797.852
1745825787.172,-106.445,-944.824,-561.035,-204.59
1745825787.176,-1000.0,-844.238,-741.699,-1000.0
1745825787.18,-1000.0,-95.703,-240.723,-981.934
1745825787.184,-734.375,999.512,768.066,-955.078
1745825787.188,843.262,428.223,567.383,533.691
1745825787.192,197.754,-831.543,-479.98,98.633
1745825787.196,-1000.0,-966.797,-645.508,-1000.0
1745825787.199,-898.438,-490.723,-265.137,-950.195
1745825787.203,-1000.0,411.621,584.961,-998.047
1745825787.207,-360.84,791.992,643.555,-849.121
1745825787.211,-28.809,-31.738,-561.035,-866.211
1745825787.215,-1000.0,-565.43,-678.223,-1000.0
1745825787.217,-970.703,45.41,-252.93,-957.52
1745825787.221,-1000.0,646.484,424.805,-1000.0
1745825787.225,168.945,745.117,772.949,159.668
1745825787.229,310.059,-462.891,-337.402,297.363
1745825787.233,-1000.0,-1000.0,-818.848,-1000.0
1745825787.237,-926.758,71.289,-401.855,-931.152
1745825787.241,-1000.0,981.934,341.309,-1000.0
1745825787.244,-68.359,893.555,809.082,-40.039
1745825787.248,342.285,-188.965,-208.496,327.148
1745825787.252,-1000.0,-1000.0,-802.734,-1000.0
1745825787.256,-946.777,-365.234,-467.773,-954.102
1745825787.26,-1000.0,687.5,260.254,-1000.0
1745825787.683,828.613,-121.582,309.082,999.512
1745825787.687,-610.84,-945.801,-504.883,201.172
1745825787.691,-1000.0,-268.066,-559.082,-1000.0
1745825787.695,-639.648,-23.438,-10.742,-413.574
1745825787.699,679.199,999.512,925.293,975.098
1745825787.703,999.512,584.473,506.348,957.031
1745825787.707,36.133,-613.77,-478.516,927.734
1745825787.71,-1000.0,-199.219,-537.109,914.551
1745825787.714,-842.285,-264.648,83.008,332.031
1745825787.718,461.426,752.441,858.887,722.656
1745825787.722,999.512,736.816,734.863,999.512
1745825787.726,39.551,-880.859,-331.543,916.992
1745825788.343,999.512,988.281,947.754,999.512
1745825788.347,771.484,-40.527,-9.277,698.242
1745825788.351,-592.285,-1000.0,-743.164,-679.199
1745825788.355,-1000.0,-629.395,-443.359,-1000.0
1745825788.359,-177.246,574.707,239.746,-237.793
1745825788.363,998.535,999.512,948.73,999.512
1745825788.367,999.512,38.086,80.078,964.844
1745825788.37,-122.07,-1000.0,-606.934,-281.25
1745825788.374,-1000.0,-824.707,-402.832,-1000.0
1745825788.378,-163.574,357.91,200.195,-158.691
1745825788.382,999.512,999.512,999.512,999.512
1745825788.386,949.219,-69.336,346.68,930.664
1745825789.797,966.309,-230.957,429.199,966.797
1745825789.801,966.309,999.512,970.703,966.797
1745825789.805,966.309,-118.164,145.02,966.797
1745825789.809,966.309,-346.191,-645.02,967.285
1745825789.813,966.309,12.207,-302.734,963.867
1745825789.817,966.309,-189.941,411.133,965.332
1745825789.821,966.309,999.512,979.004,968.262
1745825789.824,965.82,-40.039,251.953,961.914
1745825789.828,966.309,-736.816,-556.152,979.004
1745825789.832,966.309,-161.133,-438.965,908.691
1745825789.836,980.469,-58.105,233.398,903.32
1745825789.84,906.25,999.512,999.512,913.086
1745825790.682,966.309,-227.051,-547.363,966.797
1745825790.686,966.309,338.379,248.047,966.797
1745825790.69,966.309,250.0,760.742,966.797
1745825790.694,966.309,999.512,999.512,966.797
1745825790.698,966.309,509.277,480.957,966.797
1745825790.702,966.309,44.434,-211.426,966.797
1745825790.706,966.309,419.434,166.504,966.797
1745825790.709,966.309,280.762,647.461,966.797
1745825790.713,966.309,996.582,940.43,966.797
1745825790.717,966.309,38.574,308.105,966.797
1745825790.721,966.309,-826.172,-511.719,966.797
1745825790.725,976.562,-147.949,-656.25,978.027
1745825791.762,-592.285,-872.07,-671.875,-557.617
1745825791.766,-1000.0,-542.48,-556.641,-1000.0
1745825791.77,-766.602,456.055,17.09,-753.906
1745825791.774,651.855,999.512,851.562,635.254
1745825791.778,999.512,-333.008,135.254,999.512
1745825791.782,-493.652,-443.359,-611.816,-431.152
1745825791.786,-1000.0,-76.66,-498.535,-1000.0
1745825791.789,-1000.0,-232.91,44.922,-997.07
1745825791.793,1.465,999.512,849.121,143.555
1745825791.797,999.512,76.66,227.539,999.512
1745825791.801,-209.961,-926.758,-533.691,-210.938
1745825791.805,-1000.0,-640.137,-527.832,-1000.0
1745825795.197,966.309,749.023,607.422,966.797
1745825795.201,966.309,-198.242,-329.102,966.797
1745825795.205,966.309,-297.363,-364.746,967.285
1745825795.209,966.309,-12.695,37.109,967.285
1745825795.213,966.309,592.285,670.41,967.285
1745825795.217,966.309,422.852,564.453,965.82
1745825795.221,966.309,-695.312,-465.332,968.75
1745825795.224,966.309,-1000.0,-665.527,967.285
1745825795.228,966.309,-701.66,-400.879,938.477
1745825795.232,968.75,-60.059,160.645,927.246
1745825795.236,954.102,-125.977,168.945,999.512
1745825795.24,917.48,-606.445,-743.164,-52.734
1745825795.243,999.512,-916.992,-875.977,-1000.0
1745825795.247,-212.891,-1000.0,-651.855,-955.078
1745825795.251,-291.504,26.367,-336.914,-989.746
1745825795.255,265.625,202.637,-76.66,-1000.0
1745825795.259,-1000.0,-1000.0,-639.648,-1000.0
1745825795.263,-1000.0,-714.355,-891.602,-1000.0
1745825795.267,-963.867,-850.098,-554.199,-1000.0
1745825795.27,-1000.0,-290.039,-56.152,-1000.0
1745825795.274,-1000.0,212.891,215.82,-1000.0
1745825795.278,-1000.0,-416.016,-549.316,-1000.0
1745825795.282,-1000.0,-424.805,-743.652,-1000.0
1745825795.286,-1000.0,-397.461,-458.496,-1000.0
1745825795.243,999.512,-916.992,-875.977,-1000.0
1745825795.247,-212.891,-1000.0,-651.855,-955.078
1745825795.251,-291.504,26.367,-336.914,-989.746
1745825795.255,265.625,202.637,-76.66,-1000.0
1745825795.259,-1000.0,-1000.0,-639.648,-1000.0
1745825795.263,-1000.0,-714.355,-891.602,-1000.0
1745825795.267,-963.867,-850.098,-554.199,-1000.0
1745825795.27,-1000.0,-290.039,-56.152,-1000.0
1745825795.274,-1000.0,212.891,215.82,-1000.0
1745825795.278,-1000.0,-416.016,-549.316,-1000.0
1745825795.282,-1000.0,-424.805,-743.652,-1000.0
1745825795.286,-1000.0,-397.461,-458.496,-1000.0
1745825795.287,-1000.0,56.641,12.695,-1000.0
1745825795.291,-1000.0,438.965,520.02,-1000.0
1745825795.295,-1000.0,-519.043,-355.957,-1000.0
1745825795.299,-1000.0,-344.727,-708.496,-1000.0
1745825795.303,-1000.0,-274.414,-463.867,-1000.0
1745825795.307,-1000.0,217.773,76.172,-1000.0
1745825795.311,-1000.0,579.102,590.82,-1000.0
1745825795.314,-1000.0,-668.457,-372.559,-1000.0
1745825795.318,-1000.0,-767.09,-746.582,-999.512
1745825795.322,-1000.0,-562.012,-687.988,-1000.0
1745825795.326,-1000.0,366.699,-88.867,-1000.0
1745825795.33,-1000.0,966.309,876.953,-978.516
1745825795.287,-1000.0,56.641,12.695,-1000.0
1745825795.291,-1000.0,438.965,520.02,-1000.0
1745825795.295,-1000.0,-519.043,-355.957,-1000.0
1745825795.299,-1000.0,-344.727,-708.496,-1000.0
1745825795.303,-1000.0,-274.414,-463.867,-1000.0
1745825795.307,-1000.0,217.773,76.172,-1000.0
1745825795.311,-1000.0,579.102,590.82,-1000.0
1745825795.314,-1000.0,-668.457,-372.559,-1000.0
1745825795.318,-1000.0,-767.09,-746.582,-999.512
1745825795.322,-1000.0,-562.012,-687.988,-1000.0
1745825795.326,-1000.0,366.699,-88.867,-1000.0
1745825795.33,-1000.0,966.309,876.953,-978.516
1745825795.332,-1000.0,-504.395,-136.23,-987.793
1745825795.336,-1000.0,-896.484,-881.836,-1000.0
1745825795.34,-1000.0,-586.426,-788.086,-999.023
1745825795.344,-1000.0,-951.66,-752.441,-1000.0
1745825795.348,-1000.0,-934.082,-647.461,-1000.0
1745825795.352,-1000.0,-916.016,-963.379,-1000.0
1745825795.356,-1000.0,-998.535,-980.957,-1000.0
1745825795.359,-1000.0,-1000.0,-952.637,-1000.0
1745825795.363,-1000.0,-1000.0,-875.977,-1000.0
1745825795.367,-1000.0,-981.445,-734.863,-1000.0
1745825795.371,-1000.0,-992.188,-928.223,-1000.0
1745825795.375,-1000.0,-960.449,-945.312,-1000.0
1745825795.332,-1000.0,-504.395,-136.23,-987.793
1745825795.336,-1000.0,-896.484,-881.836,-1000.0
1745825795.34,-1000.0,-586.426,-788.086,-999.023
1745825795.344,-1000.0,-951.66,-752.441,-1000.0
1745825795.348,-1000.0,-934.082,-647.461,-1000.0
1745825795.352,-1000.0,-916.016,-963.379,-1000.0
1745825795.356,-1000.0,-998.535,-980.957,-1000.0
1745825795.359,-1000.0,-1000.0,-952.637,-1000.0
1745825795.363,-1000.0,-1000.0,-875.977,-1000.0
1745825795.367,-1000.0,-981.445,-734.863,-1000.0
1745825795.371,-1000.0,-992.188,-928.223,-1000.0
1745825795.375,-1000.0,-960.449,-945.312,-1000.0
1745825795.392,-1000.0,-1000.0,-854.98,-1000.0
1745825795.396,-1000.0,-885.742,-347.656,-1000.0
1745825795.4,-1000.0,577.148,723.633,-1000.0
1745825795.404,-1000.0,713.867,774.414,-1000.0
1745825795.408,-1000.0,-697.754,-350.098,-1000.0
1745825795.412,-1000.0,23.926,-254.395,-1000.0
1745825795.416,-1000.0,235.352,546.875,-1000.0
1745825795.419,-1000.0,632.324,756.348,-1000.0
1745825795.423,-1000.0,992.188,772.949,-1000.0
1745825795.427,-1000.0,-320.312,-337.402,-1000.0
1745825795.431,-1000.0,-653.32,-566.895,-929.199
1745825795.435,-1000.0,-14.648,12.695,-1000.0
1745825795.392,-1000.0,-1000.0,-854.98,-1000.0
1745825795.396,-1000.0,-885.742,-347.656,-1000.0
1745825795.4,-1000.0,577.148,723.633,-1000.0
1745825795.404,-1000.0,713.867,774.414,-1000.0
1745825795.408,-1000.0,-697.754,-350.098,-1000.0
1745825795.412,-1000.0,23.926,-254.395,-1000.0
1745825795.416,-1000.0,235.352,546.875,-1000.0
1745825795.419,-1000.0,632.324,756.348,-1000.0
1745825795.423,-1000.0,992.188,772.949,-1000.0
1745825795.427,-1000.0,-320.312,-337.402,-1000.0
1745825795.431,-1000.0,-653.32,-566.895,-929.199
1745825795.435,-1000.0,-14.648,12.695,-1000.0
1745825795.422,-1000.0,847.168,365.723,-591.797
1745825795.426,-1000.0,999.512,833.984,999.512
1745825795.43,-1000.0,-461.914,-174.316,348.145
1745825795.434,-1000.0,-241.699,-768.066,-1000.0
1745825795.438,-1000.0,123.047,-153.32,-1000.0
1745825795.442,-1000.0,108.398,378.418,-197.754
1745825795.446,-1000.0,914.062,874.512,999.512
1745825795.449,-1000.0,-431.641,-72.754,502.93
1745825795.453,-1000.0,-212.402,-693.848,-855.469
1745825795.457,-1000.0,132.812,-120.605,-1000.0
1745825795.461,-1000.0,-86.426,371.582,-190.918
1745825795.465,-999.512,999.512,822.754,999.512
1745825795.422,-1000.0,847.168,365.723,-591.797
1745825795.426,-1000.0,999.512,833.984,999.512
1745825795.43,-1000.0,-461.914,-174.316,348.145
1745825795.434,-1000.0,-241.699,-768.066,-1000.0
1745825795.438,-1000.0,123.047,-153.32,-1000.0
1745825795.442,-1000.0,108.398,378.418,-197.754
1745825795.446,-1000.0,914.062,874.512,999.512
1745825795.449,-1000.0,-431.641,-72.754,502.93
1745825795.453,-1000.0,-212.402,-693.848,-855.469
1745825795.457,-1000.0,132.812,-120.605,-1000.0
1745825795.461,-1000.0,-86.426,371.582,-190.918
1745825795.465,-999.512,999.512,822.754,999.512
1745825795.468,-1000.0,-214.844,-8.301,915.039
1745825795.472,-950.195,-444.336,-647.949,-307.129
1745825795.476,-1000.0,-166.992,-228.027,-1000.0
1745825795.48,-940.918,-203.125,312.012,-178.223
1745825795.484,598.145,999.512,844.238,999.512
1745825795.488,747.07,142.578,63.477,999.512
1745825795.492,-801.27,-380.371,-588.379,-55.176
1745825795.495,-1000.0,-380.859,-388.184,-1000.0
1745825795.499,-863.281,-227.539,78.125,-369.141
1745825795.503,637.207,999.512,781.25,964.844
1745825795.507,701.66,-47.852,184.57,999.512
1745825795.511,-878.906,-700.195,-474.121,-213.379
1745825795.468,-1000.0,-214.844,-8.301,915.039
1745825795.472,-950.195,-444.336,-647.949,-307.129
1745825795.476,-1000.0,-166.992,-228.027,-1000.0
1745825795.48,-940.918,-203.125,312.012,-178.223
1745825795.484,598.145,999.512,844.238,999.512
1745825795.488,747.07,142.578,63.477,999.512
1745825795.492,-801.27,-380.371,-588.379,-55.176
1745825795.495,-1000.0,-380.859,-388.184,-1000.0
1745825795.499,-863.281,-227.539,78.125,-369.141
1745825795.503,637.207,999.512,781.25,964.844
1745825795.507,701.66,-47.852,184.57,999.512
1745825795.511,-878.906,-700.195,-474.121,-213.379
1745825795.528,-1000.0,-227.051,-413.574,-1000.0
1745825795.532,-1000.0,-80.078,6.836,-721.191
1745825795.536,200.684,999.512,773.438,596.68
1745825795.54,984.863,217.773,257.324,999.512
1745825795.544,-579.102,-827.637,-537.109,-104.004
1745825795.548,-1000.0,-212.402,-511.23,-1000.0
1745825795.552,-1000.0,-96.191,-49.805,-875.0
1745825795.555,-44.434,994.141,639.16,351.074
1745825795.559,999.512,206.055,404.297,999.512
1745825795.563,-296.387,-1000.0,-440.43,78.125
1745825795.567,-1000.0,-213.379,-498.047,-1000.0
1745825795.571,-1000.0,2.93,-16.113,-932.129
1745825795.528,-1000.0,-227.051,-413.574,-1000.0
1745825795.532,-1000.0,-80.078,6.836,-721.191
1745825795.536,200.684,999.512,773.438,596.68
1745825795.54,984.863,217.773,257.324,999.512
1745825795.544,-579.102,-827.637,-537.109,-104.004
1745825795.548,-1000.0,-212.402,-511.23,-1000.0
1745825795.552,-1000.0,-96.191,-49.805,-875.0
1745825795.555,-44.434,994.141,639.16,351.074
1745825795.559,999.512,206.055,404.297,999.512
1745825795.563,-296.387,-1000.0,-440.43,78.125
1745825795.567,-1000.0,-213.379,-498.047,-1000.0
1745825795.571,-1000.0,2.93,-16.113,-932.129
1745825795.572,-87.891,825.684,650.879,308.594
1745825795.576,999.512,717.285,678.711,999.512
1745825795.58,149.902,-785.156,-363.77,155.273
1745825795.584,-1000.0,-329.59,-602.051,-1000.0
1745825795.588,-1000.0,204.59,-127.441,-1000.0
1745825795.592,-86.914,743.652,418.945,192.871
1745825795.596,999.512,877.441,673.828,999.512
1745825795.599,146.973,-523.926,-355.469,128.418
1745825795.603,-1000.0,-1000.0,-736.816,-1000.0
1745825795.607,-1000.0,-229.98,-298.34,-1000.0
1745825795.611,-259.277,946.777,188.477,-246.582
1745825795.615,999.512,936.523,721.68,999.512
1745825795.572,-87.891,825.684,650.879,308.594
1745825795.576,999.512,717.285,678.711,999.512
1745825795.58,149.902,-785.156,-363.77,155.273
1745825795.584,-1000.0,-329.59,-602.051,-1000.0
1745825795.588,-1000.0,204.59,-127.441,-1000.0
1745825795.592,-86.914,743.652,418.945,192.871
1745825795.596,999.512,877.441,673.828,999.512
1745825795.599,146.973,-523.926,-355.469,128.418
1745825795.603,-1000.0,-1000.0,-736.816,-1000.0
1745825795.607,-1000.0,-229.98,-298.34,-1000.0
1745825795.611,-259.277,946.777,188.477,-246.582
1745825795.615,999.512,936.523,721.68,999.512
1745825795.617,218.75,-463.379,-199.707,277.832
1745825795.621,-1000.0,-440.43,-763.184,-1000.0
1745825795.625,-1000.0,255.371,-96.68,-1000.0
1745825795.629,-264.648,473.633,441.895,-200.195
1745825795.633,999.512,785.645,859.375,999.512
1745825795.637,514.648,-14.648,-103.027,617.676
1745825795.641,-875.977,-776.855,-695.801,-757.812
1745825795.644,-1000.0,-265.137,-249.023,-1000.0
1745825795.648,-219.238,852.539,233.398,-188.477
1745825795.652,999.512,999.512,839.844,999.512
1745825795.656,809.082,-176.27,-17.09,883.789
1745825795.66,-535.645,-613.77,-674.316,-401.367
1745825795.617,218.75,-463.379,-199.707,277.832
1745825795.621,-1000.0,-440.43,-763.184,-1000.0
1745825795.625,-1000.0,255.371,-96.68,-1000.0
1745825795.629,-264.648,473.633,441.895,-200.195
1745825795.633,999.512,785.645,859.375,999.512
1745825795.637,514.648,-14.648,-103.027,617.676
1745825795.641,-875.977,-776.855,-695.801,-757.812
1745825795.644,-1000.0,-265.137,-249.023,-1000.0
1745825795.648,-219.238,852.539,233.398,-188.477
1745825795.652,999.512,999.512,839.844,999.512
1745825795.656,809.082,-176.27,-17.09,883.789
1745825795.66,-535.645,-613.77,-674.316,-401.367
1745825795.662,-1000.0,-373.047,-398.926,-1000.0
1745825795.666,-175.293,158.691,171.387,-176.758
1745825795.67,997.559,999.512,881.836,999.512
1745825795.674,999.512,-205.566,68.359,999.512
1745825795.678,-96.191,-755.371,-614.258,-95.703
1745825795.682,-1000.0,-366.211,-326.66,-1000.0
1745825795.686,-170.41,47.852,263.184,-190.918
1745825795.689,985.84,999.512,947.266,990.723
1745825795.693,999.512,-131.348,223.145,999.512
1745825795.697,160.645,-785.156,-484.863,115.234
1745825795.701,-1000.0,-306.152,-293.457,-1000.0
1745825795.705,-345.215,-140.137,178.223,-331.055
1745825795.662,-1000.0,-373.047,-398.926,-1000.0
1745825795.666,-175.293,158.691,171.387,-176.758
1745825795.67,997.559,999.512,881.836,999.512
1745825795.674,999.512,-205.566,68.359,999.512
1745825795.678,-96.191,-755.371,-614.258,-95.703
1745825795.682,-1000.0,-366.211,-326.66,-1000.0
1745825795.686,-170.41,47.852,263.184,-190.918
1745825795.689,985.84,999.512,947.266,990.723
1745825795.693,999.512,-131.348,223.145,999.512
1745825795.697,160.645,-785.156,-484.863,115.234
1745825795.701,-1000.0,-306.152,-293.457,-1000.0
1745825795.705,-345.215,-140.137,178.223,-331.055
1745825795.708,999.512,999.512,940.43,999.512
1745825795.712,917.969,46.387,417.48,932.617
1745825795.716,990.234,-658.691,-485.352,865.234
1745825795.72,919.434,88.867,-326.66,748.047
1745825795.724,-283.203,-532.715,243.652,-243.652
1745825795.728,263.672,734.375,846.68,349.121
1745825795.732,999.512,421.387,548.34,999.512
1745825795.735,461.914,-1000.0,-291.992,377.93
1745825795.739,-1000.0,-969.727,-295.898,-1000.0
1745825795.743,-635.742,-70.312,136.23,-650.879
1745825795.747,896.484,999.512,811.035,841.797
1745825795.751,999.512,508.789,811.523,999.512
1745825795.708,999.512,999.512,940.43,999.512
1745825795.712,917.969,46.387,417.48,932.617
1745825795.716,990.234,-658.691,-485.352,865.234
1745825795.72,919.434,88.867,-326.66,748.047
1745825795.724,-283.203,-532.715,243.652,-243.652
1745825795.728,263.672,734.375,846.68,349.121
1745825795.732,999.512,421.387,548.34,999.512
1745825795.735,461.914,-1000.0,-291.992,377.93
1745825795.739,-1000.0,-969.727,-295.898,-1000.0
1745825795.743,-635.742,-70.312,136.23,-650.879
1745825795.747,896.484,999.512,811.035,841.797
1745825795.751,999.512,508.789,811.523,999.512
1745825795.753,908.691,-774.902,-298.34,874.023
1745825795.757,982.422,-78.125,-409.668,909.668
1745825795.761,981.934,179.688,348.633,883.301
1745825795.765,896.973,428.711,712.891,875.488
1745825795.769,999.512,691.895,787.598,999.512
1745825795.773,673.828,-413.574,-251.465,487.793
1745825795.777,-794.922,-1000.0,-543.457,-899.902
1745825795.78,-1000.0,-191.895,118.164,-1000.0
1745825795.784,291.992,775.879,520.996,230.469
1745825795.788,999.512,801.27,886.23,999.512
1745825795.792,902.344,-451.66,-162.109,896.484
1745825795.796,968.75,-411.621,-612.305,943.848
1745825795.753,908.691,-774.902,-298.34,874.023
1745825795.757,982.422,-78.125,-409.668,909.668
1745825795.761,981.934,179.688,348.633,883.301
1745825795.765,896.973,428.711,712.891,875.488
1745825795.769,999.512,691.895,787.598,999.512
1745825795.773,673.828,-413.574,-251.465,487.793
1745825795.777,-794.922,-1000.0,-543.457,-899.902
1745825795.78,-1000.0,-191.895,118.164,-1000.0
1745825795.784,291.992,775.879,520.996,230.469
1745825795.788,999.512,801.27,886.23,999.512
1745825795.792,902.344,-451.66,-162.109,896.484
1745825795.796,968.75,-411.621,-612.305,943.848
1745825795.797,966.309,-47.852,176.27,968.262
1745825795.801,966.309,251.953,548.828,966.309
1745825795.805,966.309,887.695,911.621,967.285
1745825795.809,966.309,-254.883,-32.715,964.355
1745825795.813,966.309,-569.336,-610.352,942.383
1745825795.817,966.309,178.223,115.234,943.848
1745825795.821,966.309,679.199,540.527,962.402
1745825795.824,966.309,452.148,892.09,967.285
1745825795.828,966.309,-524.902,42.969,967.285
1745825795.832,966.309,-108.398,-599.121,958.008
1745825795.836,966.309,163.086,-59.57,922.363
1745825795.84,966.309,37.109,465.332,951.66
1745825795.797,966.309,-47.852,176.27,968.262
1745825795.801,966.309,251.953,548.828,966.309
1745825795.805,966.309,887.695,911.621,967.285
1745825795.809,966.309,-254.883,-32.715,964.355
1745825795.813,966.309,-569.336,-610.352,942.383
1745825795.817,966.309,178.223,115.234,943.848
1745825795.821,966.309,679.199,540.527,962.402
1745825795.824,966.309,452.148,892.09,967.285
1745825795.828,966.309,-524.902,42.969,967.285
1745825795.832,966.309,-108.398,-599.121,958.008
1745825795.836,966.309,163.086,-59.57,922.363
1745825795.84,966.309,37.109,465.332,951.66
1745825795.842,966.309,933.105,869.629,972.656
1745825795.846,966.309,32.227,76.172,963.379
1745825795.85,966.309,-358.398,-508.301,967.773
1745825795.854,966.309,-162.598,-194.824,929.688
1745825795.858,966.309,324.219,309.082,946.289
1745825795.862,966.309,999.512,949.707,986.816
1745825795.866,965.332,-110.84,248.535,898.438
1745825795.869,967.773,-346.191,-458.008,999.512
1745825795.873,964.355,-237.793,-335.449,587.891
1745825795.877,961.426,-342.285,99.609,-24.414
1745825795.881,893.555,999.512,899.902,838.867
1745825795.885,999.512,100.586,345.215,999.512
1745825795.842,966.309,933.105,869.629,972.656
1745825795.846,966.309,32.227,76.172,963.379
1745825795.85,966.309,-358.398,-508.301,967.773
1745825795.854,966.309,-162.598,-194.824,929.688
1745825795.858,966.309,324.219,309.082,946.289
1745825795.862,966.309,999.512,949.707,986.816
1745825795.866,965.332,-110.84,248.535,898.438
1745825795.869,967.773,-346.191,-458.008,999.512
1745825795.873,964.355,-237.793,-335.449,587.891
1745825795.877,961.426,-342.285,99.609,-24.414
1745825795.881,893.555,999.512,899.902,838.867
1745825795.885,999.512,100.586,345.215,999.512
1745825795.842,966.309,933.105,869.629,972.656
1745825795.846,966.309,32.227,76.172,963.379
1745825795.85,966.309,-358.398,-508.301,967.773
1745825795.854,966.309,-162.598,-194.824,929.688
1745825795.858,966.309,324.219,309.082,946.289
1745825795.862,966.309,999.512,949.707,986.816
1745825795.866,965.332,-110.84,248.535,898.438
1745825795.869,967.773,-346.191,-458.008,999.512
1745825795.873,964.355,-237.793,-335.449,587.891
1745825795.877,961.426,-342.285,99.609,-24.414
1745825795.881,893.555,999.512,899.902,838.867
1745825795.885,999.512,100.586,345.215,999.512
1745825795.887,325.684,-1000.0,-409.668,195.801
1745825795.891,-308.105,-603.516,-399.414,-1000.0
1745825795.895,850.586,346.68,-20.02,-245.605
1745825795.899,999.512,999.512,859.863,999.512
1745825795.903,921.387,173.34,463.867,914.551
1745825795.907,972.656,-484.375,-457.52,967.773
1745825795.911,966.309,-352.051,-367.676,940.918
1745825795.914,981.934,-543.945,86.426,101.074
1745825795.918,890.137,668.945,704.59,501.953
1745825795.922,999.512,588.379,666.992,999.512
1745825795.926,629.883,-778.809,-347.656,342.285
1745825795.93,-625.488,-826.172,-488.77,-1000.0
1745825795.887,325.684,-1000.0,-409.668,195.801
1745825795.891,-308.105,-603.516,-399.414,-1000.0
1745825795.895,850.586,346.68,-20.02,-245.605
1745825795.899,999.512,999.512,859.863,999.512
1745825795.903,921.387,173.34,463.867,914.551
1745825795.907,972.656,-484.375,-457.52,967.773
1745825795.911,966.309,-352.051,-367.676,940.918
1745825795.914,981.934,-543.945,86.426,101.074
1745825795.918,890.137,668.945,704.59,501.953
1745825795.922,999.512,588.379,666.992,999.512
1745825795.926,629.883,-778.809,-347.656,342.285
1745825795.93,-625.488,-826.172,-488.77,-1000.0
1745825795.947,-490.234,-338.379,-39.062,-949.219
1745825795.951,614.746,577.148,562.012,399.414
1745825795.955,999.512,920.41,841.309,999.512
1745825795.959,872.559,-646.973,-290.039,734.375
1745825795.963,999.512,-290.039,-660.156,-399.414
1745825795.967,84.473,-25.391,-2.93,-1000.0
1745825795.971,21.484,37.598,455.566,26.855
1745825795.974,999.512,879.883,788.574,999.512
1745825795.978,780.273,-426.27,-215.332,450.195
1745825795.982,-621.582,-974.609,-721.191,-894.531
1745825795.986,-1000.0,94.727,-157.227,-1000.0
1745825795.99,357.91,915.039,346.68,-6.836
1745825795.947,-490.234,-338.379,-39.062,-949.219
1745825795.951,614.746,577.148,562.012,399.414
1745825795.955,999.512,920.41,841.309,999.512
1745825795.959,872.559,-646.973,-290.039,734.375
1745825795.963,999.512,-290.039,-660.156,-399.414
1745825795.967,84.473,-25.391,-2.93,-1000.0
1745825795.971,21.484,37.598,455.566,26.855
1745825795.974,999.512,879.883,788.574,999.512
1745825795.978,780.273,-426.27,-215.332,450.195
1745825795.982,-621.582,-974.609,-721.191,-894.531
1745825795.986,-1000.0,94.727,-157.227,-1000.0
1745825795.99,357.91,915.039,346.68,-6.836
1745825795.992,999.512,798.828,825.684,999.512
1745825795.996,899.414,-91.797,-125.488,661.621
1745825796.0,-304.199,-1000.0,-675.293,-658.691
1745825796.004,-1000.0,-385.254,-238.281,-1000.0
1745825796.008,-104.492,809.57,255.371,-192.383
1745825796.012,999.512,999.512,844.727,999.512
1745825796.016,981.445,-84.961,-28.32,798.34
1745825796.019,-230.957,-789.062,-662.109,-533.203
1745825796.023,-1000.0,-564.453,-380.859,-1000.0
1745825796.027,-174.316,370.605,177.246,-190.918
1745825796.031,999.512,999.512,890.137,999.512
1745825796.035,999.512,-388.184,50.293,940.918
1745825795.992,999.512,798.828,825.684,999.512
1745825795.996,899.414,-91.797,-125.488,661.621
1745825796.0,-304.199,-1000.0,-675.293,-658.691
1745825796.004,-1000.0,-385.254,-238.281,-1000.0
1745825796.008,-104.492,809.57,255.371,-192.383
1745825796.012,999.512,999.512,844.727,999.512
1745825796.016,981.445,-84.961,-28.32,798.34
1745825796.019,-230.957,-789.062,-662.109,-533.203
1745825796.023,-1000.0,-564.453,-380.859,-1000.0
1745825796.027,-174.316,370.605,177.246,-190.918
1745825796.031,999.512,999.512,890.137,999.512
1745825796.035,999.512,-388.184,50.293,940.918
1745825796.038,-49.805,-488.281,-595.703,-281.738
1745825796.042,-1000.0,-83.496,-334.473,-1000.0
1745825796.046,-245.117,-152.832,143.066,-388.184
1745825796.05,983.398,999.512,854.492,924.316
1745825796.054,999.512,-180.176,160.645,999.512
1745825796.058,-3.906,-760.742,-548.34,-136.719
1745825796.062,-1000.0,-253.418,-446.777,-1000.0
1745825796.065,-430.664,-83.984,3.418,-623.535
1745825796.069,893.555,911.621,798.34,723.633
1745825796.073,999.512,-6.836,168.457,999.512
1745825796.077,8.301,-876.465,-570.801,-67.871
1745825796.081,-1000.0,-703.125,-503.418,-1000.0
1745825796.038,-49.805,-488.281,-595.703,-281.738
1745825796.042,-1000.0,-83.496,-334.473,-1000.0
1745825796.046,-245.117,-152.832,143.066,-388.184
1745825796.05,983.398,999.512,854.492,924.316
1745825796.054,999.512,-180.176,160.645,999.512
1745825796.058,-3.906,-760.742,-548.34,-136.719
1745825796.062,-1000.0,-253.418,-446.777,-1000.0
1745825796.065,-430.664,-83.984,3.418,-623.535
1745825796.069,893.555,911.621,798.34,723.633
1745825796.073,999.512,-6.836,168.457,999.512
1745825796.077,8.301,-876.465,-570.801,-67.871
1745825796.081,-1000.0,-703.125,-503.418,-1000.0
1745825796.082,-1000.0,-163.574,-147.949,-1000.0
1745825796.086,-2.441,999.512,718.75,-75.195
1745825796.09,999.512,322.754,429.199,999.512
1745825796.094,121.582,-904.297,-491.211,79.59
1745825796.098,-1000.0,-887.695,-539.062,-1000.0
1745825796.102,-1000.0,-76.172,-155.273,-1000.0
1745825796.106,-230.469,999.512,649.902,-234.863
1745825796.109,999.512,336.914,619.141,999.512
1745825796.113,161.621,-984.863,-477.051,140.137
1745825796.117,-1000.0,-629.883,-605.469,-1000.0
1745825796.121,-1000.0,-125.977,-127.441,-1000.0
1745825796.125,-334.961,841.309,408.203,-382.324
1745825796.082,-1000.0,-163.574,-147.949,-1000.0
1745825796.086,-2.441,999.512,718.75,-75.195
1745825796.09,999.512,322.754,429.199,999.512
1745825796.094,121.582,-904.297,-491.211,79.59
1745825796.098,-1000.0,-887.695,-539.062,-1000.0
1745825796.102,-1000.0,-76.172,-155.273,-1000.0
1745825796.106,-230.469,999.512,649.902,-234.863
1745825796.109,999.512,336.914,619.141,999.512
1745825796.113,161.621,-984.863,-477.051,140.137
1745825796.117,-1000.0,-629.883,-605.469,-1000.0
1745825796.121,-1000.0,-125.977,-127.441,-1000.0
1745825796.125,-334.961,841.309,408.203,-382.324
1745825796.127,999.512,851.562,642.09,999.512
1745825796.131,167.969,-746.094,-358.887,178.223
1745825796.135,-1000.0,-436.523,-752.93,-1000.0
1745825796.139,-1000.0,-92.773,-205.566,-1000.0
1745825796.143,-625.0,258.789,321.289,-618.164
1745825796.147,993.652,999.512,721.191,983.398
1745825796.151,270.996,-151.855,-208.496,274.414
1745825796.154,-1000.0,-873.535,-750.0,-1000.0
1745825796.158,-1000.0,-854.492,-216.797,-1000.0
1745825796.162,-869.629,8.789,293.457,-819.824
1745825796.166,709.473,999.512,706.055,747.07
1745825796.17,452.637,-101.562,-164.062,442.383
1745825796.176,-1000.0,-1000.0,-720.703,-1000.0
1745825796.18,-1000.0,-365.723,-353.516,-1000.0
1745825796.184,-979.492,771.973,231.445,-919.434
1745825796.188,517.09,999.512,751.953,578.125
1745825796.192,652.344,-232.422,-109.863,653.809
1745825796.196,-970.215,-360.352,-689.941,-934.082
1745825796.2,-974.121,-91.797,-361.816,-1000.0
1745825796.203,-1000.0,-312.012,229.004,-1000.0
1745825796.207,-40.527,999.512,793.945,145.996
1745825796.211,869.629,78.613,3.906,887.695
1745825796.215,-685.547,-715.332,-602.539,-677.246
1745825796.219,-1000.0,-355.469,-451.66,-1000.0
1745825796.176,-1000.0,-1000.0,-720.703,-1000.0
1745825796.18,-1000.0,-365.723,-353.516,-1000.0
1745825796.184,-979.492,771.973,231.445,-919.434
1745825796.188,517.09,999.512,751.953,578.125
1745825796.192,652.344,-232.422,-109.863,653.809
1745825796.196,-970.215,-360.352,-689.941,-934.082
1745825796.2,-974.121,-91.797,-361.816,-1000.0
1745825796.203,-1000.0,-312.012,229.004,-1000.0
1745825796.207,-40.527,999.512,793.945,145.996
1745825796.211,869.629,78.613,3.906,887.695
1745825796.215,-685.547,-715.332,-602.539,-677.246
1745825796.219,-1000.0,-355.469,-451.66,-1000.0
1745825796.217,-1000.0,-27.832,127.93,-1000.0
1745825796.221,-208.008,999.512,859.375,-80.566
1745825796.225,999.512,18.066,133.789,999.512
1745825796.229,-337.891,-712.402,-520.02,-329.59
1745825796.233,-1000.0,-111.328,-444.824,-1000.0
1745825796.237,-1000.0,55.176,82.52,-1000.0
1745825796.241,-204.102,999.512,877.441,-99.609
1745825796.244,999.512,91.309,279.297,999.512
1745825796.248,-163.574,-997.559,-530.273,-145.02
1745825796.252,-1000.0,-553.711,-445.801,-1000.0
1745825796.256,-1000.0,-119.629,30.762,-1000.0
1745825796.26,-270.02,999.512,760.742,-205.078
1745825796.217,-1000.0,-27.832,127.93,-1000.0
1745825796.221,-208.008,999.512,859.375,-80.566
1745825796.225,999.512,18.066,133.789,999.512
1745825796.229,-337.891,-712.402,-520.02,-329.59
1745825796.233,-1000.0,-111.328,-444.824,-1000.0
1745825796.237,-1000.0,55.176,82.52,-1000.0
1745825796.241,-204.102,999.512,877.441,-99.609
1745825796.244,999.512,91.309,279.297,999.512
1745825796.248,-163.574,-997.559,-530.273,-145.02
1745825796.252,-1000.0,-553.711,-445.801,-1000.0
1745825796.256,-1000.0,-119.629,30.762,-1000.0
1745825796.26,-270.02,999.512,760.742,-205.078
1745825796.263,999.512,219.727,477.051,999.512
1745825796.267,60.059,-1000.0,-419.434,92.773
1745825796.271,-1000.0,-636.23,-453.613,-1000.0
1745825796.275,-1000.0,-38.574,13.184,-1000.0
1745825796.279,-257.812,999.512,720.703,-201.66
1745825796.283,999.512,662.598,750.0,999.512
1745825796.287,168.945,-737.305,-315.918,165.039
1745825796.29,-1000.0,-1000.0,-527.832,-1000.0
1745825796.294,-1000.0,-113.281,-26.855,-1000.0
1745825796.298,-256.348,999.512,531.25,-210.449
1745825796.302,999.512,770.02,811.035,999.512
1745825796.306,169.922,-745.605,-296.387,168.457
1745825796.263,999.512,219.727,477.051,999.512
1745825796.267,60.059,-1000.0,-419.434,92.773
1745825796.271,-1000.0,-636.23,-453.613,-1000.0
1745825796.275,-1000.0,-38.574,13.184,-1000.0
1745825796.279,-257.812,999.512,720.703,-201.66
1745825796.283,999.512,662.598,750.0,999.512
1745825796.287,168.945,-737.305,-315.918,165.039
1745825796.29,-1000.0,-1000.0,-527.832,-1000.0
1745825796.294,-1000.0,-113.281,-26.855,-1000.0
1745825796.298,-256.348,999.512,531.25,-210.449
1745825796.302,999.512,770.02,811.035,999.512
1745825796.306,169.922,-745.605,-296.387,168.457
1745825796.322,-1000.0,-579.102,-692.871,-1000.0
1745825796.326,-1000.0,109.863,-81.543,-1000.0
1745825796.33,-261.23,552.734,405.762,-218.75
1745825796.334,999.512,913.086,758.789,999.512
1745825796.338,243.164,-436.523,-225.098,274.902
1745825796.342,-1000.0,-344.727,-762.207,-989.258
1745825796.346,-1000.0,-192.871,-183.594,-1000.0
1745825796.349,-332.52,70.801,341.797,-295.41
1745825796.353,999.512,644.043,776.855,999.512
1745825796.357,392.578,-660.156,-139.16,405.273
1745825796.361,-943.359,-810.547,-723.145,-930.664
1745825796.365,-1000.0,-350.098,-294.922,-1000.0
1745825796.322,-1000.0,-579.102,-692.871,-1000.0
1745825796.326,-1000.0,109.863,-81.543,-1000.0
1745825796.33,-261.23,552.734,405.762,-218.75
1745825796.334,999.512,913.086,758.789,999.512
1745825796.338,243.164,-436.523,-225.098,274.902
1745825796.342,-1000.0,-344.727,-762.207,-989.258
1745825796.346,-1000.0,-192.871,-183.594,-1000.0
1745825796.349,-332.52,70.801,341.797,-295.41
1745825796.353,999.512,644.043,776.855,999.512
1745825796.357,392.578,-660.156,-139.16,405.273
1745825796.361,-943.359,-810.547,-723.145,-930.664
1745825796.365,-1000.0,-350.098,-294.922,-1000.0
1745825796.367,-702.637,536.621,223.145,-612.793
1745825796.371,878.418,999.512,725.098,931.641
1745825796.375,599.121,-230.957,-112.305,632.324
1745825796.379,-911.621,-424.316,-747.07,-843.75
1745825796.383,-1000.0,-47.852,-483.887,-1000.0
1745825796.387,-854.98,-3.906,154.785,-756.836
1745825796.391,588.867,923.828,771.484,684.082
1745825796.394,885.254,-392.578,-49.805,913.086
1745825796.398,-641.113,-645.996,-679.199,-565.918
1745825796.402,-1000.0,-312.5,-536.621,-1000.0
1745825796.406,-885.254,14.16,41.992,-830.078
1745825796.41,424.316,999.512,851.074,479.98
1745825796.367,-702.637,536.621,223.145,-612.793
1745825796.371,878.418,999.512,725.098,931.641
1745825796.375,599.121,-230.957,-112.305,632.324
1745825796.379,-911.621,-424.316,-747.07,-843.75
1745825796.383,-1000.0,-47.852,-483.887,-1000.0
1745825796.387,-854.98,-3.906,154.785,-756.836
1745825796.391,588.867,923.828,771.484,684.082
1745825796.394,885.254,-392.578,-49.805,913.086
1745825796.398,-641.113,-645.996,-679.199,-565.918
1745825796.402,-1000.0,-312.5,-536.621,-1000.0
1745825796.406,-885.254,14.16,41.992,-830.078
1745825796.41,424.316,999.512,851.074,479.98
1745825796.412,999.512,-64.941,113.281,999.512
1745825796.416,-280.273,-727.051,-567.383,-230.957
1745825796.42,-1000.0,-125.488,-427.734,-1000.0
1745825796.424,-993.652,-103.027,14.16,-864.746
1745825796.428,196.289,999.512,780.273,377.93
1745825796.432,999.512,320.312,294.434,999.512
1745825796.436,-92.773,-864.258,-526.855,-54.199
1745825796.439,-1000.0,-287.598,-544.434,-1000.0
1745825796.443,-1000.0,-264.16,-75.684,-1000.0
1745825796.447,-222.656,865.723,677.246,-132.324
1745825796.451,999.512,376.953,424.805,999.512
1745825796.455,114.746,-987.305,-458.008,112.793
1745825796.412,999.512,-64.941,113.281,999.512
1745825796.416,-280.273,-727.051,-567.383,-230.957
1745825796.42,-1000.0,-125.488,-427.734,-1000.0
1745825796.424,-993.652,-103.027,14.16,-864.746
1745825796.428,196.289,999.512,780.273,377.93
1745825796.432,999.512,320.312,294.434,999.512
1745825796.436,-92.773,-864.258,-526.855,-54.199
1745825796.439,-1000.0,-287.598,-544.434,-1000.0
1745825796.443,-1000.0,-264.16,-75.684,-1000.0
1745825796.447,-222.656,865.723,677.246,-132.324
1745825796.451,999.512,376.953,424.805,999.512
1745825796.455,114.746,-987.305,-458.008,112.793
1745825796.459,-1000.0,-886.23,-515.625,-1000.0
1745825796.463,-1000.0,-70.312,-67.871,-1000.0
1745825796.467,-221.191,999.512,676.27,-143.555
1745825796.471,999.512,529.297,726.074,999.512
1745825796.475,164.062,-919.922,-370.117,160.156
1745825796.479,-1000.0,-136.23,-539.062,-1000.0
1745825796.483,-1000.0,-61.035,98.145,-1000.0
1745825796.486,-256.348,423.828,562.988,-204.102
1745825796.49,999.512,838.379,750.488,999.512
1745825796.494,169.922,-779.297,-300.293,167.48
1745825796.498,-1000.0,-753.906,-699.707,-1000.0
1745825796.502,-1000.0,-101.074,-128.906,-1000.0
1745825796.459,-1000.0,-886.23,-515.625,-1000.0
1745825796.463,-1000.0,-70.312,-67.871,-1000.0
1745825796.467,-221.191,999.512,676.27,-143.555
1745825796.471,999.512,529.297,726.074,999.512
1745825796.475,164.062,-919.922,-370.117,160.156
1745825796.479,-1000.0,-136.23,-539.062,-1000.0
1745825796.483,-1000.0,-61.035,98.145,-1000.0
1745825796.486,-256.348,423.828,562.988,-204.102
1745825796.49,999.512,838.379,750.488,999.512
1745825796.494,169.922,-779.297,-300.293,167.48
1745825796.498,-1000.0,-753.906,-699.707,-1000.0
1745825796.502,-1000.0,-101.074,-128.906,-1000.0
1745825796.502,-261.719,685.059,379.883,-219.238
1745825796.506,999.512,926.758,810.547,999.512
1745825796.51,252.441,-418.457,-196.289,279.785
1745825796.514,-1000.0,-737.793,-736.328,-987.305
1745825796.518,-1000.0,-190.918,-174.316,-1000.0
1745825796.522,-329.59,560.059,316.406,-296.875
1745825796.526,999.512,999.512,843.262,999.512
1745825796.529,439.453,-85.938,-80.566,458.496
1745825796.533,-915.039,-1000.0,-732.91,-899.902
1745825796.537,-1000.0,-443.359,-381.348,-1000.0
1745825796.541,-509.766,785.645,154.297,-468.75
1745825796.545,999.512,999.512,799.805,999.512
1745825796.548,670.41,-111.328,-37.598,687.5
1745825796.552,-776.367,-728.516,-718.75,-746.582
1745825796.556,-1000.0,-370.117,-416.504,-1000.0
1745825796.56,-358.398,158.203,190.43,-292.969
1745825796.564,944.336,999.512,842.773,968.262
1745825796.568,999.512,163.086,53.711,999.512
1745825796.572,-204.59,-903.809,-597.168,-179.688
1745825796.575,-1000.0,-748.535,-448.73,-1000.0
1745825796.579,-238.281,335.938,66.406,-250.977
1745825796.583,971.68,999.512,881.348,968.75
1745825796.587,999.512,-69.824,143.066,999.512
1745825796.591,26.855,-825.684,-571.777,32.715
1745825796.548,670.41,-111.328,-37.598,687.5
1745825796.552,-776.367,-728.516,-718.75,-746.582
1745825796.556,-1000.0,-370.117,-416.504,-1000.0
1745825796.56,-358.398,158.203,190.43,-292.969
1745825796.564,944.336,999.512,842.773,968.262
1745825796.568,999.512,163.086,53.711,999.512
1745825796.572,-204.59,-903.809,-597.168,-179.688
1745825796.575,-1000.0,-748.535,-448.73,-1000.0
1745825796.579,-238.281,335.938,66.406,-250.977
1745825796.583,971.68,999.512,881.348,968.75
1745825796.587,999.512,-69.824,143.066,999.512
1745825796.591,26.855,-825.684,-571.777,32.715
1745825796.593,-1000.0,-535.645,-520.996,-1000.0
1745825796.597,-525.391,140.137,-133.301,-481.934
1745825796.601,852.539,999.512,750.488,875.0
1745825796.605,999.512,-40.527,122.559,999.512
1745825796.609,-75.684,-892.578,-669.922,-57.617
1745825796.613,-1000.0,-239.258,-539.551,-1000.0
1745825796.617,-1000.0,-122.559,-136.23,-1000.0
1745825796.62,-247.07,981.934,606.445,-171.875
1745825796.624,999.512,174.316,294.434,999.512
1745825796.628,4.883,-1000.0,-558.594,-1.465
1745825796.632,-1000.0,-295.41,-504.883,-1000.0
1745825796.636,-1000.0,-111.816,-46.875,-1000.0
1745825796.593,-1000.0,-535.645,-520.996,-1000.0
1745825796.597,-525.391,140.137,-133.301,-481.934
1745825796.601,852.539,999.512,750.488,875.0
1745825796.605,999.512,-40.527,122.559,999.512
1745825796.609,-75.684,-892.578,-669.922,-57.617
1745825796.613,-1000.0,-239.258,-539.551,-1000.0
1745825796.617,-1000.0,-122.559,-136.23,-1000.0
1745825796.62,-247.07,981.934,606.445,-171.875
1745825796.624,999.512,174.316,294.434,999.512
1745825796.628,4.883,-1000.0,-558.594,-1.465
1745825796.632,-1000.0,-295.41,-504.883,-1000.0
1745825796.636,-1000.0,-111.816,-46.875,-1000.0
1745825796.637,-479.98,843.75,545.898,-372.559
1745825796.641,999.512,714.844,538.086,999.512
1745825796.645,204.59,-856.934,-382.812,187.5
1745825796.649,-1000.0,-453.613,-603.516,-1000.0
1745825796.653,-1000.0,299.805,-75.684,-1000.0
1745825796.657,-308.594,937.988,456.543,-282.227
1745825796.661,999.512,562.5,623.535,999.512
1745825796.664,173.828,-893.066,-357.422,166.504
1745825796.668,-1000.0,-664.062,-718.262,-1000.0
1745825796.672,-950.195,-189.941,-186.035,-1000.0
1745825796.676,-1000.0,543.457,302.734,-784.18
1745825796.68,257.812,973.633,668.945,710.449
1745825796.637,-479.98,843.75,545.898,-372.559
1745825796.641,999.512,714.844,538.086,999.512
1745825796.645,204.59,-856.934,-382.812,187.5
1745825796.649,-1000.0,-453.613,-603.516,-1000.0
1745825796.653,-1000.0,299.805,-75.684,-1000.0
1745825796.657,-308.594,937.988,456.543,-282.227
1745825796.661,999.512,562.5,623.535,999.512
1745825796.664,173.828,-893.066,-357.422,166.504
1745825796.668,-1000.0,-664.062,-718.262,-1000.0
1745825796.672,-950.195,-189.941,-186.035,-1000.0
1745825796.676,-1000.0,543.457,302.734,-784.18
1745825796.68,257.812,973.633,668.945,710.449
1745825796.637,-479.98,843.75,545.898,-372.559
1745825796.641,999.512,714.844,538.086,999.512
1745825796.645,204.59,-856.934,-382.812,187.5
1745825796.649,-1000.0,-453.613,-603.516,-1000.0
1745825796.653,-1000.0,299.805,-75.684,-1000.0
1745825796.657,-308.594,937.988,456.543,-282.227
1745825796.661,999.512,562.5,623.535,999.512
1745825796.664,173.828,-893.066,-357.422,166.504
1745825796.668,-1000.0,-664.062,-718.262,-1000.0
1745825796.672,-950.195,-189.941,-186.035,-1000.0
1745825796.676,-1000.0,543.457,302.734,-784.18
1745825796.68,257.812,973.633,668.945,710.449
1745825796.697,320.801,-500.488,-250.488,284.18
1745825796.701,-1000.0,-448.73,-758.301,-1000.0
1745825796.705,-911.621,-272.461,-201.66,-914.551
1745825796.709,-1000.0,-215.332,339.355,-1000.0
1745825796.713,-631.348,884.277,708.496,-256.348
1745825796.717,139.16,214.355,-229.98,357.422
1745825796.721,-885.742,-999.023,-732.422,-947.754
1745825796.724,-1000.0,-462.891,-416.992,-1000.0
1745825796.728,-943.848,705.078,166.504,-968.75
1745825796.732,-1000.0,114.258,687.988,-982.91
1745825796.736,-484.375,49.316,-323.73,-210.938
1745825796.74,-655.273,-494.629,-722.168,-588.867
1745825796.697,320.801,-500.488,-250.488,284.18
1745825796.701,-1000.0,-448.73,-758.301,-1000.0
1745825796.705,-911.621,-272.461,-201.66,-914.551
1745825796.709,-1000.0,-215.332,339.355,-1000.0
1745825796.713,-631.348,884.277,708.496,-256.348
1745825796.717,139.16,214.355,-229.98,357.422
1745825796.721,-885.742,-999.023,-732.422,-947.754
1745825796.724,-1000.0,-462.891,-416.992,-1000.0
1745825796.728,-943.848,705.078,166.504,-968.75
1745825796.732,-1000.0,114.258,687.988,-982.91
1745825796.736,-484.375,49.316,-323.73,-210.938
1745825796.74,-655.273,-494.629,-722.168,-588.867
1745825796.697,320.801,-500.488,-250.488,284.18
1745825796.701,-1000.0,-448.73,-758.301,-1000.0
1745825796.705,-911.621,-272.461,-201.66,-914.551
1745825796.709,-1000.0,-215.332,339.355,-1000.0
1745825796.713,-631.348,884.277,708.496,-256.348
1745825796.717,139.16,214.355,-229.98,357.422
1745825796.721,-885.742,-999.023,-732.422,-947.754
1745825796.724,-1000.0,-462.891,-416.992,-1000.0
1745825796.728,-943.848,705.078,166.504,-968.75
1745825796.732,-1000.0,114.258,687.988,-982.91
1745825796.736,-484.375,49.316,-323.73,-210.938
1745825796.74,-655.273,-494.629,-722.168,-588.867
1745825796.742,-1000.0,-677.246,-453.125,-1000.0
1745825796.746,-1000.0,631.836,103.027,-998.047
1745825796.75,142.578,999.512,782.227,329.102
1745825796.754,876.953,-85.938,-50.781,923.34
1745825796.758,-718.75,-874.512,-658.691,-635.742
1745825796.762,-1000.0,-223.145,-485.84,-1000.0
1745825796.766,-1000.0,424.805,140.137,-1000.0
1745825796.769,-33.203,966.797,835.449,124.023
1745825796.773,999.512,-50.293,119.629,999.512
1745825796.777,-350.586,-926.27,-497.559,-289.551
1745825796.781,-1000.0,-746.094,-490.723,-1000.0
1745825796.785,-1000.0,104.004,-58.105,-1000.0
1745825796.742,-1000.0,-677.246,-453.125,-1000.0
1745825796.746,-1000.0,631.836,103.027,-998.047
1745825796.75,142.578,999.512,782.227,329.102
1745825796.754,876.953,-85.938,-50.781,923.34
1745825796.758,-718.75,-874.512,-658.691,-635.742
1745825796.762,-1000.0,-223.145,-485.84,-1000.0
1745825796.766,-1000.0,424.805,140.137,-1000.0
1745825796.769,-33.203,966.797,835.449,124.023
1745825796.773,999.512,-50.293,119.629,999.512
1745825796.777,-350.586,-926.27,-497.559,-289.551
1745825796.781,-1000.0,-746.094,-490.723,-1000.0
1745825796.785,-1000.0,104.004,-58.105,-1000.0
1745825796.787,-233.398,999.512,800.781,-121.582
1745825796.791,999.512,123.047,275.879,999.512
1745825796.795,-125.488,-867.676,-518.555,-100.586
1745825796.799,-1000.0,-485.352,-482.422,-1000.0
1745825796.803,-1000.0,-219.727,-65.918,-1000.0
1745825796.807,-267.09,999.512,694.336,-247.559
1745825796.811,999.512,383.301,483.398,999.512
1745825796.814,51.758,-953.125,-435.547,88.867
1745825796.818,-1000.0,-1000.0,-575.684,-1000.0
1745825796.822,-917.48,11.719,-152.832,-980.957
1745825796.826,-1000.0,707.031,643.066,-974.609
1745825796.83,123.047,616.211,628.418,476.562
1745825796.787,-233.398,999.512,800.781,-121.582
1745825796.791,999.512,123.047,275.879,999.512
1745825796.795,-125.488,-867.676,-518.555,-100.586
1745825796.799,-1000.0,-485.352,-482.422,-1000.0
1745825796.803,-1000.0,-219.727,-65.918,-1000.0
1745825796.807,-267.09,999.512,694.336,-247.559
1745825796.811,999.512,383.301,483.398,999.512
1745825796.814,51.758,-953.125,-435.547,88.867
1745825796.818,-1000.0,-1000.0,-575.684,-1000.0
1745825796.822,-917.48,11.719,-152.832,-980.957
1745825796.826,-1000.0,707.031,643.066,-974.609
1745825796.83,123.047,616.211,628.418,476.562
1745825796.832,291.504,-24.902,-386.23,290.039
1745825796.836,-1000.0,-1000.0,-561.523,-1000.0
1745825796.84,-1000.0,-165.039,-58.105,-1000.0
1745825796.844,-941.406,999.512,508.789,-506.836
1745825796.848,602.539,790.527,703.613,999.512
1745825796.852,295.898,-390.137,-298.34,207.031
1745825796.856,-1000.0,-967.773,-658.203,-1000.0
1745825796.859,-951.66,-489.746,-105.469,-1000.0
1745825796.863,-1000.0,585.938,347.168,-714.844
1745825796.867,288.086,978.516,696.777,819.336
1745825796.871,326.66,-362.305,-220.215,311.523
1745825796.875,-1000.0,-543.945,-721.68,-1000.0
1745825796.832,291.504,-24.902,-386.23,290.039
1745825796.836,-1000.0,-1000.0,-561.523,-1000.0
1745825796.84,-1000.0,-165.039,-58.105,-1000.0
1745825796.844,-941.406,999.512,508.789,-506.836
1745825796.848,602.539,790.527,703.613,999.512
1745825796.852,295.898,-390.137,-298.34,207.031
1745825796.856,-1000.0,-967.773,-658.203,-1000.0
1745825796.859,-951.66,-489.746,-105.469,-1000.0
1745825796.863,-1000.0,585.938,347.168,-714.844
1745825796.867,288.086,978.516,696.777,819.336
1745825796.871,326.66,-362.305,-220.215,311.523
1745825796.875,-1000.0,-543.945,-721.68,-1000.0
1745825796.878,-1000.0,-272.949,-93.75,-1000.0
1745825796.882,-617.188,65.43,399.902,-473.633
1745825796.886,999.512,999.512,837.891,999.512
1745825796.89,417.969,-126.953,-39.551,470.703
1745825796.894,-978.027,-1000.0,-683.105,-935.059
1745825796.898,-1000.0,101.562,-183.105,-1000.0
1745825796.902,-473.145,999.512,380.859,-317.383
1745825796.905,999.512,958.496,858.398,999.512
1745825796.909,528.32,-207.031,25.879,608.887
1745825796.913,-924.316,-615.234,-657.715,-790.039
1745825796.917,-1000.0,-474.121,-336.914,-1000.0
1745825796.921,-976.074,-185.547,282.227,-712.891
1745825796.878,-1000.0,-272.949,-93.75,-1000.0
1745825796.882,-617.188,65.43,399.902,-473.633
1745825796.886,999.512,999.512,837.891,999.512
1745825796.89,417.969,-126.953,-39.551,470.703
1745825796.894,-978.027,-1000.0,-683.105,-935.059
1745825796.898,-1000.0,101.562,-183.105,-1000.0
1745825796.902,-473.145,999.512,380.859,-317.383
1745825796.905,999.512,958.496,858.398,999.512
1745825796.909,528.32,-207.031,25.879,608.887
1745825796.913,-924.316,-615.234,-657.715,-790.039
1745825796.917,-1000.0,-474.121,-336.914,-1000.0
1745825796.921,-976.074,-185.547,282.227,-712.891
1745825796.922,420.898,999.512,840.332,705.078
1745825796.926,896.973,-59.082,68.359,950.684
1745825796.93,-625.977,-616.699,-571.289,-478.516
1745825796.934,-1000.0,-349.121,-395.02,-1000.0
1745825796.938,-619.629,-135.742,195.801,-410.156
1745825796.942,772.949,999.512,899.902,903.809
1745825796.946,999.512,101.074,176.758,999.512
1745825796.949,-279.297,-895.508,-487.793,-163.574
1745825796.953,-1000.0,-727.051,-497.559,-1000.0
1745825796.957,-907.227,148.926,-32.715,-695.312
1745825796.961,351.074,999.512,891.602,604.004
1745825796.965,999.512,25.391,363.281,999.512
1745825796.922,420.898,999.512,840.332,705.078
1745825796.926,896.973,-59.082,68.359,950.684
1745825796.93,-625.977,-616.699,-571.289,-478.516
1745825796.934,-1000.0,-349.121,-395.02,-1000.0
1745825796.938,-619.629,-135.742,195.801,-410.156
1745825796.942,772.949,999.512,899.902,903.809
1745825796.946,999.512,101.074,176.758,999.512
1745825796.949,-279.297,-895.508,-487.793,-163.574
1745825796.953,-1000.0,-727.051,-497.559,-1000.0
1745825796.957,-907.227,148.926,-32.715,-695.312
1745825796.961,351.074,999.512,891.602,604.004
1745825796.965,999.512,25.391,363.281,999.512
1745825796.967,-65.43,-918.945,-472.168,35.156
1745825796.971,-1000.0,-527.832,-467.285,-1000.0
1745825796.975,-966.309,-39.062,-31.738,-808.105
1745825796.979,245.605,999.512,777.344,491.211
1745825796.983,999.512,131.348,491.211,999.512
1745825796.987,107.422,-956.543,-430.664,109.863
1745825796.991,-1000.0,-470.703,-468.75,-1000.0
1745825796.994,-1000.0,-152.832,-93.75,-1000.0
1745825796.998,-231.445,923.828,641.602,-160.645
1745825797.002,999.512,631.348,715.332,999.512
1745825797.006,166.016,-769.531,-338.379,159.668
1745825797.01,-1000.0,-866.699,-574.219,-1000.0
1745825796.967,-65.43,-918.945,-472.168,35.156
1745825796.971,-1000.0,-527.832,-467.285,-1000.0
1745825796.975,-966.309,-39.062,-31.738,-808.105
1745825796.979,245.605,999.512,777.344,491.211
1745825796.983,999.512,131.348,491.211,999.512
1745825796.987,107.422,-956.543,-430.664,109.863
1745825796.991,-1000.0,-470.703,-468.75,-1000.0
1745825796.994,-1000.0,-152.832,-93.75,-1000.0
1745825796.998,-231.445,923.828,641.602,-160.645
1745825797.002,999.512,631.348,715.332,999.512
1745825797.006,166.016,-769.531,-338.379,159.668
1745825797.01,-1000.0,-866.699,-574.219,-1000.0
1745825797.012,-1000.0,-543.945,-96.191,-1000.0
1745825797.016,-256.348,602.539,522.949,-253.906
1745825797.02,999.512,910.645,823.242,999.512
1745825797.024,169.922,-609.863,-270.02,191.406
1745825797.028,-1000.0,-1000.0,-721.68,-1000.0
1745825797.032,-1000.0,65.43,-180.664,-1000.0
1745825797.036,-264.16,999.512,417.969,-224.121
1745825797.039,999.512,776.855,829.59,999.512
1745825797.043,306.641,-608.398,-214.355,282.227
1745825797.047,-979.98,-177.246,-767.578,-985.352
1745825797.051,-1000.0,35.156,-183.105,-1000.0
1745825797.055,-326.172,-91.309,355.957,-317.871
1745825797.012,-1000.0,-543.945,-96.191,-1000.0
1745825797.016,-256.348,602.539,522.949,-253.906
1745825797.02,999.512,910.645,823.242,999.512
1745825797.024,169.922,-609.863,-270.02,191.406
1745825797.028,-1000.0,-1000.0,-721.68,-1000.0
1745825797.032,-1000.0,65.43,-180.664,-1000.0
1745825797.036,-264.16,999.512,417.969,-224.121
1745825797.039,999.512,776.855,829.59,999.512
1745825797.043,306.641,-608.398,-214.355,282.227
1745825797.047,-979.98,-177.246,-767.578,-985.352
1745825797.051,-1000.0,35.156,-183.105,-1000.0
1745825797.055,-326.172,-91.309,355.957,-317.871
1745825797.072,999.512,908.691,846.191,999.512
1745825797.076,565.43,-159.668,-80.566,558.105
1745825797.08,-844.727,-800.781,-707.52,-839.844
1745825797.084,-1000.0,-297.852,-332.031,-1000.0
1745825797.088,-214.355,707.031,232.91,-210.449
1745825797.092,999.512,999.512,775.391,999.512
1745825797.096,761.23,-182.129,-151.367,709.473
1745825797.099,-557.617,-895.02,-662.109,-573.73
1745825797.103,-1000.0,-795.898,-462.891,-1000.0
1745825797.107,-254.883,191.406,96.68,-291.992
1745825797.111,969.727,999.512,845.215,975.098
1745825797.115,999.512,-134.766,27.344,999.512
1745825797.072,999.512,908.691,846.191,999.512
1745825797.076,565.43,-159.668,-80.566,558.105
1745825797.08,-844.727,-800.781,-707.52,-839.844
1745825797.084,-1000.0,-297.852,-332.031,-1000.0
1745825797.088,-214.355,707.031,232.91,-210.449
1745825797.092,999.512,999.512,775.391,999.512
1745825797.096,761.23,-182.129,-151.367,709.473
1745825797.099,-557.617,-895.02,-662.109,-573.73
1745825797.103,-1000.0,-795.898,-462.891,-1000.0
1745825797.107,-254.883,191.406,96.68,-291.992
1745825797.111,969.727,999.512,845.215,975.098
1745825797.115,999.512,-134.766,27.344,999.512
1745825797.117,-107.422,-910.645,-593.262,-198.73
1745825797.121,-1000.0,-831.543,-407.227,-1000.0
1745825797.125,-204.102,-61.523,101.074,-258.789
1745825797.129,965.332,999.512,913.574,950.684
1745825797.133,999.512,-78.613,226.562,999.512
1745825797.137,229.492,-849.121,-497.559,143.555
1745825797.141,-1000.0,-639.648,-410.156,-1000.0
1745825797.144,-412.598,-119.141,-41.992,-450.195
1745825797.148,913.086,999.512,821.289,884.766
1745825797.152,999.512,335.449,333.008,999.512
1745825797.156,279.785,-856.934,-407.227,228.516
1745825797.16,-1000.0,-990.234,-370.117,-1000.0
1745825797.163,-527.832,58.594,-61.523,-522.461
1745825797.167,935.547,999.512,749.023,917.969
1745825797.171,968.75,715.332,509.277,998.047
1745825797.175,917.969,-307.617,-412.598,796.387
1745825797.179,999.512,-222.168,-421.387,870.117
1745825797.183,-199.707,-278.809,99.609,-228.516
1745825797.187,3.418,632.324,701.172,31.25
1745825797.19,999.512,618.164,716.797,999.512
1745825797.194,426.758,-1000.0,-331.543,312.012
1745825797.198,-1000.0,-904.785,-557.129,-1000.0
1745825797.202,-946.289,108.398,-44.434,-944.336
1745825797.206,501.953,999.512,558.594,428.711
1745825797.163,-527.832,58.594,-61.523,-522.461
1745825797.167,935.547,999.512,749.023,917.969
1745825797.171,968.75,715.332,509.277,998.047
1745825797.175,917.969,-307.617,-412.598,796.387
1745825797.179,999.512,-222.168,-421.387,870.117
1745825797.183,-199.707,-278.809,99.609,-228.516
1745825797.187,3.418,632.324,701.172,31.25
1745825797.19,999.512,618.164,716.797,999.512
1745825797.194,426.758,-1000.0,-331.543,312.012
1745825797.198,-1000.0,-904.785,-557.129,-1000.0
1745825797.202,-946.289,108.398,-44.434,-944.336
1745825797.206,501.953,999.512,558.594,428.711
1745825797.207,999.512,681.641,829.102,999.512
1745825797.211,839.844,-750.0,-285.645,724.121
1745825797.215,999.512,-103.027,-644.531,828.125
1745825797.219,44.434,-110.352,30.273,-20.996
1745825797.223,-292.48,-98.145,477.051,-286.621
1745825797.227,999.512,999.512,878.418,999.512
1745825797.231,999.512,-295.41,-134.766,810.547
1745825797.234,-287.598,-1000.0,-677.734,-539.551
1745825797.238,-1000.0,-823.73,-102.051,-1000.0
1745825797.242,5.371,188.477,387.207,-46.387
1745825797.246,999.512,999.512,911.133,999.512
1745825797.25,853.516,-312.5,-45.41,854.98
1745825797.207,999.512,681.641,829.102,999.512
1745825797.211,839.844,-750.0,-285.645,724.121
1745825797.215,999.512,-103.027,-644.531,828.125
1745825797.219,44.434,-110.352,30.273,-20.996
1745825797.223,-292.48,-98.145,477.051,-286.621
1745825797.227,999.512,999.512,878.418,999.512
1745825797.231,999.512,-295.41,-134.766,810.547
1745825797.234,-287.598,-1000.0,-677.734,-539.551
1745825797.238,-1000.0,-823.73,-102.051,-1000.0
1745825797.242,5.371,188.477,387.207,-46.387
1745825797.246,999.512,999.512,911.133,999.512
1745825797.25,853.516,-312.5,-45.41,854.98
1745825797.252,999.512,-195.312,-692.871,999.512
1745825797.256,394.531,72.266,-67.871,128.418
1745825797.26,-143.555,-293.457,430.176,-277.832
1745825797.264,950.684,999.512,824.707,999.512
1745825797.268,999.512,-28.32,-6.836,999.512
1745825797.272,-16.602,-831.543,-664.062,-229.492
1745825797.276,-1000.0,-502.441,-340.82,-1000.0
1745825797.279,-175.781,545.898,198.73,-175.781
1745825797.283,985.352,625.977,872.559,995.117
1745825797.287,999.512,-800.293,40.039,999.512
1745825797.291,222.168,-910.156,-579.102,65.918
1745825797.295,-1000.0,-712.402,-364.746,-1000.0
1745825797.312,-204.102,301.27,88.867,-257.812
1745825797.316,999.512,999.512,928.223,977.539
1745825797.32,999.512,23.926,256.348,999.512
1745825797.324,229.492,-912.598,-454.102,144.531
1745825797.328,-1000.0,-804.199,-433.105,-1000.0
1745825797.332,-327.148,264.648,-27.832,-379.883
1745825797.336,957.52,999.512,904.785,926.758
1745825797.339,999.512,-116.699,327.637,999.512
1745825797.343,224.609,-954.59,-541.016,182.617
1745825797.347,-1000.0,-884.277,-522.949,-1000.0
1745825797.351,-523.438,65.918,-126.953,-602.539
1745825797.355,858.398,999.512,723.145,779.297
1745825797.312,-204.102,301.27,88.867,-257.812
1745825797.316,999.512,999.512,928.223,977.539
1745825797.32,999.512,23.926,256.348,999.512
1745825797.324,229.492,-912.598,-454.102,144.531
1745825797.328,-1000.0,-804.199,-433.105,-1000.0
1745825797.332,-327.148,264.648,-27.832,-379.883
1745825797.336,957.52,999.512,904.785,926.758
1745825797.339,999.512,-116.699,327.637,999.512
1745825797.343,224.609,-954.59,-541.016,182.617
1745825797.347,-1000.0,-884.277,-522.949,-1000.0
1745825797.351,-523.438,65.918,-126.953,-602.539
1745825797.355,858.398,999.512,723.145,779.297
1745825797.344,999.512,121.094,459.961,999.512
1745825797.348,194.336,-963.379,-463.379,170.41
1745825797.352,-1000.0,-874.023,-503.418,-1000.0
1745825797.356,-769.531,-64.941,-149.414,-882.324
1745825797.36,589.844,999.512,597.656,431.152
1745825797.364,999.512,652.832,701.66,999.512
1745825797.368,275.879,-603.516,-367.188,165.527
1745825797.371,-995.117,-1000.0,-627.441,-1000.0
1745825797.375,-1000.0,-604.492,-212.402,-1000.0
1745825797.379,143.555,653.32,379.395,-46.875
1745825797.383,999.512,832.031,694.336,999.512
1745825797.387,316.895,-583.984,-351.074,229.492
1745825797.344,999.512,121.094,459.961,999.512
1745825797.348,194.336,-963.379,-463.379,170.41
1745825797.352,-1000.0,-874.023,-503.418,-1000.0
1745825797.356,-769.531,-64.941,-149.414,-882.324
1745825797.36,589.844,999.512,597.656,431.152
1745825797.364,999.512,652.832,701.66,999.512
1745825797.368,275.879,-603.516,-367.188,165.527
1745825797.371,-995.117,-1000.0,-627.441,-1000.0
1745825797.375,-1000.0,-604.492,-212.402,-1000.0
1745825797.379,143.555,653.32,379.395,-46.875
1745825797.383,999.512,832.031,694.336,999.512
1745825797.387,316.895,-583.984,-351.074,229.492
1745825797.402,-967.773,-1000.0,-739.746,-1000.0
1745825797.406,-1000.0,-189.941,-306.152,-1000.0
1745825797.41,-11.719,916.992,228.516,-137.207
1745825797.414,999.512,817.871,745.117,999.512
1745825797.418,462.891,-563.477,-217.773,382.812
1745825797.422,-871.094,-166.992,-807.129,-928.223
1745825797.426,-1000.0,10.254,-247.07,-1000.0
1745825797.429,-231.934,-151.855,246.094,-253.418
1745825797.433,999.512,690.918,735.352,999.512
1745825797.437,689.941,-327.148,-104.98,591.309
1745825797.441,-692.383,-940.43,-728.027,-786.133
1745825797.445,-1000.0,-387.207,-382.812,-1000.0
1745825797.402,-967.773,-1000.0,-739.746,-1000.0
1745825797.406,-1000.0,-189.941,-306.152,-1000.0
1745825797.41,-11.719,916.992,228.516,-137.207
1745825797.414,999.512,817.871,745.117,999.512
1745825797.418,462.891,-563.477,-217.773,382.812
1745825797.422,-871.094,-166.992,-807.129,-928.223
1745825797.426,-1000.0,10.254,-247.07,-1000.0
1745825797.429,-231.934,-151.855,246.094,-253.418
1745825797.433,999.512,690.918,735.352,999.512
1745825797.437,689.941,-327.148,-104.98,591.309
1745825797.441,-692.383,-940.43,-728.027,-786.133
1745825797.445,-1000.0,-387.207,-382.812,-1000.0
1745825797.447,-205.078,778.32,125.977,-234.375
1745825797.451,999.512,999.512,805.664,999.512
1745825797.455,861.816,-52.734,-24.902,791.016
1745825797.459,-452.148,-1000.0,-692.383,-545.41
1745825797.463,-1000.0,-548.34,-483.887,-1000.0
1745825797.467,-241.211,732.91,109.375,-297.363
1745825797.471,999.512,946.777,872.559,999.512
1745825797.474,962.402,-251.953,60.059,931.152
1745825797.478,-280.762,-846.191,-633.301,-353.027
1745825797.482,-1000.0,-756.348,-495.605,-1000.0
1745825797.486,-657.227,85.938,97.168,-617.676
1745825797.49,713.867,999.512,879.395,731.445
1745825797.447,-205.078,778.32,125.977,-234.375
1745825797.451,999.512,999.512,805.664,999.512
1745825797.455,861.816,-52.734,-24.902,791.016
1745825797.459,-452.148,-1000.0,-692.383,-545.41
1745825797.463,-1000.0,-548.34,-483.887,-1000.0
1745825797.467,-241.211,732.91,109.375,-297.363
1745825797.471,999.512,946.777,872.559,999.512
1745825797.474,962.402,-251.953,60.059,931.152
1745825797.478,-280.762,-846.191,-633.301,-353.027
1745825797.482,-1000.0,-756.348,-495.605,-1000.0
1745825797.486,-657.227,85.938,97.168,-617.676
1745825797.49,713.867,999.512,879.395,731.445
1745825797.447,-205.078,778.32,125.977,-234.375
1745825797.451,999.512,999.512,805.664,999.512
1745825797.455,861.816,-52.734,-24.902,791.016
1745825797.459,-452.148,-1000.0,-692.383,-545.41
1745825797.463,-1000.0,-548.34,-483.887,-1000.0
1745825797.467,-241.211,732.91,109.375,-297.363
1745825797.471,999.512,946.777,872.559,999.512
1745825797.474,962.402,-251.953,60.059,931.152
1745825797.478,-280.762,-846.191,-633.301,-353.027
1745825797.482,-1000.0,-756.348,-495.605,-1000.0
1745825797.486,-657.227,85.938,97.168,-617.676
1745825797.49,713.867,999.512,879.395,731.445
1745825797.492,999.512,-45.41,190.918,999.512
1745825797.496,-166.504,-811.035,-493.164,-192.871
1745825797.5,-1000.0,-471.68,-436.523,-1000.0
1745825797.504,-915.527,-28.32,14.16,-842.285
1745825797.508,324.707,999.512,833.496,396.973
1745825797.512,999.512,731.934,337.891,999.512
1745825797.516,43.945,-487.793,-457.031,38.574
1745825797.519,-1000.0,-1000.0,-537.598,-1000.0
1745825797.523,-1000.0,-152.344,-163.086,-1000.0
1745825797.527,-61.035,999.512,710.449,-41.016
1745825797.531,999.512,291.504,501.465,999.512
1745825797.535,152.832,-927.734,-410.645,142.09
1745825797.492,999.512,-45.41,190.918,999.512
1745825797.496,-166.504,-811.035,-493.164,-192.871
1745825797.5,-1000.0,-471.68,-436.523,-1000.0
1745825797.504,-915.527,-28.32,14.16,-842.285
1745825797.508,324.707,999.512,833.496,396.973
1745825797.512,999.512,731.934,337.891,999.512
1745825797.516,43.945,-487.793,-457.031,38.574
1745825797.519,-1000.0,-1000.0,-537.598,-1000.0
1745825797.523,-1000.0,-152.344,-163.086,-1000.0
1745825797.527,-61.035,999.512,710.449,-41.016
1745825797.531,999.512,291.504,501.465,999.512
1745825797.535,152.832,-927.734,-410.645,142.09
1745825797.537,-1000.0,-855.469,-505.859,-1000.0
1745825797.541,-1000.0,-49.805,-63.965,-1000.0
1745825797.545,-97.168,999.512,721.191,31.738
1745825797.549,999.512,594.727,764.648,999.512
1745825797.553,157.227,-807.129,-349.609,158.203
1745825797.557,-1000.0,-282.715,-542.969,-1000.0
1745825797.561,-1000.0,124.023,33.203,-1000.0
1745825797.564,-112.305,769.531,594.727,6.348
1745825797.568,999.512,399.902,799.805,999.512
1745825797.572,158.691,-1000.0,-338.867,180.176
1745825797.576,-1000.0,-884.766,-704.102,-1000.0
1745825797.58,-1000.0,-244.629,-172.363,-1000.0
1745825797.537,-1000.0,-855.469,-505.859,-1000.0
1745825797.541,-1000.0,-49.805,-63.965,-1000.0
1745825797.545,-97.168,999.512,721.191,31.738
1745825797.549,999.512,594.727,764.648,999.512
1745825797.553,157.227,-807.129,-349.609,158.203
1745825797.557,-1000.0,-282.715,-542.969,-1000.0
1745825797.561,-1000.0,124.023,33.203,-1000.0
1745825797.564,-112.305,769.531,594.727,6.348
1745825797.568,999.512,399.902,799.805,999.512
1745825797.572,158.691,-1000.0,-338.867,180.176
1745825797.576,-1000.0,-884.766,-704.102,-1000.0
1745825797.58,-1000.0,-244.629,-172.363,-1000.0
1745825797.582,-264.648,859.375,304.199,-240.723
1745825797.586,999.512,906.25,750.488,999.512
1745825797.59,333.984,-373.047,-204.59,356.445
1745825797.594,-974.121,-990.234,-791.504,-961.426
1745825797.598,-1000.0,-767.09,-339.844,-1000.0
1745825797.602,-255.371,347.168,221.68,-223.633
1745825797.606,999.512,999.512,795.898,999.512
1745825797.609,512.207,-229.98,-107.422,561.035
1745825797.613,-877.93,-1000.0,-756.348,-817.871
1745825797.617,-1000.0,-404.785,-428.223,-1000.0
1745825797.621,-230.957,812.5,89.844,-220.215
1745825797.625,999.512,816.406,711.914,999.512
1745825797.582,-264.648,859.375,304.199,-240.723
1745825797.586,999.512,906.25,750.488,999.512
1745825797.59,333.984,-373.047,-204.59,356.445
1745825797.594,-974.121,-990.234,-791.504,-961.426
1745825797.598,-1000.0,-767.09,-339.844,-1000.0
1745825797.602,-255.371,347.168,221.68,-223.633
1745825797.606,999.512,999.512,795.898,999.512
1745825797.609,512.207,-229.98,-107.422,561.035
1745825797.613,-877.93,-1000.0,-756.348,-817.871
1745825797.617,-1000.0,-404.785,-428.223,-1000.0
1745825797.621,-230.957,812.5,89.844,-220.215
1745825797.625,999.512,816.406,711.914,999.512
1745825797.627,678.223,-317.871,-108.887,764.648
1745825797.631,-691.895,-727.539,-747.07,-582.52
1745825797.635,-1000.0,-434.57,-562.988,-1000.0
1745825797.639,-340.82,479.004,20.508,-243.652
1745825797.643,984.863,913.574,724.609,992.188
1745825797.647,935.547,54.688,-102.539,997.559
1745825797.651,-359.375,-404.785,-682.129,-185.059
1745825797.654,-1000.0,-688.477,-574.707,-1000.0
1745825797.658,-616.211,-97.656,-116.211,-407.715
1745825797.662,771.973,999.512,708.008,901.367
1745825797.666,999.512,-73.242,72.754,999.512
1745825797.67,-220.703,-831.543,-610.84,-45.41
1745825797.675,-1000.0,-597.656,-621.094,-1000.0
1745825797.679,-744.141,160.156,-260.254,-500.488
1745825797.683,595.703,999.512,605.469,824.707
1745825797.687,999.512,-58.594,66.895,999.512
1745825797.691,-60.059,-940.43,-693.359,136.23
1745825797.695,-1000.0,-328.613,-683.105,-1000.0
1745825797.699,-729.492,81.055,-279.297,-558.105
1745825797.702,604.004,986.816,597.168,804.688
1745825797.706,999.512,154.785,309.082,999.512
1745825797.71,103.027,-1000.0,-577.148,177.246
1745825797.714,-1000.0,-413.086,-637.207,-1000.0
1745825797.718,-1000.0,0.488,-303.711,-907.715
1745825797.675,-1000.0,-597.656,-621.094,-1000.0
1745825797.679,-744.141,160.156,-260.254,-500.488
1745825797.683,595.703,999.512,605.469,824.707
1745825797.687,999.512,-58.594,66.895,999.512
1745825797.691,-60.059,-940.43,-693.359,136.23
1745825797.695,-1000.0,-328.613,-683.105,-1000.0
1745825797.699,-729.492,81.055,-279.297,-558.105
1745825797.702,604.004,986.816,597.168,804.688
1745825797.706,999.512,154.785,309.082,999.512
1745825797.71,103.027,-1000.0,-577.148,177.246
1745825797.714,-1000.0,-413.086,-637.207,-1000.0
1745825797.718,-1000.0,0.488,-303.711,-907.715
1745825797.732,137.695,817.871,484.375,392.09
1745825797.736,999.512,574.219,576.66,999.512
1745825797.74,146.973,-693.359,-446.777,148.926
1745825797.744,-1000.0,-857.422,-575.195,-1000.0
1745825797.748,-1000.0,-239.258,-128.418,-1000.0
1745825797.752,61.035,939.453,461.914,141.113
1745825797.756,999.512,739.258,800.781,999.512
1745825797.759,242.188,-680.664,-282.227,256.348
1745825797.763,-986.816,-1000.0,-725.098,-979.492
1745825797.767,-1000.0,-111.816,-242.676,-1000.0
1745825797.771,-126.465,956.055,364.746,-111.328
1745825797.775,999.512,753.906,825.195,999.512
1745825797.732,137.695,817.871,484.375,392.09
1745825797.736,999.512,574.219,576.66,999.512
1745825797.74,146.973,-693.359,-446.777,148.926
1745825797.744,-1000.0,-857.422,-575.195,-1000.0
1745825797.748,-1000.0,-239.258,-128.418,-1000.0
1745825797.752,61.035,939.453,461.914,141.113
1745825797.756,999.512,739.258,800.781,999.512
1745825797.759,242.188,-680.664,-282.227,256.348
1745825797.763,-986.816,-1000.0,-725.098,-979.492
1745825797.767,-1000.0,-111.816,-242.676,-1000.0
1745825797.771,-126.465,956.055,364.746,-111.328
1745825797.775,999.512,753.906,825.195,999.512
1745825797.762,320.312,-363.77,-211.914,302.246
1745825797.766,-962.402,-734.863,-782.715,-969.238
1745825797.77,-1000.0,-144.043,-289.062,-1000.0
1745825797.774,-249.512,595.703,283.203,-237.305
1745825797.778,999.512,649.414,831.055,999.512
1745825797.782,614.258,-187.5,-120.605,580.078
1745825797.786,-759.766,-507.812,-744.629,-781.738
1745825797.789,-1000.0,-824.219,-341.797,-1000.0
1745825797.793,-421.387,-194.824,122.559,-422.363
1745825797.797,999.512,999.512,709.961,999.512
1745825797.801,777.832,-166.504,-61.035,726.074
1745825797.805,-614.746,-739.258,-702.637,-673.828
1745825797.762,320.312,-363.77,-211.914,302.246
1745825797.766,-962.402,-734.863,-782.715,-969.238
1745825797.77,-1000.0,-144.043,-289.062,-1000.0
1745825797.774,-249.512,595.703,283.203,-237.305
1745825797.778,999.512,649.414,831.055,999.512
1745825797.782,614.258,-187.5,-120.605,580.078
1745825797.786,-759.766,-507.812,-744.629,-781.738
1745825797.789,-1000.0,-824.219,-341.797,-1000.0
1745825797.793,-421.387,-194.824,122.559,-422.363
1745825797.797,999.512,999.512,709.961,999.512
1745825797.801,777.832,-166.504,-61.035,726.074
1745825797.805,-614.746,-739.258,-702.637,-673.828
1745825797.822,-1000.0,-566.406,-507.812,-1000.0
1745825797.826,-560.547,90.82,73.73,-596.191
1745825797.83,881.836,986.328,819.824,856.934
1745825797.834,942.383,-321.289,13.184,907.715
1745825797.838,-436.523,-641.602,-630.859,-499.512
1745825797.842,-1000.0,-304.199,-437.988,-1000.0
1745825797.846,-689.453,-104.004,127.441,-667.969
1745825797.849,726.562,999.512,866.699,738.281
1745825797.853,999.512,-62.988,148.926,999.512
1745825797.857,-269.043,-830.566,-552.734,-301.27
1745825797.861,-1000.0,-505.371,-515.137,-1000.0
1745825797.865,-1000.0,-28.809,-40.527,-1000.0
1745825797.822,-1000.0,-566.406,-507.812,-1000.0
1745825797.826,-560.547,90.82,73.73,-596.191
1745825797.83,881.836,986.328,819.824,856.934
1745825797.834,942.383,-321.289,13.184,907.715
1745825797.838,-436.523,-641.602,-630.859,-499.512
1745825797.842,-1000.0,-304.199,-437.988,-1000.0
1745825797.846,-689.453,-104.004,127.441,-667.969
1745825797.849,726.562,999.512,866.699,738.281
1745825797.853,999.512,-62.988,148.926,999.512
1745825797.857,-269.043,-830.566,-552.734,-301.27
1745825797.861,-1000.0,-505.371,-515.137,-1000.0
1745825797.865,-1000.0,-28.809,-40.527,-1000.0
1745825797.867,124.512,999.512,852.051,106.445
1745825797.871,999.512,56.152,273.926,999.512
1745825797.875,-78.125,-896.973,-549.805,-77.148
1745825797.879,-1000.0,-547.852,-556.641,-1000.0
1745825797.883,-1000.0,-23.438,-130.859,-1000.0
1745825797.887,-66.406,999.512,746.094,-79.59
1745825797.891,999.512,388.184,495.605,999.512
1745825797.894,124.023,-828.613,-434.082,113.77
1745825797.898,-1000.0,-889.16,-544.434,-1000.0
1745825797.902,-1000.0,-52.734,-151.367,-1000.0
1745825797.906,-184.082,999.512,666.016,-128.906
1745825797.91,999.512,573.73,683.594,999.512
1745825797.867,124.512,999.512,852.051,106.445
1745825797.871,999.512,56.152,273.926,999.512
1745825797.875,-78.125,-896.973,-549.805,-77.148
1745825797.879,-1000.0,-547.852,-556.641,-1000.0
1745825797.883,-1000.0,-23.438,-130.859,-1000.0
1745825797.887,-66.406,999.512,746.094,-79.59
1745825797.891,999.512,388.184,495.605,999.512
1745825797.894,124.023,-828.613,-434.082,113.77
1745825797.898,-1000.0,-889.16,-544.434,-1000.0
1745825797.902,-1000.0,-52.734,-151.367,-1000.0
1745825797.906,-184.082,999.512,666.016,-128.906
1745825797.91,999.512,573.73,683.594,999.512
1745825797.912,159.18,-832.031,-412.109,154.785
1745825797.916,-1000.0,-643.066,-604.004,-1000.0
1745825797.92,-1000.0,67.383,-161.133,-1000.0
1745825797.924,-256.836,764.648,409.668,-250.0
1745825797.928,999.512,940.918,714.355,999.512
1745825797.932,174.316,-352.051,-332.52,196.777
1745825797.936,-1000.0,-384.766,-728.027,-1000.0
1745825797.939,-1000.0,-304.688,-180.664,-1000.0
1745825797.943,-265.137,57.129,292.48,-273.926
1745825797.947,999.512,999.512,746.582,999.512
1745825797.951,340.332,-489.746,-168.945,339.355
1745825797.955,-971.68,-483.398,-727.539,-972.168
1745825797.912,159.18,-832.031,-412.109,154.785
1745825797.916,-1000.0,-643.066,-604.004,-1000.0
1745825797.92,-1000.0,67.383,-161.133,-1000.0
1745825797.924,-256.836,764.648,409.668,-250.0
1745825797.928,999.512,940.918,714.355,999.512
1745825797.932,174.316,-352.051,-332.52,196.777
1745825797.936,-1000.0,-384.766,-728.027,-1000.0
1745825797.939,-1000.0,-304.688,-180.664,-1000.0
1745825797.943,-265.137,57.129,292.48,-273.926
1745825797.947,999.512,999.512,746.582,999.512
1745825797.951,340.332,-489.746,-168.945,339.355
1745825797.955,-971.68,-483.398,-727.539,-972.168
1745825797.958,-1000.0,-221.68,-150.879,-1000.0
1745825797.962,-254.395,46.875,378.418,-240.234
1745825797.966,999.512,912.109,908.691,999.512
1745825797.97,516.113,-222.656,-39.551,532.715
1745825797.974,-875.488,-993.164,-696.777,-847.168
1745825797.978,-1000.0,-263.672,-252.93,-1000.0
1745825797.982,-217.285,832.031,271.973,-217.773
1745825797.985,999.512,770.02,821.289,999.512
1745825797.989,831.055,-264.16,-30.273,808.105
1745825797.993,-503.418,-725.098,-663.574,-522.461
1745825797.997,-1000.0,-422.852,-413.574,-1000.0
1745825798.001,-198.73,538.574,154.785,-228.027
1745825797.958,-1000.0,-221.68,-150.879,-1000.0
1745825797.962,-254.395,46.875,378.418,-240.234
1745825797.966,999.512,912.109,908.691,999.512
1745825797.97,516.113,-222.656,-39.551,532.715
1745825797.974,-875.488,-993.164,-696.777,-847.168
1745825797.978,-1000.0,-263.672,-252.93,-1000.0
1745825797.982,-217.285,832.031,271.973,-217.773
1745825797.985,999.512,770.02,821.289,999.512
1745825797.989,831.055,-264.16,-30.273,808.105
1745825797.993,-503.418,-725.098,-663.574,-522.461
1745825797.997,-1000.0,-422.852,-413.574,-1000.0
1745825798.001,-198.73,538.574,154.785,-228.027
1745825798.002,999.512,717.773,874.512,999.512
1745825798.006,999.512,-531.738,70.801,982.91
1745825798.01,-177.734,-336.426,-577.637,-213.379
1745825798.014,-1000.0,-195.312,-342.773,-1000.0
1745825798.018,-396.484,-190.43,165.039,-384.277
1745825798.022,881.348,999.512,916.504,895.996
1745825798.026,999.512,11.23,259.766,999.512
1745825798.029,177.246,-963.379,-420.898,85.449
1745825798.033,-1000.0,-803.711,-409.668,-1000.0
1745825798.037,-414.062,159.668,-5.371,-435.547
1745825798.041,912.598,999.512,895.02,895.508
1745825798.045,999.512,-19.531,385.742,999.512
1745825798.002,999.512,717.773,874.512,999.512
1745825798.006,999.512,-531.738,70.801,982.91
1745825798.01,-177.734,-336.426,-577.637,-213.379
1745825798.014,-1000.0,-195.312,-342.773,-1000.0
1745825798.018,-396.484,-190.43,165.039,-384.277
1745825798.022,881.348,999.512,916.504,895.996
1745825798.026,999.512,11.23,259.766,999.512
1745825798.029,177.246,-963.379,-420.898,85.449
1745825798.033,-1000.0,-803.711,-409.668,-1000.0
1745825798.037,-414.062,159.668,-5.371,-435.547
1745825798.041,912.598,999.512,895.02,895.508
1745825798.045,999.512,-19.531,385.742,999.512
1745825798.002,999.512,717.773,874.512,999.512
1745825798.006,999.512,-531.738,70.801,982.91
1745825798.01,-177.734,-336.426,-577.637,-213.379
1745825798.014,-1000.0,-195.312,-342.773,-1000.0
1745825798.018,-396.484,-190.43,165.039,-384.277
1745825798.022,881.348,999.512,916.504,895.996
1745825798.026,999.512,11.23,259.766,999.512
1745825798.029,177.246,-963.379,-420.898,85.449
1745825798.033,-1000.0,-803.711,-409.668,-1000.0
1745825798.037,-414.062,159.668,-5.371,-435.547
1745825798.041,912.598,999.512,895.02,895.508
1745825798.045,999.512,-19.531,385.742,999.512
1745825798.047,209.961,-858.398,-432.129,138.672
1745825798.051,-1000.0,-250.0,-365.234,-1000.0
1745825798.055,-605.957,-153.32,132.812,-676.758
1745825798.059,787.109,926.27,814.941,685.547
1745825798.063,999.512,355.469,563.477,999.512
1745825798.067,177.734,-954.59,-345.215,168.945
1745825798.071,-1000.0,-229.004,-365.234,-1000.0
1745825798.074,-863.281,-147.461,156.25,-916.504
1745825798.078,455.566,565.918,742.188,364.258
1745825798.082,999.512,640.137,763.184,999.512
1745825798.086,203.125,-807.129,-299.805,168.457
1745825798.09,-1000.0,-738.77,-502.441,-1000.0
1745825798.047,209.961,-858.398,-432.129,138.672
1745825798.051,-1000.0,-250.0,-365.234,-1000.0
1745825798.055,-605.957,-153.32,132.812,-676.758
1745825798.059,787.109,926.27,814.941,685.547
1745825798.063,999.512,355.469,563.477,999.512
1745825798.067,177.734,-954.59,-345.215,168.945
1745825798.071,-1000.0,-229.004,-365.234,-1000.0
1745825798.074,-863.281,-147.461,156.25,-916.504
1745825798.078,455.566,565.918,742.188,364.258
1745825798.082,999.512,640.137,763.184,999.512
1745825798.086,203.125,-807.129,-299.805,168.457
1745825798.09,-1000.0,-738.77,-502.441,-1000.0
1745825798.092,-1000.0,19.531,51.27,-1000.0
1745825798.096,223.633,881.836,594.727,144.043
1745825798.1,999.512,735.84,842.773,999.512
1745825798.104,325.195,-757.324,-277.832,240.234
1745825798.108,-963.379,-729.98,-622.07,-985.84
1745825798.112,-1000.0,287.109,-6.836,-1000.0
1745825798.116,55.664,768.555,468.75,-17.578
1745825798.119,999.512,370.117,870.117,999.512
1745825798.123,524.902,-598.145,-208.984,428.711
1745825798.127,-832.52,-1000.0,-667.969,-896.973
1745825798.131,-1000.0,-232.422,-28.809,-1000.0
1745825798.135,-76.172,904.785,416.992,-142.578
1745825798.092,-1000.0,19.531,51.27,-1000.0
1745825798.096,223.633,881.836,594.727,144.043
1745825798.1,999.512,735.84,842.773,999.512
1745825798.104,325.195,-757.324,-277.832,240.234
1745825798.108,-963.379,-729.98,-622.07,-985.84
1745825798.112,-1000.0,287.109,-6.836,-1000.0
1745825798.116,55.664,768.555,468.75,-17.578
1745825798.119,999.512,370.117,870.117,999.512
1745825798.123,524.902,-598.145,-208.984,428.711
1745825798.127,-832.52,-1000.0,-667.969,-896.973
1745825798.131,-1000.0,-232.422,-28.809,-1000.0
1745825798.135,-76.172,904.785,416.992,-142.578
1745825798.137,999.512,850.098,915.039,999.512
1745825798.141,852.051,-228.027,-44.922,708.984
1745825798.145,-438.477,-862.793,-644.043,-625.488
1745825798.149,-1000.0,-323.242,-154.785,-1000.0
1745825798.153,-183.594,636.23,300.293,-201.66
1745825798.157,999.512,999.512,850.098,999.512
1745825798.161,999.512,-63.477,9.277,865.234
1745825798.164,-215.82,-814.941,-643.066,-434.57
1745825798.168,-1000.0,-621.582,-379.883,-1000.0
1745825798.172,-169.434,235.352,154.785,-185.059
1745825798.176,990.723,999.512,883.301,999.512
1745825798.18,999.512,-81.055,95.215,999.512
1745825798.137,999.512,850.098,915.039,999.512
1745825798.141,852.051,-228.027,-44.922,708.984
1745825798.145,-438.477,-862.793,-644.043,-625.488
1745825798.149,-1000.0,-323.242,-154.785,-1000.0
1745825798.153,-183.594,636.23,300.293,-201.66
1745825798.157,999.512,999.512,850.098,999.512
1745825798.161,999.512,-63.477,9.277,865.234
1745825798.164,-215.82,-814.941,-643.066,-434.57
1745825798.168,-1000.0,-621.582,-379.883,-1000.0
1745825798.172,-169.434,235.352,154.785,-185.059
1745825798.176,990.723,999.512,883.301,999.512
1745825798.18,999.512,-81.055,95.215,999.512
1745825798.197,32.715,-778.809,-545.898,-159.18
1745825798.201,-1000.0,-429.199,-321.289,-1000.0
1745825798.205,-178.711,350.098,179.688,-203.613
1745825798.209,988.281,999.512,954.59,975.586
1745825798.213,999.512,-210.449,258.301,999.512
1745825798.217,231.445,-798.828,-448.73,145.996
1745825798.221,-1000.0,-383.301,-333.496,-1000.0
1745825798.224,-361.328,-151.855,46.875,-428.223
1745825798.228,939.453,998.047,834.473,903.809
1745825798.232,999.512,79.59,354.004,999.512
1745825798.236,218.262,-927.246,-478.027,158.203
1745825798.24,-1000.0,-584.961,-414.551,-1000.0
1745825798.197,32.715,-778.809,-545.898,-159.18
1745825798.201,-1000.0,-429.199,-321.289,-1000.0
1745825798.205,-178.711,350.098,179.688,-203.613
1745825798.209,988.281,999.512,954.59,975.586
1745825798.213,999.512,-210.449,258.301,999.512
1745825798.217,231.445,-798.828,-448.73,145.996
1745825798.221,-1000.0,-383.301,-333.496,-1000.0
1745825798.224,-361.328,-151.855,46.875,-428.223
1745825798.228,939.453,998.047,834.473,903.809
1745825798.232,999.512,79.59,354.004,999.512
1745825798.236,218.262,-927.246,-478.027,158.203
1745825798.24,-1000.0,-584.961,-414.551,-1000.0
1745825798.242,-596.68,-266.602,-34.18,-699.707
1745825798.246,788.086,972.656,754.395,661.133
1745825798.25,999.512,336.426,575.195,999.512
1745825798.254,245.117,-943.848,-370.117,194.824
1745825798.258,-1000.0,-899.414,-417.969,-1000.0
1745825798.262,-668.457,-23.438,-4.395,-735.352
1745825798.266,728.516,999.512,730.957,639.648
1745825798.269,999.512,233.398,718.262,999.512
1745825798.273,250.488,-964.355,-387.207,182.129
1745825798.277,-1000.0,-760.742,-516.113,-1000.0
1745825798.281,-916.016,52.734,-34.668,-983.398
1745825798.285,378.906,868.652,519.531,241.211
1745825798.242,-596.68,-266.602,-34.18,-699.707
1745825798.246,788.086,972.656,754.395,661.133
1745825798.25,999.512,336.426,575.195,999.512
1745825798.254,245.117,-943.848,-370.117,194.824
1745825798.258,-1000.0,-899.414,-417.969,-1000.0
1745825798.262,-668.457,-23.438,-4.395,-735.352
1745825798.266,728.516,999.512,730.957,639.648
1745825798.269,999.512,233.398,718.262,999.512
1745825798.273,250.488,-964.355,-387.207,182.129
1745825798.277,-1000.0,-760.742,-516.113,-1000.0
1745825798.281,-916.016,52.734,-34.668,-983.398
1745825798.285,378.906,868.652,519.531,241.211
1745825798.287,999.512,569.336,823.73,999.512
1745825798.291,394.531,-684.57,-297.852,275.391
1745825798.295,-882.324,-612.793,-593.75,-960.938
1745825798.299,-1000.0,204.102,43.457,-1000.0
1745825798.303,104.492,700.195,445.312,15.625
1745825798.307,999.512,848.633,852.539,999.512
1745825798.311,648.438,-297.363,-149.902,498.047
1745825798.314,-687.5,-1000.0,-659.18,-824.707
1745825798.318,-1000.0,-386.719,-105.469,-1000.0
1745825798.322,-125.488,736.328,349.609,-181.152
1745825798.326,999.512,893.555,886.719,999.512
1745825798.33,770.996,-192.871,-47.363,652.344
1745825798.287,999.512,569.336,823.73,999.512
1745825798.291,394.531,-684.57,-297.852,275.391
1745825798.295,-882.324,-612.793,-593.75,-960.938
1745825798.299,-1000.0,204.102,43.457,-1000.0
1745825798.303,104.492,700.195,445.312,15.625
1745825798.307,999.512,848.633,852.539,999.512
1745825798.311,648.438,-297.363,-149.902,498.047
1745825798.314,-687.5,-1000.0,-659.18,-824.707
1745825798.318,-1000.0,-386.719,-105.469,-1000.0
1745825798.322,-125.488,736.328,349.609,-181.152
1745825798.326,999.512,893.555,886.719,999.512
1745825798.33,770.996,-192.871,-47.363,652.344
1745825798.334,-570.312,-1000.0,-659.668,-706.543
1745825798.338,-1000.0,-470.215,-241.211,-1000.0
1745825798.342,-208.008,707.52,272.461,-218.262
1745825798.346,999.512,892.578,844.727,999.512
1745825798.35,831.055,-289.062,26.367,760.254
1745825798.354,-519.043,-223.145,-610.352,-613.281
1745825798.358,-1000.0,-160.645,-371.582,-1000.0
1745825798.361,-179.199,-62.988,199.219,-200.684
1745825798.365,999.512,637.207,832.52,999.512
1745825798.369,999.512,-430.176,16.602,955.566
1745825798.373,-156.25,-448.73,-605.469,-259.277
1745825798.377,-1000.0,-385.742,-409.668,-1000.0
1745825798.334,-570.312,-1000.0,-659.668,-706.543
1745825798.338,-1000.0,-470.215,-241.211,-1000.0
1745825798.342,-208.008,707.52,272.461,-218.262
1745825798.346,999.512,892.578,844.727,999.512
1745825798.35,831.055,-289.062,26.367,760.254
1745825798.354,-519.043,-223.145,-610.352,-613.281
1745825798.358,-1000.0,-160.645,-371.582,-1000.0
1745825798.361,-179.199,-62.988,199.219,-200.684
1745825798.365,999.512,637.207,832.52,999.512
1745825798.369,999.512,-430.176,16.602,955.566
1745825798.373,-156.25,-448.73,-605.469,-259.277
1745825798.377,-1000.0,-385.742,-409.668,-1000.0
1745825798.377,-387.207,-102.051,94.238,-440.918
1745825798.381,916.992,999.512,882.812,888.672
1745825798.385,999.512,-128.418,259.277,999.512
1745825798.389,-44.922,-730.469,-471.68,-97.168
1745825798.393,-1000.0,-230.469,-383.789,-1000.0
1745825798.397,-427.734,62.988,93.262,-498.535
1745825798.401,892.578,999.512,916.992,836.426
1745825798.404,999.512,-38.574,397.461,999.512
1745825798.408,51.27,-993.652,-462.891,8.301
1745825798.412,-1000.0,-762.207,-432.129,-1000.0
1745825798.416,-819.336,-81.055,-15.137,-880.859
1745825798.42,492.676,999.512,826.172,374.512
1745825798.422,999.512,162.598,624.512,999.512
1745825798.426,127.441,-1000.0,-388.184,100.098
1745825798.43,-1000.0,-261.23,-461.426,-1000.0
1745825798.434,-1000.0,-7.324,101.562,-1000.0
1745825798.438,-141.602,781.738,752.93,-128.906
1745825798.442,999.512,840.82,775.879,999.512
1745825798.446,153.32,-587.891,-271.973,156.738
1745825798.449,-1000.0,-1000.0,-519.531,-1000.0
1745825798.453,-1000.0,-285.156,23.438,-1000.0
1745825798.457,-256.348,915.039,573.242,-247.07
1745825798.461,999.512,839.355,817.871,999.512
1745825798.465,169.922,-465.82,-277.832,178.223
1745825798.422,999.512,162.598,624.512,999.512
1745825798.426,127.441,-1000.0,-388.184,100.098
1745825798.43,-1000.0,-261.23,-461.426,-1000.0
1745825798.434,-1000.0,-7.324,101.562,-1000.0
1745825798.438,-141.602,781.738,752.93,-128.906
1745825798.442,999.512,840.82,775.879,999.512
1745825798.446,153.32,-587.891,-271.973,156.738
1745825798.449,-1000.0,-1000.0,-519.531,-1000.0
1745825798.453,-1000.0,-285.156,23.438,-1000.0
1745825798.457,-256.348,915.039,573.242,-247.07
1745825798.461,999.512,839.355,817.871,999.512
1745825798.465,169.922,-465.82,-277.832,178.223
1745825798.467,-1000.0,-1000.0,-637.695,-1000.0
1745825798.471,-1000.0,-174.805,-43.457,-1000.0
1745825798.475,-261.23,955.078,364.258,-305.176
1745825798.479,999.512,907.227,780.273,999.512
1745825798.483,236.328,-437.012,-171.875,234.375
1745825798.487,-998.047,-270.508,-745.117,-1000.0
1745825798.491,-1000.0,-71.777,-112.305,-1000.0
1745825798.494,-560.059,-17.09,361.328,-549.805
1745825798.498,999.512,843.75,750.977,999.512
1745825798.502,458.496,-323.73,-107.91,437.012
1745825798.506,-963.379,-716.797,-727.539,-973.145
1745825798.51,-1000.0,-373.047,-324.219,-1000.0
1745825798.467,-1000.0,-1000.0,-637.695,-1000.0
1745825798.471,-1000.0,-174.805,-43.457,-1000.0
1745825798.475,-261.23,955.078,364.258,-305.176
1745825798.479,999.512,907.227,780.273,999.512
1745825798.483,236.328,-437.012,-171.875,234.375
1745825798.487,-998.047,-270.508,-745.117,-1000.0
1745825798.491,-1000.0,-71.777,-112.305,-1000.0
1745825798.494,-560.059,-17.09,361.328,-549.805
1745825798.498,999.512,843.75,750.977,999.512
1745825798.502,458.496,-323.73,-107.91,437.012
1745825798.506,-963.379,-716.797,-727.539,-973.145
1745825798.51,-1000.0,-373.047,-324.219,-1000.0
1745825798.527,-856.934,375.977,209.961,-831.055
1745825798.531,679.688,999.512,759.766,689.941
1745825798.535,684.57,-195.801,-62.988,676.27
1745825798.539,-888.672,-517.09,-714.844,-878.906
1745825798.543,-1000.0,-326.172,-470.215,-1000.0
1745825798.547,-1000.0,-50.293,148.438,-979.004
1745825798.551,317.871,986.816,777.344,367.676
1745825798.554,935.059,-333.496,-2.93,918.945
1745825798.558,-660.645,-608.887,-634.766,-661.133
1745825798.562,-1000.0,-307.617,-530.762,-1000.0
1745825798.566,-1000.0,-32.227,82.031,-1000.0
1745825798.57,-46.387,999.512,831.543,-20.02
1745825798.527,-856.934,375.977,209.961,-831.055
1745825798.531,679.688,999.512,759.766,689.941
1745825798.535,684.57,-195.801,-62.988,676.27
1745825798.539,-888.672,-517.09,-714.844,-878.906
1745825798.543,-1000.0,-326.172,-470.215,-1000.0
1745825798.547,-1000.0,-50.293,148.438,-979.004
1745825798.551,317.871,986.816,777.344,367.676
1745825798.554,935.059,-333.496,-2.93,918.945
1745825798.558,-660.645,-608.887,-634.766,-661.133
1745825798.562,-1000.0,-307.617,-530.762,-1000.0
1745825798.566,-1000.0,-32.227,82.031,-1000.0
1745825798.57,-46.387,999.512,831.543,-20.02
1745825798.572,999.512,-109.375,99.121,999.512
1745825798.576,-321.289,-772.949,-584.473,-349.609
1745825798.58,-1000.0,-236.328,-541.992,-1000.0
1745825798.584,-1000.0,-89.355,-37.109,-1000.0
1745825798.588,-229.004,999.512,696.289,-193.359
1745825798.592,999.512,247.559,204.102,999.512
1745825798.596,-71.289,-888.672,-488.281,-99.121
1745825798.599,-1000.0,-420.898,-559.082,-1000.0
1745825798.603,-1000.0,-278.32,-177.246,-1000.0
1745825798.607,-268.555,931.152,563.477,-260.742
1745825798.611,999.512,381.348,329.102,999.512
1745825798.615,109.375,-930.176,-456.543,92.773
1745825798.572,999.512,-109.375,99.121,999.512
1745825798.576,-321.289,-772.949,-584.473,-349.609
1745825798.58,-1000.0,-236.328,-541.992,-1000.0
1745825798.584,-1000.0,-89.355,-37.109,-1000.0
1745825798.588,-229.004,999.512,696.289,-193.359
1745825798.592,999.512,247.559,204.102,999.512
1745825798.596,-71.289,-888.672,-488.281,-99.121
1745825798.599,-1000.0,-420.898,-559.082,-1000.0
1745825798.603,-1000.0,-278.32,-177.246,-1000.0
1745825798.607,-268.555,931.152,563.477,-260.742
1745825798.611,999.512,381.348,329.102,999.512
1745825798.615,109.375,-930.176,-456.543,92.773
1745825798.572,999.512,-109.375,99.121,999.512
1745825798.576,-321.289,-772.949,-584.473,-349.609
1745825798.58,-1000.0,-236.328,-541.992,-1000.0
1745825798.584,-1000.0,-89.355,-37.109,-1000.0
1745825798.588,-229.004,999.512,696.289,-193.359
1745825798.592,999.512,247.559,204.102,999.512
1745825798.596,-71.289,-888.672,-488.281,-99.121
1745825798.599,-1000.0,-420.898,-559.082,-1000.0
1745825798.603,-1000.0,-278.32,-177.246,-1000.0
1745825798.607,-268.555,931.152,563.477,-260.742
1745825798.611,999.512,381.348,329.102,999.512
1745825798.615,109.375,-930.176,-456.543,92.773
1745825798.618,-1000.0,-796.387,-562.012,-1000.0
1745825798.622,-1000.0,-48.828,-180.176,-1000.0
1745825798.626,-261.23,999.512,528.809,-250.977
1745825798.63,999.512,594.238,596.68,999.512
1745825798.634,169.922,-805.664,-374.512,168.457
1745825798.638,-1000.0,-224.121,-627.441,-1000.0
1745825798.642,-1000.0,85.449,-120.605,-1000.0
1745825798.645,-256.348,702.637,451.66,-255.859
1745825798.649,999.512,523.438,669.434,999.512
1745825798.653,166.992,-1000.0,-348.145,167.969
1745825798.657,-1000.0,-280.762,-700.684,-1000.0
1745825798.661,-1000.0,-125.0,-152.344,-1000.0
1745825798.662,-313.477,254.395,286.621,-303.711
1745825798.666,999.512,999.512,714.844,999.512
1745825798.67,263.184,-406.25,-191.895,288.086
1745825798.674,-1000.0,-716.309,-751.953,-993.652
1745825798.678,-1000.0,83.984,-241.699,-1000.0
1745825798.682,-339.355,732.91,276.367,-320.801
1745825798.686,999.512,999.512,823.242,999.512
1745825798.689,446.777,-176.27,-75.684,457.52
1745825798.693,-916.504,-899.414,-731.445,-909.668
1745825798.697,-1000.0,-727.539,-360.352,-1000.0
1745825798.701,-418.457,62.5,162.598,-358.887
1745825798.705,999.512,999.512,737.305,999.512
1745825798.662,-313.477,254.395,286.621,-303.711
1745825798.666,999.512,999.512,714.844,999.512
1745825798.67,263.184,-406.25,-191.895,288.086
1745825798.674,-1000.0,-716.309,-751.953,-993.652
1745825798.678,-1000.0,83.984,-241.699,-1000.0
1745825798.682,-339.355,732.91,276.367,-320.801
1745825798.686,999.512,999.512,823.242,999.512
1745825798.689,446.777,-176.27,-75.684,457.52
1745825798.693,-916.504,-899.414,-731.445,-909.668
1745825798.697,-1000.0,-727.539,-360.352,-1000.0
1745825798.701,-418.457,62.5,162.598,-358.887
1745825798.705,999.512,999.512,737.305,999.512
1745825798.707,700.195,-291.016,-63.477,714.355
1745825798.711,-708.496,-434.082,-709.961,-676.27
1745825798.715,-1000.0,-101.562,-477.051,-1000.0
1745825798.719,-457.52,-205.566,84.961,-377.93
1745825798.723,918.457,999.512,748.535,955.566
1745825798.727,988.77,39.062,-0.977,966.797
1745825798.731,-332.52,-732.422,-594.238,-322.266
1745825798.734,-1000.0,-543.945,-556.641,-1000.0
1745825798.738,-777.344,84.473,-98.145,-699.707
1745825798.742,561.523,999.512,767.578,641.602
1745825798.746,999.512,12.695,125.977,999.512
1745825798.75,-138.184,-846.191,-476.562,-126.953
1745825798.707,700.195,-291.016,-63.477,714.355
1745825798.711,-708.496,-434.082,-709.961,-676.27
1745825798.715,-1000.0,-101.562,-477.051,-1000.0
1745825798.719,-457.52,-205.566,84.961,-377.93
1745825798.723,918.457,999.512,748.535,955.566
1745825798.727,988.77,39.062,-0.977,966.797
1745825798.731,-332.52,-732.422,-594.238,-322.266
1745825798.734,-1000.0,-543.945,-556.641,-1000.0
1745825798.738,-777.344,84.473,-98.145,-699.707
1745825798.742,561.523,999.512,767.578,641.602
1745825798.746,999.512,12.695,125.977,999.512
1745825798.75,-138.184,-846.191,-476.562,-126.953
1745825798.767,-1000.0,-591.797,-470.215,-1000.0
1745825798.771,-644.043,163.574,-123.047,-586.914
1745825798.775,707.52,999.512,789.551,743.164
1745825798.779,999.512,32.715,284.18,999.512
1745825798.783,33.203,-831.543,-543.945,49.316
1745825798.787,-1000.0,-239.746,-519.531,-1000.0
1745825798.791,-853.516,26.367,-71.289,-787.109
1745825798.794,448.242,929.688,740.723,524.414
1745825798.798,999.512,322.266,464.844,999.512
1745825798.802,144.531,-865.234,-470.703,136.23
1745825798.806,-1000.0,-360.84,-514.648,-1000.0
1745825798.81,-1000.0,-93.262,-70.312,-1000.0
1745825798.767,-1000.0,-591.797,-470.215,-1000.0
1745825798.771,-644.043,163.574,-123.047,-586.914
1745825798.775,707.52,999.512,789.551,743.164
1745825798.779,999.512,32.715,284.18,999.512
1745825798.783,33.203,-831.543,-543.945,49.316
1745825798.787,-1000.0,-239.746,-519.531,-1000.0
1745825798.791,-853.516,26.367,-71.289,-787.109
1745825798.794,448.242,929.688,740.723,524.414
1745825798.798,999.512,322.266,464.844,999.512
1745825798.802,144.531,-865.234,-470.703,136.23
1745825798.806,-1000.0,-360.84,-514.648,-1000.0
1745825798.81,-1000.0,-93.262,-70.312,-1000.0
1745825798.798,115.723,745.117,646.973,184.082
1745825798.802,999.512,877.441,738.281,999.512
1745825798.806,146.973,-511.719,-332.031,150.391
1745825798.81,-1000.0,-781.25,-571.777,-1000.0
1745825798.814,-1000.0,-245.117,-82.52,-1000.0
1745825798.818,37.109,779.297,503.906,76.172
1745825798.822,999.512,792.48,810.547,999.512
1745825798.825,205.078,-648.926,-298.34,236.816
1745825798.829,-1000.0,-1000.0,-694.336,-990.723
1745825798.833,-1000.0,-113.281,-208.984,-1000.0
1745825798.837,-135.254,887.695,283.691,-94.238
1745825798.841,999.512,721.68,797.363,999.512
1745825798.798,115.723,745.117,646.973,184.082
1745825798.802,999.512,877.441,738.281,999.512
1745825798.806,146.973,-511.719,-332.031,150.391
1745825798.81,-1000.0,-781.25,-571.777,-1000.0
1745825798.814,-1000.0,-245.117,-82.52,-1000.0
1745825798.818,37.109,779.297,503.906,76.172
1745825798.822,999.512,792.48,810.547,999.512
1745825798.825,205.078,-648.926,-298.34,236.816
1745825798.829,-1000.0,-1000.0,-694.336,-990.723
1745825798.833,-1000.0,-113.281,-208.984,-1000.0
1745825798.837,-135.254,887.695,283.691,-94.238
1745825798.841,999.512,721.68,797.363,999.512
1745825798.842,395.996,-462.891,-194.336,414.062
1745825798.846,-926.27,-581.055,-761.23,-910.645
1745825798.85,-1000.0,-194.336,-208.984,-1000.0
1745825798.854,-227.051,211.914,320.312,-179.688
1745825798.858,999.512,925.293,826.66,999.512
1745825798.862,699.219,-68.848,-100.586,732.91
1745825798.866,-674.316,-699.707,-708.496,-604.004
1745825798.869,-1000.0,-757.324,-360.352,-1000.0
1745825798.873,-214.355,-26.855,89.355,-218.262
1745825798.877,999.512,945.801,733.887,999.512
1745825798.881,800.781,-236.816,-40.039,833.008
1745825798.885,-540.527,-651.367,-689.941,-485.84
1745825798.842,395.996,-462.891,-194.336,414.062
1745825798.846,-926.27,-581.055,-761.23,-910.645
1745825798.85,-1000.0,-194.336,-208.984,-1000.0
1745825798.854,-227.051,211.914,320.312,-179.688
1745825798.858,999.512,925.293,826.66,999.512
1745825798.862,699.219,-68.848,-100.586,732.91
1745825798.866,-674.316,-699.707,-708.496,-604.004
1745825798.869,-1000.0,-757.324,-360.352,-1000.0
1745825798.873,-214.355,-26.855,89.355,-218.262
1745825798.877,999.512,945.801,733.887,999.512
1745825798.881,800.781,-236.816,-40.039,833.008
1745825798.885,-540.527,-651.367,-689.941,-485.84
1745825798.887,-1000.0,-440.918,-483.398,-1000.0
1745825798.891,-246.582,145.996,76.172,-233.887
1745825798.895,998.535,999.512,793.457,999.512
1745825798.899,989.746,-268.555,47.363,990.723
1745825798.903,-228.027,-546.387,-596.191,-206.543
1745825798.907,-1000.0,-163.086,-444.336,-1000.0
1745825798.911,-383.301,-80.566,117.676,-331.543
1745825798.914,918.945,956.543,863.281,938.965
1745825798.918,999.512,-226.562,156.738,999.512
1745825798.922,-65.918,-771.484,-516.113,-31.25
1745825798.926,-1000.0,-343.262,-485.352,-1000.0
1745825798.93,-634.766,56.641,-73.73,-537.598
1745825798.887,-1000.0,-440.918,-483.398,-1000.0
1745825798.891,-246.582,145.996,76.172,-233.887
1745825798.895,998.535,999.512,793.457,999.512
1745825798.899,989.746,-268.555,47.363,990.723
1745825798.903,-228.027,-546.387,-596.191,-206.543
1745825798.907,-1000.0,-163.086,-444.336,-1000.0
1745825798.911,-383.301,-80.566,117.676,-331.543
1745825798.914,918.945,956.543,863.281,938.965
1745825798.918,999.512,-226.562,156.738,999.512
1745825798.922,-65.918,-771.484,-516.113,-31.25
1745825798.926,-1000.0,-343.262,-485.352,-1000.0
1745825798.93,-634.766,56.641,-73.73,-537.598
1745825798.947,715.82,999.512,821.777,794.922
1745825798.951,999.512,113.77,320.312,999.512
1745825798.955,98.633,-914.062,-477.051,122.07
1745825798.959,-1000.0,-505.859,-504.395,-1000.0
1745825798.963,-929.688,-6.836,-145.996,-843.75
1745825798.967,351.074,999.512,758.301,453.125
1745825798.971,999.512,315.43,578.125,999.512
1745825798.974,163.086,-941.895,-409.668,170.41
1745825798.978,-1000.0,-911.133,-534.668,-1000.0
1745825798.982,-943.848,7.812,-99.121,-896.484
1745825798.986,349.609,968.262,661.621,412.109
1745825798.99,999.512,523.438,657.227,999.512
1745825798.947,715.82,999.512,821.777,794.922
1745825798.951,999.512,113.77,320.312,999.512
1745825798.955,98.633,-914.062,-477.051,122.07
1745825798.959,-1000.0,-505.859,-504.395,-1000.0
1745825798.963,-929.688,-6.836,-145.996,-843.75
1745825798.967,351.074,999.512,758.301,453.125
1745825798.971,999.512,315.43,578.125,999.512
1745825798.974,163.086,-941.895,-409.668,170.41
1745825798.978,-1000.0,-911.133,-534.668,-1000.0
1745825798.982,-943.848,7.812,-99.121,-896.484
1745825798.986,349.609,968.262,661.621,412.109
1745825798.99,999.512,523.438,657.227,999.512
1745825798.992,128.906,-704.59,-382.324,133.789
1745825798.996,-1000.0,-419.922,-607.91,-1000.0
1745825799.0,-1000.0,-19.043,-87.891,-1000.0
1745825799.004,-111.328,494.629,472.168,-40.527
1745825799.008,999.512,877.93,757.324,999.512
1745825799.012,210.449,-303.711,-301.27,243.652
1745825799.016,-1000.0,-1000.0,-700.195,-997.559
1745825799.019,-1000.0,-150.879,-243.164,-1000.0
1745825799.023,-236.328,847.168,195.312,-156.25
1745825799.027,999.512,758.789,694.336,999.512
1745825799.031,365.723,-359.863,-257.324,383.301
1745825799.035,-955.078,-275.879,-777.344,-932.617
1745825798.992,128.906,-704.59,-382.324,133.789
1745825798.996,-1000.0,-419.922,-607.91,-1000.0
1745825799.0,-1000.0,-19.043,-87.891,-1000.0
1745825799.004,-111.328,494.629,472.168,-40.527
1745825799.008,999.512,877.93,757.324,999.512
1745825799.012,210.449,-303.711,-301.27,243.652
1745825799.016,-1000.0,-1000.0,-700.195,-997.559
1745825799.019,-1000.0,-150.879,-243.164,-1000.0
1745825799.023,-236.328,847.168,195.312,-156.25
1745825799.027,999.512,758.789,694.336,999.512
1745825799.031,365.723,-359.863,-257.324,383.301
1745825799.035,-955.078,-275.879,-777.344,-932.617
1745825799.053,-1000.0,-119.629,-277.832,-1000.0
1745825799.057,-252.441,-78.125,161.621,-230.957
1745825799.061,999.512,999.512,705.566,999.512
1745825799.065,518.066,-128.418,-96.191,548.828
1745825799.069,-874.023,-1000.0,-723.145,-832.031
1745825799.073,-1000.0,-186.523,-348.633,-1000.0
1745825799.077,-232.422,848.145,170.898,-229.004
1745825799.08,999.512,717.773,740.234,999.512
1745825799.084,654.297,-459.961,-107.91,667.48
1745825799.088,-724.121,-468.75,-730.957,-701.66
1745825799.092,-1000.0,-341.309,-496.094,-1000.0
1745825799.096,-327.148,-91.309,52.734,-303.711
1745825799.083,978.027,999.512,753.418,990.234
1745825799.087,963.867,-158.203,5.371,948.242
1745825799.091,-304.688,-666.016,-615.723,-313.477
1745825799.095,-1000.0,-390.137,-507.812,-1000.0
1745825799.099,-574.219,125.977,-50.293,-502.93
1745825799.103,790.039,999.512,808.594,827.148
1745825799.107,999.512,-41.992,186.523,999.512
1745825799.11,-106.445,-788.086,-526.367,-100.098
1745825799.114,-1000.0,-492.676,-538.574,-1000.0
1745825799.118,-698.242,93.262,-115.723,-645.02
1745825799.122,644.531,999.512,800.293,684.57
1745825799.126,999.512,65.918,303.223,999.512
1745825799.083,978.027,999.512,753.418,990.234
1745825799.087,963.867,-158.203,5.371,948.242
1745825799.091,-304.688,-666.016,-615.723,-313.477
1745825799.095,-1000.0,-390.137,-507.812,-1000.0
1745825799.099,-574.219,125.977,-50.293,-502.93
1745825799.103,790.039,999.512,808.594,827.148
1745825799.107,999.512,-41.992,186.523,999.512
1745825799.11,-106.445,-788.086,-526.367,-100.098
1745825799.114,-1000.0,-492.676,-538.574,-1000.0
1745825799.118,-698.242,93.262,-115.723,-645.02
1745825799.122,644.531,999.512,800.293,684.57
1745825799.126,999.512,65.918,303.223,999.512
1745825799.083,978.027,999.512,753.418,990.234
1745825799.087,963.867,-158.203,5.371,948.242
1745825799.091,-304.688,-666.016,-615.723,-313.477
1745825799.095,-1000.0,-390.137,-507.812,-1000.0
1745825799.099,-574.219,125.977,-50.293,-502.93
1745825799.103,790.039,999.512,808.594,827.148
1745825799.107,999.512,-41.992,186.523,999.512
1745825799.11,-106.445,-788.086,-526.367,-100.098
1745825799.114,-1000.0,-492.676,-538.574,-1000.0
1745825799.118,-698.242,93.262,-115.723,-645.02
1745825799.122,644.531,999.512,800.293,684.57
1745825799.126,999.512,65.918,303.223,999.512
1745825799.127,50.293,-893.066,-515.137,61.035
1745825799.131,-1000.0,-273.438,-538.574,-1000.0
1745825799.135,-819.824,-17.578,-149.902,-797.363
1745825799.139,501.953,966.797,667.48,517.09
1745825799.143,999.512,201.66,444.824,999.512
1745825799.147,140.625,-988.281,-489.746,125.488
1745825799.151,-1000.0,-183.105,-528.809,-1000.0
1745825799.154,-1000.0,-163.086,-89.355,-1000.0
1745825799.158,55.664,596.191,554.199,101.074
1745825799.162,999.512,667.969,634.277,999.512
1745825799.166,144.043,-825.195,-353.516,147.461
1745825799.17,-1000.0,-468.262,-603.027,-1000.0
1745825799.172,-1000.0,-218.75,-123.047,-1000.0
1745825799.176,-69.824,474.609,490.723,-35.645
1745825799.18,999.512,897.461,785.645,999.512
1745825799.184,276.855,-661.133,-308.105,261.23
1745825799.188,-1000.0,-854.004,-697.754,-1000.0
1745825799.192,-1000.0,314.941,-122.07,-1000.0
1745825799.196,20.02,896.973,430.664,-10.254
1745825799.199,999.512,522.949,792.969,999.512
1745825799.203,361.328,-462.402,-250.0,332.031
1745825799.207,-930.664,-684.082,-744.629,-945.801
1745825799.211,-1000.0,-108.887,-144.531,-1000.0
1745825799.215,-176.27,509.766,383.789,-193.359
1745825799.172,-1000.0,-218.75,-123.047,-1000.0
1745825799.176,-69.824,474.609,490.723,-35.645
1745825799.18,999.512,897.461,785.645,999.512
1745825799.184,276.855,-661.133,-308.105,261.23
1745825799.188,-1000.0,-854.004,-697.754,-1000.0
1745825799.192,-1000.0,314.941,-122.07,-1000.0
1745825799.196,20.02,896.973,430.664,-10.254
1745825799.199,999.512,522.949,792.969,999.512
1745825799.203,361.328,-462.402,-250.0,332.031
1745825799.207,-930.664,-684.082,-744.629,-945.801
1745825799.211,-1000.0,-108.887,-144.531,-1000.0
1745825799.215,-176.27,509.766,383.789,-193.359
1745825799.172,-1000.0,-218.75,-123.047,-1000.0
1745825799.176,-69.824,474.609,490.723,-35.645
1745825799.18,999.512,897.461,785.645,999.512
1745825799.184,276.855,-661.133,-308.105,261.23
1745825799.188,-1000.0,-854.004,-697.754,-1000.0
1745825799.192,-1000.0,314.941,-122.07,-1000.0
1745825799.196,20.02,896.973,430.664,-10.254
1745825799.199,999.512,522.949,792.969,999.512
1745825799.203,361.328,-462.402,-250.0,332.031
1745825799.207,-930.664,-684.082,-744.629,-945.801
1745825799.211,-1000.0,-108.887,-144.531,-1000.0
1745825799.215,-176.27,509.766,383.789,-193.359
1745825799.217,999.512,721.191,848.633,999.512
1745825799.221,679.199,-221.68,-83.496,610.84
1745825799.225,-690.43,-537.109,-710.938,-755.859
1745825799.229,-1000.0,-327.637,-275.391,-1000.0
1745825799.233,-183.594,205.078,242.676,-200.195
1745825799.237,999.512,999.512,852.051,999.512
1745825799.241,999.512,-36.621,2.93,917.48
1745825799.244,-170.41,-863.281,-620.605,-338.867
1745825799.248,-1000.0,-719.238,-381.348,-1000.0
1745825799.252,-187.012,282.227,106.445,-212.891
1745825799.256,999.512,934.57,870.117,999.512
1745825799.26,999.512,-423.34,81.543,941.406
1745825799.217,999.512,721.191,848.633,999.512
1745825799.221,679.199,-221.68,-83.496,610.84
1745825799.225,-690.43,-537.109,-710.938,-755.859
1745825799.229,-1000.0,-327.637,-275.391,-1000.0
1745825799.233,-183.594,205.078,242.676,-200.195
1745825799.237,999.512,999.512,852.051,999.512
1745825799.241,999.512,-36.621,2.93,917.48
1745825799.244,-170.41,-863.281,-620.605,-338.867
1745825799.248,-1000.0,-719.238,-381.348,-1000.0
1745825799.252,-187.012,282.227,106.445,-212.891
1745825799.256,999.512,934.57,870.117,999.512
1745825799.26,999.512,-423.34,81.543,941.406
1745825799.279,-167.48,-528.32,-577.637,-291.016
1745825799.283,-1000.0,-230.957,-356.934,-1000.0
1745825799.287,-247.07,-85.449,175.293,-378.418
1745825799.291,970.215,999.512,899.902,919.922
1745825799.295,999.512,-144.531,244.141,999.512
1745825799.299,11.23,-663.574,-419.434,-101.074
1745825799.303,-1000.0,-302.734,-338.867,-1000.0
1745825799.306,-494.629,-276.855,16.113,-693.848
1745825799.31,841.309,999.512,832.031,635.742
1745825799.314,999.512,158.203,410.645,999.512
1745825799.318,195.801,-864.746,-444.824,82.52
1745825799.322,-1000.0,-232.422,-441.895,-1000.0
1745825799.322,-593.75,-112.793,13.184,-739.746
1745825799.326,793.945,899.902,775.879,602.539
1745825799.33,999.512,420.898,507.324,999.512
1745825799.334,195.801,-926.758,-457.031,166.504
1745825799.338,-1000.0,-681.152,-469.727,-1000.0
1745825799.342,-691.895,168.945,-13.184,-848.633
1745825799.346,691.406,945.801,655.273,481.934
1745825799.349,999.512,393.066,703.613,999.512
1745825799.353,205.566,-860.352,-353.516,145.02
1745825799.357,-1000.0,-856.445,-577.148,-1000.0
1745825799.361,-979.492,-164.062,-77.148,-1000.0
1745825799.365,277.344,761.23,487.793,98.633
1745825799.322,-593.75,-112.793,13.184,-739.746
1745825799.326,793.945,899.902,775.879,602.539
1745825799.33,999.512,420.898,507.324,999.512
1745825799.334,195.801,-926.758,-457.031,166.504
1745825799.338,-1000.0,-681.152,-469.727,-1000.0
1745825799.342,-691.895,168.945,-13.184,-848.633
1745825799.346,691.406,945.801,655.273,481.934
1745825799.349,999.512,393.066,703.613,999.512
1745825799.353,205.566,-860.352,-353.516,145.02
1745825799.357,-1000.0,-856.445,-577.148,-1000.0
1745825799.361,-979.492,-164.062,-77.148,-1000.0
1745825799.365,277.344,761.23,487.793,98.633
1745825799.322,-593.75,-112.793,13.184,-739.746
1745825799.326,793.945,899.902,775.879,602.539
1745825799.33,999.512,420.898,507.324,999.512
1745825799.334,195.801,-926.758,-457.031,166.504
1745825799.338,-1000.0,-681.152,-469.727,-1000.0
1745825799.342,-691.895,168.945,-13.184,-848.633
1745825799.346,691.406,945.801,655.273,481.934
1745825799.349,999.512,393.066,703.613,999.512
1745825799.353,205.566,-860.352,-353.516,145.02
1745825799.357,-1000.0,-856.445,-577.148,-1000.0
1745825799.361,-979.492,-164.062,-77.148,-1000.0
1745825799.365,277.344,761.23,487.793,98.633
1745825799.383,999.512,659.668,816.406,999.512
1745825799.387,319.336,-721.68,-276.367,208.008
1745825799.391,-948.242,-543.945,-612.793,-996.094
1745825799.395,-1000.0,-192.871,114.258,-1000.0
1745825799.399,31.738,239.258,502.441,-155.273
1745825799.403,999.512,999.512,862.793,999.512
1745825799.407,459.473,-239.258,-104.004,346.191
1745825799.41,-880.859,-660.645,-633.789,-954.102
1745825799.414,-1000.0,-301.758,128.418,-1000.0
1745825799.418,-112.793,245.117,543.945,-220.703
1745825799.422,999.512,999.512,916.016,999.512
1745825799.426,745.117,-222.168,41.992,577.637
1745825799.383,999.512,659.668,816.406,999.512
1745825799.387,319.336,-721.68,-276.367,208.008
1745825799.391,-948.242,-543.945,-612.793,-996.094
1745825799.395,-1000.0,-192.871,114.258,-1000.0
1745825799.399,31.738,239.258,502.441,-155.273
1745825799.403,999.512,999.512,862.793,999.512
1745825799.407,459.473,-239.258,-104.004,346.191
1745825799.41,-880.859,-660.645,-633.789,-954.102
1745825799.414,-1000.0,-301.758,128.418,-1000.0
1745825799.418,-112.793,245.117,543.945,-220.703
1745825799.422,999.512,999.512,916.016,999.512
1745825799.426,745.117,-222.168,41.992,577.637
1745825799.412,-571.289,-377.441,-588.867,-784.18
1745825799.416,-1000.0,-98.145,61.523,-1000.0
1745825799.42,-182.129,-83.008,481.934,-219.238
1745825799.424,999.512,999.512,851.562,999.512
1745825799.428,925.293,-222.656,45.41,750.977
1745825799.432,-350.586,-401.855,-650.879,-594.727
1745825799.436,-1000.0,-150.391,-276.855,-1000.0
1745825799.439,-173.34,-107.422,271.484,-211.914
1745825799.443,993.164,651.855,868.652,999.512
1745825799.447,999.512,-541.992,146.484,987.793
1745825799.451,-27.832,-506.348,-553.711,-206.055
1745825799.455,-1000.0,-298.34,-253.906,-1000.0
1745825799.412,-571.289,-377.441,-588.867,-784.18
1745825799.416,-1000.0,-98.145,61.523,-1000.0
1745825799.42,-182.129,-83.008,481.934,-219.238
1745825799.424,999.512,999.512,851.562,999.512
1745825799.428,925.293,-222.656,45.41,750.977
1745825799.432,-350.586,-401.855,-650.879,-594.727
1745825799.436,-1000.0,-150.391,-276.855,-1000.0
1745825799.439,-173.34,-107.422,271.484,-211.914
1745825799.443,993.164,651.855,868.652,999.512
1745825799.447,999.512,-541.992,146.484,987.793
1745825799.451,-27.832,-506.348,-553.711,-206.055
1745825799.455,-1000.0,-298.34,-253.906,-1000.0
1745825799.412,-571.289,-377.441,-588.867,-784.18
1745825799.416,-1000.0,-98.145,61.523,-1000.0
1745825799.42,-182.129,-83.008,481.934,-219.238
