timestamps,TP9,AF7,AF8,TP10
1741604504.698,-973.633,-989.258,-122.07,-967.773
1741604504.702,-906.25,-879.395,-100.098,-928.711
1741604504.698,-973.633,-989.258,-122.07,-967.773
1741604504.702,-906.25,-879.395,-100.098,-928.711
1741604504.704,463.867,509.766,-95.703,444.824
1741604504.708,999.512,999.512,-71.777,999.512
1741604504.712,716.797,594.238,-27.832,471.191
1741604504.716,-686.523,-840.332,-4.395,-834.961
1741604504.72,-1000.0,-1000.0,26.855,-1000.0
1741604504.724,263.184,575.195,39.551,237.305
1741604504.728,999.512,999.512,8.789,999.512
1741604504.731,-133.301,-541.992,-23.926,-265.625
1741604504.735,-1000.0,-1000.0,5.371,-1000.0
1741604504.739,-903.32,-809.57,26.367,-901.367
1741604504.743,-1000.0,-1000.0,2.93,-1000.0
1741604504.747,-931.152,-671.875,-1.953,-1000.0
1741604504.704,463.867,509.766,-95.703,444.824
1741604504.708,999.512,999.512,-71.777,999.512
1741604504.712,716.797,594.238,-27.832,471.191
1741604504.716,-686.523,-840.332,-4.395,-834.961
1741604504.72,-1000.0,-1000.0,26.855,-1000.0
1741604504.724,263.184,575.195,39.551,237.305
1741604504.728,999.512,999.512,8.789,999.512
1741604504.731,-133.301,-541.992,-23.926,-265.625
1741604504.735,-1000.0,-1000.0,5.371,-1000.0
1741604504.739,-903.32,-809.57,26.367,-901.367
1741604504.743,-1000.0,-1000.0,2.93,-1000.0
1741604504.747,-931.152,-671.875,-1.953,-1000.0
1741604504.764,520.02,679.199,-0.977,374.023
1741604504.768,999.512,999.512,16.113,999.512
1741604504.772,935.059,896.484,39.551,941.895
1741604504.776,903.32,-395.02,16.113,892.09
1741604504.78,-564.453,-1000.0,-23.926,-571.777
1741604504.784,-1000.0,-870.117,-6.836,-1000.0
1741604504.788,-981.445,-1000.0,22.461,-990.234
1741604504.791,-882.812,-812.012,42.48,-854.492
1741604504.795,501.953,651.367,41.016,548.828
1741604504.799,999.512,999.512,-13.184,999.512
1741604504.803,514.16,-268.555,-39.551,407.715
1741604504.807,-870.605,-1000.0,-22.949,-935.059
1741604504.764,520.02,679.199,-0.977,374.023
1741604504.768,999.512,999.512,16.113,999.512
1741604504.772,935.059,896.484,39.551,941.895
1741604504.776,903.32,-395.02,16.113,892.09
1741604504.78,-564.453,-1000.0,-23.926,-571.777
1741604504.784,-1000.0,-870.117,-6.836,-1000.0
1741604504.788,-981.445,-1000.0,22.461,-990.234
1741604504.791,-882.812,-812.012,42.48,-854.492
1741604504.795,501.953,651.367,41.016,548.828
1741604504.799,999.512,999.512,-13.184,999.512
1741604504.803,514.16,-268.555,-39.551,407.715
1741604504.807,-870.605,-1000.0,-22.949,-935.059
1741604504.809,-1000.0,-953.125,-32.227,-1000.0
1741604504.813,276.855,298.828,-62.012,377.441
1741604504.817,999.512,999.512,-89.355,999.512
1741604504.821,847.168,276.367,-112.305,835.938
1741604504.825,-633.301,-1000.0,-88.867,-659.18
1741604504.829,-1000.0,-265.625,-48.34,-996.582
1741604504.833,690.43,999.512,-38.086,752.441
1741604504.836,989.746,622.07,-84.473,978.027
1741604504.84,-595.703,-771.484,-107.422,-579.59
1741604504.844,-1000.0,-1000.0,-81.055,-1000.0
1741604504.848,-1000.0,-896.484,-59.57,-970.703
1741604504.852,3.906,338.867,-74.707,86.426
1741604504.809,-1000.0,-953.125,-32.227,-1000.0
1741604504.813,276.855,298.828,-62.012,377.441
1741604504.817,999.512,999.512,-89.355,999.512
1741604504.821,847.168,276.367,-112.305,835.938
1741604504.825,-633.301,-1000.0,-88.867,-659.18
1741604504.829,-1000.0,-265.625,-48.34,-996.582
1741604504.833,690.43,999.512,-38.086,752.441
1741604504.836,989.746,622.07,-84.473,978.027
1741604504.84,-595.703,-771.484,-107.422,-579.59
1741604504.844,-1000.0,-1000.0,-81.055,-1000.0
1741604504.848,-1000.0,-896.484,-59.57,-970.703
1741604504.852,3.906,338.867,-74.707,86.426
1741604504.855,999.512,999.512,-107.91,999.512
1741604504.859,896.973,894.043,-122.07,824.707
1741604504.863,-468.262,-346.68,-136.23,-563.965
1741604504.867,-1000.0,-1000.0,-124.023,-1000.0
1741604504.871,-1000.0,-293.945,-89.355,-1000.0
1741604504.875,-512.695,978.516,-141.602,-456.055
1741604504.879,853.516,904.297,-199.219,725.098
1741604504.882,-408.691,-577.637,-210.449,-509.277
1741604504.886,-1000.0,-1000.0,-205.078,-1000.0
1741604504.89,-928.711,-932.129,-166.992,-915.527
1741604504.894,-954.102,-955.566,-171.875,-1000.0
1741604504.898,-1000.0,-1000.0,-183.105,-953.613
1741604504.914,-889.16,-463.379,-176.758,-1000.0
1741604504.918,573.242,878.906,-164.551,-250.488
1741604504.922,999.512,939.453,-136.719,941.895
1741604504.926,999.512,999.512,-140.625,999.512
1741604504.93,400.391,392.578,-144.043,-63.965
1741604504.934,-971.68,-982.91,-142.578,-1000.0
1741604504.938,-1000.0,-962.891,-122.07,-978.516
1741604504.941,-918.457,-1000.0,-113.77,-919.434
1741604504.945,-1000.0,-859.863,-132.812,-1000.0
1741604504.949,-57.129,611.816,-121.582,-539.551
1741604504.953,999.512,999.512,-83.496,871.582
1741604504.957,892.09,832.031,-81.055,963.379
1741604504.944,970.703,999.512,-64.941,951.172
1741604504.948,955.566,935.547,-53.223,920.898
1741604504.952,-454.59,-372.559,-67.871,-532.227
1741604504.956,-1000.0,-1000.0,-103.027,-1000.0
1741604504.96,-979.492,-706.055,-105.469,-981.934
1741604504.964,-906.738,653.32,-52.246,-895.02
1741604504.968,536.133,999.512,-58.105,605.469
1741604504.971,999.512,981.445,-108.398,999.512
1741604504.975,-20.996,90.82,-146.484,-280.762
1741604504.979,-1000.0,-1000.0,-143.555,-1000.0
1741604504.983,-905.273,-706.055,-115.234,-893.066
1741604504.987,396.973,643.555,-166.504,405.762
1741604504.989,999.512,999.512,-227.539,999.512
1741604504.993,568.848,581.543,-228.027,222.168
1741604504.997,-866.699,-919.434,-206.543,-1000.0
1741604505.001,-1000.0,-867.676,-165.527,-974.121
1741604505.005,377.93,635.254,-133.789,362.305
1741604505.009,999.512,999.512,-138.184,999.512
1741604505.013,802.734,815.918,-162.598,695.801
1741604505.016,-583.984,-672.363,-166.992,-701.172
1741604505.02,-1000.0,-983.398,-104.98,-1000.0
1741604505.024,192.871,585.449,-84.473,191.895
1741604505.028,999.512,999.512,-99.121,999.512
1741604505.032,779.785,802.734,-56.152,713.379
1741604504.989,999.512,999.512,-227.539,999.512
1741604504.993,568.848,581.543,-228.027,222.168
1741604504.997,-866.699,-919.434,-206.543,-1000.0
1741604505.001,-1000.0,-867.676,-165.527,-974.121
1741604505.005,377.93,635.254,-133.789,362.305
1741604505.009,999.512,999.512,-138.184,999.512
1741604505.013,802.734,815.918,-162.598,695.801
1741604505.016,-583.984,-672.363,-166.992,-701.172
1741604505.02,-1000.0,-983.398,-104.98,-1000.0
1741604505.024,192.871,585.449,-84.473,191.895
1741604505.028,999.512,999.512,-99.121,999.512
1741604505.032,779.785,802.734,-56.152,713.379
1741604505.034,-526.367,-565.43,-35.156,-605.469
1741604505.038,-1000.0,-1000.0,0.977,-1000.0
1741604505.042,-640.137,153.32,26.855,-617.188
1741604505.046,772.461,999.512,-28.32,822.754
1741604505.05,999.512,990.723,-62.012,966.309
1741604505.054,-309.57,-16.602,-35.156,-493.652
1741604505.058,-1000.0,-1000.0,-45.41,-1000.0
1741604505.061,-830.566,-719.727,-33.691,-841.797
1741604505.065,510.742,662.109,-21.484,548.828
1741604505.069,999.512,999.512,-52.734,999.512
1741604505.073,106.445,32.715,-6.348,-229.98
1741604505.077,-1000.0,-985.84,101.074,-1000.0
1741604505.034,-526.367,-565.43,-35.156,-605.469
1741604505.038,-1000.0,-1000.0,0.977,-1000.0
1741604505.042,-640.137,153.32,26.855,-617.188
1741604505.046,772.461,999.512,-28.32,822.754
1741604505.05,999.512,990.723,-62.012,966.309
1741604505.054,-309.57,-16.602,-35.156,-493.652
1741604505.058,-1000.0,-1000.0,-45.41,-1000.0
1741604505.061,-830.566,-719.727,-33.691,-841.797
1741604505.065,510.742,662.109,-21.484,548.828
1741604505.069,999.512,999.512,-52.734,999.512
1741604505.073,106.445,32.715,-6.348,-229.98
1741604505.077,-1000.0,-985.84,101.074,-1000.0
1741604505.08,-618.652,415.039,138.672,-450.195
1741604505.084,853.516,999.512,97.168,901.367
1741604505.088,999.512,941.406,64.453,999.512
1741604505.092,-251.953,-387.207,47.852,-342.285
1741604505.096,-1000.0,-1000.0,62.012,-1000.0
1741604505.1,-424.316,431.152,142.09,-299.316
1741604505.104,977.051,999.512,149.414,999.512
1741604505.107,879.883,528.809,83.008,858.887
1741604505.111,-582.52,-830.566,89.844,-596.68
1741604505.115,-1000.0,-1000.0,105.469,-1000.0
1741604505.119,-224.121,505.371,125.0,-117.188
1741604505.123,895.02,999.512,138.672,919.922
1741604505.08,-618.652,415.039,138.672,-450.195
1741604505.084,853.516,999.512,97.168,901.367
1741604505.088,999.512,941.406,64.453,999.512
1741604505.092,-251.953,-387.207,47.852,-342.285
1741604505.096,-1000.0,-1000.0,62.012,-1000.0
1741604505.1,-424.316,431.152,142.09,-299.316
1741604505.104,977.051,999.512,149.414,999.512
1741604505.107,879.883,528.809,83.008,858.887
1741604505.111,-582.52,-830.566,89.844,-596.68
1741604505.115,-1000.0,-1000.0,105.469,-1000.0
1741604505.119,-224.121,505.371,125.0,-117.188
1741604505.123,895.02,999.512,138.672,919.922
1741604505.139,999.512,944.824,114.746,999.512
1741604505.143,771.973,881.836,104.98,606.445
1741604505.147,-561.035,-605.469,120.117,-713.379
1741604505.151,-1000.0,-1000.0,128.906,-1000.0
1741604505.155,-527.832,177.734,120.117,-416.016
1741604505.159,915.527,999.512,87.402,976.074
1741604505.163,792.969,621.094,36.621,688.477
1741604505.166,-698.73,-734.863,36.133,-777.832
1741604505.17,-1000.0,-1000.0,74.219,-1000.0
1741604505.174,-937.012,-896.973,53.711,-955.078
1741604505.178,-954.102,-1000.0,7.812,-946.289
1741604505.182,-1000.0,-1000.0,-1.465,-1000.0
1741604505.139,999.512,944.824,114.746,999.512
1741604505.143,771.973,881.836,104.98,606.445
1741604505.147,-561.035,-605.469,120.117,-713.379
1741604505.151,-1000.0,-1000.0,128.906,-1000.0
1741604505.155,-527.832,177.734,120.117,-416.016
1741604505.159,915.527,999.512,87.402,976.074
1741604505.163,792.969,621.094,36.621,688.477
1741604505.166,-698.73,-734.863,36.133,-777.832
1741604505.17,-1000.0,-1000.0,74.219,-1000.0
1741604505.174,-937.012,-896.973,53.711,-955.078
1741604505.178,-954.102,-1000.0,7.812,-946.289
1741604505.182,-1000.0,-1000.0,-1.465,-1000.0
1741604505.184,-310.547,357.91,36.133,-726.074
1741604505.188,896.973,999.512,88.867,658.203
1741604505.192,999.512,984.863,94.727,999.512
1741604505.196,737.305,511.719,54.199,565.43
1741604505.2,-691.895,-825.195,29.785,-796.875
1741604505.204,-1000.0,-1000.0,7.324,-1000.0
1741604505.208,-928.711,43.945,-8.789,-938.477
1741604505.211,-1000.0,866.211,-14.648,-1000.0
1741604505.215,-940.43,-579.59,-31.738,-945.801
1741604505.219,-1000.0,-1000.0,-19.043,-1000.0
1741604505.223,-863.281,-420.41,-19.531,-908.203
1741604505.227,575.684,806.641,0.488,488.281
1741604505.229,999.512,999.512,14.648,999.512
1741604505.233,984.863,964.844,-15.137,924.316
1741604505.237,-62.988,-178.711,-40.039,-282.715
1741604505.241,-1000.0,-1000.0,-59.082,-1000.0
1741604505.245,-1000.0,-990.234,-20.02,-1000.0
1741604505.249,-542.48,157.227,28.809,-604.004
1741604505.253,999.512,999.512,-48.828,981.445
1741604505.256,685.547,223.633,-133.789,477.051
1741604505.26,-870.117,-983.887,-140.625,-983.887
1741604505.264,-1000.0,-1000.0,-129.395,-1000.0
1741604505.268,-952.637,-973.145,-93.75,-969.238
1741604505.272,-957.52,-949.219,-125.488,-955.566
1741604505.229,999.512,999.512,14.648,999.512
1741604505.233,984.863,964.844,-15.137,924.316
1741604505.237,-62.988,-178.711,-40.039,-282.715
1741604505.241,-1000.0,-1000.0,-59.082,-1000.0
1741604505.245,-1000.0,-990.234,-20.02,-1000.0
1741604505.249,-542.48,157.227,28.809,-604.004
1741604505.253,999.512,999.512,-48.828,981.445
1741604505.256,685.547,223.633,-133.789,477.051
1741604505.26,-870.117,-983.887,-140.625,-983.887
1741604505.264,-1000.0,-1000.0,-129.395,-1000.0
1741604505.268,-952.637,-973.145,-93.75,-969.238
1741604505.272,-957.52,-949.219,-125.488,-955.566
1741604505.274,-1000.0,-1000.0,-173.34,-1000.0
1741604505.278,-866.699,-534.668,-162.598,-888.672
1741604505.282,611.328,764.16,-148.926,565.43
1741604505.286,999.512,999.512,-158.691,999.512
1741604505.29,999.512,763.672,-195.801,990.723
1741604505.294,617.188,-645.508,-197.266,306.641
1741604505.298,-792.969,-1000.0,-170.41,-908.203
1741604505.301,-1000.0,-968.75,-157.227,-1000.0
1741604505.305,-841.309,-953.125,-119.141,-878.906
1741604505.309,505.859,566.406,-121.094,528.32
1741604505.313,999.512,999.512,-170.41,999.512
1741604505.317,-46.875,-450.195,-186.035,-228.027
1741604505.319,-1000.0,-1000.0,-157.715,-1000.0
1741604505.323,-978.027,-882.812,-145.508,-965.82
1741604505.327,-918.457,-1000.0,-175.781,-931.152
1741604505.331,-1000.0,-954.102,-183.105,-1000.0
1741604505.335,-464.355,430.176,-157.715,-795.41
1741604505.339,891.113,999.512,-122.07,648.438
1741604505.343,951.172,951.66,-86.914,999.512
1741604505.346,999.512,123.047,-114.258,970.215
1741604505.35,118.164,-967.285,-144.531,-41.016
1741604505.354,-986.328,-972.168,-152.344,-1000.0
1741604505.358,-1000.0,-1000.0,-147.461,-1000.0
1741604505.362,-657.227,49.316,-139.16,-636.719
1741604505.364,698.73,998.535,-146.484,717.285
1741604505.368,999.512,999.512,-202.637,999.512
1741604505.372,670.41,455.566,-226.074,579.102
1741604505.376,-768.066,-964.844,-204.102,-833.496
1741604505.38,-1000.0,-983.398,-137.695,-1000.0
1741604505.384,343.75,607.422,-68.848,389.16
1741604505.388,999.512,999.512,-169.434,999.512
1741604505.391,15.137,-510.742,-263.184,-67.383
1741604505.395,-984.863,-1000.0,-222.656,-1000.0
1741604505.399,-1000.0,-1000.0,-179.688,-1000.0
1741604505.403,-559.082,-317.871,-148.926,-413.086
1741604505.407,890.137,999.512,-116.699,961.426
1741604505.364,698.73,998.535,-146.484,717.285
1741604505.368,999.512,999.512,-202.637,999.512
1741604505.372,670.41,455.566,-226.074,579.102
1741604505.376,-768.066,-964.844,-204.102,-833.496
1741604505.38,-1000.0,-983.398,-137.695,-1000.0
1741604505.384,343.75,607.422,-68.848,389.16
1741604505.388,999.512,999.512,-169.434,999.512
1741604505.391,15.137,-510.742,-263.184,-67.383
1741604505.395,-984.863,-1000.0,-222.656,-1000.0
1741604505.399,-1000.0,-1000.0,-179.688,-1000.0
1741604505.403,-559.082,-317.871,-148.926,-413.086
1741604505.407,890.137,999.512,-116.699,961.426
1741604505.41,999.512,903.32,-145.02,945.801
1741604505.414,-455.566,-568.848,-209.961,-522.949
1741604505.418,-1000.0,-1000.0,-182.129,-1000.0
1741604505.422,-896.973,-961.426,-146.484,-887.695
1741604505.426,-1000.0,-963.867,-181.152,-1000.0
1741604505.43,37.109,489.258,-183.594,-76.172
1741604505.434,999.512,999.512,-200.684,999.512
1741604505.437,862.793,162.598,-206.055,879.395
1741604505.441,999.512,544.922,-164.062,999.512
1741604505.445,837.402,555.664,-199.219,821.289
1741604505.449,-602.539,-881.348,-238.281,-622.07
1741604505.453,-1000.0,-1000.0,-236.328,-1000.0
1741604505.41,999.512,903.32,-145.02,945.801
1741604505.414,-455.566,-568.848,-209.961,-522.949
1741604505.418,-1000.0,-1000.0,-182.129,-1000.0
1741604505.422,-896.973,-961.426,-146.484,-887.695
1741604505.426,-1000.0,-963.867,-181.152,-1000.0
1741604505.43,37.109,489.258,-183.594,-76.172
1741604505.434,999.512,999.512,-200.684,999.512
1741604505.437,862.793,162.598,-206.055,879.395
1741604505.441,999.512,544.922,-164.062,999.512
1741604505.445,837.402,555.664,-199.219,821.289
1741604505.449,-602.539,-881.348,-238.281,-622.07
1741604505.453,-1000.0,-1000.0,-236.328,-1000.0
1741604505.454,-1000.0,-874.023,-177.734,-997.07
1741604505.458,-0.488,439.941,-121.582,-7.812
1741604505.462,999.512,999.512,-135.254,999.512
1741604505.466,958.496,926.758,-171.387,904.785
1741604505.47,-222.656,-285.645,-204.102,-342.773
1741604505.474,-1000.0,-1000.0,-218.262,-1000.0
1741604505.478,-830.566,-69.824,-177.734,-796.387
1741604505.481,510.254,965.332,-202.148,577.637
1741604505.485,999.512,999.512,-256.348,999.512
1741604505.489,104.004,55.176,-244.629,-92.285
1741604505.493,-1000.0,-1000.0,-227.539,-1000.0
1741604505.497,-949.219,-816.895,-199.707,-923.34
1741604505.454,-1000.0,-874.023,-177.734,-997.07
1741604505.458,-0.488,439.941,-121.582,-7.812
1741604505.462,999.512,999.512,-135.254,999.512
1741604505.466,958.496,926.758,-171.387,904.785
1741604505.47,-222.656,-285.645,-204.102,-342.773
1741604505.474,-1000.0,-1000.0,-218.262,-1000.0
1741604505.478,-830.566,-69.824,-177.734,-796.387
1741604505.481,510.254,965.332,-202.148,577.637
1741604505.485,999.512,999.512,-256.348,999.512
1741604505.489,104.004,55.176,-244.629,-92.285
1741604505.493,-1000.0,-1000.0,-227.539,-1000.0
1741604505.497,-949.219,-816.895,-199.707,-923.34
1741604505.514,359.375,542.48,-191.406,384.766
1741604505.518,999.512,999.512,-225.586,999.512
1741604505.522,572.754,558.594,-250.0,291.504
1741604505.526,-854.004,-909.18,-245.117,-971.68
1741604505.53,-1000.0,-931.152,-200.684,-1000.0
1741604505.534,331.543,565.43,-177.734,320.801
1741604505.538,999.512,999.512,-187.5,999.512
1741604505.541,786.621,769.043,-183.594,686.035
1741604505.545,-590.332,-609.863,-194.824,-695.312
1741604505.549,-1000.0,-1000.0,-172.363,-1000.0
1741604505.553,-854.98,-938.477,-133.301,-862.305
1741604505.557,-1000.0,-1000.0,-136.719,-1000.0
1741604505.514,359.375,542.48,-191.406,384.766
1741604505.518,999.512,999.512,-225.586,999.512
1741604505.522,572.754,558.594,-250.0,291.504
1741604505.526,-854.004,-909.18,-245.117,-971.68
1741604505.53,-1000.0,-931.152,-200.684,-1000.0
1741604505.534,331.543,565.43,-177.734,320.801
1741604505.538,999.512,999.512,-187.5,999.512
1741604505.541,786.621,769.043,-183.594,686.035
1741604505.545,-590.332,-609.863,-194.824,-695.312
1741604505.549,-1000.0,-1000.0,-172.363,-1000.0
1741604505.553,-854.98,-938.477,-133.301,-862.305
1741604505.557,-1000.0,-1000.0,-136.719,-1000.0
1741604505.559,-530.762,341.797,-95.703,-613.77
1741604505.563,887.695,999.512,-43.945,828.125
1741604505.567,982.422,882.324,-20.996,987.305
1741604505.571,897.461,944.824,-16.113,921.875
1741604505.575,999.512,999.512,-30.273,979.98
1741604505.579,-225.098,-52.734,-4.395,-399.414
1741604505.583,-1000.0,-1000.0,9.766,-1000.0
1741604505.586,-1000.0,-1000.0,44.922,-1000.0
1741604505.59,-716.797,-198.242,78.613,-671.875
1741604505.594,828.125,999.512,61.035,867.676
1741604505.598,987.305,862.793,39.551,936.035
1741604505.602,-475.586,-503.418,21.973,-543.457
1741604505.559,-530.762,341.797,-95.703,-613.77
1741604505.563,887.695,999.512,-43.945,828.125
1741604505.567,982.422,882.324,-20.996,987.305
1741604505.571,897.461,944.824,-16.113,921.875
1741604505.575,999.512,999.512,-30.273,979.98
1741604505.579,-225.098,-52.734,-4.395,-399.414
1741604505.583,-1000.0,-1000.0,9.766,-1000.0
1741604505.586,-1000.0,-1000.0,44.922,-1000.0
1741604505.59,-716.797,-198.242,78.613,-671.875
1741604505.594,828.125,999.512,61.035,867.676
1741604505.598,987.305,862.793,39.551,936.035
1741604505.602,-475.586,-503.418,21.973,-543.457
1741604505.604,-1000.0,-1000.0,42.48,-1000.0
1741604505.608,-816.406,-719.727,55.176,-850.586
1741604505.612,493.652,593.262,1.953,510.742
1741604505.616,999.512,999.512,-30.273,999.512
1741604505.62,228.516,209.961,-16.602,-133.301
1741604505.624,-1000.0,-1000.0,16.113,-1000.0
1741604505.628,-894.531,-712.891,35.645,-858.398
1741604505.631,542.969,744.629,11.23,545.898
1741604505.635,999.512,999.512,-0.488,999.512
1741604505.639,164.062,-127.93,5.371,-40.527
1741604505.643,-1000.0,-1000.0,24.414,-1000.0
1741604505.647,-902.344,-827.148,59.57,-868.652
1741604505.604,-1000.0,-1000.0,42.48,-1000.0
1741604505.608,-816.406,-719.727,55.176,-850.586
1741604505.612,493.652,593.262,1.953,510.742
1741604505.616,999.512,999.512,-30.273,999.512
1741604505.62,228.516,209.961,-16.602,-133.301
1741604505.624,-1000.0,-1000.0,16.113,-1000.0
1741604505.628,-894.531,-712.891,35.645,-858.398
1741604505.631,542.969,744.629,11.23,545.898
1741604505.635,999.512,999.512,-0.488,999.512
1741604505.639,164.062,-127.93,5.371,-40.527
1741604505.643,-1000.0,-1000.0,24.414,-1000.0
1741604505.647,-902.344,-827.148,59.57,-868.652
1741604505.649,478.027,512.695,83.496,473.633
1741604505.653,999.512,999.512,60.059,999.512
1741604505.657,828.613,806.641,43.945,784.18
1741604505.661,-607.422,-664.062,58.594,-666.504
1741604505.665,-1000.0,-1000.0,89.355,-1000.0
1741604505.669,426.27,623.535,104.004,477.051
1741604505.673,999.512,999.512,88.379,999.512
1741604505.676,417.969,-286.133,65.918,296.387
1741604505.68,-959.473,-1000.0,72.266,-1000.0
1741604505.684,-997.07,-861.328,106.934,-944.336
1741604505.688,491.699,514.648,125.977,538.574
1741604505.692,999.512,999.512,113.281,999.512
1741604505.71,908.691,904.297,83.496,909.18
1741604505.714,918.945,904.785,90.82,921.387
1741604505.718,999.512,988.77,120.605,999.512
1741604505.722,833.984,287.598,117.188,838.379
1741604505.726,-643.555,-901.367,89.844,-631.348
1741604505.73,-1000.0,-1000.0,107.91,-1000.0
1741604505.734,-1000.0,-497.07,114.746,-1000.0
1741604505.737,-666.016,761.719,142.578,-546.387
1741604505.741,774.902,999.512,165.039,833.008
1741604505.745,999.512,842.773,130.859,999.512
1741604505.749,84.961,-424.316,110.84,35.156
1741604505.753,-1000.0,-1000.0,111.816,-1000.0
1741604505.71,908.691,904.297,83.496,909.18
1741604505.714,918.945,904.785,90.82,921.387
1741604505.718,999.512,988.77,120.605,999.512
1741604505.722,833.984,287.598,117.188,838.379
1741604505.726,-643.555,-901.367,89.844,-631.348
1741604505.73,-1000.0,-1000.0,107.91,-1000.0
1741604505.734,-1000.0,-497.07,114.746,-1000.0
1741604505.737,-666.016,761.719,142.578,-546.387
1741604505.741,774.902,999.512,165.039,833.008
1741604505.745,999.512,842.773,130.859,999.512
1741604505.749,84.961,-424.316,110.84,35.156
1741604505.753,-1000.0,-1000.0,111.816,-1000.0
1741604505.754,-877.441,-806.641,159.18,-863.77
1741604505.758,485.84,544.922,188.965,491.211
1741604505.762,999.512,999.512,159.18,999.512
1741604505.766,814.453,52.734,136.23,764.648
1741604505.77,-666.992,-1000.0,136.719,-719.238
1741604505.774,-1000.0,-623.535,152.832,-1000.0
1741604505.778,592.285,888.184,153.809,606.445
1741604505.781,999.512,950.684,104.492,999.512
1741604505.785,-14.648,-597.168,82.52,-88.379
1741604505.789,-986.328,-1000.0,88.379,-995.117
1741604505.793,-1000.0,-1000.0,128.418,-1000.0
1741604505.797,-743.652,-690.918,156.25,-683.105
1741604505.754,-877.441,-806.641,159.18,-863.77
1741604505.758,485.84,544.922,188.965,491.211
1741604505.762,999.512,999.512,159.18,999.512
1741604505.766,814.453,52.734,136.23,764.648
1741604505.77,-666.992,-1000.0,136.719,-719.238
1741604505.774,-1000.0,-623.535,152.832,-1000.0
1741604505.778,592.285,888.184,153.809,606.445
1741604505.781,999.512,950.684,104.492,999.512
1741604505.785,-14.648,-597.168,82.52,-88.379
1741604505.789,-986.328,-1000.0,88.379,-995.117
1741604505.793,-1000.0,-1000.0,128.418,-1000.0
1741604505.797,-743.652,-690.918,156.25,-683.105
1741604505.784,622.559,719.727,131.348,704.59
1741604505.788,999.512,999.512,97.656,999.512
1741604505.792,474.121,320.801,89.844,186.035
1741604505.796,-887.207,-983.887,109.375,-989.746
1741604505.8,-1000.0,-1000.0,133.789,-1000.0
1741604505.804,273.926,528.809,125.488,314.453
1741604505.808,999.512,999.512,96.68,999.512
1741604505.811,-121.582,-512.695,80.078,-227.051
1741604505.815,-1000.0,-1000.0,116.211,-1000.0
1741604505.819,-1000.0,-993.164,128.418,-1000.0
1741604505.823,-853.516,-842.773,102.539,-697.266
1741604505.827,514.648,556.152,74.707,631.348
1741604505.784,622.559,719.727,131.348,704.59
1741604505.788,999.512,999.512,97.656,999.512
1741604505.792,474.121,320.801,89.844,186.035
1741604505.796,-887.207,-983.887,109.375,-989.746
1741604505.8,-1000.0,-1000.0,133.789,-1000.0
1741604505.804,273.926,528.809,125.488,314.453
1741604505.808,999.512,999.512,96.68,999.512
1741604505.811,-121.582,-512.695,80.078,-227.051
1741604505.815,-1000.0,-1000.0,116.211,-1000.0
1741604505.819,-1000.0,-993.164,128.418,-1000.0
1741604505.823,-853.516,-842.773,102.539,-697.266
1741604505.827,514.648,556.152,74.707,631.348
1741604505.829,999.512,999.512,83.984,999.512
1741604505.833,782.715,770.02,124.023,679.688
1741604505.837,-581.543,-535.156,150.879,-670.41
1741604505.841,-1000.0,-1000.0,148.438,-1000.0
1741604505.845,-939.453,-950.195,152.344,-947.266
1741604505.849,-967.285,511.23,174.316,-964.844
1741604505.853,-1000.0,999.512,187.5,-1000.0
1741604505.856,-953.613,-587.891,178.711,-933.105
1741604505.86,437.5,251.465,170.898,444.824
1741604505.864,999.512,999.512,238.77,999.512
1741604505.868,987.793,945.312,325.195,919.922
1741604505.872,-49.805,-156.738,338.867,-288.574
1741604505.829,999.512,999.512,83.984,999.512
1741604505.833,782.715,770.02,124.023,679.688
1741604505.837,-581.543,-535.156,150.879,-670.41
1741604505.841,-1000.0,-1000.0,148.438,-1000.0
1741604505.845,-939.453,-950.195,152.344,-947.266
1741604505.849,-967.285,511.23,174.316,-964.844
1741604505.853,-1000.0,999.512,187.5,-1000.0
1741604505.856,-953.613,-587.891,178.711,-933.105
1741604505.86,437.5,251.465,170.898,444.824
1741604505.864,999.512,999.512,238.77,999.512
1741604505.868,987.793,945.312,325.195,919.922
1741604505.872,-49.805,-156.738,338.867,-288.574
1741604505.889,-1000.0,-1000.0,335.938,-1000.0
1741604505.893,-1000.0,-1000.0,353.027,-1000.0
1741604505.897,-857.91,-168.457,364.258,-852.051
1741604505.901,603.516,997.559,367.188,625.488
1741604505.905,999.512,901.855,358.887,999.512
1741604505.909,934.57,998.535,394.043,932.617
1741604505.913,908.203,848.633,384.766,919.922
1741604505.916,-560.059,-635.742,329.102,-538.086
1741604505.92,-1000.0,-1000.0,326.66,-1000.0
1741604505.924,-979.492,-999.512,310.059,-979.98
1741604505.928,-889.16,-809.082,326.172,-888.184
1741604505.932,505.859,593.75,341.797,503.906
1741604505.889,-1000.0,-1000.0,335.938,-1000.0
1741604505.893,-1000.0,-1000.0,353.027,-1000.0
1741604505.897,-857.91,-168.457,364.258,-852.051
1741604505.901,603.516,997.559,367.188,625.488
1741604505.905,999.512,901.855,358.887,999.512
1741604505.909,934.57,998.535,394.043,932.617
1741604505.913,908.203,848.633,384.766,919.922
1741604505.916,-560.059,-635.742,329.102,-538.086
1741604505.92,-1000.0,-1000.0,326.66,-1000.0
1741604505.924,-979.492,-999.512,310.059,-979.98
1741604505.928,-889.16,-809.082,326.172,-888.184
1741604505.932,505.859,593.75,341.797,503.906
1741604505.934,999.512,999.512,297.363,999.512
1741604505.938,765.625,775.879,256.836,732.91
1741604505.942,-508.789,-574.707,231.445,-555.664
1741604505.946,-1000.0,-1000.0,258.789,-1000.0
1741604505.95,-624.512,-40.527,296.387,-540.039
1741604505.954,825.195,999.512,283.203,874.512
1741604505.958,989.258,838.379,248.047,941.895
1741604505.961,-463.867,-516.602,214.844,-510.254
1741604505.965,-1000.0,-1000.0,198.73,-1000.0
1741604505.969,-799.805,-753.906,198.242,-799.316
1741604505.973,486.328,532.715,195.312,495.605
1741604505.977,999.512,999.512,192.871,999.512
1741604505.934,999.512,999.512,297.363,999.512
1741604505.938,765.625,775.879,256.836,732.91
1741604505.942,-508.789,-574.707,231.445,-555.664
1741604505.946,-1000.0,-1000.0,258.789,-1000.0
1741604505.95,-624.512,-40.527,296.387,-540.039
1741604505.954,825.195,999.512,283.203,874.512
1741604505.958,989.258,838.379,248.047,941.895
1741604505.961,-463.867,-516.602,214.844,-510.254
1741604505.965,-1000.0,-1000.0,198.73,-1000.0
1741604505.969,-799.805,-753.906,198.242,-799.316
1741604505.973,486.328,532.715,195.312,495.605
1741604505.977,999.512,999.512,192.871,999.512
1741604505.979,741.211,691.895,199.707,536.621
1741604505.983,-718.262,-800.781,195.801,-856.445
1741604505.987,-1000.0,-956.055,195.801,-986.816
1741604505.991,443.359,582.031,183.105,474.609
1741604505.995,999.512,999.512,184.082,999.512
1741604505.999,775.879,840.82,203.613,755.859
1741604506.003,-520.02,-574.707,178.223,-563.965
1741604506.006,-1000.0,-1000.0,141.113,-1000.0
1741604506.01,-402.832,378.418,133.301,-249.512
1741604506.014,986.328,999.512,120.117,999.512
1741604506.018,811.035,600.098,88.379,681.641
1741604506.022,-641.602,-696.777,95.703,-724.609
1741604506.024,-1000.0,-1000.0,152.832,-1000.0
1741604506.028,-729.492,-656.25,159.18,-630.859
1741604506.032,577.637,665.039,132.812,690.918
1741604506.036,999.512,999.512,113.77,999.512
1741604506.04,364.258,228.516,96.68,17.09
1741604506.044,-928.711,-977.051,74.219,-1000.0
1741604506.048,-1000.0,-1000.0,22.461,-989.746
1741604506.051,-924.805,-917.48,-50.293,-956.543
1741604506.055,-999.023,-1000.0,-56.641,-982.91
1741604506.059,-1000.0,-968.262,-20.508,-1000.0
1741604506.063,204.59,407.715,13.672,96.68
1741604506.067,999.512,999.512,32.715,999.512
1741604506.024,-1000.0,-1000.0,152.832,-1000.0
1741604506.028,-729.492,-656.25,159.18,-630.859
1741604506.032,577.637,665.039,132.812,690.918
1741604506.036,999.512,999.512,113.77,999.512
1741604506.04,364.258,228.516,96.68,17.09
1741604506.044,-928.711,-977.051,74.219,-1000.0
1741604506.048,-1000.0,-1000.0,22.461,-989.746
1741604506.051,-924.805,-917.48,-50.293,-956.543
1741604506.055,-999.023,-1000.0,-56.641,-982.91
1741604506.059,-1000.0,-968.262,-20.508,-1000.0
1741604506.063,204.59,407.715,13.672,96.68
1741604506.067,999.512,999.512,32.715,999.512
1741604506.069,999.512,991.211,40.039,999.512
1741604506.073,564.941,110.352,43.945,364.258
1741604506.077,-815.43,-983.887,36.621,-893.555
1741604506.081,-1000.0,-1000.0,63.477,-1000.0
1741604506.085,-846.191,-881.348,87.402,-876.953
1741604506.089,510.254,570.312,77.148,550.781
1741604506.093,999.512,999.512,71.777,999.512
1741604506.096,-89.355,-333.496,71.289,-340.82
1741604506.1,-1000.0,-1000.0,78.125,-1000.0
1741604506.104,-976.562,-907.227,57.129,-957.031
1741604506.108,-915.527,-998.047,30.762,-933.105
1741604506.112,-1000.0,-1000.0,50.781,-1000.0
1741604506.114,-543.945,218.262,82.031,-712.891
1741604506.118,805.664,999.512,102.051,679.199
1741604506.122,999.512,989.746,117.188,999.512
1741604506.126,786.133,270.996,97.168,740.723
1741604506.13,-524.902,-1000.0,59.57,-561.035
1741604506.134,-1000.0,-917.48,81.055,-1000.0
1741604506.138,-814.941,496.582,95.215,-797.363
1741604506.141,488.77,999.512,75.684,536.133
1741604506.145,999.512,885.742,59.57,999.512
1741604506.149,175.293,-401.855,50.781,13.672
1741604506.153,-937.5,-1000.0,50.293,-979.98
1741604506.157,-1000.0,-983.398,44.434,-1000.0
1741604506.114,-543.945,218.262,82.031,-712.891
1741604506.118,805.664,999.512,102.051,679.199
1741604506.122,999.512,989.746,117.188,999.512
1741604506.126,786.133,270.996,97.168,740.723
1741604506.13,-524.902,-1000.0,59.57,-561.035
1741604506.134,-1000.0,-917.48,81.055,-1000.0
1741604506.138,-814.941,496.582,95.215,-797.363
1741604506.141,488.77,999.512,75.684,536.133
1741604506.145,999.512,885.742,59.57,999.512
1741604506.149,175.293,-401.855,50.781,13.672
1741604506.153,-937.5,-1000.0,50.293,-979.98
1741604506.157,-1000.0,-983.398,44.434,-1000.0
1741604506.159,-883.789,-901.367,50.293,-906.738
1741604506.163,538.086,602.539,46.387,569.824
1741604506.167,999.512,999.512,25.879,999.512
1741604506.171,-229.98,-365.234,-0.977,-381.836
1741604506.175,-1000.0,-1000.0,4.395,-1000.0
1741604506.179,-860.352,99.609,48.34,-797.363
1741604506.183,725.098,999.512,22.461,731.934
1741604506.186,410.645,-499.023,-43.945,180.664
1741604506.19,-1000.0,-1000.0,-75.195,-1000.0
1741604506.194,-1000.0,-980.957,-83.984,-1000.0
1741604506.198,-844.238,-875.977,-77.637,-881.348
1741604506.202,467.285,511.719,-118.164,460.449
1741604506.159,-883.789,-901.367,50.293,-906.738
1741604506.163,538.086,602.539,46.387,569.824
1741604506.167,999.512,999.512,25.879,999.512
1741604506.171,-229.98,-365.234,-0.977,-381.836
1741604506.175,-1000.0,-1000.0,4.395,-1000.0
1741604506.179,-860.352,99.609,48.34,-797.363
1741604506.183,725.098,999.512,22.461,731.934
1741604506.186,410.645,-499.023,-43.945,180.664
1741604506.19,-1000.0,-1000.0,-75.195,-1000.0
1741604506.194,-1000.0,-980.957,-83.984,-1000.0
1741604506.198,-844.238,-875.977,-77.637,-881.348
1741604506.202,467.285,511.719,-118.164,460.449
1741604506.205,999.512,999.512,-173.34,999.512
1741604506.209,554.688,420.898,-252.93,351.074
1741604506.213,-764.648,-833.496,-332.031,-859.863
1741604506.217,-1000.0,-1000.0,-299.316,-1000.0
1741604506.221,-752.93,-734.863,-285.156,-747.07
1741604506.225,560.547,677.246,-306.641,615.723
1741604506.229,999.512,987.793,-295.41,999.512
1741604506.232,-184.57,-511.719,-261.719,-298.34
1741604506.236,-1000.0,-1000.0,-220.703,-1000.0
1741604506.24,-834.961,-803.711,-213.867,-735.352
1741604506.244,582.52,510.254,-233.398,651.367
1741604506.248,999.512,999.512,-247.559,999.512
1741604506.205,999.512,999.512,-173.34,999.512
1741604506.209,554.688,420.898,-252.93,351.074
1741604506.213,-764.648,-833.496,-332.031,-859.863
1741604506.217,-1000.0,-1000.0,-299.316,-1000.0
1741604506.221,-752.93,-734.863,-285.156,-747.07
1741604506.225,560.547,677.246,-306.641,615.723
1741604506.229,999.512,987.793,-295.41,999.512
1741604506.232,-184.57,-511.719,-261.719,-298.34
1741604506.236,-1000.0,-1000.0,-220.703,-1000.0
1741604506.24,-834.961,-803.711,-213.867,-735.352
1741604506.244,582.52,510.254,-233.398,651.367
1741604506.248,999.512,999.512,-247.559,999.512
1741604506.264,999.512,869.629,-202.148,998.047
1741604506.268,620.605,-407.715,-143.555,469.727
1741604506.272,-851.074,-1000.0,-115.234,-901.367
1741604506.276,-1000.0,-920.898,-110.352,-983.398
1741604506.28,-1000.0,-907.715,-124.023,-1000.0
1741604506.284,-260.742,443.848,-104.98,-336.914
1741604506.288,999.512,999.512,-74.219,951.172
1741604506.291,894.043,233.887,-61.035,930.664
1741604506.295,999.512,333.496,-74.219,999.512
1741604506.299,476.562,276.367,-101.562,232.91
1741604506.303,-1000.0,-1000.0,-85.449,-1000.0
1741604506.307,-907.715,-680.176,-58.105,-875.488
1741604506.309,570.801,714.844,-64.941,544.922
1741604506.313,999.512,999.512,-79.102,999.512
1741604506.317,947.266,867.188,-77.148,929.199
1741604506.321,-349.609,-588.379,-85.938,-405.273
1741604506.325,-1000.0,-1000.0,-59.57,-1000.0
1741604506.329,317.383,515.625,-9.766,381.348
1741604506.333,999.512,999.512,-33.203,999.512
1741604506.336,817.871,139.648,-66.406,807.129
1741604506.34,-581.543,-1000.0,-46.875,-619.141
1741604506.344,-1000.0,-999.512,-18.066,-1000.0
1741604506.348,303.223,392.09,-4.395,407.227
1741604506.352,999.512,999.512,-44.922,999.512
1741604506.354,900.879,905.762,-88.867,897.461
1741604506.358,969.238,997.559,-63.965,974.121
1741604506.362,966.309,-487.305,-29.297,967.285
1741604506.366,972.656,-1000.0,-48.34,970.703
1741604506.37,932.129,534.668,-51.758,941.895
1741604506.374,976.562,999.512,-2.93,955.078
1741604506.378,859.375,695.801,49.805,929.199
1741604506.381,-370.117,-528.809,117.188,-211.914
1741604506.385,-1000.0,-1000.0,178.711,-1000.0
1741604506.389,-926.758,-946.289,210.938,-713.867
1741604506.393,499.512,443.359,223.633,731.934
1741604506.397,999.512,999.512,249.023,976.074
1741604506.354,900.879,905.762,-88.867,897.461
1741604506.358,969.238,997.559,-63.965,974.121
1741604506.362,966.309,-487.305,-29.297,967.285
1741604506.366,972.656,-1000.0,-48.34,970.703
1741604506.37,932.129,534.668,-51.758,941.895
1741604506.374,976.562,999.512,-2.93,955.078
1741604506.378,859.375,695.801,49.805,929.199
1741604506.381,-370.117,-528.809,117.188,-211.914
1741604506.385,-1000.0,-1000.0,178.711,-1000.0
1741604506.389,-926.758,-946.289,210.938,-713.867
1741604506.393,499.512,443.359,223.633,731.934
1741604506.397,999.512,999.512,249.023,976.074
1741604506.399,-540.039,-510.742,285.156,-603.516
1741604506.403,-1000.0,-1000.0,312.012,-1000.0
1741604506.407,-926.758,-932.129,304.199,-926.27
1741604506.411,-1000.0,-990.723,243.652,-1000.0
1741604506.415,-1000.0,-995.605,238.281,-1000.0
1741604506.419,-1000.0,-1000.0,290.039,-1000.0
1741604506.423,-1000.0,-54.199,299.316,-1000.0
1741604506.426,-1000.0,-207.031,253.906,-1000.0
1741604506.43,-1000.0,-1000.0,226.074,-1000.0
1741604506.434,-1000.0,-962.402,253.906,-1000.0
1741604506.438,-1000.0,-994.141,279.785,-1000.0
1741604506.442,-1000.0,-1000.0,301.27,-1000.0
1741604506.399,-540.039,-510.742,285.156,-603.516
1741604506.403,-1000.0,-1000.0,312.012,-1000.0
1741604506.407,-926.758,-932.129,304.199,-926.27
1741604506.411,-1000.0,-990.723,243.652,-1000.0
1741604506.415,-1000.0,-995.605,238.281,-1000.0
1741604506.419,-1000.0,-1000.0,290.039,-1000.0
1741604506.423,-1000.0,-54.199,299.316,-1000.0
1741604506.426,-1000.0,-207.031,253.906,-1000.0
1741604506.43,-1000.0,-1000.0,226.074,-1000.0
1741604506.434,-1000.0,-962.402,253.906,-1000.0
1741604506.438,-1000.0,-994.141,279.785,-1000.0
1741604506.442,-1000.0,-1000.0,301.27,-1000.0
1741604506.444,-1000.0,-1000.0,313.965,-1000.0
1741604506.448,-1000.0,-1000.0,275.391,-1000.0
1741604506.452,-1000.0,-1000.0,270.02,-1000.0
1741604506.456,-1000.0,-926.27,299.316,-1000.0
1741604506.46,-1000.0,-1000.0,349.121,-1000.0
1741604506.464,-1000.0,-393.555,360.84,-1000.0
1741604506.468,-1000.0,749.512,328.125,-1000.0
1741604506.471,-1000.0,-579.59,320.312,-1000.0
1741604506.475,-1000.0,-1000.0,312.988,-1000.0
1741604506.479,-1000.0,-913.574,330.566,-1000.0
1741604506.483,-1000.0,-1000.0,365.723,-1000.0
1741604506.487,-1000.0,-1000.0,352.539,-1000.0
1741604506.444,-1000.0,-1000.0,313.965,-1000.0
1741604506.448,-1000.0,-1000.0,275.391,-1000.0
1741604506.452,-1000.0,-1000.0,270.02,-1000.0
1741604506.456,-1000.0,-926.27,299.316,-1000.0
1741604506.46,-1000.0,-1000.0,349.121,-1000.0
1741604506.464,-1000.0,-393.555,360.84,-1000.0
1741604506.468,-1000.0,749.512,328.125,-1000.0
1741604506.471,-1000.0,-579.59,320.312,-1000.0
1741604506.475,-1000.0,-1000.0,312.988,-1000.0
1741604506.479,-1000.0,-913.574,330.566,-1000.0
1741604506.483,-1000.0,-1000.0,365.723,-1000.0
1741604506.487,-1000.0,-1000.0,352.539,-1000.0
1741604506.491,-1000.0,-1000.0,337.891,-1000.0
1741604506.495,-1000.0,-1000.0,328.613,-1000.0
1741604506.499,-1000.0,-987.305,323.242,-1000.0
1741604506.503,-1000.0,-949.707,320.801,-1000.0
1741604506.507,-1000.0,-1000.0,295.898,-1000.0
1741604506.511,-1000.0,-25.879,283.691,-1000.0
1741604506.515,-1000.0,907.227,285.156,-1000.0
1741604506.518,-1000.0,-618.164,288.086,-1000.0
1741604506.522,-1000.0,-1000.0,320.312,-1000.0
1741604506.526,-1000.0,-901.855,324.707,-1000.0
1741604506.53,-939.941,-988.77,291.016,-1000.0
1741604506.534,-1000.0,-1000.0,254.883,-1000.0
1741604506.491,-1000.0,-1000.0,337.891,-1000.0
1741604506.495,-1000.0,-1000.0,328.613,-1000.0
1741604506.499,-1000.0,-987.305,323.242,-1000.0
1741604506.503,-1000.0,-949.707,320.801,-1000.0
1741604506.507,-1000.0,-1000.0,295.898,-1000.0
1741604506.511,-1000.0,-25.879,283.691,-1000.0
1741604506.515,-1000.0,907.227,285.156,-1000.0
1741604506.518,-1000.0,-618.164,288.086,-1000.0
1741604506.522,-1000.0,-1000.0,320.312,-1000.0
1741604506.526,-1000.0,-901.855,324.707,-1000.0
1741604506.53,-939.941,-988.77,291.016,-1000.0
1741604506.534,-1000.0,-1000.0,254.883,-1000.0
1741604506.538,-861.328,5.371,255.859,-950.684
1741604506.542,617.188,999.512,278.32,-1000.0
1741604506.546,999.512,856.934,240.234,-431.152
1741604506.55,970.703,999.512,198.242,980.469
1741604506.554,791.992,669.434,164.062,499.512
1741604506.558,-888.672,-862.305,141.113,-1000.0
1741604506.562,-708.008,-1.953,129.883,-539.062
1741604506.565,900.391,999.512,91.797,922.363
1741604506.569,999.512,810.547,33.203,997.07
1741604506.573,906.738,-604.004,-22.949,915.527
1741604506.577,999.023,-1000.0,-42.48,981.445
1741604506.581,908.691,197.266,-50.293,966.797
1741604506.579,999.512,999.512,-68.848,966.797
1741604506.583,866.211,633.789,-110.84,966.797
1741604506.587,-554.199,-805.664,-138.184,966.797
1741604506.591,-1000.0,-1000.0,-136.23,966.797
1741604506.595,-18.555,487.305,-93.262,983.398
1741604506.599,956.543,999.512,-40.527,909.18
1741604506.603,995.117,970.703,-20.508,999.512
1741604506.606,843.75,777.832,-38.086,903.809
1741604506.61,-609.375,-750.0,-93.262,-623.535
1741604506.614,-1000.0,-1000.0,-92.285,-1000.0
1741604506.618,306.152,369.629,-92.285,515.137
1741604506.622,999.512,999.512,-142.578,999.512
1741604506.639,999.023,927.734,-167.48,980.469
1741604506.643,626.953,-32.715,-142.578,754.395
1741604506.647,-978.027,-1000.0,-106.934,-898.438
1741604506.651,-793.945,-597.168,-73.73,-572.266
1741604506.655,795.898,750.977,-76.66,946.777
1741604506.659,999.512,999.512,-82.52,988.77
1741604506.663,898.438,814.941,-85.938,917.48
1741604506.666,983.887,-619.629,-60.059,980.469
1741604506.67,966.309,-30.273,-40.039,967.285
1741604506.674,966.309,999.512,-74.707,967.285
1741604506.678,966.309,796.875,-70.312,966.797
1741604506.682,966.309,-561.035,-59.082,966.797
1741604506.684,966.309,-1000.0,-75.684,966.797
1741604506.688,966.309,-992.188,-88.867,966.797
1741604506.692,966.309,20.508,-90.82,966.797
1741604506.696,982.422,999.512,-90.332,975.586
1741604506.7,908.691,871.094,-88.379,936.035
1741604506.704,999.512,997.07,-122.559,944.824
1741604506.708,914.551,903.809,-170.41,999.512
1741604506.711,-651.855,-671.387,-153.32,-309.082
1741604506.715,-1000.0,-1000.0,-46.875,-1000.0
1741604506.719,638.184,653.32,50.293,638.184
1741604506.723,999.512,999.512,83.008,999.512
1741604506.727,891.602,968.262,123.047,891.602
1741604506.729,982.422,868.164,185.059,982.91
1741604506.733,966.309,-684.082,231.934,967.285
1741604506.737,966.309,-48.828,253.906,967.285
1741604506.741,966.309,999.512,229.004,966.797
1741604506.745,966.309,923.828,199.219,966.797
1741604506.749,966.309,904.297,203.613,966.797
1741604506.753,966.309,999.512,193.848,966.797
1741604506.756,966.309,877.441,185.547,966.797
1741604506.76,966.309,-483.398,183.594,966.797
1741604506.764,966.309,-1000.0,195.312,967.285
1741604506.768,966.309,-516.113,229.98,966.797
1741604506.772,966.309,806.152,252.441,966.797
1741604506.729,982.422,868.164,185.059,982.91
1741604506.733,966.309,-684.082,231.934,967.285
1741604506.737,966.309,-48.828,253.906,967.285
1741604506.741,966.309,999.512,229.004,966.797
1741604506.745,966.309,923.828,199.219,966.797
1741604506.749,966.309,904.297,203.613,966.797
1741604506.753,966.309,999.512,193.848,966.797
1741604506.756,966.309,877.441,185.547,966.797
1741604506.76,966.309,-483.398,183.594,966.797
1741604506.764,966.309,-1000.0,195.312,967.285
1741604506.768,966.309,-516.113,229.98,966.797
1741604506.772,966.309,806.152,252.441,966.797
1741604506.775,966.309,961.914,253.418,966.797
1741604506.779,966.309,989.746,220.703,967.285
1741604506.783,966.309,739.746,186.035,966.797
1741604506.787,966.309,-865.723,205.566,966.797
1741604506.791,966.309,-492.188,234.375,967.285
1741604506.795,966.309,929.688,270.508,966.797
1741604506.799,966.309,999.512,289.551,966.797
1741604506.802,966.309,202.637,239.746,966.797
1741604506.806,966.309,-1000.0,225.586,966.797
1741604506.81,966.309,-480.957,230.469,966.797
1741604506.814,966.309,912.109,206.055,966.797
1741604506.818,966.309,996.094,190.43,966.797
1741604506.775,966.309,961.914,253.418,966.797
1741604506.779,966.309,989.746,220.703,967.285
1741604506.783,966.309,739.746,186.035,966.797
1741604506.787,966.309,-865.723,205.566,966.797
1741604506.791,966.309,-492.188,234.375,967.285
1741604506.795,966.309,929.688,270.508,966.797
1741604506.799,966.309,999.512,289.551,966.797
1741604506.802,966.309,202.637,239.746,966.797
1741604506.806,966.309,-1000.0,225.586,966.797
1741604506.81,966.309,-480.957,230.469,966.797
1741604506.814,966.309,912.109,206.055,966.797
1741604506.818,966.309,996.094,190.43,966.797
1741604506.835,966.309,917.969,173.828,966.797
1741604506.839,966.309,980.469,191.895,966.797
1741604506.843,966.309,967.285,213.379,966.797
1741604506.847,966.309,966.797,216.309,966.797
1741604506.851,966.309,966.797,220.703,967.285
1741604506.855,966.309,967.285,171.875,966.797
1741604506.859,965.82,966.797,118.164,966.797
1741604506.862,966.309,966.797,145.996,966.797
1741604506.866,966.309,966.797,151.367,966.797
1741604506.87,966.309,966.797,131.348,966.797
1741604506.874,966.309,966.797,108.887,966.797
1741604506.878,966.309,966.797,69.336,966.797
1741604506.835,966.309,917.969,173.828,966.797
1741604506.839,966.309,980.469,191.895,966.797
1741604506.843,966.309,967.285,213.379,966.797
1741604506.847,966.309,966.797,216.309,966.797
1741604506.851,966.309,966.797,220.703,967.285
1741604506.855,966.309,967.285,171.875,966.797
1741604506.859,965.82,966.797,118.164,966.797
1741604506.862,966.309,966.797,145.996,966.797
1741604506.866,966.309,966.797,151.367,966.797
1741604506.87,966.309,966.797,131.348,966.797
1741604506.874,966.309,966.797,108.887,966.797
1741604506.878,966.309,966.797,69.336,966.797
1741604506.879,966.309,967.285,67.871,966.797
1741604506.883,966.309,966.797,104.004,966.797
1741604506.887,966.309,966.797,108.887,966.797
1741604506.891,966.309,966.797,57.129,967.285
1741604506.895,966.309,966.797,24.414,966.797
1741604506.899,966.309,966.797,63.965,966.797
1741604506.903,966.309,967.285,137.207,966.797
1741604506.906,966.309,967.285,169.434,966.797
1741604506.91,966.309,966.797,136.719,966.797
1741604506.914,966.309,966.797,90.82,966.797
1741604506.918,966.309,968.262,82.031,966.797
1741604506.922,966.309,975.586,109.375,966.797
1741604506.924,966.309,905.762,120.117,966.797
1741604506.928,966.309,999.512,69.824,966.797
1741604506.932,966.309,534.668,4.395,966.797
1741604506.936,965.82,-897.949,-19.531,966.797
1741604506.94,966.309,-1000.0,-43.945,966.797
1741604506.944,966.309,562.5,-45.898,966.797
1741604506.948,966.309,999.512,-66.406,966.797
1741604506.951,966.309,-608.398,-102.539,966.797
1741604506.955,978.027,-1000.0,-132.324,966.797
1741604506.959,924.805,-925.781,-140.625,966.797
1741604506.963,980.957,-1000.0,-135.742,981.934
1741604506.967,965.332,-1000.0,-168.457,914.062
1741604506.924,966.309,905.762,120.117,966.797
1741604506.928,966.309,999.512,69.824,966.797
1741604506.932,966.309,534.668,4.395,966.797
1741604506.936,965.82,-897.949,-19.531,966.797
1741604506.94,966.309,-1000.0,-43.945,966.797
1741604506.944,966.309,562.5,-45.898,966.797
1741604506.948,966.309,999.512,-66.406,966.797
1741604506.951,966.309,-608.398,-102.539,966.797
1741604506.955,978.027,-1000.0,-132.324,966.797
1741604506.959,924.805,-925.781,-140.625,966.797
1741604506.963,980.957,-1000.0,-135.742,981.934
1741604506.967,965.332,-1000.0,-168.457,914.062
1741604506.969,-399.414,-1000.0,-210.938,999.512
1741604506.973,-1000.0,-1000.0,-234.375,893.555
1741604506.977,-928.711,-1000.0,-262.207,-538.574
1741604506.981,-1000.0,-1000.0,-273.926,-1000.0
1741604506.985,-1000.0,-1000.0,-264.16,-925.781
1741604506.989,-1000.0,-1000.0,-322.266,-1000.0
1741604506.993,-1000.0,-1000.0,-398.438,-1000.0
1741604506.996,-1000.0,-1000.0,-422.363,-1000.0
1741604507.0,-1000.0,-1000.0,-422.852,-1000.0
1741604507.004,-1000.0,-1000.0,-383.301,-1000.0
1741604507.008,-1000.0,-1000.0,-348.145,-1000.0
1741604507.012,-1000.0,-1000.0,-262.207,-1000.0
1741604506.969,-399.414,-1000.0,-210.938,999.512
1741604506.973,-1000.0,-1000.0,-234.375,893.555
1741604506.977,-928.711,-1000.0,-262.207,-538.574
1741604506.981,-1000.0,-1000.0,-273.926,-1000.0
1741604506.985,-1000.0,-1000.0,-264.16,-925.781
1741604506.989,-1000.0,-1000.0,-322.266,-1000.0
1741604506.993,-1000.0,-1000.0,-398.438,-1000.0
1741604506.996,-1000.0,-1000.0,-422.363,-1000.0
1741604507.0,-1000.0,-1000.0,-422.852,-1000.0
1741604507.004,-1000.0,-1000.0,-383.301,-1000.0
1741604507.008,-1000.0,-1000.0,-348.145,-1000.0
1741604507.012,-1000.0,-1000.0,-262.207,-1000.0
1741604507.014,-1000.0,-1000.0,-155.273,-1000.0
1741604507.018,-1000.0,-1000.0,-76.172,-1000.0
1741604507.022,-1000.0,-1000.0,-40.527,-1000.0
1741604507.026,-1000.0,-1000.0,-74.707,-1000.0
1741604507.03,-1000.0,-1000.0,-119.629,-1000.0
1741604507.034,-1000.0,-1000.0,-180.176,-1000.0
1741604507.038,-1000.0,-1000.0,-261.23,-1000.0
1741604507.041,-1000.0,-1000.0,-376.465,-1000.0
1741604507.045,-1000.0,-1000.0,-590.332,-1000.0
1741604507.049,-1000.0,-1000.0,-596.191,-1000.0
1741604507.053,-1000.0,-1000.0,-330.078,-1000.0
1741604507.057,-1000.0,-1000.0,-77.148,-1000.0
1741604507.059,-1000.0,-1000.0,56.641,-1000.0
1741604507.063,-1000.0,-1000.0,30.762,-1000.0
1741604507.067,-1000.0,-945.312,-15.625,-1000.0
1741604507.071,-1000.0,-1000.0,-1.465,-1000.0
1741604507.075,-1000.0,-380.859,42.969,-1000.0
1741604507.079,-1000.0,947.754,68.848,-1000.0
1741604507.083,-1000.0,972.656,22.949,-1000.0
1741604507.086,-1000.0,-348.633,-42.969,-1000.0
1741604507.09,-1000.0,-1000.0,-35.156,-1000.0
1741604507.094,-1000.0,-479.492,50.781,-1000.0
1741604507.098,-1000.0,831.543,129.395,-1000.0
1741604507.102,-1000.0,999.512,179.199,-1000.0
1741604507.059,-1000.0,-1000.0,56.641,-1000.0
1741604507.063,-1000.0,-1000.0,30.762,-1000.0
1741604507.067,-1000.0,-945.312,-15.625,-1000.0
1741604507.071,-1000.0,-1000.0,-1.465,-1000.0
1741604507.075,-1000.0,-380.859,42.969,-1000.0
1741604507.079,-1000.0,947.754,68.848,-1000.0
1741604507.083,-1000.0,972.656,22.949,-1000.0
1741604507.086,-1000.0,-348.633,-42.969,-1000.0
1741604507.09,-1000.0,-1000.0,-35.156,-1000.0
1741604507.094,-1000.0,-479.492,50.781,-1000.0
1741604507.098,-1000.0,831.543,129.395,-1000.0
1741604507.102,-1000.0,999.512,179.199,-1000.0
1741604507.105,-1000.0,914.062,171.875,-1000.0
1741604507.109,-1000.0,981.445,97.168,-1000.0
1741604507.113,-1000.0,967.285,77.148,-1000.0
1741604507.117,-930.664,967.285,118.164,-1000.0
1741604507.121,-1000.0,967.285,105.957,-1000.0
1741604507.125,-666.992,967.285,43.457,-1000.0
1741604507.129,787.109,967.285,13.184,-1000.0
1741604507.132,999.512,967.285,3.906,-937.012
1741604507.136,903.809,967.285,-37.109,-1000.0
1741604507.14,982.91,967.285,-58.594,-800.781
1741604507.144,966.309,967.285,-55.664,658.691
1741604507.148,966.309,967.285,-75.684,999.512
1741604507.105,-1000.0,914.062,171.875,-1000.0
1741604507.109,-1000.0,981.445,97.168,-1000.0
1741604507.113,-1000.0,967.285,77.148,-1000.0
1741604507.117,-930.664,967.285,118.164,-1000.0
1741604507.121,-1000.0,967.285,105.957,-1000.0
1741604507.125,-666.992,967.285,43.457,-1000.0
1741604507.129,787.109,967.285,13.184,-1000.0
1741604507.132,999.512,967.285,3.906,-937.012
1741604507.136,903.809,967.285,-37.109,-1000.0
1741604507.14,982.91,967.285,-58.594,-800.781
1741604507.144,966.309,967.285,-55.664,658.691
1741604507.148,966.309,967.285,-75.684,999.512
1741604507.149,966.309,967.285,-95.215,896.973
1741604507.153,966.309,967.285,-62.988,983.398
1741604507.157,966.309,967.285,-32.227,966.797
1741604507.161,966.309,967.285,-62.5,967.285
1741604507.165,966.309,967.285,-80.078,967.285
1741604507.169,966.309,967.285,-50.781,967.285
1741604507.173,966.309,967.285,4.883,966.797
1741604507.176,966.309,967.285,38.574,966.797
1741604507.18,966.309,967.285,12.695,967.285
1741604507.184,966.309,971.68,-6.348,966.797
1741604507.188,966.309,959.961,-0.977,966.797
1741604507.192,966.309,917.969,3.418,967.285
1741604507.149,966.309,967.285,-95.215,896.973
1741604507.153,966.309,967.285,-62.988,983.398
1741604507.157,966.309,967.285,-32.227,966.797
1741604507.161,966.309,967.285,-62.5,967.285
1741604507.165,966.309,967.285,-80.078,967.285
1741604507.169,966.309,967.285,-50.781,967.285
1741604507.173,966.309,967.285,4.883,966.797
1741604507.176,966.309,967.285,38.574,966.797
1741604507.18,966.309,967.285,12.695,967.285
1741604507.184,966.309,971.68,-6.348,966.797
1741604507.188,966.309,959.961,-0.977,966.797
1741604507.192,966.309,917.969,3.418,967.285
1741604507.209,966.309,999.512,11.719,967.285
1741604507.213,966.309,211.426,-12.695,966.797
1741604507.217,966.309,-874.512,-22.461,966.797
1741604507.221,966.309,439.941,3.906,966.797
1741604507.225,966.309,999.512,34.668,966.797
1741604507.229,966.309,900.391,48.34,966.797
1741604507.233,966.309,922.363,22.949,966.797
1741604507.236,966.309,999.512,-27.832,966.797
1741604507.24,966.309,933.594,-16.602,966.797
1741604507.244,966.309,-687.012,22.461,967.285
1741604507.248,966.309,-703.613,33.203,966.797
1741604507.252,966.309,932.129,42.969,966.797
1741604507.209,966.309,999.512,11.719,967.285
1741604507.213,966.309,211.426,-12.695,966.797
1741604507.217,966.309,-874.512,-22.461,966.797
1741604507.221,966.309,439.941,3.906,966.797
1741604507.225,966.309,999.512,34.668,966.797
1741604507.229,966.309,900.391,48.34,966.797
1741604507.233,966.309,922.363,22.949,966.797
1741604507.236,966.309,999.512,-27.832,966.797
1741604507.24,966.309,933.594,-16.602,966.797
1741604507.244,966.309,-687.012,22.461,967.285
1741604507.248,966.309,-703.613,33.203,966.797
1741604507.252,966.309,932.129,42.969,966.797
1741604507.254,966.309,988.281,25.391,966.797
1741604507.258,966.309,660.156,5.371,966.797
1741604507.262,966.309,890.137,40.527,966.797
1741604507.266,966.309,999.512,89.355,966.797
1741604507.27,966.309,896.973,96.191,966.797
1741604507.274,966.309,996.582,59.57,966.797
1741604507.278,966.309,963.379,0.488,966.797
1741604507.281,966.309,-622.07,0.488,966.797
1741604507.285,966.309,-810.547,29.297,966.797
1741604507.289,966.309,828.613,6.836,966.797
1741604507.293,966.309,999.512,-8.301,966.797
1741604507.297,966.309,904.297,8.301,967.285
1741604507.254,966.309,988.281,25.391,966.797
1741604507.258,966.309,660.156,5.371,966.797
1741604507.262,966.309,890.137,40.527,966.797
1741604507.266,966.309,999.512,89.355,966.797
1741604507.27,966.309,896.973,96.191,966.797
1741604507.274,966.309,996.582,59.57,966.797
1741604507.278,966.309,963.379,0.488,966.797
1741604507.281,966.309,-622.07,0.488,966.797
1741604507.285,966.309,-810.547,29.297,966.797
1741604507.289,966.309,828.613,6.836,966.797
1741604507.293,966.309,999.512,-8.301,966.797
1741604507.297,966.309,904.297,8.301,967.285
1741604507.299,966.309,982.91,68.848,966.797
1741604507.303,966.309,966.797,118.164,966.797
1741604507.307,966.309,966.797,150.879,966.797
1741604507.311,966.309,966.797,176.758,966.797
1741604507.315,966.309,966.797,222.168,967.285
1741604507.319,966.309,966.797,296.387,966.797
1741604507.323,966.309,967.285,342.773,966.797
1741604507.326,966.309,967.285,335.938,966.797
1741604507.33,966.309,966.797,327.637,966.797
1741604507.334,966.309,966.797,354.004,966.797
1741604507.338,966.309,967.285,396.484,966.797
1741604507.342,966.309,966.797,407.715,966.797
1741604507.299,966.309,982.91,68.848,966.797
1741604507.303,966.309,966.797,118.164,966.797
1741604507.307,966.309,966.797,150.879,966.797
1741604507.311,966.309,966.797,176.758,966.797
1741604507.315,966.309,966.797,222.168,967.285
1741604507.319,966.309,966.797,296.387,966.797
1741604507.323,966.309,967.285,342.773,966.797
1741604507.326,966.309,967.285,335.938,966.797
1741604507.33,966.309,966.797,327.637,966.797
1741604507.334,966.309,966.797,354.004,966.797
1741604507.338,966.309,967.285,396.484,966.797
1741604507.342,966.309,966.797,407.715,966.797
1741604507.344,966.309,967.285,411.133,966.797
1741604507.348,966.309,967.285,437.012,966.797
1741604507.352,966.309,966.797,452.637,966.797
1741604507.356,966.309,966.797,467.773,966.797
1741604507.36,966.309,975.098,495.605,966.797
1741604507.364,966.309,938.477,493.652,966.797
1741604507.368,966.309,955.566,425.293,966.797
1741604507.371,966.309,999.512,334.473,966.797
1741604507.375,966.309,-137.695,284.18,966.797
1741604507.379,966.309,-1000.0,276.855,966.797
1741604507.383,966.309,-168.457,243.164,966.797
1741604507.387,966.309,836.426,187.012,966.797
1741604507.344,966.309,967.285,411.133,966.797
1741604507.348,966.309,967.285,437.012,966.797
1741604507.352,966.309,966.797,452.637,966.797
1741604507.356,966.309,966.797,467.773,966.797
1741604507.36,966.309,975.098,495.605,966.797
1741604507.364,966.309,938.477,493.652,966.797
1741604507.368,966.309,955.566,425.293,966.797
1741604507.371,966.309,999.512,334.473,966.797
1741604507.375,966.309,-137.695,284.18,966.797
1741604507.379,966.309,-1000.0,276.855,966.797
1741604507.383,966.309,-168.457,243.164,966.797
1741604507.387,966.309,836.426,187.012,966.797
1741604507.39,977.539,-604.492,125.0,967.285
1741604507.394,925.781,-1000.0,34.668,966.797
1741604507.398,979.492,-916.016,-26.855,966.797
1741604507.402,969.238,-1000.0,-56.152,967.285
1741604507.406,-387.695,-1000.0,-115.234,967.285
1741604507.41,-1000.0,-997.07,-131.348,966.797
1741604507.414,-929.688,-939.941,-96.68,967.285
1741604507.417,-1000.0,-1000.0,-42.969,972.656
1741604507.421,-1000.0,-235.84,-7.812,949.219
1741604507.425,-1000.0,935.547,-40.039,937.988
1741604507.429,-1000.0,-435.059,-94.727,999.512
1741604507.433,-1000.0,-1000.0,-138.184,-48.34
1741604507.434,-1000.0,-918.945,-170.41,-1000.0
1741604507.438,-1000.0,-1000.0,-201.172,-964.355
1741604507.442,-1000.0,-1000.0,-251.465,-987.305
1741604507.446,-1000.0,-1000.0,-295.898,-1000.0
1741604507.45,-1000.0,-1000.0,-330.566,-1000.0
1741604507.454,-1000.0,-1000.0,-338.867,-1000.0
1741604507.458,-1000.0,-1000.0,-349.121,-1000.0
1741604507.461,-1000.0,-1000.0,-413.086,-1000.0
1741604507.465,-1000.0,-1000.0,-458.984,-1000.0
1741604507.469,-1000.0,-1000.0,-480.957,-1000.0
1741604507.473,-1000.0,-1000.0,-495.605,-1000.0
1741604507.477,-1000.0,-1000.0,-512.207,-1000.0
1741604507.434,-1000.0,-918.945,-170.41,-1000.0
1741604507.438,-1000.0,-1000.0,-201.172,-964.355
1741604507.442,-1000.0,-1000.0,-251.465,-987.305
1741604507.446,-1000.0,-1000.0,-295.898,-1000.0
1741604507.45,-1000.0,-1000.0,-330.566,-1000.0
1741604507.454,-1000.0,-1000.0,-338.867,-1000.0
1741604507.458,-1000.0,-1000.0,-349.121,-1000.0
1741604507.461,-1000.0,-1000.0,-413.086,-1000.0
1741604507.465,-1000.0,-1000.0,-458.984,-1000.0
1741604507.469,-1000.0,-1000.0,-480.957,-1000.0
1741604507.473,-1000.0,-1000.0,-495.605,-1000.0
1741604507.477,-1000.0,-1000.0,-512.207,-1000.0
1741604507.479,-1000.0,-1000.0,-586.914,-1000.0
1741604507.483,-1000.0,-1000.0,-636.719,-1000.0
1741604507.487,-1000.0,-1000.0,-534.18,-1000.0
1741604507.491,-1000.0,-1000.0,-391.113,-1000.0
1741604507.495,-1000.0,-1000.0,-285.645,-1000.0
1741604507.499,-1000.0,-1000.0,-239.258,-1000.0
1741604507.503,-1000.0,-964.355,-264.648,-1000.0
1741604507.506,-1000.0,-1000.0,-267.578,-1000.0
1741604507.51,-1000.0,-1000.0,-234.863,-1000.0
1741604507.514,-1000.0,288.086,-190.918,-1000.0
1741604507.518,-1000.0,999.512,-163.086,-1000.0
1741604507.522,-1000.0,913.574,-145.02,-1000.0
1741604507.524,-1000.0,962.891,-109.375,-1000.0
1741604507.528,-1000.0,774.414,-83.496,-1000.0
1741604507.532,-1000.0,865.723,-69.336,-1000.0
1741604507.536,-1000.0,941.895,-76.66,-1000.0
1741604507.54,-1000.0,999.512,-124.023,-1000.0
1741604507.544,-1000.0,176.27,-136.23,-1000.0
1741604507.548,-1000.0,-980.957,-105.469,-1000.0
1741604507.551,-1000.0,391.113,-66.895,-1000.0
1741604507.555,-1000.0,999.512,-28.32,-1000.0
1741604507.559,-1000.0,956.543,-39.062,-1000.0
1741604507.563,-1000.0,764.648,-75.684,-1000.0
1741604507.567,-930.664,-835.938,-103.516,-1000.0
1741604507.584,-1000.0,-534.668,-91.797,-1000.0
1741604507.588,-629.883,960.449,-41.016,-1000.0
1741604507.592,812.5,984.375,-24.414,-1000.0
1741604507.596,999.512,920.898,-13.184,-943.848
1741604507.6,906.738,979.98,-3.906,-1000.0
1741604507.604,982.422,967.285,15.625,-901.367
1741604507.608,966.309,967.285,81.055,547.852
1741604507.611,966.309,967.285,98.633,999.512
1741604507.615,966.309,967.285,76.172,892.578
1741604507.619,966.309,967.285,76.172,982.422
1741604507.623,966.309,967.285,107.91,966.797
1741604507.627,966.309,967.285,160.645,966.797
1741604507.584,-1000.0,-534.668,-91.797,-1000.0
1741604507.588,-629.883,960.449,-41.016,-1000.0
1741604507.592,812.5,984.375,-24.414,-1000.0
1741604507.596,999.512,920.898,-13.184,-943.848
1741604507.6,906.738,979.98,-3.906,-1000.0
1741604507.604,982.422,967.285,15.625,-901.367
1741604507.608,966.309,967.285,81.055,547.852
1741604507.611,966.309,967.285,98.633,999.512
1741604507.615,966.309,967.285,76.172,892.578
1741604507.619,966.309,967.285,76.172,982.422
1741604507.623,966.309,967.285,107.91,966.797
1741604507.627,966.309,967.285,160.645,966.797
1741604507.629,966.309,966.797,168.457,966.797
1741604507.633,966.309,966.797,107.422,966.797
1741604507.637,966.309,966.797,85.449,967.285
1741604507.641,966.309,977.539,108.398,967.285
1741604507.645,966.309,929.199,127.441,966.797
1741604507.649,966.309,961.426,128.906,966.797
1741604507.653,966.309,999.512,77.148,966.797
1741604507.656,966.309,-375.977,48.34,966.797
1741604507.66,966.309,-1000.0,65.43,967.285
1741604507.664,966.309,539.062,104.004,967.285
1741604507.668,966.309,999.512,125.488,966.797
1741604507.672,966.309,917.48,102.539,966.797
1741604507.629,966.309,966.797,168.457,966.797
1741604507.633,966.309,966.797,107.422,966.797
1741604507.637,966.309,966.797,85.449,967.285
1741604507.641,966.309,977.539,108.398,967.285
1741604507.645,966.309,929.199,127.441,966.797
1741604507.649,966.309,961.426,128.906,966.797
1741604507.653,966.309,999.512,77.148,966.797
1741604507.656,966.309,-375.977,48.34,966.797
1741604507.66,966.309,-1000.0,65.43,967.285
1741604507.664,966.309,539.062,104.004,967.285
1741604507.668,966.309,999.512,125.488,966.797
1741604507.672,966.309,917.48,102.539,966.797
1741604507.674,966.309,999.512,115.234,967.285
1741604507.678,966.309,-555.176,139.16,967.285
1741604507.682,966.309,-535.645,155.762,966.797
1741604507.686,966.309,999.512,147.461,966.797
1741604507.69,966.309,835.449,69.824,967.285
1741604507.694,966.309,-744.629,7.324,966.797
1741604507.698,966.309,-140.137,12.207,966.797
1741604507.701,966.309,999.512,20.508,966.797
1741604507.705,966.309,534.668,-24.414,967.285
1741604507.709,966.309,-877.93,-70.312,966.797
1741604507.713,966.309,-1000.0,-83.496,966.797
1741604507.717,966.309,389.648,-113.77,966.797
1741604507.719,966.309,999.512,-132.324,966.797
1741604507.723,966.309,946.777,-154.785,966.797
1741604507.727,966.309,20.996,-207.031,967.285
1741604507.731,966.309,-1000.0,-272.461,966.797
1741604507.735,966.309,-851.562,-287.598,966.797
1741604507.739,966.309,500.977,-248.535,966.797
1741604507.743,966.309,999.512,-260.742,966.797
1741604507.746,966.309,446.777,-291.016,966.797
1741604507.75,966.309,-800.293,-287.109,966.797
1741604507.754,966.309,-1000.0,-264.16,966.797
1741604507.758,966.309,-688.965,-235.352,967.285
1741604507.762,966.309,781.25,-235.352,967.285
1741604507.764,966.309,930.664,-267.09,966.797
1741604507.768,966.309,-742.188,-277.832,966.797
1741604507.772,966.309,-1000.0,-249.512,967.285
1741604507.776,969.727,511.23,-213.867,966.797
1741604507.78,957.031,999.512,-171.387,966.797
1741604507.784,923.34,935.059,-151.855,966.797
1741604507.788,999.512,888.672,-158.203,967.285
1741604507.791,92.773,-540.527,-137.695,966.309
1741604507.795,-1000.0,-1000.0,-115.234,966.309
1741604507.799,-1000.0,-1000.0,-126.465,967.285
1741604507.803,4.883,-366.699,-164.062,966.797
1741604507.807,999.512,991.211,-182.129,967.285
1741604507.764,966.309,930.664,-267.09,966.797
1741604507.768,966.309,-742.188,-277.832,966.797
1741604507.772,966.309,-1000.0,-249.512,967.285
1741604507.776,969.727,511.23,-213.867,966.797
1741604507.78,957.031,999.512,-171.387,966.797
1741604507.784,923.34,935.059,-151.855,966.797
1741604507.788,999.512,888.672,-158.203,967.285
1741604507.791,92.773,-540.527,-137.695,966.309
1741604507.795,-1000.0,-1000.0,-115.234,966.309
1741604507.799,-1000.0,-1000.0,-126.465,967.285
1741604507.803,4.883,-366.699,-164.062,966.797
1741604507.807,999.512,991.211,-182.129,967.285
1741604507.809,931.641,990.723,-150.879,966.797
1741604507.813,954.102,-609.863,-125.488,966.797
1741604507.817,967.773,-762.695,-65.918,982.91
1741604507.821,914.062,944.824,-43.945,897.949
1741604507.825,999.512,890.137,-78.613,999.512
1741604507.829,254.395,-581.055,-76.172,712.402
1741604507.833,-1000.0,-1000.0,-59.57,-863.281
1741604507.836,-885.254,-802.246,-42.48,-940.43
1741604507.84,594.727,496.094,-37.109,657.227
1741604507.844,999.512,999.512,-74.219,999.512
1741604507.848,997.559,805.176,-84.961,988.77
1741604507.852,313.965,-474.121,-100.586,345.703
1741604507.869,-1000.0,-1000.0,-132.812,-1000.0
1741604507.873,-1000.0,-884.277,-168.945,-962.891
1741604507.877,396.484,434.082,-202.148,490.234
1741604507.881,999.512,999.512,-182.617,999.512
1741604507.885,911.133,863.77,-146.484,910.156
1741604507.889,915.039,970.703,-109.375,918.457
1741604507.893,999.512,999.512,-106.445,999.512
1741604507.896,812.988,-254.395,-189.453,786.133
1741604507.9,-572.754,-1000.0,-236.816,-590.332
1741604507.904,-1000.0,-991.699,-203.125,-1000.0
1741604507.908,-799.316,-904.297,-143.555,-714.844
1741604507.912,571.289,637.695,-96.191,661.621
1741604507.9,999.512,999.512,-141.602,999.512
1741604507.904,892.09,-502.93,-290.039,897.461
1741604507.908,982.422,-1000.0,-348.633,983.398
1741604507.912,967.285,-833.984,-312.5,966.797
1741604507.916,977.539,447.266,-279.785,967.773
1741604507.92,908.691,999.512,-264.648,964.355
1741604507.924,999.512,370.605,-278.32,972.656
1741604507.927,713.379,-823.242,-270.996,954.59
1741604507.931,-833.008,-1000.0,-233.398,930.664
1741604507.935,-851.074,-834.473,-174.316,965.332
1741604507.939,764.16,675.293,-176.758,969.238
1741604507.943,999.512,991.211,-204.102,964.844
1741604507.9,999.512,999.512,-141.602,999.512
1741604507.904,892.09,-502.93,-290.039,897.461
1741604507.908,982.422,-1000.0,-348.633,983.398
1741604507.912,967.285,-833.984,-312.5,966.797
1741604507.916,977.539,447.266,-279.785,967.773
1741604507.92,908.691,999.512,-264.648,964.355
1741604507.924,999.512,370.605,-278.32,972.656
1741604507.927,713.379,-823.242,-270.996,954.59
1741604507.931,-833.008,-1000.0,-233.398,930.664
1741604507.935,-851.074,-834.473,-174.316,965.332
1741604507.939,764.16,675.293,-176.758,969.238
1741604507.943,999.512,991.211,-204.102,964.844
1741604507.959,896.973,-733.887,-125.0,967.285
1741604507.963,999.512,-1000.0,-10.254,975.098
1741604507.967,908.203,666.992,31.25,937.988
1741604507.971,999.512,958.984,35.645,942.871
1741604507.975,892.09,-609.375,0.488,999.512
1741604507.979,-620.117,-1000.0,-77.148,-264.648
1741604507.983,-1000.0,-940.43,-62.012,-1000.0
1741604507.986,441.895,478.516,2.93,544.922
1741604507.99,999.512,999.512,-30.762,999.512
1741604507.994,894.043,-608.887,-55.176,891.113
1741604507.998,975.586,-1000.0,-10.742,980.469
1741604508.002,966.309,-73.73,33.691,966.797
1741604507.959,896.973,-733.887,-125.0,967.285
1741604507.963,999.512,-1000.0,-10.254,975.098
1741604507.967,908.203,666.992,31.25,937.988
1741604507.971,999.512,958.984,35.645,942.871
1741604507.975,892.09,-609.375,0.488,999.512
1741604507.979,-620.117,-1000.0,-77.148,-264.648
1741604507.983,-1000.0,-940.43,-62.012,-1000.0
1741604507.986,441.895,478.516,2.93,544.922
1741604507.99,999.512,999.512,-30.762,999.512
1741604507.994,894.043,-608.887,-55.176,891.113
1741604507.998,975.586,-1000.0,-10.742,980.469
1741604508.002,966.309,-73.73,33.691,966.797
1741604508.035,966.309,999.512,69.336,966.797
1741604508.039,966.309,207.52,55.664,966.797
1741604508.043,966.309,-1000.0,33.691,966.797
1741604508.047,966.309,-928.223,54.688,967.285
1741604508.051,982.91,527.344,121.582,966.797
1741604508.055,890.625,999.512,162.109,966.797
1741604508.059,999.512,999.512,125.0,966.797
1741604508.062,787.598,575.684,69.336,966.797
1741604508.066,-507.812,-706.055,44.922,967.285
1741604508.07,440.43,435.059,72.754,966.797
1741604508.074,999.512,999.512,58.105,966.797
1741604508.078,992.188,577.637,32.715,966.797
1741604508.079,139.16,-664.551,38.574,966.797
1741604508.083,-1000.0,-1000.0,35.156,966.797
1741604508.087,-281.738,-74.707,30.762,966.797
1741604508.091,999.512,999.512,25.391,966.797
1741604508.095,943.359,884.277,33.203,967.285
1741604508.099,898.926,999.512,66.895,966.797
1741604508.103,999.512,758.789,63.477,966.797
1741604508.106,-82.52,-558.105,26.855,966.797
1741604508.11,-1000.0,-1000.0,17.578,966.797
1741604508.114,-1000.0,-579.102,39.551,966.797
1741604508.118,63.477,756.836,74.707,980.469
1741604508.122,999.512,970.215,70.312,901.855
1741604508.124,999.512,999.512,36.621,999.512
1741604508.128,302.246,240.723,12.695,714.844
1741604508.132,-1000.0,-1000.0,-3.418,-907.227
1741604508.136,-478.027,-371.582,57.129,-381.348
1741604508.14,961.914,993.164,118.164,999.512
1741604508.144,920.898,915.039,99.121,885.254
1741604508.148,999.512,999.512,107.91,999.512
1741604508.151,358.398,225.098,105.957,695.801
1741604508.155,-1000.0,-1000.0,87.402,-934.082
1741604508.159,-231.445,-213.867,110.84,-267.09
1741604508.163,999.512,999.512,62.5,999.512
1741604508.167,999.512,999.512,27.344,999.512
1741604508.124,999.512,999.512,36.621,999.512
1741604508.128,302.246,240.723,12.695,714.844
1741604508.132,-1000.0,-1000.0,-3.418,-907.227
1741604508.136,-478.027,-371.582,57.129,-381.348
1741604508.14,961.914,993.164,118.164,999.512
1741604508.144,920.898,915.039,99.121,885.254
1741604508.148,999.512,999.512,107.91,999.512
1741604508.151,358.398,225.098,105.957,695.801
1741604508.155,-1000.0,-1000.0,87.402,-934.082
1741604508.159,-231.445,-213.867,110.84,-267.09
1741604508.163,999.512,999.512,62.5,999.512
1741604508.167,999.512,999.512,27.344,999.512
1741604508.169,232.422,10.254,40.527,380.371
1741604508.173,-1000.0,-1000.0,45.41,-1000.0
1741604508.177,-450.684,-418.945,49.316,-318.359
1741604508.181,962.891,999.512,16.602,999.512
1741604508.185,994.141,471.191,-30.273,955.078
1741604508.189,887.207,-491.699,-17.578,930.176
1741604508.193,976.562,935.059,4.883,917.48
1741604508.196,992.188,524.902,-38.574,999.512
1741604508.2,-290.039,-1000.0,-72.266,129.395
1741604508.204,-1000.0,-959.473,-67.871,-1000.0
1741604508.208,-935.059,-1000.0,-60.059,-1000.0
1741604508.212,-1000.0,-846.191,-41.016,-902.832
1741604508.169,232.422,10.254,40.527,380.371
1741604508.173,-1000.0,-1000.0,45.41,-1000.0
1741604508.177,-450.684,-418.945,49.316,-318.359
1741604508.181,962.891,999.512,16.602,999.512
1741604508.185,994.141,471.191,-30.273,955.078
1741604508.189,887.207,-491.699,-17.578,930.176
1741604508.193,976.562,935.059,4.883,917.48
1741604508.196,992.188,524.902,-38.574,999.512
1741604508.2,-290.039,-1000.0,-72.266,129.395
1741604508.204,-1000.0,-959.473,-67.871,-1000.0
1741604508.208,-935.059,-1000.0,-60.059,-1000.0
1741604508.212,-1000.0,-846.191,-41.016,-902.832
1741604508.214,257.812,553.223,-22.949,424.805
1741604508.218,999.512,999.512,-41.016,999.512
1741604508.222,999.512,999.512,-51.27,999.512
1741604508.226,381.348,175.293,-38.574,423.828
1741604508.23,-1000.0,-1000.0,-46.875,-1000.0
1741604508.234,-478.516,-256.836,-8.301,-402.832
1741604508.238,955.078,999.512,-13.184,999.512
1741604508.241,999.512,376.465,-83.984,999.512
1741604508.245,-207.52,-1000.0,-88.867,-213.867
1741604508.249,-1000.0,-954.102,-59.57,-1000.0
1741604508.253,-1000.0,-1000.0,-41.504,-1000.0
1741604508.257,-231.445,-270.02,-7.324,-145.996
1741604508.214,257.812,553.223,-22.949,424.805
1741604508.218,999.512,999.512,-41.016,999.512
1741604508.222,999.512,999.512,-51.27,999.512
1741604508.226,381.348,175.293,-38.574,423.828
1741604508.23,-1000.0,-1000.0,-46.875,-1000.0
1741604508.234,-478.516,-256.836,-8.301,-402.832
1741604508.238,955.078,999.512,-13.184,999.512
1741604508.241,999.512,376.465,-83.984,999.512
1741604508.245,-207.52,-1000.0,-88.867,-213.867
1741604508.249,-1000.0,-954.102,-59.57,-1000.0
1741604508.253,-1000.0,-1000.0,-41.504,-1000.0
1741604508.257,-231.445,-270.02,-7.324,-145.996
1741604508.274,996.094,999.512,-14.648,999.512
1741604508.278,999.512,748.535,-40.527,999.512
1741604508.282,-66.406,-596.191,-26.855,-95.215
1741604508.286,-1000.0,-1000.0,-4.395,-1000.0
1741604508.29,-1000.0,-1000.0,-14.16,-1000.0
1741604508.294,-244.629,47.852,-46.387,-207.031
1741604508.298,999.512,999.512,-51.27,999.512
1741604508.301,825.195,187.988,-47.852,734.375
1741604508.305,-572.266,-1000.0,-30.273,-659.668
1741604508.309,-1000.0,-984.375,-42.48,-1000.0
1741604508.313,-859.375,-920.41,-79.59,-865.723
1741604508.317,-1000.0,-1000.0,-85.449,-1000.0
1741604508.274,996.094,999.512,-14.648,999.512
1741604508.278,999.512,748.535,-40.527,999.512
1741604508.282,-66.406,-596.191,-26.855,-95.215
1741604508.286,-1000.0,-1000.0,-4.395,-1000.0
1741604508.29,-1000.0,-1000.0,-14.16,-1000.0
1741604508.294,-244.629,47.852,-46.387,-207.031
1741604508.298,999.512,999.512,-51.27,999.512
1741604508.301,825.195,187.988,-47.852,734.375
1741604508.305,-572.266,-1000.0,-30.273,-659.668
1741604508.309,-1000.0,-984.375,-42.48,-1000.0
1741604508.313,-859.375,-920.41,-79.59,-865.723
1741604508.317,-1000.0,-1000.0,-85.449,-1000.0
1741604508.32,-538.086,-83.984,-60.059,-562.5
1741604508.324,860.84,991.211,-11.719,824.219
1741604508.328,997.07,999.512,-4.883,999.512
1741604508.332,968.262,290.527,-61.523,890.137
1741604508.336,-220.215,-966.309,-96.191,-328.125
1741604508.34,-1000.0,-1000.0,-68.359,-1000.0
1741604508.344,-1000.0,-785.156,-30.762,-1000.0
1741604508.347,-187.012,475.586,-38.086,-154.785
1741604508.351,998.535,981.445,-84.473,999.512
1741604508.355,999.512,920.898,-113.77,999.512
1741604508.359,16.113,-159.668,-116.211,-73.73
1741604508.363,-1000.0,-1000.0,-102.051,-1000.0
1741604508.364,-963.867,-884.277,-83.496,-955.566
1741604508.368,-986.816,-1000.0,-107.91,-997.07
1741604508.372,-937.988,-667.48,-125.977,-933.105
1741604508.376,-1000.0,725.586,-98.633,-1000.0
1741604508.38,-263.184,999.512,-53.223,-359.863
1741604508.384,959.961,910.156,-1.465,922.852
1741604508.388,999.512,990.723,-33.203,999.512
1741604508.391,151.855,-274.414,-92.285,118.652
1741604508.395,-996.582,-1000.0,-93.262,-998.047
1741604508.399,-1000.0,-1000.0,-65.43,-1000.0
1741604508.403,-301.27,-124.512,-41.016,-353.027
1741604508.407,999.512,999.512,-59.082,999.512
1741604508.409,958.008,519.043,-95.215,873.535
1741604508.413,-355.957,-796.875,-96.68,-493.164
1741604508.417,-1000.0,-1000.0,-76.66,-1000.0
1741604508.421,-1000.0,-460.938,-73.242,-988.77
1741604508.425,61.035,789.551,-101.074,77.637
1741604508.429,999.512,999.512,-97.656,999.512
1741604508.433,279.297,268.066,-83.984,187.988
1741604508.436,-938.477,-961.426,-98.145,-979.492
1741604508.44,-1000.0,-1000.0,-82.031,-1000.0
1741604508.444,-536.621,-133.301,-42.969,-554.199
1741604508.448,999.512,999.512,-77.637,999.512
1741604508.452,547.363,392.09,-118.164,406.25
1741604508.409,958.008,519.043,-95.215,873.535
1741604508.413,-355.957,-796.875,-96.68,-493.164
1741604508.417,-1000.0,-1000.0,-76.66,-1000.0
1741604508.421,-1000.0,-460.938,-73.242,-988.77
1741604508.425,61.035,789.551,-101.074,77.637
1741604508.429,999.512,999.512,-97.656,999.512
1741604508.433,279.297,268.066,-83.984,187.988
1741604508.436,-938.477,-961.426,-98.145,-979.492
1741604508.44,-1000.0,-1000.0,-82.031,-1000.0
1741604508.444,-536.621,-133.301,-42.969,-554.199
1741604508.448,999.512,999.512,-77.637,999.512
1741604508.452,547.363,392.09,-118.164,406.25
1741604508.454,-973.633,-988.281,-98.633,-1000.0
1741604508.458,-1000.0,-1000.0,-47.363,-1000.0
1741604508.462,-953.125,-939.453,-40.039,-969.238
1741604508.466,-946.777,-975.098,-81.543,-965.82
1741604508.47,-1000.0,-1000.0,-98.145,-1000.0
1741604508.474,-334.473,7.812,-63.477,-892.09
1741604508.478,925.293,999.512,-35.645,383.789
1741604508.481,999.512,999.512,-58.105,999.512
1741604508.485,208.008,79.102,-74.707,153.809
1741604508.489,-1000.0,-1000.0,-51.758,-1000.0
1741604508.493,-934.082,-1000.0,-27.344,-929.199
1741604508.497,-1000.0,-808.594,-7.812,-1000.0
1741604508.499,-237.305,429.199,-4.883,-249.512
1741604508.503,999.512,999.512,-22.461,999.512
1741604508.507,877.93,644.043,-41.016,732.91
1741604508.511,-425.781,-673.828,-75.195,-604.98
1741604508.515,-1000.0,-1000.0,-62.988,-1000.0
1741604508.519,-231.445,-27.344,-24.414,-265.137
1741604508.523,999.512,999.512,-75.684,999.512
1741604508.526,404.297,196.777,-140.137,334.961
1741604508.53,-923.34,-1000.0,-115.234,-960.938
1741604508.534,-1000.0,-951.66,-55.176,-1000.0
1741604508.538,-510.742,145.996,-42.969,-511.719
1741604508.542,967.285,999.512,-77.148,986.328
1741604508.499,-237.305,429.199,-4.883,-249.512
1741604508.503,999.512,999.512,-22.461,999.512
1741604508.507,877.93,644.043,-41.016,732.91
1741604508.511,-425.781,-673.828,-75.195,-604.98
1741604508.515,-1000.0,-1000.0,-62.988,-1000.0
1741604508.519,-231.445,-27.344,-24.414,-265.137
1741604508.523,999.512,999.512,-75.684,999.512
1741604508.526,404.297,196.777,-140.137,334.961
1741604508.53,-923.34,-1000.0,-115.234,-960.938
1741604508.534,-1000.0,-951.66,-55.176,-1000.0
1741604508.538,-510.742,145.996,-42.969,-511.719
1741604508.542,967.285,999.512,-77.148,986.328
1741604508.545,813.965,323.73,-80.566,713.379
1741604508.549,-669.434,-939.453,-48.828,-775.391
1741604508.553,-1000.0,-1000.0,9.277,-1000.0
1741604508.557,-1000.0,-653.32,36.133,-1000.0
1741604508.561,-32.715,606.445,-0.977,-52.734
1741604508.565,999.512,999.512,-2.93,999.512
1741604508.569,876.953,743.164,-5.371,726.074
1741604508.572,-435.547,-586.914,-41.504,-628.906
1741604508.576,-1000.0,-1000.0,-22.461,-1000.0
1741604508.58,-933.105,-873.535,-20.02,-937.5
1741604508.584,-947.266,-1000.0,-48.828,-949.707
1741604508.588,-1000.0,-696.777,-40.527,-1000.0
1741604508.545,813.965,323.73,-80.566,713.379
1741604508.549,-669.434,-939.453,-48.828,-775.391
1741604508.553,-1000.0,-1000.0,9.277,-1000.0
1741604508.557,-1000.0,-653.32,36.133,-1000.0
1741604508.561,-32.715,606.445,-0.977,-52.734
1741604508.565,999.512,999.512,-2.93,999.512
1741604508.569,876.953,743.164,-5.371,726.074
1741604508.572,-435.547,-586.914,-41.504,-628.906
1741604508.576,-1000.0,-1000.0,-22.461,-1000.0
1741604508.58,-933.105,-873.535,-20.02,-937.5
1741604508.584,-947.266,-1000.0,-48.828,-949.707
1741604508.588,-1000.0,-696.777,-40.527,-1000.0
1741604508.59,-190.43,695.312,-33.203,-200.195
1741604508.594,968.262,990.723,-27.832,970.215
1741604508.598,999.512,999.512,-55.176,999.512
1741604508.602,406.25,157.227,-104.492,340.332
1741604508.606,-901.367,-1000.0,-108.887,-934.082
1741604508.61,-1000.0,-391.113,-65.43,-1000.0
1741604508.614,-238.77,914.062,-32.227,-192.383
1741604508.617,999.512,999.512,-86.426,999.512
1741604508.621,508.301,88.867,-135.254,463.867
1741604508.625,-886.719,-1000.0,-119.629,-886.719
1741604508.629,-1000.0,-1000.0,-106.445,-1000.0
1741604508.633,-886.23,-597.168,-78.125,-865.234
1741604508.59,-190.43,695.312,-33.203,-200.195
1741604508.594,968.262,990.723,-27.832,970.215
1741604508.598,999.512,999.512,-55.176,999.512
1741604508.602,406.25,157.227,-104.492,340.332
1741604508.606,-901.367,-1000.0,-108.887,-934.082
1741604508.61,-1000.0,-391.113,-65.43,-1000.0
1741604508.614,-238.77,914.062,-32.227,-192.383
1741604508.617,999.512,999.512,-86.426,999.512
1741604508.621,508.301,88.867,-135.254,463.867
1741604508.625,-886.719,-1000.0,-119.629,-886.719
1741604508.629,-1000.0,-1000.0,-106.445,-1000.0
1741604508.633,-886.23,-597.168,-78.125,-865.234
1741604508.649,367.676,703.613,-56.152,380.371
1741604508.653,999.512,999.512,-72.754,999.512
1741604508.657,978.027,617.676,-75.195,918.945
1741604508.661,-164.062,-817.871,-64.941,-273.926
1741604508.665,-1000.0,-892.09,-28.809,-1000.0
1741604508.669,-17.09,548.34,5.371,30.762
1741604508.673,999.512,999.512,-21.973,999.512
1741604508.676,479.004,158.203,-38.574,475.098
1741604508.68,-863.77,-1000.0,-36.133,-850.098
1741604508.684,-1000.0,-1000.0,-6.348,-1000.0
1741604508.688,-190.918,-0.977,17.578,-157.227
1741604508.692,999.512,999.512,7.324,999.512
1741604508.649,367.676,703.613,-56.152,380.371
1741604508.653,999.512,999.512,-72.754,999.512
1741604508.657,978.027,617.676,-75.195,918.945
1741604508.661,-164.062,-817.871,-64.941,-273.926
1741604508.665,-1000.0,-892.09,-28.809,-1000.0
1741604508.669,-17.09,548.34,5.371,30.762
1741604508.673,999.512,999.512,-21.973,999.512
1741604508.676,479.004,158.203,-38.574,475.098
1741604508.68,-863.77,-1000.0,-36.133,-850.098
1741604508.684,-1000.0,-1000.0,-6.348,-1000.0
1741604508.688,-190.918,-0.977,17.578,-157.227
1741604508.692,999.512,999.512,7.324,999.512
1741604508.709,999.512,443.848,-9.277,972.168
1741604508.713,-145.508,-862.305,-15.625,-207.52
1741604508.717,-1000.0,-1000.0,4.883,-1000.0
1741604508.721,-276.855,-187.988,18.555,-225.098
1741604508.725,992.188,952.148,-18.066,999.512
1741604508.729,913.574,999.512,-51.27,908.691
1741604508.733,999.512,633.789,-48.34,999.512
1741604508.736,170.898,-667.969,-41.992,156.25
1741604508.74,-1000.0,-1000.0,-50.781,-1000.0
1741604508.744,-213.379,-153.809,-45.898,-197.266
1741604508.748,999.512,972.168,-47.852,999.512
1741604508.752,948.73,999.512,-53.711,946.777
1741604508.739,940.43,-14.648,-25.391,941.406
1741604508.743,958.496,-969.238,-15.625,964.844
1741604508.747,927.734,587.891,-42.969,918.945
1741604508.751,999.512,953.125,-49.805,999.512
1741604508.755,4.395,-555.176,-42.969,93.75
1741604508.759,-1000.0,-1000.0,-12.207,-1000.0
1741604508.763,-172.852,86.426,-12.207,-166.992
1741604508.766,999.512,999.512,-70.312,999.512
1741604508.77,948.242,239.746,-107.422,945.312
1741604508.774,944.336,-1000.0,-99.609,955.078
1741604508.778,905.273,292.969,-73.242,908.203
1741604508.782,999.512,999.512,-64.941,999.512
1741604508.739,940.43,-14.648,-25.391,941.406
1741604508.743,958.496,-969.238,-15.625,964.844
1741604508.747,927.734,587.891,-42.969,918.945
1741604508.751,999.512,953.125,-49.805,999.512
1741604508.755,4.395,-555.176,-42.969,93.75
1741604508.759,-1000.0,-1000.0,-12.207,-1000.0
1741604508.763,-172.852,86.426,-12.207,-166.992
1741604508.766,999.512,999.512,-70.312,999.512
1741604508.77,948.242,239.746,-107.422,945.312
1741604508.774,944.336,-1000.0,-99.609,955.078
1741604508.778,905.273,292.969,-73.242,908.203
1741604508.782,999.512,999.512,-64.941,999.512
1741604508.784,271.973,-157.715,-78.125,651.855
1741604508.788,-1000.0,-1000.0,-89.844,-723.145
1741604508.792,-982.91,-1000.0,-71.289,-1000.0
1741604508.796,-1000.0,-495.605,-42.48,-923.34
1741604508.8,170.898,837.402,-14.16,309.57
1741604508.804,999.512,999.512,-13.184,999.512
1741604508.808,999.512,889.648,-50.781,999.512
1741604508.811,257.812,-289.551,-76.66,289.062
1741604508.815,-1000.0,-1000.0,-66.406,-1000.0
1741604508.819,-361.328,-126.953,-2.441,-304.688
1741604508.823,983.398,975.586,46.875,999.512
1741604508.827,941.406,999.512,90.332,930.664
1741604508.829,999.512,642.578,138.184,999.512
1741604508.833,-49.316,-665.527,134.277,-35.645
1741604508.837,-1000.0,-1000.0,145.508,-1000.0
1741604508.841,-323.242,-202.637,150.391,-246.094
1741604508.845,976.074,967.773,112.793,999.512
1741604508.849,923.828,977.051,84.961,909.18
1741604508.853,999.512,893.066,70.801,999.512
1741604508.856,78.125,-393.555,45.41,93.262
1741604508.86,-1000.0,-1000.0,58.105,-1000.0
1741604508.864,-910.156,-1000.0,57.129,-921.387
1741604508.868,-1000.0,-664.062,33.691,-1000.0
1741604508.872,-160.645,756.348,45.898,-102.539
1741604508.875,999.512,999.512,72.754,999.512
1741604508.879,874.023,846.68,78.125,868.652
1741604508.883,999.512,999.512,39.551,999.512
1741604508.887,265.625,251.953,3.418,297.852
1741604508.891,-999.023,-1000.0,-20.996,-1000.0
1741604508.895,-1000.0,-507.812,7.324,-1000.0
1741604508.899,-109.863,898.438,20.508,8.789
1741604508.902,999.512,999.512,-52.246,999.512
1741604508.906,147.949,-175.293,-96.191,161.621
1741604508.91,-1000.0,-1000.0,-79.59,-1000.0
1741604508.914,-1000.0,-1000.0,-50.781,-1000.0
1741604508.918,-661.133,-562.5,-23.438,-568.359
1741604508.919,762.207,852.539,-19.043,829.102
1741604508.923,965.332,950.684,-29.297,949.707
1741604508.927,999.512,999.512,-0.977,999.512
1741604508.931,450.195,299.316,1.953,411.133
1741604508.935,-968.75,-1000.0,-7.812,-983.398
1741604508.939,-1000.0,-844.727,-12.207,-1000.0
1741604508.943,-953.613,730.469,-47.852,-944.824
1741604508.946,-951.172,309.57,-76.172,-943.848
1741604508.95,-1000.0,-1000.0,-62.012,-1000.0
1741604508.954,-214.844,-193.359,-2.93,-228.027
1741604508.958,968.75,999.512,-6.836,966.309
1741604508.962,999.512,999.512,-61.035,999.512
1741604508.919,762.207,852.539,-19.043,829.102
1741604508.923,965.332,950.684,-29.297,949.707
1741604508.927,999.512,999.512,-0.977,999.512
1741604508.931,450.195,299.316,1.953,411.133
1741604508.935,-968.75,-1000.0,-7.812,-983.398
1741604508.939,-1000.0,-844.727,-12.207,-1000.0
1741604508.943,-953.613,730.469,-47.852,-944.824
1741604508.946,-951.172,309.57,-76.172,-943.848
1741604508.95,-1000.0,-1000.0,-62.012,-1000.0
1741604508.954,-214.844,-193.359,-2.93,-228.027
1741604508.958,968.75,999.512,-6.836,966.309
1741604508.962,999.512,999.512,-61.035,999.512
1741604508.964,263.184,104.492,-72.754,237.793
1741604508.968,-964.355,-1000.0,-45.898,-974.609
1741604508.972,-1000.0,-1000.0,-8.301,-1000.0
1741604508.976,-172.852,-78.613,-14.648,-153.32
1741604508.98,978.027,982.422,-56.152,981.445
1741604508.984,990.723,999.512,-59.57,999.512
1741604508.988,837.891,468.262,-42.969,790.039
1741604508.991,-519.531,-840.82,-11.719,-562.988
1741604508.995,-1000.0,-1000.0,-19.043,-1000.0
1741604508.999,-1000.0,-236.816,-60.547,-1000.0
1741604509.003,-442.871,996.094,-39.062,-315.918
1741604509.007,963.867,916.992,9.766,959.473
1741604508.964,263.184,104.492,-72.754,237.793
1741604508.968,-964.355,-1000.0,-45.898,-974.609
1741604508.972,-1000.0,-1000.0,-8.301,-1000.0
1741604508.976,-172.852,-78.613,-14.648,-153.32
1741604508.98,978.027,982.422,-56.152,981.445
1741604508.984,990.723,999.512,-59.57,999.512
1741604508.988,837.891,468.262,-42.969,790.039
1741604508.991,-519.531,-840.82,-11.719,-562.988
1741604508.995,-1000.0,-1000.0,-19.043,-1000.0
1741604508.999,-1000.0,-236.816,-60.547,-1000.0
1741604509.003,-442.871,996.094,-39.062,-315.918
1741604509.007,963.867,916.992,9.766,959.473
1741604509.024,913.086,999.023,32.227,907.227
1741604509.028,999.512,181.641,48.34,999.512
1741604509.032,473.633,-1000.0,31.738,441.895
1741604509.036,-876.465,-953.613,-13.184,-887.695
1741604509.04,-1000.0,-1000.0,-5.371,-1000.0
1741604509.044,-339.844,-133.301,59.57,-324.707
1741604509.048,895.996,999.512,84.473,908.203
1741604509.051,999.512,637.695,23.438,999.512
1741604509.055,181.641,-678.223,-28.809,136.719
1741604509.059,-1000.0,-1000.0,-24.414,-1000.0
1741604509.063,-978.516,-89.355,9.277,-862.793
1741604509.067,263.184,973.633,-0.488,402.832
1741604509.024,913.086,999.023,32.227,907.227
1741604509.028,999.512,181.641,48.34,999.512
1741604509.032,473.633,-1000.0,31.738,441.895
1741604509.036,-876.465,-953.613,-13.184,-887.695
1741604509.04,-1000.0,-1000.0,-5.371,-1000.0
1741604509.044,-339.844,-133.301,59.57,-324.707
1741604509.048,895.996,999.512,84.473,908.203
1741604509.051,999.512,637.695,23.438,999.512
1741604509.055,181.641,-678.223,-28.809,136.719
1741604509.059,-1000.0,-1000.0,-24.414,-1000.0
1741604509.063,-978.516,-89.355,9.277,-862.793
1741604509.067,263.184,973.633,-0.488,402.832
1741604509.069,999.512,999.512,-20.508,999.512
1741604509.073,645.508,249.023,-48.34,627.441
1741604509.077,-649.414,-966.797,-72.266,-648.438
1741604509.081,-1000.0,-1000.0,-33.691,-1000.0
1741604509.085,-801.758,-770.996,-21.484,-652.344
1741604509.089,455.078,584.473,-61.035,617.676
1741604509.093,999.512,999.512,-107.422,999.512
1741604509.096,182.617,-60.059,-130.371,187.5
1741604509.1,-1000.0,-1000.0,-102.539,-1000.0
1741604509.104,-209.473,-186.523,-45.41,-228.516
1741604509.108,999.512,999.512,-61.523,999.512
1741604509.112,999.512,514.648,-110.352,999.512
1741604509.069,999.512,999.512,-20.508,999.512
1741604509.073,645.508,249.023,-48.34,627.441
1741604509.077,-649.414,-966.797,-72.266,-648.438
1741604509.081,-1000.0,-1000.0,-33.691,-1000.0
1741604509.085,-801.758,-770.996,-21.484,-652.344
1741604509.089,455.078,584.473,-61.035,617.676
1741604509.093,999.512,999.512,-107.422,999.512
1741604509.096,182.617,-60.059,-130.371,187.5
1741604509.1,-1000.0,-1000.0,-102.539,-1000.0
1741604509.104,-209.473,-186.523,-45.41,-228.516
1741604509.108,999.512,999.512,-61.523,999.512
1741604509.112,999.512,514.648,-110.352,999.512
1741604509.114,119.629,-792.969,-102.539,54.688
1741604509.118,-1000.0,-1000.0,-76.172,-1000.0
1741604509.122,-817.383,-604.492,-57.129,-728.027
1741604509.126,580.566,868.652,-71.289,666.992
1741604509.13,999.512,761.719,-104.98,999.512
1741604509.134,827.148,353.027,-95.215,842.285
1741604509.138,999.512,999.512,-73.242,999.512
1741604509.141,544.434,12.695,-64.941,646.484
1741604509.145,-903.32,-1000.0,-82.031,-760.742
1741604509.149,-986.328,-895.02,-114.746,-1000.0
1741604509.153,-1000.0,-1000.0,-93.75,-1000.0
1741604509.157,-763.184,-254.883,-55.176,-737.305
1741604509.114,119.629,-792.969,-102.539,54.688
1741604509.118,-1000.0,-1000.0,-76.172,-1000.0
1741604509.122,-817.383,-604.492,-57.129,-728.027
1741604509.126,580.566,868.652,-71.289,666.992
1741604509.13,999.512,761.719,-104.98,999.512
1741604509.134,827.148,353.027,-95.215,842.285
1741604509.138,999.512,999.512,-73.242,999.512
1741604509.141,544.434,12.695,-64.941,646.484
1741604509.145,-903.32,-1000.0,-82.031,-760.742
1741604509.149,-986.328,-895.02,-114.746,-1000.0
1741604509.153,-1000.0,-1000.0,-93.75,-1000.0
1741604509.157,-763.184,-254.883,-55.176,-737.305
1741604509.159,700.195,999.512,-24.902,708.984
1741604509.163,989.746,899.414,-45.41,983.887
1741604509.167,976.074,972.656,-91.309,986.816
1741604509.171,762.207,443.848,-102.539,719.727
1741604509.175,-615.234,-884.277,-112.305,-659.18
1741604509.179,-1000.0,-1000.0,-77.148,-1000.0
1741604509.183,-214.844,121.582,-55.664,-171.875
1741604509.186,999.512,999.512,-97.168,999.512
1741604509.19,750.0,181.641,-87.891,717.285
1741604509.194,-605.957,-993.652,-64.453,-617.188
1741604509.198,-1000.0,-1000.0,-86.426,-1000.0
1741604509.202,-249.023,-233.887,-110.352,-198.73
1741604509.204,999.512,998.047,-151.367,999.512
1741604509.208,892.578,928.223,-157.227,886.719
1741604509.212,999.512,988.281,-136.23,999.512
1741604509.216,409.18,20.508,-127.441,486.816
1741604509.22,-920.898,-1000.0,-136.23,-872.559
1741604509.224,-1000.0,-586.914,-143.066,-1000.0
1741604509.228,-176.27,733.887,-116.699,-70.801
1741604509.231,999.512,999.512,-104.98,999.512
1741604509.235,964.844,15.137,-104.004,952.637
1741604509.239,876.953,-1000.0,-66.895,887.695
1741604509.243,999.512,597.168,-50.781,999.512
1741604509.247,735.84,669.434,-72.266,742.676
1741604509.249,-618.164,-874.023,-68.848,-598.145
1741604509.253,-1000.0,-1000.0,-12.207,-1000.0
1741604509.257,-250.977,-128.418,38.574,-213.379
1741604509.261,990.234,999.512,33.203,999.512
1741604509.265,966.309,924.805,1.953,966.309
1741604509.269,868.652,918.945,14.648,866.699
1741604509.273,999.512,999.512,42.969,999.512
1741604509.276,187.012,-135.254,43.945,303.711
1741604509.28,-1000.0,-1000.0,22.461,-1000.0
1741604509.284,-909.668,-889.16,6.836,-931.641
1741604509.288,-1000.0,-1000.0,-2.441,-1000.0
1741604509.292,-520.02,-196.777,4.395,-480.957
1741604509.249,-618.164,-874.023,-68.848,-598.145
1741604509.253,-1000.0,-1000.0,-12.207,-1000.0
1741604509.257,-250.977,-128.418,38.574,-213.379
1741604509.261,990.234,999.512,33.203,999.512
1741604509.265,966.309,924.805,1.953,966.309
1741604509.269,868.652,918.945,14.648,866.699
1741604509.273,999.512,999.512,42.969,999.512
1741604509.276,187.012,-135.254,43.945,303.711
1741604509.28,-1000.0,-1000.0,22.461,-1000.0
1741604509.284,-909.668,-889.16,6.836,-931.641
1741604509.288,-1000.0,-1000.0,-2.441,-1000.0
1741604509.292,-520.02,-196.777,4.395,-480.957
1741604509.294,905.273,984.375,10.254,920.898
1741604509.298,945.801,999.512,-24.902,943.359
1741604509.302,999.512,670.41,-38.574,999.512
1741604509.306,202.637,-623.047,-35.645,167.969
1741604509.31,-1000.0,-1000.0,-38.086,-1000.0
1741604509.314,-331.543,-166.992,4.883,-291.992
1741604509.318,981.445,999.512,-4.883,999.512
1741604509.321,999.512,439.453,-79.102,999.512
1741604509.325,-64.453,-926.27,-87.402,-111.816
1741604509.329,-1000.0,-1000.0,-45.41,-1000.0
1741604509.333,-186.523,20.02,-13.672,-187.988
1741604509.337,999.512,999.512,-24.902,999.512
1741604509.294,905.273,984.375,10.254,920.898
1741604509.298,945.801,999.512,-24.902,943.359
1741604509.302,999.512,670.41,-38.574,999.512
1741604509.306,202.637,-623.047,-35.645,167.969
1741604509.31,-1000.0,-1000.0,-38.086,-1000.0
1741604509.314,-331.543,-166.992,4.883,-291.992
1741604509.318,981.445,999.512,-4.883,999.512
1741604509.321,999.512,439.453,-79.102,999.512
1741604509.325,-64.453,-926.27,-87.402,-111.816
1741604509.329,-1000.0,-1000.0,-45.41,-1000.0
1741604509.333,-186.523,20.02,-13.672,-187.988
1741604509.337,999.512,999.512,-24.902,999.512
1741604509.339,999.512,474.121,-52.734,999.512
1741604509.343,-55.664,-816.895,-62.5,-95.215
1741604509.347,-1000.0,-1000.0,-45.41,-1000.0
1741604509.351,-840.332,-393.555,-29.297,-783.691
1741604509.355,462.891,854.492,-39.551,524.902
1741604509.359,999.512,999.512,-48.828,999.512
1741604509.363,950.195,713.379,-74.707,907.227
1741604509.366,-182.129,-578.125,-96.68,-243.164
1741604509.37,-1000.0,-1000.0,-77.148,-1000.0
1741604509.374,-167.48,-112.793,-41.992,-173.828
1741604509.378,988.281,999.512,-59.082,998.535
1741604509.382,999.512,897.949,-95.703,999.512
1741604509.339,999.512,474.121,-52.734,999.512
1741604509.343,-55.664,-816.895,-62.5,-95.215
1741604509.347,-1000.0,-1000.0,-45.41,-1000.0
1741604509.351,-840.332,-393.555,-29.297,-783.691
1741604509.355,462.891,854.492,-39.551,524.902
1741604509.359,999.512,999.512,-48.828,999.512
1741604509.363,950.195,713.379,-74.707,907.227
1741604509.366,-182.129,-578.125,-96.68,-243.164
1741604509.37,-1000.0,-1000.0,-77.148,-1000.0
1741604509.374,-167.48,-112.793,-41.992,-173.828
1741604509.378,988.281,999.512,-59.082,998.535
1741604509.382,999.512,897.949,-95.703,999.512
1741604509.385,-8.789,-389.648,-80.078,-82.52
1741604509.389,-1000.0,-1000.0,-54.199,-1000.0
1741604509.393,-906.25,-1000.0,-65.918,-904.297
1741604509.397,-1000.0,-686.035,-90.332,-1000.0
1741604509.401,-135.254,666.016,-85.449,-110.352
1741604509.405,999.512,973.633,-55.664,999.512
1741604509.409,863.281,999.512,-48.828,865.723
1741604509.412,999.512,229.492,-62.5,999.512
1741604509.416,505.859,-1000.0,-88.867,510.742
1741604509.42,-902.832,-920.898,-100.586,-872.559
1741604509.424,-1000.0,-1000.0,-91.309,-1000.0
1741604509.428,-1000.0,-567.383,-46.387,-992.676
1741604509.385,-8.789,-389.648,-80.078,-82.52
1741604509.389,-1000.0,-1000.0,-54.199,-1000.0
1741604509.393,-906.25,-1000.0,-65.918,-904.297
1741604509.397,-1000.0,-686.035,-90.332,-1000.0
1741604509.401,-135.254,666.016,-85.449,-110.352
1741604509.405,999.512,973.633,-55.664,999.512
1741604509.409,863.281,999.512,-48.828,865.723
1741604509.412,999.512,229.492,-62.5,999.512
1741604509.416,505.859,-1000.0,-88.867,510.742
1741604509.42,-902.832,-920.898,-100.586,-872.559
1741604509.424,-1000.0,-1000.0,-91.309,-1000.0
1741604509.428,-1000.0,-567.383,-46.387,-992.676
1741604509.444,127.441,852.051,5.371,186.523
1741604509.448,999.512,988.281,-7.324,999.512
1741604509.452,875.977,897.461,-18.066,904.297
1741604509.456,999.512,999.512,-2.441,975.098
1741604509.46,-34.668,-148.438,7.812,-182.129
1741604509.464,-1000.0,-1000.0,20.508,-1000.0
1741604509.468,-368.652,-79.102,-9.277,-289.062
1741604509.471,968.262,999.512,-28.32,998.047
1741604509.475,916.504,898.926,-12.207,900.879
1741604509.479,999.512,999.512,0.488,999.512
1741604509.483,272.461,-2.93,1.465,349.121
1741604509.487,-1000.0,-1000.0,-20.508,-1000.0
1741604509.489,-934.082,-915.039,-37.598,-949.219
1741604509.493,-1000.0,-1000.0,-33.203,-1000.0
1741604509.497,-778.809,-104.492,-22.461,-739.746
1741604509.501,672.363,999.512,-10.254,692.383
1741604509.505,995.605,869.141,-22.949,985.352
1741604509.509,970.215,999.512,-44.922,986.816
1741604509.513,784.668,514.16,-48.34,716.797
1741604509.516,-651.855,-904.297,-39.062,-711.426
1741604509.52,-1000.0,-1000.0,-28.809,-1000.0
1741604509.524,-878.906,-976.562,-41.016,-885.254
1741604509.528,-1000.0,-923.828,-56.152,-1000.0
1741604509.532,-140.625,404.297,-51.27,-123.535
1741604509.489,-934.082,-915.039,-37.598,-949.219
1741604509.493,-1000.0,-1000.0,-33.203,-1000.0
1741604509.497,-778.809,-104.492,-22.461,-739.746
1741604509.501,672.363,999.512,-10.254,692.383
1741604509.505,995.605,869.141,-22.949,985.352
1741604509.509,970.215,999.512,-44.922,986.816
1741604509.513,784.668,514.16,-48.34,716.797
1741604509.516,-651.855,-904.297,-39.062,-711.426
1741604509.52,-1000.0,-1000.0,-28.809,-1000.0
1741604509.524,-878.906,-976.562,-41.016,-885.254
1741604509.528,-1000.0,-923.828,-56.152,-1000.0
1741604509.532,-140.625,404.297,-51.27,-123.535
1741604509.534,999.512,999.512,-39.062,999.512
1741604509.538,864.258,847.656,5.371,865.723
1741604509.542,999.512,999.512,18.066,999.512
1741604509.546,465.332,227.539,-15.137,486.816
1741604509.55,-870.117,-1000.0,-38.086,-850.098
1741604509.554,-1000.0,-486.816,-3.906,-1000.0
1741604509.558,-519.531,843.262,35.645,-462.891
1741604509.561,816.406,999.512,6.836,856.934
1741604509.565,999.512,285.156,-39.062,999.512
1741604509.569,-18.555,-992.188,-76.66,-123.535
1741604509.573,-1000.0,-958.984,-77.148,-1000.0
1741604509.577,-1000.0,-1000.0,-30.273,-1000.0
1741604509.534,999.512,999.512,-39.062,999.512
1741604509.538,864.258,847.656,5.371,865.723
1741604509.542,999.512,999.512,18.066,999.512
1741604509.546,465.332,227.539,-15.137,486.816
1741604509.55,-870.117,-1000.0,-38.086,-850.098
1741604509.554,-1000.0,-486.816,-3.906,-1000.0
1741604509.558,-519.531,843.262,35.645,-462.891
1741604509.561,816.406,999.512,6.836,856.934
1741604509.565,999.512,285.156,-39.062,999.512
1741604509.569,-18.555,-992.188,-76.66,-123.535
1741604509.573,-1000.0,-958.984,-77.148,-1000.0
1741604509.577,-1000.0,-1000.0,-30.273,-1000.0
1741604509.579,-204.102,-137.695,0.0,-199.707
1741604509.583,971.191,999.512,-12.207,978.027
1741604509.587,999.512,999.512,-27.832,999.512
1741604509.591,222.656,-25.391,-8.789,188.965
1741604509.595,-1000.0,-1000.0,23.926,-1000.0
1741604509.599,-268.066,-137.695,38.574,-280.273
1741604509.603,999.512,999.512,-0.977,999.512
1741604509.606,747.07,218.262,-46.387,700.195
1741604509.61,-615.234,-1000.0,-39.062,-659.668
1741604509.614,-1000.0,-1000.0,0.0,-1000.0
1741604509.618,-172.852,-228.516,30.273,-184.082
1741604509.622,989.746,999.512,6.836,999.512
1741604509.624,999.512,476.562,-8.301,999.512
1741604509.628,-98.633,-895.02,0.977,-177.246
1741604509.632,-1000.0,-1000.0,16.602,-1000.0
1741604509.636,-1000.0,-960.449,22.461,-989.746
1741604509.64,52.246,190.43,-20.508,168.945
1741604509.644,999.512,999.512,-23.438,999.512
1741604509.648,999.512,869.629,-8.301,999.512
1741604509.651,114.258,-315.43,-19.043,72.754
1741604509.655,-1000.0,-1000.0,-11.719,-1000.0
1741604509.659,-524.414,-195.312,-3.418,-488.281
1741604509.663,834.473,999.512,-22.949,840.332
1741604509.667,999.512,894.043,-8.789,999.512
1741604509.624,999.512,476.562,-8.301,999.512
1741604509.628,-98.633,-895.02,0.977,-177.246
1741604509.632,-1000.0,-1000.0,16.602,-1000.0
1741604509.636,-1000.0,-960.449,22.461,-989.746
1741604509.64,52.246,190.43,-20.508,168.945
1741604509.644,999.512,999.512,-23.438,999.512
1741604509.648,999.512,869.629,-8.301,999.512
1741604509.651,114.258,-315.43,-19.043,72.754
1741604509.655,-1000.0,-1000.0,-11.719,-1000.0
1741604509.659,-524.414,-195.312,-3.418,-488.281
1741604509.663,834.473,999.512,-22.949,840.332
1741604509.667,999.512,894.043,-8.789,999.512
1741604509.67,131.836,-343.75,22.461,106.445
1741604509.674,-1000.0,-1000.0,44.922,-1000.0
1741604509.678,-982.422,-928.223,27.344,-978.516
1741604509.682,-913.574,-972.656,-21.973,-915.527
1741604509.686,-1000.0,-1000.0,-29.785,-1000.0
1741604509.69,-167.969,64.453,20.508,-175.293
1741604509.694,978.027,999.512,46.875,978.027
1741604509.697,999.512,802.246,4.395,999.512
1741604509.701,608.887,-473.633,-36.621,522.461
1741604509.705,-737.305,-1000.0,-55.176,-783.203
1741604509.709,-1000.0,-1000.0,-46.875,-1000.0
1741604509.713,-190.918,-86.426,-2.441,-216.309
1741604509.67,131.836,-343.75,22.461,106.445
1741604509.674,-1000.0,-1000.0,44.922,-1000.0
1741604509.678,-982.422,-928.223,27.344,-978.516
1741604509.682,-913.574,-972.656,-21.973,-915.527
1741604509.686,-1000.0,-1000.0,-29.785,-1000.0
1741604509.69,-167.969,64.453,20.508,-175.293
1741604509.694,978.027,999.512,46.875,978.027
1741604509.697,999.512,802.246,4.395,999.512
1741604509.701,608.887,-473.633,-36.621,522.461
1741604509.705,-737.305,-1000.0,-55.176,-783.203
1741604509.709,-1000.0,-1000.0,-46.875,-1000.0
1741604509.713,-190.918,-86.426,-2.441,-216.309
1741604509.714,931.641,999.512,8.301,928.711
1741604509.718,999.512,999.512,-28.809,999.512
1741604509.722,479.492,257.324,-43.457,435.547
1741604509.726,-853.516,-991.211,-25.879,-874.512
1741604509.73,-1000.0,-1000.0,9.766,-1000.0
1741604509.734,-240.723,-83.496,31.25,-233.398
1741604509.738,999.512,999.512,8.789,999.512
1741604509.741,580.566,193.848,-22.949,539.551
1741604509.745,-924.805,-1000.0,-23.438,-963.867
1741604509.749,-1000.0,-317.383,20.508,-936.035
1741604509.753,311.523,953.125,29.785,420.41
1741604509.757,999.512,999.512,-9.277,999.512
1741604509.714,931.641,999.512,8.301,928.711
1741604509.718,999.512,999.512,-28.809,999.512
1741604509.722,479.492,257.324,-43.457,435.547
1741604509.726,-853.516,-991.211,-25.879,-874.512
1741604509.73,-1000.0,-1000.0,9.766,-1000.0
1741604509.734,-240.723,-83.496,31.25,-233.398
1741604509.738,999.512,999.512,8.789,999.512
1741604509.741,580.566,193.848,-22.949,539.551
1741604509.745,-924.805,-1000.0,-23.438,-963.867
1741604509.749,-1000.0,-317.383,20.508,-936.035
1741604509.753,311.523,953.125,29.785,420.41
1741604509.757,999.512,999.512,-9.277,999.512
1741604509.774,354.98,150.391,-37.598,341.797
1741604509.778,-901.855,-1000.0,-26.855,-904.785
1741604509.782,-1000.0,-1000.0,19.531,-1000.0
1741604509.786,-230.469,-171.875,48.34,-218.262
1741604509.79,999.512,999.512,24.902,999.512
1741604509.794,945.801,886.23,-4.883,946.777
1741604509.798,893.066,999.512,18.555,892.578
1741604509.801,999.512,670.898,56.152,999.512
1741604509.805,-29.297,-733.398,65.43,9.277
1741604509.809,-1000.0,-1000.0,36.621,-1000.0
1741604509.813,-882.812,-896.973,16.602,-891.113
1741604509.817,-1000.0,-1000.0,31.738,-1000.0
1741604509.774,354.98,150.391,-37.598,341.797
1741604509.778,-901.855,-1000.0,-26.855,-904.785
1741604509.782,-1000.0,-1000.0,19.531,-1000.0
1741604509.786,-230.469,-171.875,48.34,-218.262
1741604509.79,999.512,999.512,24.902,999.512
1741604509.794,945.801,886.23,-4.883,946.777
1741604509.798,893.066,999.512,18.555,892.578
1741604509.801,999.512,670.898,56.152,999.512
1741604509.805,-29.297,-733.398,65.43,9.277
1741604509.809,-1000.0,-1000.0,36.621,-1000.0
1741604509.813,-882.812,-896.973,16.602,-891.113
1741604509.817,-1000.0,-1000.0,31.738,-1000.0
1741604509.819,-434.57,-57.617,68.359,-425.781
1741604509.823,922.852,995.605,90.82,917.969
1741604509.827,971.191,999.512,43.945,980.957
1741604509.831,987.793,619.141,-14.648,957.031
1741604509.835,-133.789,-813.965,-28.809,-183.594
1741604509.839,-1000.0,-1000.0,-10.742,-1000.0
1741604509.843,-151.855,389.16,1.953,-137.695
1741604509.846,999.512,999.512,-34.18,995.117
1741604509.85,952.637,840.332,-72.266,983.398
1741604509.854,954.102,790.527,-53.711,834.961
1741604509.858,-317.871,-416.504,-51.27,-476.562
1741604509.862,-1000.0,-1000.0,-37.598,-1000.0
1741604509.819,-434.57,-57.617,68.359,-425.781
1741604509.823,922.852,995.605,90.82,917.969
1741604509.827,971.191,999.512,43.945,980.957
1741604509.831,987.793,619.141,-14.648,957.031
1741604509.835,-133.789,-813.965,-28.809,-183.594
1741604509.839,-1000.0,-1000.0,-10.742,-1000.0
1741604509.843,-151.855,389.16,1.953,-137.695
1741604509.846,999.512,999.512,-34.18,995.117
1741604509.85,952.637,840.332,-72.266,983.398
1741604509.854,954.102,790.527,-53.711,834.961
1741604509.858,-317.871,-416.504,-51.27,-476.562
1741604509.862,-1000.0,-1000.0,-37.598,-1000.0
1741604509.864,-882.324,-1000.0,-39.062,-888.672
1741604509.868,-1000.0,-630.371,-69.824,-1000.0
1741604509.872,-113.77,780.762,-32.715,-93.262
1741604509.876,999.512,999.512,9.766,999.512
1741604509.88,921.387,882.324,31.25,919.922
1741604509.884,906.738,972.168,21.484,911.621
1741604509.888,999.512,991.699,-27.832,999.512
1741604509.891,-34.668,-206.543,-46.875,-46.387
1741604509.895,-1000.0,-1000.0,-31.25,-1000.0
1741604509.899,-1000.0,-854.492,11.23,-1000.0
1741604509.903,-166.016,318.359,52.246,-113.77
1741604509.907,999.512,999.512,33.203,999.512
1741604509.864,-882.324,-1000.0,-39.062,-888.672
1741604509.868,-1000.0,-630.371,-69.824,-1000.0
1741604509.872,-113.77,780.762,-32.715,-93.262
1741604509.876,999.512,999.512,9.766,999.512
1741604509.88,921.387,882.324,31.25,919.922
1741604509.884,906.738,972.168,21.484,911.621
1741604509.888,999.512,991.699,-27.832,999.512
1741604509.891,-34.668,-206.543,-46.875,-46.387
1741604509.895,-1000.0,-1000.0,-31.25,-1000.0
1741604509.899,-1000.0,-854.492,11.23,-1000.0
1741604509.903,-166.016,318.359,52.246,-113.77
1741604509.907,999.512,999.512,33.203,999.512
1741604509.909,583.008,258.789,-25.879,544.922
1741604509.913,-793.457,-942.383,-28.809,-808.105
1741604509.917,-1000.0,-1000.0,5.371,-1000.0
1741604509.921,-755.371,-370.605,-8.789,-702.148
1741604509.925,587.891,929.199,-32.227,634.277
1741604509.929,999.512,941.895,-40.527,994.141
1741604509.933,999.512,999.512,-47.852,999.512
1741604509.936,199.707,85.449,-36.133,166.016
1741604509.94,-1000.0,-1000.0,-8.301,-1000.0
1741604509.944,-987.793,-33.691,24.414,-976.562
1741604509.948,-955.566,635.254,26.367,-946.777
1741604509.952,-972.656,-888.184,52.734,-981.445
1741604509.909,583.008,258.789,-25.879,544.922
1741604509.913,-793.457,-942.383,-28.809,-808.105
1741604509.917,-1000.0,-1000.0,5.371,-1000.0
1741604509.921,-755.371,-370.605,-8.789,-702.148
1741604509.925,587.891,929.199,-32.227,634.277
1741604509.929,999.512,941.895,-40.527,994.141
1741604509.933,999.512,999.512,-47.852,999.512
1741604509.936,199.707,85.449,-36.133,166.016
1741604509.94,-1000.0,-1000.0,-8.301,-1000.0
1741604509.944,-987.793,-33.691,24.414,-976.562
1741604509.948,-955.566,635.254,26.367,-946.777
1741604509.952,-972.656,-888.184,52.734,-981.445
1741604509.955,-1000.0,-1000.0,109.375,-1000.0
1741604509.959,56.152,153.809,147.461,101.562
1741604509.963,999.512,999.512,123.047,999.512
1741604509.967,999.512,950.684,79.102,999.512
1741604509.971,248.535,-133.789,71.777,226.074
1741604509.975,-1000.0,-1000.0,113.77,-1000.0
1741604509.979,-338.379,-214.844,146.973,-315.43
1741604509.982,989.258,999.512,90.82,999.512
1741604509.986,999.512,441.895,41.504,999.512
1741604509.99,-84.473,-882.812,50.781,-145.996
1741604509.994,-1000.0,-1000.0,86.426,-1000.0
1741604509.998,-839.355,-612.793,108.887,-735.352
1741604509.999,482.422,677.734,85.449,599.609
1741604510.003,999.512,999.512,42.48,999.512
1741604510.007,999.512,648.926,22.461,994.629
1741604510.011,12.695,-593.75,44.434,-10.742
1741604510.015,-1000.0,-1000.0,74.219,-1000.0
1741604510.019,-247.07,-90.82,98.633,-235.84
1741604510.023,999.512,999.512,77.637,999.512
1741604510.026,501.953,208.008,41.016,475.586
1741604510.03,-1000.0,-1000.0,55.664,-1000.0
1741604510.034,-586.914,-249.023,130.371,-536.621
1741604510.038,863.77,999.512,156.738,884.766
1741604510.042,999.512,938.965,106.934,999.512
1741604510.044,189.941,-245.117,96.191,180.664
1741604510.048,-1000.0,-1000.0,143.066,-1000.0
1741604510.052,-803.223,-354.98,185.547,-737.305
1741604510.056,624.512,957.52,172.852,689.453
1741604510.06,999.512,969.238,124.023,999.512
1741604510.064,831.055,853.516,104.492,833.496
1741604510.068,999.512,999.512,85.938,999.512
1741604510.071,297.852,154.297,50.781,351.562
1741604510.075,-1000.0,-1000.0,41.016,-1000.0
1741604510.079,-994.629,-922.852,42.48,-1000.0
1741604510.083,-913.574,-1000.0,25.879,-909.668
1741604510.087,-1000.0,-756.348,46.875,-1000.0
1741604510.044,189.941,-245.117,96.191,180.664
1741604510.048,-1000.0,-1000.0,143.066,-1000.0
1741604510.052,-803.223,-354.98,185.547,-737.305
1741604510.056,624.512,957.52,172.852,689.453
1741604510.06,999.512,969.238,124.023,999.512
1741604510.064,831.055,853.516,104.492,833.496
1741604510.068,999.512,999.512,85.938,999.512
1741604510.071,297.852,154.297,50.781,351.562
1741604510.075,-1000.0,-1000.0,41.016,-1000.0
1741604510.079,-994.629,-922.852,42.48,-1000.0
1741604510.083,-913.574,-1000.0,25.879,-909.668
1741604510.087,-1000.0,-756.348,46.875,-1000.0
1741604510.089,-71.777,631.836,97.168,-81.543
1741604510.093,997.559,988.77,106.934,994.141
1741604510.097,999.512,999.512,92.773,999.512
1741604510.101,433.594,255.859,66.406,414.551
1741604510.105,-975.586,-1000.0,62.5,-1000.0
1741604510.109,-1000.0,-322.266,133.789,-942.871
1741604510.113,259.277,982.91,154.297,386.23
1741604510.116,999.512,999.512,77.637,999.512
1741604510.12,173.828,-24.414,13.672,190.43
1741604510.124,-977.051,-1000.0,0.488,-969.238
1741604510.128,-1000.0,-1000.0,21.484,-1000.0
1741604510.132,-324.219,-142.09,32.227,-291.016
1741604510.089,-71.777,631.836,97.168,-81.543
1741604510.093,997.559,988.77,106.934,994.141
1741604510.097,999.512,999.512,92.773,999.512
1741604510.101,433.594,255.859,66.406,414.551
1741604510.105,-975.586,-1000.0,62.5,-1000.0
1741604510.109,-1000.0,-322.266,133.789,-942.871
1741604510.113,259.277,982.91,154.297,386.23
1741604510.116,999.512,999.512,77.637,999.512
1741604510.12,173.828,-24.414,13.672,190.43
1741604510.124,-977.051,-1000.0,0.488,-969.238
1741604510.128,-1000.0,-1000.0,21.484,-1000.0
1741604510.132,-324.219,-142.09,32.227,-291.016
1741604510.149,909.668,985.84,2.441,922.852
1741604510.153,999.512,999.512,-6.348,999.512
1741604510.157,219.727,142.09,11.719,208.984
1741604510.161,-973.633,-1000.0,45.41,-978.027
1741604510.165,-1000.0,-1000.0,75.195,-1000.0
1741604510.169,-259.277,-152.832,45.898,-257.324
1741604510.173,999.512,999.512,-11.23,999.512
1741604510.176,329.59,172.852,-52.734,283.691
1741604510.18,-984.863,-1000.0,-34.18,-1000.0
1741604510.184,-1000.0,-925.293,9.277,-1000.0
1741604510.188,-172.852,304.688,8.789,-139.16
1741604510.192,999.512,999.512,-13.672,999.512
1741604510.194,347.168,132.812,-34.18,298.34
1741604510.198,-948.242,-1000.0,-21.484,-963.867
1741604510.202,-1000.0,-1000.0,5.859,-1000.0
1741604510.206,-265.625,-137.695,-21.973,-260.742
1741604510.21,950.684,971.68,-60.059,949.707
1741604510.214,980.469,999.512,-56.641,994.141
1741604510.218,913.086,550.781,-56.641,860.84
1741604510.221,-372.559,-802.734,-56.641,-439.941
1741604510.225,-1000.0,-1000.0,-56.641,-1000.0
1741604510.229,-946.777,170.898,-66.895,-946.777
1741604510.233,-932.617,403.809,-79.102,-935.547
1741604510.237,-1000.0,-1000.0,-75.195,-1000.0
1741604510.194,347.168,132.812,-34.18,298.34
1741604510.198,-948.242,-1000.0,-21.484,-963.867
1741604510.202,-1000.0,-1000.0,5.859,-1000.0
1741604510.206,-265.625,-137.695,-21.973,-260.742
1741604510.21,950.684,971.68,-60.059,949.707
1741604510.214,980.469,999.512,-56.641,994.141
1741604510.218,913.086,550.781,-56.641,860.84
1741604510.221,-372.559,-802.734,-56.641,-439.941
1741604510.225,-1000.0,-1000.0,-56.641,-1000.0
1741604510.229,-946.777,170.898,-66.895,-946.777
1741604510.233,-932.617,403.809,-79.102,-935.547
1741604510.237,-1000.0,-1000.0,-75.195,-1000.0
1741604510.24,-465.332,-410.156,-59.082,-434.57
1741604510.244,857.91,935.059,-41.504,868.652
1741604510.248,999.512,999.512,-57.617,999.512
1741604510.252,630.859,194.336,-85.449,564.453
1741604510.256,-896.484,-1000.0,-56.641,-956.543
1741604510.26,-820.801,-270.996,14.648,-735.84
1741604510.264,672.363,999.512,13.672,734.375
1741604510.267,999.512,717.285,-38.086,999.512
1741604510.271,142.578,-586.914,-67.871,107.422
1741604510.275,-1000.0,-1000.0,-60.547,-1000.0
1741604510.279,-1000.0,-730.469,-17.09,-1000.0
1741604510.283,108.887,515.137,-10.254,166.016
1741604510.24,-465.332,-410.156,-59.082,-434.57
1741604510.244,857.91,935.059,-41.504,868.652
1741604510.248,999.512,999.512,-57.617,999.512
1741604510.252,630.859,194.336,-85.449,564.453
1741604510.256,-896.484,-1000.0,-56.641,-956.543
1741604510.26,-820.801,-270.996,14.648,-735.84
1741604510.264,672.363,999.512,13.672,734.375
1741604510.267,999.512,717.285,-38.086,999.512
1741604510.271,142.578,-586.914,-67.871,107.422
1741604510.275,-1000.0,-1000.0,-60.547,-1000.0
1741604510.279,-1000.0,-730.469,-17.09,-1000.0
1741604510.283,108.887,515.137,-10.254,166.016
1741604510.284,999.512,999.512,-44.922,999.512
1741604510.288,999.512,721.191,-49.805,999.512
1741604510.292,64.453,-534.668,-22.949,40.039
1741604510.296,-1000.0,-1000.0,44.434,-1000.0
1741604510.3,-191.895,-69.824,103.027,-173.828
1741604510.304,999.512,999.512,64.453,999.512
1741604510.308,999.512,844.727,20.996,999.512
1741604510.311,35.645,-468.262,-2.93,37.598
1741604510.315,-1000.0,-1000.0,35.645,-1000.0
1741604510.319,-198.242,-24.902,95.215,-188.477
1741604510.323,999.512,999.512,31.25,999.512
1741604510.327,999.512,460.938,-14.648,999.512
1741604510.329,-57.129,-827.148,2.441,-71.289
1741604510.333,-1000.0,-1000.0,24.902,-1000.0
1741604510.337,-507.324,-423.828,40.527,-414.551
1741604510.341,888.184,999.512,11.23,937.988
1741604510.345,999.512,593.75,-45.898,993.164
1741604510.349,914.062,-529.297,-42.48,928.711
1741604510.353,916.992,584.961,10.254,906.25
1741604510.356,999.512,999.512,21.973,999.512
1741604510.36,208.496,-281.738,-56.152,427.734
1741604510.364,-1000.0,-1000.0,-110.352,-908.691
1741604510.368,-1000.0,-1000.0,-78.125,-1000.0
1741604510.372,-934.082,-479.98,-60.059,-821.289
1741604510.374,388.672,906.25,-54.688,510.742
1741604510.378,999.512,937.988,-77.148,999.512
1741604510.382,998.047,999.512,-116.211,978.516
1741604510.386,655.273,256.836,-128.418,757.324
1741604510.39,-988.77,-1000.0,-115.234,-879.395
1741604510.394,-623.535,-332.52,-53.711,-557.129
1741604510.398,851.074,999.512,-43.945,916.016
1741604510.401,999.512,814.941,-107.422,999.512
1741604510.405,552.734,-489.258,-115.234,667.969
1741604510.409,-818.848,-1000.0,-79.59,-743.652
1741604510.413,-1000.0,-784.668,-65.43,-1000.0
1741604510.417,196.289,677.246,-74.219,441.895
1741604510.374,388.672,906.25,-54.688,510.742
1741604510.378,999.512,937.988,-77.148,999.512
1741604510.382,998.047,999.512,-116.211,978.516
1741604510.386,655.273,256.836,-128.418,757.324
1741604510.39,-988.77,-1000.0,-115.234,-879.395
1741604510.394,-623.535,-332.52,-53.711,-557.129
1741604510.398,851.074,999.512,-43.945,916.016
1741604510.401,999.512,814.941,-107.422,999.512
1741604510.405,552.734,-489.258,-115.234,667.969
1741604510.409,-818.848,-1000.0,-79.59,-743.652
1741604510.413,-1000.0,-784.668,-65.43,-1000.0
1741604510.417,196.289,677.246,-74.219,441.895
1741604510.419,999.512,604.492,-120.117,999.512
1741604510.423,999.512,-940.43,-144.531,966.797
1741604510.427,-23.438,-973.145,-151.367,-45.898
1741604510.431,-1000.0,-1000.0,-146.973,-1000.0
1741604510.435,-244.141,-292.48,-132.324,-205.078
1741604510.439,960.938,999.512,-138.184,981.445
1741604510.443,999.512,897.461,-157.715,999.512
1741604510.446,147.461,-381.836,-162.109,137.207
1741604510.45,-1000.0,-1000.0,-112.793,-1000.0
1741604510.454,-997.559,-895.508,-78.125,-779.785
1741604510.458,207.52,300.781,-124.023,489.258
1741604510.462,999.512,999.512,-209.961,999.512
1741604510.419,999.512,604.492,-120.117,999.512
1741604510.423,999.512,-940.43,-144.531,966.797
1741604510.427,-23.438,-973.145,-151.367,-45.898
1741604510.431,-1000.0,-1000.0,-146.973,-1000.0
1741604510.435,-244.141,-292.48,-132.324,-205.078
1741604510.439,960.938,999.512,-138.184,981.445
1741604510.443,999.512,897.461,-157.715,999.512
1741604510.446,147.461,-381.836,-162.109,137.207
1741604510.45,-1000.0,-1000.0,-112.793,-1000.0
1741604510.454,-997.559,-895.508,-78.125,-779.785
1741604510.458,207.52,300.781,-124.023,489.258
1741604510.462,999.512,999.512,-209.961,999.512
1741604510.465,438.965,158.691,-251.953,440.918
1741604510.469,-925.293,-1000.0,-212.891,-909.18
1741604510.473,-1000.0,-974.609,-183.105,-1000.0
1741604510.477,-884.766,-933.594,-222.656,-885.742
1741604510.481,-1000.0,-1000.0,-242.188,-1000.0
1741604510.485,-220.703,-50.781,-208.008,-214.844
1741604510.489,999.512,999.512,-175.781,999.512
1741604510.492,962.402,596.68,-180.176,958.984
1741604510.496,864.746,-1000.0,-204.102,869.141
1741604510.5,999.512,-146.973,-217.285,999.512
1741604510.504,448.73,499.023,-210.938,371.582
1741604510.508,-958.984,-985.352,-158.691,-988.77
1741604510.525,-972.168,-1000.0,-115.723,-961.426
1741604510.529,-1000.0,-966.309,-139.648,-1000.0
1741604510.533,-180.176,247.07,-158.691,-154.785
1741604510.537,999.512,999.512,-161.133,999.512
1741604510.541,895.02,834.961,-144.531,900.391
1741604510.545,977.051,999.512,-128.418,961.914
1741604510.549,892.09,373.535,-166.992,937.988
1741604510.552,-483.398,-966.309,-199.219,-387.207
1741604510.556,-1000.0,-1000.0,-186.523,-1000.0
1741604510.56,-1000.0,-984.375,-144.043,-1000.0
1741604510.564,-231.445,73.73,-87.402,-198.242
1741604510.568,977.539,999.512,-94.238,994.141
1741604510.558,999.512,491.211,-154.785,999.512
1741604510.562,200.195,-802.246,-151.855,139.16
1741604510.566,-1000.0,-1000.0,-104.492,-1000.0
1741604510.57,-520.508,-234.375,-64.941,-449.707
1741604510.574,896.484,934.57,-39.062,925.781
1741604510.578,970.703,999.512,-49.316,959.961
1741604510.582,999.512,696.777,-82.031,999.512
1741604510.585,-25.391,-625.0,-90.332,-20.508
1741604510.589,-1000.0,-1000.0,-41.992,-1000.0
1741604510.593,-153.809,-30.273,13.672,-97.168
1741604510.597,977.539,999.512,-3.906,999.512
1741604510.601,999.512,999.512,-9.277,999.512
1741604510.614,662.109,36.621,5.859,742.676
1741604510.618,-717.285,-1000.0,3.906,-675.293
1741604510.622,-1000.0,-1000.0,6.836,-1000.0
1741604510.626,93.75,178.711,-9.766,426.758
1741604510.63,999.512,811.035,-33.203,999.512
1741604510.634,901.855,416.504,-34.668,905.762
1741604510.638,921.875,999.512,-11.23,912.109
1741604510.641,999.512,524.414,-12.207,999.512
1741604510.645,-75.684,-918.945,-69.336,131.348
1741604510.649,-1000.0,-975.586,-83.008,-1000.0
1741604510.653,-978.516,-1000.0,-53.223,-1000.0
1741604510.657,-940.43,-579.102,-36.621,-864.258
1741604510.614,662.109,36.621,5.859,742.676
1741604510.618,-717.285,-1000.0,3.906,-675.293
1741604510.622,-1000.0,-1000.0,6.836,-1000.0
1741604510.626,93.75,178.711,-9.766,426.758
1741604510.63,999.512,811.035,-33.203,999.512
1741604510.634,901.855,416.504,-34.668,905.762
1741604510.638,921.875,999.512,-11.23,912.109
1741604510.641,999.512,524.414,-12.207,999.512
1741604510.645,-75.684,-918.945,-69.336,131.348
1741604510.649,-1000.0,-975.586,-83.008,-1000.0
1741604510.653,-978.516,-1000.0,-53.223,-1000.0
1741604510.657,-940.43,-579.102,-36.621,-864.258
1741604510.678,385.742,782.227,-22.949,457.52
1741604510.682,999.512,999.512,-54.199,999.512
1741604510.686,999.512,710.938,-82.52,999.512
1741604510.69,35.645,-556.152,-83.008,28.32
1741604510.694,-1000.0,-1000.0,-55.664,-1000.0
1741604510.698,-247.07,-11.23,3.418,-241.211
1741604510.702,999.512,999.512,-7.324,999.512
1741604510.705,583.496,197.266,-49.805,562.012
1741604510.709,-807.129,-1000.0,-27.832,-811.523
1741604510.713,-1000.0,-994.629,-5.371,-1000.0
1741604510.717,-222.656,194.336,9.277,-198.73
1741604510.721,999.512,999.512,-15.137,999.512
1741604510.678,385.742,782.227,-22.949,457.52
1741604510.682,999.512,999.512,-54.199,999.512
1741604510.686,999.512,710.938,-82.52,999.512
1741604510.69,35.645,-556.152,-83.008,28.32
1741604510.694,-1000.0,-1000.0,-55.664,-1000.0
1741604510.698,-247.07,-11.23,3.418,-241.211
1741604510.702,999.512,999.512,-7.324,999.512
1741604510.705,583.496,197.266,-49.805,562.012
1741604510.709,-807.129,-1000.0,-27.832,-811.523
1741604510.713,-1000.0,-994.629,-5.371,-1000.0
1741604510.717,-222.656,194.336,9.277,-198.73
1741604510.721,999.512,999.512,-15.137,999.512
1741604510.719,795.898,229.004,-65.43,764.648
1741604510.723,-749.023,-1000.0,-63.477,-756.348
1741604510.727,-1000.0,-937.5,-36.133,-1000.0
1741604510.731,767.09,728.027,-50.293,765.137
1741604510.735,310.547,231.445,-95.703,338.379
1741604510.739,-1000.0,-1000.0,-76.66,-1000.0
1741604510.743,-1000.0,-1000.0,-51.758,-1000.0
1741604510.746,-205.078,-265.137,-79.102,-147.461
1741604510.75,955.078,938.477,-94.238,978.027
1741604510.754,999.512,999.512,-74.219,999.512
1741604510.758,660.156,183.594,-62.988,709.473
1741604510.762,-737.305,-1000.0,-61.035,-660.156
1741604510.719,795.898,229.004,-65.43,764.648
1741604510.723,-749.023,-1000.0,-63.477,-756.348
1741604510.727,-1000.0,-937.5,-36.133,-1000.0
1741604510.731,767.09,728.027,-50.293,765.137
1741604510.735,310.547,231.445,-95.703,338.379
1741604510.739,-1000.0,-1000.0,-76.66,-1000.0
1741604510.743,-1000.0,-1000.0,-51.758,-1000.0
1741604510.746,-205.078,-265.137,-79.102,-147.461
1741604510.75,955.078,938.477,-94.238,978.027
1741604510.754,999.512,999.512,-74.219,999.512
1741604510.758,660.156,183.594,-62.988,709.473
1741604510.762,-737.305,-1000.0,-61.035,-660.156
1741604510.764,-1000.0,-957.031,-36.621,-1000.0
1741604510.768,-1000.0,-1000.0,-60.547,-1000.0
1741604510.772,-235.352,17.09,-85.449,-225.586
1741604510.776,999.512,999.512,-71.289,999.512
1741604510.78,950.684,916.504,-44.922,950.195
1741604510.784,875.977,909.18,-38.574,877.441
1741604510.788,999.512,999.512,-58.594,999.512
1741604510.791,183.594,30.273,-61.035,186.035
1741604510.795,-1000.0,-1000.0,-31.25,-1000.0
1741604510.799,-1000.0,-1000.0,5.859,-1000.0
