timestamps,TP9,AF7,AF8,TP10
1741605549.459,-158.691,-519.043,-225.586,-36.133
1741605549.463,-1000.000,-1000.000,-296.875,-1000.000
1741605549.467,-951.172,-896.484,-230.469,-968.750
1741605549.471,-933.105,-1000.000,-166.016,-924.316
1741605549.475,-1000.000,-1000.000,-144.043,-1000.000
1741605549.479,-361.816,204.102,126.953,-389.160
1741605549.483,956.055,999.512,422.852,939.941
1741605549.486,979.980,907.227,175.781,986.328
1741605549.490,939.453,983.398,-156.738,936.523
1741605549.494,932.129,910.645,-302.246,937.500
1741605549.498,988.281,999.512,-253.418,980.469
1741605549.502,948.730,861.328,-117.188,969.727
1741605549.504,-441.406,-591.797,-317.871,-393.555
1741605549.508,-1000.000,-1000.000,-515.137,-1000.000
1741605549.512,-916.992,-882.812,-313.965,-922.363
1741605549.516,-968.262,-1000.000,-112.793,-962.402
1741605549.520,-1000.000,-994.141,-132.324,-1000.000
1741605549.524,-87.891,377.441,106.445,-151.855
1741605549.528,999.512,999.512,395.508,999.512
1741605549.531,942.871,907.227,34.180,954.102
1741605549.535,932.129,933.594,-169.434,929.688
1741605549.539,936.523,984.863,47.363,936.035
1741605549.543,999.512,956.543,-4.883,999.512
1741605549.547,-37.598,-413.574,-283.691,4.883
1741605549.549,-1000.000,-1000.000,-530.762,-1000.000
1741605549.553,-960.449,-934.082,-345.215,-967.285
1741605549.557,-1000.000,-992.188,-89.844,-1000.000
1741605549.561,-930.664,-969.727,-57.129,-933.594
1741605549.565,-1000.000,-1000.000,-195.312,-1000.000
1741605549.569,-613.281,22.461,-49.805,-637.207
1741605549.573,838.867,999.512,378.418,813.965
1741605549.576,999.512,927.246,119.141,999.512
1741605549.580,907.227,955.566,-311.035,906.738
1741605549.584,982.422,970.703,-273.438,983.398
1741605549.588,982.422,983.398,-150.879,983.398
1741605549.592,908.203,899.902,-78.125,908.691
1741605549.549,-1000.000,-1000.000,-530.762,-1000.000
1741605549.553,-960.449,-934.082,-345.215,-967.285
1741605549.557,-1000.000,-992.188,-89.844,-1000.000
1741605549.561,-930.664,-969.727,-57.129,-933.594
1741605549.565,-1000.000,-1000.000,-195.312,-1000.000
1741605549.569,-613.281,22.461,-49.805,-637.207
1741605549.573,838.867,999.512,378.418,813.965
1741605549.576,999.512,927.246,119.141,999.512
1741605549.580,907.227,955.566,-311.035,906.738
1741605549.584,982.422,970.703,-273.438,983.398
1741605549.588,982.422,983.398,-150.879,983.398
1741605549.592,908.203,899.902,-78.125,908.691
1741605549.595,999.512,999.512,27.832,999.512
1741605549.599,856.934,714.844,26.855,853.516
1741605549.603,-598.633,-764.160,-321.777,-604.980
1741605549.607,-1000.000,-1000.000,-403.320,-1000.000
1741605549.611,-861.816,-956.543,-220.703,-865.723
1741605549.615,-1000.000,-993.164,-21.973,-1000.000
1741605549.619,-375.000,412.109,183.105,-354.492
1741605549.622,950.684,999.512,-22.461,949.219
1741605549.626,991.699,864.258,-195.312,992.188
1741605549.630,857.422,970.703,-68.359,859.863
1741605549.634,999.512,999.512,-219.727,999.512
1741605549.638,429.199,-247.070,-370.605,465.820
1741605549.595,999.512,999.512,27.832,999.512
1741605549.599,856.934,714.844,26.855,853.516
1741605549.603,-598.633,-764.160,-321.777,-604.980
1741605549.607,-1000.000,-1000.000,-403.320,-1000.000
1741605549.611,-861.816,-956.543,-220.703,-865.723
1741605549.615,-1000.000,-993.164,-21.973,-1000.000
1741605549.619,-375.000,412.109,183.105,-354.492
1741605549.622,950.684,999.512,-22.461,949.219
1741605549.626,991.699,864.258,-195.312,992.188
1741605549.630,857.422,970.703,-68.359,859.863
1741605549.634,999.512,999.512,-219.727,999.512
1741605549.638,429.199,-247.070,-370.605,465.820
1741605549.639,-947.754,-1000.000,-509.766,-922.363
1741605549.643,-1000.000,-950.684,-365.723,-1000.000
1741605549.647,-957.031,-965.332,-79.102,-958.984
1741605549.651,-951.660,-1000.000,15.625,-947.754
1741605549.655,-1000.000,-1000.000,-220.703,-1000.000
1741605549.659,-337.402,289.062,-104.492,-458.496
1741605549.663,964.355,999.512,282.715,909.668
1741605549.666,975.586,898.926,30.762,998.047
1741605549.670,928.711,974.609,-238.281,919.922
1741605549.674,994.141,969.727,-75.684,997.070
1741605549.678,898.926,910.645,-25.879,901.855
1741605549.682,999.512,999.512,-151.855,999.512
1741605549.699,743.164,325.195,-148.926,764.648
1741605549.703,-734.375,-973.633,-273.926,-706.055
1741605549.707,-1000.000,-983.887,-298.828,-1000.000
1741605549.711,-857.910,-961.914,-101.562,-860.840
1741605549.715,-1000.000,-1000.000,-120.605,-1000.000
1741605549.719,-613.770,290.039,79.590,-595.703
1741605549.723,837.891,999.512,434.570,832.031
1741605549.726,999.512,915.527,226.562,999.512
1741605549.730,849.609,910.156,-172.852,852.051
1741605549.734,999.512,999.512,-189.453,999.512
1741605549.738,856.934,780.273,-219.238,857.422
1741605549.742,-597.656,-677.734,-356.445,-597.656
1741605549.699,743.164,325.195,-148.926,764.648
1741605549.703,-734.375,-973.633,-273.926,-706.055
1741605549.707,-1000.000,-983.887,-298.828,-1000.000
1741605549.711,-857.910,-961.914,-101.562,-860.840
1741605549.715,-1000.000,-1000.000,-120.605,-1000.000
1741605549.719,-613.770,290.039,79.590,-595.703
1741605549.723,837.891,999.512,434.570,832.031
1741605549.726,999.512,915.527,226.562,999.512
1741605549.730,849.609,910.156,-172.852,852.051
1741605549.734,999.512,999.512,-189.453,999.512
1741605549.738,856.934,780.273,-219.238,857.422
1741605549.742,-597.656,-677.734,-356.445,-597.656
1741605549.744,-1000.000,-1000.000,-424.805,-1000.000
1741605549.748,-934.570,-944.336,-255.859,-933.594
1741605549.752,-982.910,-965.332,-137.695,-985.840
1741605549.756,-996.582,-1000.000,-81.055,-991.211
1741605549.760,-1000.000,-940.430,-105.469,-1000.000
1741605549.764,262.207,481.934,156.738,217.773
1741605549.768,999.512,999.512,422.852,999.512
1741605549.771,898.926,892.578,74.219,904.297
1741605549.775,981.934,996.094,-129.395,979.004
1741605549.779,926.270,912.109,-106.445,928.711
1741605549.783,977.051,999.512,-53.223,974.609
1741605549.787,977.051,879.883,-23.926,983.887
1741605549.744,-1000.000,-1000.000,-424.805,-1000.000
1741605549.748,-934.570,-944.336,-255.859,-933.594
1741605549.752,-982.910,-965.332,-137.695,-985.840
1741605549.756,-996.582,-1000.000,-81.055,-991.211
1741605549.760,-1000.000,-940.430,-105.469,-1000.000
1741605549.764,262.207,481.934,156.738,217.773
1741605549.768,999.512,999.512,422.852,999.512
1741605549.771,898.926,892.578,74.219,904.297
1741605549.775,981.934,996.094,-129.395,979.004
1741605549.779,926.270,912.109,-106.445,928.711
1741605549.783,977.051,999.512,-53.223,974.609
1741605549.787,977.051,879.883,-23.926,983.887
1741605549.789,-379.883,-563.477,-234.863,-360.840
1741605549.793,-1000.000,-1000.000,-312.012,-1000.000
1741605549.797,-946.777,-912.598,-85.449,-947.754
1741605549.801,-938.477,-978.516,-1.465,-940.430
1741605549.805,-1000.000,-1000.000,-61.035,-1000.000
1741605549.809,-729.492,-55.176,105.957,-769.531
1741605549.813,748.047,999.512,472.168,704.102
1741605549.816,999.512,939.453,278.809,999.512
1741605549.820,916.504,961.426,92.285,914.551
1741605549.824,920.898,905.273,125.977,921.875
1741605549.828,999.512,999.512,-13.184,999.512
1741605549.832,801.270,529.785,-153.809,804.688
1741605549.789,-379.883,-563.477,-234.863,-360.840
1741605549.793,-1000.000,-1000.000,-312.012,-1000.000
1741605549.797,-946.777,-912.598,-85.449,-947.754
1741605549.801,-938.477,-978.516,-1.465,-940.430
1741605549.805,-1000.000,-1000.000,-61.035,-1000.000
1741605549.809,-729.492,-55.176,105.957,-769.531
1741605549.813,748.047,999.512,472.168,704.102
1741605549.816,999.512,939.453,278.809,999.512
1741605549.820,916.504,961.426,92.285,914.551
1741605549.824,920.898,905.273,125.977,921.875
1741605549.828,999.512,999.512,-13.184,999.512
1741605549.832,801.270,529.785,-153.809,804.688
1741605549.834,-668.457,-875.977,-423.828,-661.133
1741605549.838,-1000.000,-1000.000,-324.707,-1000.000
1741605549.842,-944.824,-953.613,-75.195,-944.824
1741605549.846,-953.613,-950.195,-59.570,-955.078
1741605549.850,-1000.000,-1000.000,-140.137,-1000.000
1741605549.854,-829.102,-446.289,1.953,-841.309
1741605549.858,642.090,910.645,366.699,624.023
1741605549.861,999.512,997.070,187.012,999.512
1741605549.865,897.949,932.617,-202.637,897.461
1741605549.869,969.238,937.500,-170.898,975.098
1741605549.873,929.199,983.398,-51.758,922.363
1741605549.877,999.512,961.914,-12.695,999.512
1741605549.834,-668.457,-875.977,-423.828,-661.133
1741605549.838,-1000.000,-1000.000,-324.707,-1000.000
1741605549.842,-944.824,-953.613,-75.195,-944.824
1741605549.846,-953.613,-950.195,-59.570,-955.078
1741605549.850,-1000.000,-1000.000,-140.137,-1000.000
1741605549.854,-829.102,-446.289,1.953,-841.309
1741605549.858,642.090,910.645,366.699,624.023
1741605549.861,999.512,997.070,187.012,999.512
1741605549.865,897.949,932.617,-202.637,897.461
1741605549.869,969.238,937.500,-170.898,975.098
1741605549.873,929.199,983.398,-51.758,922.363
1741605549.877,999.512,961.914,-12.695,999.512
1741605549.880,-11.230,-408.691,-111.328,89.355
1741605549.884,-1000.000,-1000.000,-229.492,-1000.000
1741605549.888,-980.469,-945.312,-292.480,-994.629
1741605549.892,-928.711,-948.242,-212.891,-924.316
1741605549.896,-1000.000,-1000.000,-86.914,-1000.000
1741605549.900,-894.531,-841.797,4.395,-917.480
1741605549.904,558.594,621.582,248.535,522.949
1741605549.907,999.512,999.512,120.117,999.512
1741605549.911,895.996,905.762,-136.719,895.996
1741605549.915,965.820,942.871,58.594,967.773
1741605549.919,932.617,979.492,-65.918,930.176
1741605549.923,999.512,970.703,-110.840,999.512
1741605549.924,-50.781,-385.254,-191.895,-4.883
1741605549.928,-1000.000,-1000.000,-390.625,-1000.000
1741605549.932,-976.074,-908.691,-173.828,-982.910
1741605549.936,-922.852,-984.375,66.406,-921.875
1741605549.940,-1000.000,-1000.000,-132.324,-1000.000
1741605549.944,-793.457,82.031,-45.898,-811.523
1741605549.948,683.105,999.512,393.066,654.297
1741605549.951,999.512,919.922,276.367,999.512
1741605549.955,898.438,969.727,-107.422,898.438
1741605549.959,975.098,933.105,-98.145,979.492
1741605549.963,920.898,970.703,-52.246,916.504
1741605549.967,999.512,992.676,-10.742,999.512
1741605549.969,79.102,-336.914,-76.660,160.645
1741605549.973,-1000.000,-1000.000,-249.512,-1000.000
1741605549.977,-993.164,-932.617,-145.020,-1000.000
1741605549.981,-917.969,-950.195,-120.605,-911.133
1741605549.985,-1000.000,-1000.000,-209.961,-1000.000
1741605549.989,-847.656,-290.527,18.066,-834.473
1741605549.993,618.652,970.215,407.227,630.859
1741605549.996,999.512,988.770,255.371,999.512
1741605550.000,844.238,872.070,-176.758,850.098
1741605550.004,999.512,999.512,-116.211,999.512
1741605550.008,921.387,824.219,-143.555,948.242
1741605550.012,-490.234,-636.230,-319.824,-435.547
1741605549.969,79.102,-336.914,-76.660,160.645
1741605549.973,-1000.000,-1000.000,-249.512,-1000.000
1741605549.977,-993.164,-932.617,-145.020,-1000.000
1741605549.981,-917.969,-950.195,-120.605,-911.133
1741605549.985,-1000.000,-1000.000,-209.961,-1000.000
1741605549.989,-847.656,-290.527,18.066,-834.473
1741605549.993,618.652,970.215,407.227,630.859
1741605549.996,999.512,988.770,255.371,999.512
1741605550.000,844.238,872.070,-176.758,850.098
1741605550.004,999.512,999.512,-116.211,999.512
1741605550.008,921.387,824.219,-143.555,948.242
1741605550.012,-490.234,-636.230,-319.824,-435.547
1741605550.014,-1000.000,-1000.000,-349.609,-1000.000
1741605550.018,-932.617,-939.453,-209.473,-933.594
1741605550.022,-988.770,-972.656,-82.031,-988.770
1741605550.026,-979.492,-1000.000,0.488,-976.074
1741605550.030,-1000.000,-987.305,-72.754,-1000.000
1741605550.034,139.160,392.090,146.973,98.145
1741605550.038,999.512,999.512,391.113,999.512
1741605550.041,910.156,895.020,11.719,916.504
1741605550.045,963.379,977.051,-91.797,960.938
1741605550.049,981.445,983.398,-73.242,981.934
1741605550.053,916.504,908.203,-162.109,921.387
1741605550.057,999.512,999.512,-117.188,990.234
1741605550.014,-1000.000,-1000.000,-349.609,-1000.000
1741605550.018,-932.617,-939.453,-209.473,-933.594
1741605550.022,-988.770,-972.656,-82.031,-988.770
1741605550.026,-979.492,-1000.000,0.488,-976.074
1741605550.030,-1000.000,-987.305,-72.754,-1000.000
1741605550.034,139.160,392.090,146.973,98.145
1741605550.038,999.512,999.512,391.113,999.512
1741605550.041,910.156,895.020,11.719,916.504
1741605550.045,963.379,977.051,-91.797,960.938
1741605550.049,981.445,983.398,-73.242,981.934
1741605550.053,916.504,908.203,-162.109,921.387
1741605550.057,999.512,999.512,-117.188,990.234
1741605550.074,917.480,844.238,-41.504,943.848
1741605550.078,-498.535,-614.258,-148.926,-445.312
1741605550.082,-1000.000,-1000.000,-282.227,-1000.000
1741605550.086,-870.117,-861.328,-166.992,-873.047
1741605550.090,-1000.000,-1000.000,-167.969,-1000.000
1741605550.094,-905.762,-643.555,-9.766,-916.504
1741605550.098,540.527,777.832,270.508,524.414
1741605550.101,999.512,999.512,154.785,999.512
1741605550.105,907.715,923.340,55.176,907.227
1741605550.109,924.316,921.875,86.914,929.688
1741605550.113,999.512,999.512,-112.793,999.512
1741605550.117,862.793,820.312,-46.387,900.879
1741605550.074,917.480,844.238,-41.504,943.848
1741605550.078,-498.535,-614.258,-148.926,-445.312
1741605550.082,-1000.000,-1000.000,-282.227,-1000.000
1741605550.086,-870.117,-861.328,-166.992,-873.047
1741605550.090,-1000.000,-1000.000,-167.969,-1000.000
1741605550.094,-905.762,-643.555,-9.766,-916.504
1741605550.098,540.527,777.832,270.508,524.414
1741605550.101,999.512,999.512,154.785,999.512
1741605550.105,907.715,923.340,55.176,907.227
1741605550.109,924.316,921.875,86.914,929.688
1741605550.113,999.512,999.512,-112.793,999.512
1741605550.117,862.793,820.312,-46.387,900.879
1741605550.119,-588.867,-641.113,-227.539,-526.855
1741605550.123,-1000.000,-1000.000,-309.570,-1000.000
1741605550.127,-919.434,-892.090,-68.359,-918.457
1741605550.131,-967.285,-1000.000,-59.082,-968.262
1741605550.135,-1000.000,-1000.000,-126.465,-1000.000
1741605550.139,-150.391,289.062,155.762,-137.695
1741605550.143,999.512,999.512,456.055,999.512
1741605550.146,947.266,898.926,164.062,947.754
1741605550.150,943.359,983.398,-262.207,944.336
1741605550.154,986.816,927.246,-341.797,989.746
1741605550.158,895.020,977.051,-205.078,899.902
1741605550.162,999.512,975.586,-111.816,999.512
1741605550.119,-588.867,-641.113,-227.539,-526.855
1741605550.123,-1000.000,-1000.000,-309.570,-1000.000
1741605550.127,-919.434,-892.090,-68.359,-918.457
1741605550.131,-967.285,-1000.000,-59.082,-968.262
1741605550.135,-1000.000,-1000.000,-126.465,-1000.000
1741605550.139,-150.391,289.062,155.762,-137.695
1741605550.143,999.512,999.512,456.055,999.512
1741605550.146,947.266,898.926,164.062,947.754
1741605550.150,943.359,983.398,-262.207,944.336
1741605550.154,986.816,927.246,-341.797,989.746
1741605550.158,895.020,977.051,-205.078,899.902
1741605550.162,999.512,975.586,-111.816,999.512
1741605550.164,557.617,-372.559,-112.793,715.332
1741605550.168,-877.441,-1000.000,-206.055,-751.465
1741605550.172,-1000.000,-919.434,-268.555,-1000.000
1741605550.176,-870.117,-968.750,-202.148,-862.305
1741605550.180,-1000.000,-1000.000,-185.547,-1000.000
1741605550.184,-630.859,-88.867,31.738,-574.219
1741605550.188,829.102,999.512,376.465,853.516
1741605550.191,999.512,943.359,71.289,999.512
1741605550.195,913.574,960.449,-296.875,917.480
1741605550.199,953.125,924.805,-91.797,958.496
1741605550.203,954.590,995.605,-111.816,946.289
1741605550.207,999.512,929.688,-196.289,999.512
1741605550.209,-250.488,-473.145,-267.578,-160.645
1741605550.213,-1000.000,-1000.000,-356.934,-1000.000
1741605550.217,-938.965,-941.406,-193.359,-949.707
1741605550.221,-993.652,-961.426,-10.742,-989.258
1741605550.225,-955.566,-1000.000,-83.496,-955.566
1741605550.229,-1000.000,-941.406,-247.070,-1000.000
1741605550.233,-108.398,478.027,-30.762,-151.855
1741605550.236,999.512,999.512,113.281,999.512
1741605550.240,941.895,901.855,-191.895,950.684
1741605550.244,960.449,948.242,-212.891,957.520
1741605550.248,899.414,961.914,-143.066,903.809
1741605550.252,999.512,999.512,-169.434,999.512
1741605550.254,550.781,-267.578,-210.938,591.797
1741605550.258,-887.695,-1000.000,-339.355,-849.121
1741605550.262,-1000.000,-918.457,-261.719,-1000.000
1741605550.266,-871.094,-975.586,-172.363,-870.605
1741605550.270,-1000.000,-1000.000,-171.875,-1000.000
1741605550.274,-671.875,60.059,-49.805,-650.391
1741605550.278,798.828,999.512,257.324,800.781
1741605550.281,999.512,938.965,101.074,999.512
1741605550.285,856.445,899.414,-324.707,862.305
1741605550.289,999.512,999.512,-185.547,999.512
1741605550.293,938.965,848.633,-203.613,955.566
1741605550.297,-458.984,-609.375,-412.598,-421.875
1741605550.254,550.781,-267.578,-210.938,591.797
1741605550.258,-887.695,-1000.000,-339.355,-849.121
1741605550.262,-1000.000,-918.457,-261.719,-1000.000
1741605550.266,-871.094,-975.586,-172.363,-870.605
1741605550.270,-1000.000,-1000.000,-171.875,-1000.000
1741605550.274,-671.875,60.059,-49.805,-650.391
1741605550.278,798.828,999.512,257.324,800.781
1741605550.281,999.512,938.965,101.074,999.512
1741605550.285,856.445,899.414,-324.707,862.305
1741605550.289,999.512,999.512,-185.547,999.512
1741605550.293,938.965,848.633,-203.613,955.566
1741605550.297,-458.984,-609.375,-412.598,-421.875
1741605550.299,-1000.000,-1000.000,-420.898,-1000.000
1741605550.303,-931.641,-938.477,-329.590,-932.129
1741605550.307,-993.164,-972.168,-311.035,-998.535
1741605550.311,-970.703,-1000.000,-217.773,-960.449
1741605550.315,-1000.000,-985.352,-177.734,-1000.000
1741605550.319,58.594,395.996,64.453,-58.594
1741605550.323,999.512,999.512,367.188,999.512
1741605550.326,918.945,894.531,20.996,936.523
1741605550.330,971.191,992.676,-107.910,962.891
1741605550.334,922.852,911.621,-96.680,925.293
1741605550.338,989.258,999.512,-200.195,991.699
1741605550.342,946.289,878.906,-86.914,939.941
1741605550.299,-1000.000,-1000.000,-420.898,-1000.000
1741605550.303,-931.641,-938.477,-329.590,-932.129
1741605550.307,-993.164,-972.168,-311.035,-998.535
1741605550.311,-970.703,-1000.000,-217.773,-960.449
1741605550.315,-1000.000,-985.352,-177.734,-1000.000
1741605550.319,58.594,395.996,64.453,-58.594
1741605550.323,999.512,999.512,367.188,999.512
1741605550.326,918.945,894.531,20.996,936.523
1741605550.330,971.191,992.676,-107.910,962.891
1741605550.334,922.852,911.621,-96.680,925.293
1741605550.338,989.258,999.512,-200.195,991.699
1741605550.342,946.289,878.906,-86.914,939.941
1741605550.344,-446.289,-564.941,-256.836,-453.613
1741605550.348,-1000.000,-1000.000,-357.910,-1000.000
1741605550.352,-943.359,-888.184,-145.020,-943.848
1741605550.356,-939.941,-1000.000,-87.891,-943.848
1741605550.360,-1000.000,-1000.000,-166.016,-1000.000
1741605550.364,-670.898,315.918,78.613,-736.816
1741605550.368,793.945,999.512,423.340,728.516
1741605550.371,999.512,897.949,164.062,999.512
1741605550.375,919.434,990.234,-60.547,916.016
1741605550.379,925.293,909.180,69.336,927.246
1741605550.383,999.512,999.512,-34.668,999.512
1741605550.387,856.934,855.957,-40.039,866.211
1741605550.344,-446.289,-564.941,-256.836,-453.613
1741605550.348,-1000.000,-1000.000,-357.910,-1000.000
1741605550.352,-943.359,-888.184,-145.020,-943.848
1741605550.356,-939.941,-1000.000,-87.891,-943.848
1741605550.360,-1000.000,-1000.000,-166.016,-1000.000
1741605550.364,-670.898,315.918,78.613,-736.816
1741605550.368,793.945,999.512,423.340,728.516
1741605550.371,999.512,897.949,164.062,999.512
1741605550.375,919.434,990.234,-60.547,916.016
1741605550.379,925.293,909.180,69.336,927.246
1741605550.383,999.512,999.512,-34.668,999.512
1741605550.387,856.934,855.957,-40.039,866.211
1741605550.389,-597.656,-600.586,-327.148,-584.473
1741605550.393,-1000.000,-1000.000,-417.480,-1000.000
1741605550.397,-941.895,-907.227,-140.625,-941.406
1741605550.401,-943.359,-987.305,-161.621,-945.312
1741605550.405,-1000.000,-1000.000,-259.766,-1000.000
1741605550.409,-625.488,37.598,48.828,-644.531
1741605550.413,831.055,999.512,492.188,808.105
1741605550.416,999.512,925.293,172.852,999.512
1741605550.420,910.156,968.262,-232.422,909.180
1741605550.424,971.191,928.223,-170.410,975.098
1741605550.428,925.781,983.398,-90.332,922.363
1741605550.432,999.512,960.938,-67.871,999.512
1741605550.389,-597.656,-600.586,-327.148,-584.473
1741605550.393,-1000.000,-1000.000,-417.480,-1000.000
1741605550.397,-941.895,-907.227,-140.625,-941.406
1741605550.401,-943.359,-987.305,-161.621,-945.312
1741605550.405,-1000.000,-1000.000,-259.766,-1000.000
1741605550.409,-625.488,37.598,48.828,-644.531
1741605550.413,831.055,999.512,492.188,808.105
1741605550.416,999.512,925.293,172.852,999.512
1741605550.420,910.156,968.262,-232.422,909.180
1741605550.424,971.191,928.223,-170.410,975.098
1741605550.428,925.781,983.398,-90.332,922.363
1741605550.432,999.512,960.938,-67.871,999.512
1741605550.449,29.297,-406.250,-143.555,93.262
1741605550.453,-1000.000,-1000.000,-245.605,-1000.000
1741605550.457,-985.840,-939.453,-235.840,-996.582
1741605550.461,-924.805,-942.871,-209.961,-919.434
1741605550.465,-1000.000,-1000.000,-256.348,-1000.000
1741605550.469,-885.254,-503.906,-66.406,-877.441
1741605550.473,571.777,880.371,257.812,581.543
1741605550.476,999.512,999.512,111.328,999.512
1741605550.480,909.668,911.133,-13.184,909.668
1741605550.484,913.086,934.570,123.535,915.039
1741605550.488,999.512,999.512,-27.344,999.512
1741605550.492,711.914,161.133,-181.641,718.262
1741605550.494,-766.602,-1000.000,-383.301,-753.418
1741605550.498,-1000.000,-982.422,-328.125,-1000.000
1741605550.502,-866.211,-936.035,-76.172,-867.188
1741605550.506,-1000.000,-1000.000,45.410,-1000.000
1741605550.510,-796.875,-114.258,113.281,-794.922
1741605550.514,679.688,987.793,344.727,674.316
1741605550.518,999.512,918.457,416.016,999.512
1741605550.521,895.508,999.512,90.820,896.973
1741605550.525,983.887,18.555,-158.203,983.887
1741605550.529,966.309,-1000.000,-139.160,966.797
1741605550.533,966.309,-970.703,-70.312,966.797
1741605550.537,966.309,-930.176,-90.820,966.797
1741605550.494,-766.602,-1000.000,-383.301,-753.418
1741605550.498,-1000.000,-982.422,-328.125,-1000.000
1741605550.502,-866.211,-936.035,-76.172,-867.188
1741605550.506,-1000.000,-1000.000,45.410,-1000.000
1741605550.510,-796.875,-114.258,113.281,-794.922
1741605550.514,679.688,987.793,344.727,674.316
1741605550.518,999.512,918.457,416.016,999.512
1741605550.521,895.508,999.512,90.820,896.973
1741605550.525,983.887,18.555,-158.203,983.887
1741605550.529,966.309,-1000.000,-139.160,966.797
1741605550.533,966.309,-970.703,-70.312,966.797
1741605550.537,966.309,-930.176,-90.820,966.797
1741605550.539,966.309,-1000.000,-144.531,966.797
1741605550.543,966.309,-268.066,-101.562,966.797
1741605550.547,966.309,975.098,-82.520,966.797
1741605550.551,966.309,968.750,-122.070,966.797
1741605550.555,982.422,950.195,-50.781,983.398
1741605550.559,908.691,918.457,58.105,908.203
1741605550.563,999.512,999.512,92.285,999.512
1741605550.566,856.934,857.910,-33.203,849.609
1741605550.570,-598.145,-597.656,-436.035,-607.910
1741605550.574,-1000.000,-1000.000,-518.066,-1000.000
1741605550.578,-925.781,-925.781,-407.715,-925.781
1741605550.582,-1000.000,-1000.000,-343.750,-1000.000
1741605550.539,966.309,-1000.000,-144.531,966.797
1741605550.543,966.309,-268.066,-101.562,966.797
1741605550.547,966.309,975.098,-82.520,966.797
1741605550.551,966.309,968.750,-122.070,966.797
1741605550.555,982.422,950.195,-50.781,983.398
1741605550.559,908.691,918.457,58.105,908.203
1741605550.563,999.512,999.512,92.285,999.512
1741605550.566,856.934,857.910,-33.203,849.609
1741605550.570,-598.145,-597.656,-436.035,-607.910
1741605550.574,-1000.000,-1000.000,-518.066,-1000.000
1741605550.578,-925.781,-925.781,-407.715,-925.781
1741605550.582,-1000.000,-1000.000,-343.750,-1000.000
1741605550.584,-1000.000,-1000.000,-284.668,-1000.000
1741605550.588,-1000.000,-1000.000,-206.543,-1000.000
1741605550.592,-951.660,-942.383,-81.055,-958.496
1741605550.596,-1000.000,-1000.000,-104.980,-1000.000
1741605550.600,-958.008,-891.113,-192.383,-1000.000
1741605550.604,452.637,564.453,98.633,366.211
1741605550.608,999.512,999.512,301.758,999.512
1741605550.611,892.090,892.090,-96.680,895.020
1741605550.615,995.117,999.512,-275.879,992.676
1741605550.619,908.691,908.691,-57.129,908.203
1741605550.623,999.512,999.512,-75.684,999.512
1741605550.627,856.934,851.562,-126.465,843.262
1741605550.584,-1000.000,-1000.000,-284.668,-1000.000
1741605550.588,-1000.000,-1000.000,-206.543,-1000.000
1741605550.592,-951.660,-942.383,-81.055,-958.496
1741605550.596,-1000.000,-1000.000,-104.980,-1000.000
1741605550.600,-958.008,-891.113,-192.383,-1000.000
1741605550.604,452.637,564.453,98.633,366.211
1741605550.608,999.512,999.512,301.758,999.512
1741605550.611,892.090,892.090,-96.680,895.020
1741605550.615,995.117,999.512,-275.879,992.676
1741605550.619,908.691,908.691,-57.129,908.203
1741605550.623,999.512,999.512,-75.684,999.512
1741605550.627,856.934,851.562,-126.465,843.262
1741605550.635,-597.656,-605.469,-213.867,-613.770
1741605550.639,-1000.000,-1000.000,-296.875,-1000.000
1741605550.643,-906.250,-876.953,-110.352,-913.574
1741605550.647,-987.793,-1000.000,-34.180,-978.516
1741605550.651,-1000.000,-957.520,-161.133,-1000.000
1741605550.655,68.359,452.637,124.023,-43.945
1741605550.659,999.512,999.512,480.469,999.512
1741605550.662,918.457,893.066,109.863,934.570
1741605550.666,960.938,989.258,-141.602,952.637
1741605550.670,965.332,930.664,25.879,974.609
1741605550.674,913.574,969.727,-98.633,906.738
1741605550.678,999.512,989.746,64.941,999.512
1741605550.635,-597.656,-605.469,-213.867,-613.770
1741605550.639,-1000.000,-1000.000,-296.875,-1000.000
1741605550.643,-906.250,-876.953,-110.352,-913.574
1741605550.647,-987.793,-1000.000,-34.180,-978.516
1741605550.651,-1000.000,-957.520,-161.133,-1000.000
1741605550.655,68.359,452.637,124.023,-43.945
1741605550.659,999.512,999.512,480.469,999.512
1741605550.662,918.457,893.066,109.863,934.570
1741605550.666,960.938,989.258,-141.602,952.637
1741605550.670,965.332,930.664,25.879,974.609
1741605550.674,913.574,969.727,-98.633,906.738
1741605550.678,999.512,989.746,64.941,999.512
1741605550.689,242.676,-263.184,14.160,364.258
1741605550.693,-1000.000,-1000.000,-497.070,-1000.000
1741605550.697,-787.109,-195.801,-126.465,-775.879
1741605550.701,724.121,999.512,326.660,754.883
1741605550.705,997.070,888.184,-58.594,987.305
1741605550.709,954.590,999.512,-54.199,961.426
1741605550.713,854.980,532.715,-95.215,840.820
1741605550.716,-623.535,-891.602,-468.262,-638.672
1741605550.720,-1000.000,-1000.000,-372.070,-1000.000
1741605550.724,-868.652,-876.953,-178.223,-868.652
1741605550.728,-1000.000,-1000.000,-279.785,-1000.000
1741605550.732,-891.113,-692.383,-105.957,-886.719
1741605550.689,242.676,-263.184,14.160,364.258
1741605550.693,-1000.000,-1000.000,-497.070,-1000.000
1741605550.697,-787.109,-195.801,-126.465,-775.879
1741605550.701,724.121,999.512,326.660,754.883
1741605550.705,997.070,888.184,-58.594,987.305
1741605550.709,954.590,999.512,-54.199,961.426
1741605550.713,854.980,532.715,-95.215,840.820
1741605550.716,-623.535,-891.602,-468.262,-638.672
1741605550.720,-1000.000,-1000.000,-372.070,-1000.000
1741605550.724,-868.652,-876.953,-178.223,-868.652
1741605550.728,-1000.000,-1000.000,-279.785,-1000.000
1741605550.732,-891.113,-692.383,-105.957,-886.719
1741605550.735,563.965,764.648,270.508,570.312
1741605550.739,999.512,999.512,256.348,999.512
1741605550.743,891.602,903.320,18.066,892.578
1741605550.747,982.422,981.934,-20.996,982.910
1741605550.751,966.309,972.168,24.414,966.797
1741605550.755,983.398,960.449,109.863,984.375
1741605550.759,894.531,889.160,77.148,898.926
1741605550.762,999.512,999.512,135.254,999.512
1741605550.766,655.273,161.133,53.223,722.656
1741605550.770,-817.383,-1000.000,-349.609,-752.441
1741605550.774,-1000.000,-997.559,-373.535,-1000.000
1741605550.778,-942.871,-944.336,-64.941,-938.477
1741605550.735,563.965,764.648,270.508,570.312
1741605550.739,999.512,999.512,256.348,999.512
1741605550.743,891.602,903.320,18.066,892.578
1741605550.747,982.422,981.934,-20.996,982.910
1741605550.751,966.309,972.168,24.414,966.797
1741605550.755,983.398,960.449,109.863,984.375
1741605550.759,894.531,889.160,77.148,898.926
1741605550.762,999.512,999.512,135.254,999.512
1741605550.766,655.273,161.133,53.223,722.656
1741605550.770,-817.383,-1000.000,-349.609,-752.441
1741605550.774,-1000.000,-997.559,-373.535,-1000.000
1741605550.778,-942.871,-944.336,-64.941,-938.477
1741605550.780,-952.148,-997.070,-33.691,-953.613
1741605550.784,-1000.000,-1000.000,-146.973,-1000.000
1741605550.788,-403.320,197.266,-12.695,-399.414
1741605550.792,938.965,999.512,185.547,935.547
1741605550.796,999.512,922.852,126.953,999.512
1741605550.800,865.723,897.949,192.871,866.699
1741605550.804,999.512,999.512,186.035,999.512
1741605550.807,856.934,633.301,-134.277,855.957
1741605550.811,-597.656,-815.918,-384.277,-600.098
1741605550.815,-1000.000,-1000.000,-372.070,-1000.000
1741605550.819,-925.781,-937.988,-218.750,-925.781
1741605550.823,-1000.000,-1000.000,-47.852,-1000.000
1741605550.824,-942.383,-941.406,-7.812,-939.941
1741605550.828,-1000.000,-1000.000,-67.871,-1000.000
1741605550.832,-891.113,-880.371,-109.863,-853.516
1741605550.836,563.965,578.125,22.461,604.980
1741605550.840,999.512,999.512,198.730,999.512
1741605550.844,899.902,845.703,156.738,907.715
1741605550.848,916.504,999.512,38.086,914.062
1741605550.851,999.512,932.129,-45.898,999.512
1741605550.855,396.484,-467.773,-307.129,554.199
1741605550.859,-958.984,-1000.000,-565.430,-871.582
1741605550.863,-1000.000,-927.246,-497.070,-1000.000
1741605550.867,-955.566,-1000.000,-307.617,-943.848
1741605550.869,-1000.000,-1000.000,-218.750,-1000.000
1741605550.873,-1000.000,-997.559,-191.895,-1000.000
1741605550.877,-926.758,-949.219,-139.160,-929.199
1741605550.881,-1000.000,-1000.000,-191.895,-1000.000
1741605550.885,-646.484,-231.445,-148.926,-679.688
1741605550.889,819.824,987.793,262.207,785.645
1741605550.893,999.512,969.238,234.375,999.512
1741605550.896,919.434,917.969,-41.016,916.016
1741605550.900,910.645,948.242,-254.883,914.551
1741605550.904,999.512,999.512,-404.785,999.512
1741605550.908,545.410,-76.172,-374.512,515.137
1741605550.912,-893.066,-1000.000,-458.984,-898.438
1741605550.869,-1000.000,-1000.000,-218.750,-1000.000
1741605550.873,-1000.000,-997.559,-191.895,-1000.000
1741605550.877,-926.758,-949.219,-139.160,-929.199
1741605550.881,-1000.000,-1000.000,-191.895,-1000.000
1741605550.885,-646.484,-231.445,-148.926,-679.688
1741605550.889,819.824,987.793,262.207,785.645
1741605550.893,999.512,969.238,234.375,999.512
1741605550.896,919.434,917.969,-41.016,916.016
1741605550.900,910.645,948.242,-254.883,914.551
1741605550.904,999.512,999.512,-404.785,999.512
1741605550.908,545.410,-76.172,-374.512,515.137
1741605550.912,-893.066,-1000.000,-458.984,-898.438
1741605550.914,-1000.000,-959.473,-317.871,-1000.000
1741605550.918,-950.684,-1000.000,-184.082,-950.684
1741605550.922,-990.234,-954.102,-283.203,-1000.000
1741605550.926,-981.934,-1000.000,-181.641,-965.332
1741605550.930,-1000.000,-950.195,-114.746,-1000.000
1741605550.934,156.738,464.844,20.508,-12.695
1741605550.938,999.512,999.512,189.453,999.512
1741605550.941,921.387,909.180,96.680,943.359
1741605550.945,918.457,921.387,-130.371,906.738
1741605550.949,991.211,999.512,-102.539,997.070
1741605550.953,943.359,849.121,5.371,936.523
1741605550.957,-451.660,-608.398,-253.418,-459.473
1741605550.914,-1000.000,-959.473,-317.871,-1000.000
1741605550.918,-950.684,-1000.000,-184.082,-950.684
1741605550.922,-990.234,-954.102,-283.203,-1000.000
1741605550.926,-981.934,-1000.000,-181.641,-965.332
1741605550.930,-1000.000,-950.195,-114.746,-1000.000
1741605550.934,156.738,464.844,20.508,-12.695
1741605550.938,999.512,999.512,189.453,999.512
1741605550.941,921.387,909.180,96.680,943.359
1741605550.945,918.457,921.387,-130.371,906.738
1741605550.949,991.211,999.512,-102.539,997.070
1741605550.953,943.359,849.121,5.371,936.523
1741605550.957,-451.660,-608.398,-253.418,-459.473
1741605550.959,-1000.000,-1000.000,-400.879,-1000.000
1741605550.963,-927.246,-933.594,-176.270,-927.734
1741605550.967,-1000.000,-988.281,-11.230,-1000.000
1741605550.971,-931.641,-988.281,107.422,-929.688
1741605550.975,-1000.000,-1000.000,85.449,-1000.000
1741605550.979,-468.262,187.988,38.086,-561.523
1741605550.983,913.574,999.512,258.789,863.770
1741605550.986,995.605,859.375,112.305,999.512
1741605550.990,864.746,998.047,-209.961,860.840
1741605550.994,999.512,923.340,-250.977,999.512
1741605550.998,194.824,-487.793,-388.184,192.871
1741605551.002,-1000.000,-1000.000,-469.727,-1000.000
1741605550.959,-1000.000,-1000.000,-400.879,-1000.000
1741605550.963,-927.246,-933.594,-176.270,-927.734
1741605550.967,-1000.000,-988.281,-11.230,-1000.000
1741605550.971,-931.641,-988.281,107.422,-929.688
1741605550.975,-1000.000,-1000.000,85.449,-1000.000
1741605550.979,-468.262,187.988,38.086,-561.523
1741605550.983,913.574,999.512,258.789,863.770
1741605550.986,995.605,859.375,112.305,999.512
1741605550.990,864.746,998.047,-209.961,860.840
1741605550.994,999.512,923.340,-250.977,999.512
1741605550.998,194.824,-487.793,-388.184,192.871
1741605551.002,-1000.000,-1000.000,-469.727,-1000.000
1741605551.019,-993.652,-926.758,-192.383,-995.605
1741605551.023,-986.816,-1000.000,-114.258,-986.328
1741605551.027,-953.125,-942.383,-216.309,-954.102
1741605551.031,-1000.000,-1000.000,-163.574,-1000.000
1741605551.035,-911.133,-891.113,-122.070,-916.992
1741605551.039,532.227,564.453,160.156,523.926
1741605551.043,999.512,999.512,415.527,999.512
1741605551.046,909.180,837.891,190.430,906.250
1741605551.050,913.574,999.512,-237.305,922.363
1741605551.054,999.512,884.277,-363.770,999.512
1741605551.058,731.445,-556.152,-322.754,749.023
1741605551.062,-743.164,-1000.000,-348.145,-685.059
1741605551.019,-993.652,-926.758,-192.383,-995.605
1741605551.023,-986.816,-1000.000,-114.258,-986.328
1741605551.027,-953.125,-942.383,-216.309,-954.102
1741605551.031,-1000.000,-1000.000,-163.574,-1000.000
1741605551.035,-911.133,-891.113,-122.070,-916.992
1741605551.039,532.227,564.453,160.156,523.926
1741605551.043,999.512,999.512,415.527,999.512
1741605551.046,909.180,837.891,190.430,906.250
1741605551.050,913.574,999.512,-237.305,922.363
1741605551.054,999.512,884.277,-363.770,999.512
1741605551.058,731.445,-556.152,-322.754,749.023
1741605551.062,-743.164,-1000.000,-348.145,-685.059
1741605551.065,-1000.000,-925.781,-287.598,-1000.000
1741605551.069,-948.730,-1000.000,-147.949,-946.289
1741605551.073,-952.637,-934.570,46.875,-950.684
1741605551.077,-1000.000,-1000.000,36.621,-1000.000
1741605551.081,-809.570,-809.082,-17.090,-678.223
1741605551.085,666.504,666.016,383.301,756.348
1741605551.089,999.512,999.512,446.289,999.512
1741605551.092,894.531,852.051,44.922,904.297
1741605551.096,983.398,999.512,-41.992,982.422
1741605551.100,966.309,954.590,20.508,966.797
1741605551.104,966.309,-422.363,6.348,966.797
1741605551.108,966.309,-1000.000,65.430,966.797
1741605551.065,-1000.000,-925.781,-287.598,-1000.000
1741605551.069,-948.730,-1000.000,-147.949,-946.289
1741605551.073,-952.637,-934.570,46.875,-950.684
1741605551.077,-1000.000,-1000.000,36.621,-1000.000
1741605551.081,-809.570,-809.082,-17.090,-678.223
1741605551.085,666.504,666.016,383.301,756.348
1741605551.089,999.512,999.512,446.289,999.512
1741605551.092,894.531,852.051,44.922,904.297
1741605551.096,983.398,999.512,-41.992,982.422
1741605551.100,966.309,954.590,20.508,966.797
1741605551.104,966.309,-422.363,6.348,966.797
1741605551.108,966.309,-1000.000,65.430,966.797
1741605551.109,966.309,-944.824,109.375,966.797
1741605551.113,966.309,-952.637,145.508,966.797
1741605551.117,966.309,-1000.000,162.598,966.797
1741605551.121,966.309,-889.160,152.344,967.285
1741605551.125,974.121,575.684,240.723,971.191
1741605551.129,935.059,999.512,354.492,951.660
1741605551.133,957.520,895.508,315.918,931.641
1741605551.136,999.512,999.512,312.012,999.512
1741605551.140,-268.066,-333.496,58.594,-24.902
1741605551.144,-1000.000,-1000.000,-372.559,-1000.000
1741605551.148,-935.059,-932.129,-471.191,-962.891
1741605551.152,-1000.000,-1000.000,-337.402,-988.770
1741605551.109,966.309,-944.824,109.375,966.797
1741605551.113,966.309,-952.637,145.508,966.797
1741605551.117,966.309,-1000.000,162.598,966.797
1741605551.121,966.309,-889.160,152.344,967.285
1741605551.125,974.121,575.684,240.723,971.191
1741605551.129,935.059,999.512,354.492,951.660
1741605551.133,957.520,895.508,315.918,931.641
1741605551.136,999.512,999.512,312.012,999.512
1741605551.140,-268.066,-333.496,58.594,-24.902
1741605551.144,-1000.000,-1000.000,-372.559,-1000.000
1741605551.148,-935.059,-932.129,-471.191,-962.891
1741605551.152,-1000.000,-1000.000,-337.402,-988.770
1741605551.154,-1000.000,-964.844,-170.410,-1000.000
1741605551.158,-940.430,-1000.000,-109.863,-942.383
1741605551.162,-1000.000,-1000.000,-139.648,-1000.000
1741605551.166,-307.617,289.062,-83.496,-304.688
1741605551.170,974.609,999.512,112.305,968.750
1741605551.174,986.816,916.504,211.426,987.305
1741605551.178,875.977,911.133,127.930,880.859
1741605551.181,999.512,999.512,-38.574,999.512
1741605551.185,878.418,819.336,-283.691,910.156
1741605551.189,-563.965,-641.602,-492.676,-510.254
1741605551.193,-1000.000,-1000.000,-519.531,-1000.000
1741605551.197,-925.781,-927.246,-210.938,-926.270
1741605551.154,-1000.000,-964.844,-170.410,-1000.000
1741605551.158,-940.430,-1000.000,-109.863,-942.383
1741605551.162,-1000.000,-1000.000,-139.648,-1000.000
1741605551.166,-307.617,289.062,-83.496,-304.688
1741605551.170,974.609,999.512,112.305,968.750
1741605551.174,986.816,916.504,211.426,987.305
1741605551.178,875.977,911.133,127.930,880.859
1741605551.181,999.512,999.512,-38.574,999.512
1741605551.185,878.418,819.336,-283.691,910.156
1741605551.189,-563.965,-641.602,-492.676,-510.254
1741605551.193,-1000.000,-1000.000,-519.531,-1000.000
1741605551.197,-925.781,-927.246,-210.938,-926.270
1741605551.199,-1000.000,-1000.000,-89.355,-1000.000
1741605551.203,-1000.000,-993.164,-175.293,-1000.000
1741605551.207,-927.246,-954.590,-228.516,-929.688
1741605551.211,-1000.000,-1000.000,-106.445,-1000.000
1741605551.215,-581.543,-156.738,26.367,-598.145
1741605551.219,858.887,999.512,178.223,837.891
1741605551.223,999.512,952.148,124.023,999.512
1741605551.226,922.852,958.984,32.715,922.363
1741605551.230,936.035,916.016,-210.938,936.523
1741605551.234,989.258,999.512,-290.039,991.699
1741605551.238,945.312,851.074,-83.496,940.430
1741605551.242,-448.730,-605.957,-253.906,-452.148
1741605551.244,-1000.000,-1000.000,-413.086,-1000.000
1741605551.248,-926.758,-933.594,-237.305,-927.246
1741605551.252,-1000.000,-988.281,-123.535,-1000.000
1741605551.256,-928.223,-988.281,11.719,-932.129
1741605551.260,-1000.000,-1000.000,0.977,-1000.000
1741605551.264,-605.469,185.059,57.617,-750.488
1741605551.268,838.867,999.512,392.090,723.633
1741605551.271,999.512,909.180,189.941,999.512
1741605551.275,908.203,966.309,-89.355,898.926
1741605551.279,982.422,968.262,-66.895,984.375
1741605551.283,983.398,983.887,-87.402,983.398
1741605551.287,902.832,898.926,-122.559,903.320
1741605551.244,-1000.000,-1000.000,-413.086,-1000.000
1741605551.248,-926.758,-933.594,-237.305,-927.246
1741605551.252,-1000.000,-988.281,-123.535,-1000.000
1741605551.256,-928.223,-988.281,11.719,-932.129
1741605551.260,-1000.000,-1000.000,0.977,-1000.000
1741605551.264,-605.469,185.059,57.617,-750.488
1741605551.268,838.867,999.512,392.090,723.633
1741605551.271,999.512,909.180,189.941,999.512
1741605551.275,908.203,966.309,-89.355,898.926
1741605551.279,982.422,968.262,-66.895,984.375
1741605551.283,983.398,983.887,-87.402,983.398
1741605551.287,902.832,898.926,-122.559,903.320
1741605551.290,999.512,999.512,6.836,999.512
1741605551.294,798.828,702.148,-17.578,779.297
1741605551.298,-672.363,-775.391,-422.363,-686.035
1741605551.302,-1000.000,-1000.000,-426.758,-1000.000
1741605551.306,-927.734,-937.988,-203.125,-929.199
1741605551.310,-1000.000,-1000.000,-14.648,-1000.000
1741605551.314,-1000.000,222.656,100.586,-1000.000
1741605551.317,-1000.000,999.512,15.137,-1000.000
1741605551.321,-1000.000,317.383,-246.582,-1000.000
1741605551.325,-1000.000,-953.125,-377.441,-1000.000
1741605551.329,-1000.000,-1000.000,-337.402,-1000.000
1741605551.333,-963.867,-910.645,-186.035,-973.145
1741605551.290,999.512,999.512,6.836,999.512
1741605551.294,798.828,702.148,-17.578,779.297
1741605551.298,-672.363,-775.391,-422.363,-686.035
1741605551.302,-1000.000,-1000.000,-426.758,-1000.000
1741605551.306,-927.734,-937.988,-203.125,-929.199
1741605551.310,-1000.000,-1000.000,-14.648,-1000.000
1741605551.314,-1000.000,222.656,100.586,-1000.000
1741605551.317,-1000.000,999.512,15.137,-1000.000
1741605551.321,-1000.000,317.383,-246.582,-1000.000
1741605551.325,-1000.000,-953.125,-377.441,-1000.000
1741605551.329,-1000.000,-1000.000,-337.402,-1000.000
1741605551.333,-963.867,-910.645,-186.035,-973.145
1741605551.349,-1000.000,-1000.000,-49.805,-995.117
1741605551.353,-897.461,-832.520,-123.047,-942.871
1741605551.357,410.156,530.762,49.805,299.805
1741605551.361,999.512,999.512,288.574,999.512
1741605551.365,901.855,900.879,74.707,907.715
1741605551.369,986.816,994.141,93.750,981.934
1741605551.373,917.480,905.762,139.160,919.434
1741605551.376,997.559,999.512,-59.570,995.117
1741605551.380,923.340,796.387,-57.617,931.152
1741605551.384,-487.305,-659.180,-99.609,-469.238
1741605551.388,-1000.000,-1000.000,-293.945,-1000.000
1741605551.392,-926.270,-929.199,-205.078,-927.246
1741605551.349,-1000.000,-1000.000,-49.805,-995.117
1741605551.353,-897.461,-832.520,-123.047,-942.871
1741605551.357,410.156,530.762,49.805,299.805
1741605551.361,999.512,999.512,288.574,999.512
1741605551.365,901.855,900.879,74.707,907.715
1741605551.369,986.816,994.141,93.750,981.934
1741605551.373,917.480,905.762,139.160,919.434
1741605551.376,997.559,999.512,-59.570,995.117
1741605551.380,923.340,796.387,-57.617,931.152
1741605551.384,-487.305,-659.180,-99.609,-469.238
1741605551.388,-1000.000,-1000.000,-293.945,-1000.000
1741605551.392,-926.270,-929.199,-205.078,-927.246
1741605551.394,-1000.000,-1000.000,-36.621,-1000.000
1741605551.398,-960.449,-941.406,46.875,-971.680
1741605551.402,-1000.000,-1000.000,27.832,-989.258
1741605551.406,-1000.000,-878.418,20.020,-1000.000
1741605551.410,340.820,580.078,83.008,196.777
1741605551.414,999.512,999.512,312.988,999.512
1741605551.418,896.484,863.281,340.820,904.785
1741605551.421,916.016,973.633,198.242,913.574
1741605551.425,999.512,999.512,105.957,999.512
1741605551.429,253.418,-237.305,-228.027,201.172
1741605551.433,-1000.000,-1000.000,-639.648,-1000.000
1741605551.437,-1000.000,-940.918,-367.188,-995.117
1741605551.394,-1000.000,-1000.000,-36.621,-1000.000
1741605551.398,-960.449,-941.406,46.875,-971.680
1741605551.402,-1000.000,-1000.000,27.832,-989.258
1741605551.406,-1000.000,-878.418,20.020,-1000.000
1741605551.410,340.820,580.078,83.008,196.777
1741605551.414,999.512,999.512,312.988,999.512
1741605551.418,896.484,863.281,340.820,904.785
1741605551.421,916.016,973.633,198.242,913.574
1741605551.425,999.512,999.512,105.957,999.512
1741605551.429,253.418,-237.305,-228.027,201.172
1741605551.433,-1000.000,-1000.000,-639.648,-1000.000
1741605551.437,-1000.000,-940.918,-367.188,-995.117
1741605551.439,-966.797,-1000.000,-59.570,-970.215
1741605551.443,-1000.000,-1000.000,-30.762,-1000.000
1741605551.447,-957.520,-943.848,16.113,-965.332
1741605551.451,-1000.000,-1000.000,73.730,-1000.000
1741605551.455,-996.582,-901.855,126.953,-1000.000
1741605551.459,376.953,547.363,296.875,285.645
1741605551.463,999.512,999.512,483.398,999.512
1741605551.466,889.648,859.863,226.562,890.625
1741605551.470,924.805,979.004,-84.473,928.223
1741605551.474,999.512,999.512,-85.938,999.512
1741605551.478,149.902,-280.762,-69.336,96.191
1741605551.482,-1000.000,-1000.000,-170.898,-1000.000
1741605551.439,-966.797,-1000.000,-59.570,-970.215
1741605551.443,-1000.000,-1000.000,-30.762,-1000.000
1741605551.447,-957.520,-943.848,16.113,-965.332
1741605551.451,-1000.000,-1000.000,73.730,-1000.000
1741605551.455,-996.582,-901.855,126.953,-1000.000
1741605551.459,376.953,547.363,296.875,285.645
1741605551.463,999.512,999.512,483.398,999.512
1741605551.466,889.648,859.863,226.562,890.625
1741605551.470,924.805,979.004,-84.473,928.223
1741605551.474,999.512,999.512,-85.938,999.512
1741605551.478,149.902,-280.762,-69.336,96.191
1741605551.482,-1000.000,-1000.000,-170.898,-1000.000
1741605551.484,-986.328,-940.918,-78.125,-980.469
1741605551.488,-991.211,-992.676,-20.020,-993.652
1741605551.492,-946.777,-959.961,-28.320,-950.684
1741605551.496,-1000.000,-1000.000,65.918,-1000.000
1741605551.500,-858.887,-98.145,139.160,-905.762
1741605551.504,617.188,999.512,291.016,557.617
1741605551.508,999.512,889.160,238.281,999.512
1741605551.511,934.570,992.188,129.395,945.312
1741605551.515,911.133,888.184,-44.434,872.559
1741605551.519,-539.062,-559.082,-223.145,-593.262
1741605551.523,-1000.000,-1000.000,-234.375,-1000.000
1741605551.527,-925.781,-925.781,-170.410,-926.270
1741605551.529,-1000.000,-1000.000,-55.664,-1000.000
1741605551.533,-989.258,-946.289,-80.078,-1000.000
1741605551.537,-959.961,-1000.000,-237.793,-1000.000
1741605551.541,-1000.000,-919.922,-129.395,-1000.000
1741605551.545,-81.055,518.555,-12.207,-1000.000
1741605551.549,999.512,999.512,112.793,-1000.000
1741605551.553,872.070,831.055,70.312,-1000.000
1741605551.556,999.512,999.512,-225.586,-1000.000
1741605551.560,455.566,357.422,-371.582,-1000.000
1741605551.564,-950.195,-979.492,-426.270,-1000.000
1741605551.568,-978.027,-952.637,-364.746,-1000.000
1741605551.572,-1000.000,-1000.000,-351.074,-1000.000
1741605551.576,-904.785,-639.160,-288.574,-1000.000
1741605551.580,563.477,810.547,-234.375,-1000.000
1741605551.584,999.512,999.512,-479.004,-1000.000
1741605551.588,891.602,907.715,-540.527,-1000.000
1741605551.592,999.512,999.512,-470.703,-1000.000
1741605551.596,899.902,903.809,-361.816,-1000.000
1741605551.600,999.512,999.512,-341.309,-1000.000
1741605551.603,747.559,795.410,-443.359,-1000.000
1741605551.607,-725.098,-674.316,-761.719,-1000.000
1741605551.611,-1000.000,-1000.000,-904.297,-1000.000
1741605551.615,-930.664,-928.223,-692.871,-1000.000
1741605551.619,-1000.000,-1000.000,-380.859,-1000.000
1741605551.619,-956.055,-942.383,-356.934,-1000.000
1741605551.623,-1000.000,-1000.000,-437.012,-1000.000
1741605551.627,-985.352,-891.602,-343.262,-1000.000
1741605551.631,398.438,563.477,-84.961,-1000.000
1741605551.635,999.512,999.512,0.000,-1000.000
1741605551.639,874.023,855.957,-98.145,-1000.000
1741605551.643,948.730,987.305,-220.703,-1000.000
1741605551.646,999.512,986.328,-340.332,-1000.000
1741605551.650,-96.680,-333.496,-339.355,-1000.000
1741605551.654,-1000.000,-1000.000,-418.457,-1000.000
1741605551.658,-953.613,-933.594,-467.773,-1000.000
1741605551.662,-994.629,-1000.000,-302.246,-1000.000
1741605551.619,-956.055,-942.383,-356.934,-1000.000
1741605551.623,-1000.000,-1000.000,-437.012,-1000.000
1741605551.627,-985.352,-891.602,-343.262,-1000.000
1741605551.631,398.438,563.477,-84.961,-1000.000
1741605551.635,999.512,999.512,0.000,-1000.000
1741605551.639,874.023,855.957,-98.145,-1000.000
1741605551.643,948.730,987.305,-220.703,-1000.000
1741605551.646,999.512,986.328,-340.332,-1000.000
1741605551.650,-96.680,-333.496,-339.355,-1000.000
1741605551.654,-1000.000,-1000.000,-418.457,-1000.000
1741605551.658,-953.613,-933.594,-467.773,-1000.000
1741605551.662,-994.629,-1000.000,-302.246,-1000.000
1741605551.664,-996.582,-973.145,-142.578,-1000.000
1741605551.668,-952.148,-986.816,-101.562,-1000.000
1741605551.672,-1000.000,-1000.000,-103.027,-1000.000
1741605551.676,-151.367,173.828,-1.465,-1000.000
1741605551.680,999.512,999.512,126.953,-1000.000
1741605551.684,959.473,925.781,159.668,-1000.000
1741605551.688,901.855,912.109,175.781,-1000.000
1741605551.691,984.863,999.512,224.121,-1000.000
1741605551.695,972.656,887.695,176.270,-1000.000
1741605551.699,-388.672,-549.805,-164.551,-1000.000
1741605551.703,-1000.000,-1000.000,-341.309,-1000.000
1741605551.707,-928.711,-925.781,-76.172,-1000.000
1741605551.664,-996.582,-973.145,-142.578,-1000.000
1741605551.668,-952.148,-986.816,-101.562,-1000.000
1741605551.672,-1000.000,-1000.000,-103.027,-1000.000
1741605551.676,-151.367,173.828,-1.465,-1000.000
1741605551.680,999.512,999.512,126.953,-1000.000
1741605551.684,959.473,925.781,159.668,-1000.000
1741605551.688,901.855,912.109,175.781,-1000.000
1741605551.691,984.863,999.512,224.121,-1000.000
1741605551.695,972.656,887.695,176.270,-1000.000
1741605551.699,-388.672,-549.805,-164.551,-1000.000
1741605551.703,-1000.000,-1000.000,-341.309,-1000.000
1741605551.707,-928.711,-925.781,-76.172,-1000.000
1741605551.709,-1000.000,-1000.000,106.445,-1000.000
1741605551.713,-942.383,-941.406,104.980,-945.801
1741605551.717,-1000.000,-1000.000,52.246,-1000.000
1741605551.721,-891.113,-880.371,32.227,-915.527
1741605551.725,563.965,577.148,230.957,526.367
1741605551.729,999.512,999.512,577.148,999.512
1741605551.733,891.602,902.344,404.297,892.090
1741605551.736,981.934,948.730,63.965,981.934
1741605551.740,966.309,967.285,126.953,966.797
1741605551.744,966.309,996.094,116.211,966.797
1741605551.748,966.309,-305.176,68.359,966.797
1741605551.752,966.309,-1000.000,132.812,966.797
1741605551.709,-1000.000,-1000.000,106.445,-1000.000
1741605551.713,-942.383,-941.406,104.980,-945.801
1741605551.717,-1000.000,-1000.000,52.246,-1000.000
1741605551.721,-891.113,-880.371,32.227,-915.527
1741605551.725,563.965,577.148,230.957,526.367
1741605551.729,999.512,999.512,577.148,999.512
1741605551.733,891.602,902.344,404.297,892.090
1741605551.736,981.934,948.730,63.965,981.934
1741605551.740,966.309,967.285,126.953,966.797
1741605551.744,966.309,996.094,116.211,966.797
1741605551.748,966.309,-305.176,68.359,966.797
1741605551.752,966.309,-1000.000,132.812,966.797
1741605551.769,966.309,-916.016,126.953,966.797
1741605551.773,966.309,-979.004,96.680,966.797
1741605551.777,966.309,-1000.000,90.332,966.797
1741605551.781,966.309,55.664,138.672,966.797
1741605551.785,979.004,999.512,263.184,967.773
1741605551.789,920.410,875.000,339.844,977.051
1741605551.793,989.746,990.234,320.801,903.320
1741605551.796,943.848,920.898,271.484,999.512
1741605551.800,-455.078,-503.418,8.789,515.137
1741605551.804,-1000.000,-1000.000,-263.184,-804.199
1741605551.808,-916.504,-907.715,-219.238,-1000.000
1741605551.812,-1000.000,-1000.000,-181.152,-867.188
1741605551.769,966.309,-916.016,126.953,966.797
1741605551.773,966.309,-979.004,96.680,966.797
1741605551.777,966.309,-1000.000,90.332,966.797
1741605551.781,966.309,55.664,138.672,966.797
1741605551.785,979.004,999.512,263.184,967.773
1741605551.789,920.410,875.000,339.844,977.051
1741605551.793,989.746,990.234,320.801,903.320
1741605551.796,943.848,920.898,271.484,999.512
1741605551.800,-455.078,-503.418,8.789,515.137
1741605551.804,-1000.000,-1000.000,-263.184,-804.199
1741605551.808,-916.504,-907.715,-219.238,-1000.000
1741605551.812,-1000.000,-1000.000,-181.152,-867.188
1741605551.814,217.285,152.344,-38.086,499.023
1741605551.818,999.512,999.512,184.082,999.512
1741605551.822,902.344,910.156,121.094,892.578
1741605551.826,968.262,967.285,104.004,981.445
1741605551.830,982.422,966.797,43.945,981.934
1741605551.834,894.043,913.574,96.680,914.551
1741605551.838,999.512,999.512,168.457,999.512
1741605551.841,608.887,224.609,20.020,893.066
1741605551.845,-868.164,-1000.000,-280.762,-534.668
1741605551.849,-996.094,-933.594,-341.797,-1000.000
1741605551.853,-1000.000,-1000.000,-165.527,-1000.000
1741605551.857,-770.996,-797.852,-51.270,-336.426
1741605551.814,217.285,152.344,-38.086,499.023
1741605551.818,999.512,999.512,184.082,999.512
1741605551.822,902.344,910.156,121.094,892.578
1741605551.826,968.262,967.285,104.004,981.445
1741605551.830,982.422,966.797,43.945,981.934
1741605551.834,894.043,913.574,96.680,914.551
1741605551.838,999.512,999.512,168.457,999.512
1741605551.841,608.887,224.609,20.020,893.066
1741605551.845,-868.164,-1000.000,-280.762,-534.668
1741605551.849,-996.094,-933.594,-341.797,-1000.000
1741605551.853,-1000.000,-1000.000,-165.527,-1000.000
1741605551.857,-770.996,-797.852,-51.270,-336.426
1741605551.859,723.145,688.477,293.457,947.754
1741605551.863,999.512,999.512,355.469,979.004
1741605551.867,898.438,904.297,6.348,930.176
1741605551.871,992.676,955.566,37.109,977.051
1741605551.875,899.414,956.055,163.574,966.797
1741605551.879,999.512,999.512,250.000,967.285
1741605551.883,420.410,-231.445,152.832,966.797
1741605551.886,-946.289,-1000.000,98.633,966.797
1741605551.890,-1000.000,-940.918,44.922,966.797
1741605551.894,-953.613,-1000.000,-58.105,966.797
1741605551.898,-1000.000,-1000.000,21.484,967.285
1741605551.902,-1000.000,-1000.000,85.449,967.285
1741605551.904,-945.801,-942.871,89.844,966.797
1741605551.908,-1000.000,-1000.000,76.660,966.797
1741605551.912,-916.016,-891.602,86.914,967.285
1741605551.916,524.902,563.477,343.262,967.285
1741605551.920,999.512,999.512,390.625,966.797
1741605551.924,902.832,908.691,298.828,966.797
1741605551.928,940.430,924.316,317.871,966.797
1741605551.931,979.004,999.512,87.891,966.797
1741605551.935,971.191,846.680,-0.488,966.797
1741605551.939,-390.137,-607.422,30.273,966.797
1741605551.943,-1000.000,-1000.000,-144.531,966.797
1741605551.947,-936.523,-937.988,-99.121,966.797
1741605551.949,-980.469,-974.121,84.961,966.797
1741605551.953,-987.793,-1000.000,143.066,966.797
1741605551.957,-1000.000,-996.094,89.355,966.797
1741605551.961,199.707,369.141,125.977,966.797
1741605551.965,999.512,999.512,250.977,966.797
1741605551.969,915.039,911.133,293.945,966.797
1741605551.973,927.734,920.898,403.809,966.797
1741605551.976,976.074,999.512,423.340,966.797
1741605551.980,980.469,877.930,249.023,966.797
1741605551.984,-370.605,-565.918,-89.355,966.797
1741605551.988,-1000.000,-1000.000,-239.258,966.797
1741605551.992,-868.164,-867.676,1.465,966.797
1741605552.027,-1000.000,-1000.000,268.066,966.797
1741605552.031,-842.773,-887.207,327.148,966.797
1741605552.035,620.117,569.824,378.418,966.797
1741605552.039,999.512,999.512,526.855,966.797
1741605552.043,908.691,909.180,408.203,966.797
1741605552.047,929.199,919.434,401.367,966.797
1741605552.051,999.512,999.512,432.617,966.797
1741605552.054,875.000,762.207,208.984,966.797
1741605552.058,-484.863,-630.371,229.004,966.797
1741605552.062,-1000.000,-1000.000,287.109,966.797
1741605552.066,-806.641,-823.730,354.004,966.797
1741605552.070,464.844,443.359,644.043,966.797
1741605552.027,-1000.000,-1000.000,268.066,966.797
1741605552.031,-842.773,-887.207,327.148,966.797
1741605552.035,620.117,569.824,378.418,966.797
1741605552.039,999.512,999.512,526.855,966.797
1741605552.043,908.691,909.180,408.203,966.797
1741605552.047,929.199,919.434,401.367,966.797
1741605552.051,999.512,999.512,432.617,966.797
1741605552.054,875.000,762.207,208.984,966.797
1741605552.058,-484.863,-630.371,229.004,966.797
1741605552.062,-1000.000,-1000.000,287.109,966.797
1741605552.066,-806.641,-823.730,354.004,966.797
1741605552.070,464.844,443.359,644.043,966.797
1741605552.069,999.512,999.512,754.883,967.285
1741605552.073,683.105,676.758,507.324,966.797
1741605552.077,-289.551,-236.328,142.578,966.797
1741605552.081,654.297,700.195,345.703,966.797
1741605552.085,999.512,999.512,239.746,966.797
1741605552.089,861.328,919.434,-16.113,966.797
1741605552.093,999.512,940.430,-52.246,966.797
1741605552.096,-143.066,-480.469,-381.836,966.797
1741605552.100,-1000.000,-1000.000,-699.219,966.797
1741605552.104,-948.242,-927.246,-665.039,966.797
1741605552.108,-995.117,-1000.000,-566.895,967.285
1741605552.112,-1000.000,-1000.000,-458.496,966.797
1741605552.069,999.512,999.512,754.883,967.285
1741605552.073,683.105,676.758,507.324,966.797
1741605552.077,-289.551,-236.328,142.578,966.797
1741605552.081,654.297,700.195,345.703,966.797
1741605552.085,999.512,999.512,239.746,966.797
1741605552.089,861.328,919.434,-16.113,966.797
1741605552.093,999.512,940.430,-52.246,966.797
1741605552.096,-143.066,-480.469,-381.836,966.797
1741605552.100,-1000.000,-1000.000,-699.219,966.797
1741605552.104,-948.242,-927.246,-665.039,966.797
1741605552.108,-995.117,-1000.000,-566.895,967.285
1741605552.112,-1000.000,-1000.000,-458.496,966.797
1741605552.594,-1000.000,-1000.000,-126.953,-936.523
1741605552.598,-1000.000,-1000.000,-43.457,-1000.000
1741605552.602,-625.977,-701.172,5.859,76.172
1741605552.606,838.867,787.598,214.844,999.512
1741605552.610,999.512,999.512,240.234,930.664
1741605552.614,922.363,889.648,220.215,971.191
1741605552.618,910.156,947.266,146.484,914.062
1741605552.621,999.512,999.512,112.793,999.512
1741605552.625,591.309,51.758,-57.617,910.645
1741605552.629,-866.211,-1000.000,-376.465,-618.164
1741605552.633,-1000.000,-1000.000,-270.996,-1000.000
1741605552.637,262.207,265.137,106.934,520.508
1741605552.129,-943.848,-941.895,-399.902,966.797
1741605552.133,-1000.000,-1000.000,-441.406,966.797
1741605552.137,-899.902,-886.719,-493.164,967.285
1741605552.141,549.805,570.312,-345.703,966.797
1741605552.145,999.512,999.512,-258.789,983.398
1741605552.149,833.984,831.543,-244.629,909.180
1741605552.153,999.512,999.512,-270.020,999.512
1741605552.156,856.934,819.336,-470.215,855.957
1741605552.160,-597.656,-641.602,-733.398,-600.098
1741605552.164,-1000.000,-1000.000,-729.492,-1000.000
1741605552.168,-925.781,-927.246,-550.781,-925.781
1741605552.172,-1000.000,-1000.000,-519.043,-1000.000
1741605552.129,-943.848,-941.895,-399.902,966.797
1741605552.133,-1000.000,-1000.000,-441.406,966.797
1741605552.137,-899.902,-886.719,-493.164,967.285
1741605552.141,549.805,570.312,-345.703,966.797
1741605552.145,999.512,999.512,-258.789,983.398
1741605552.149,833.984,831.543,-244.629,909.180
1741605552.153,999.512,999.512,-270.020,999.512
1741605552.156,856.934,819.336,-470.215,855.957
1741605552.160,-597.656,-641.602,-733.398,-600.098
1741605552.164,-1000.000,-1000.000,-729.492,-1000.000
1741605552.168,-925.781,-927.246,-550.781,-925.781
1741605552.172,-1000.000,-1000.000,-519.043,-1000.000
1741605552.174,-1000.000,-1000.000,-551.758,-1000.000
1741605552.178,-1000.000,-1000.000,-521.973,-1000.000
1741605552.182,-941.406,-937.012,-362.305,-945.312
1741605552.186,-1000.000,-1000.000,-326.660,-1000.000
1741605552.190,-877.930,-576.660,-366.699,-911.621
1741605552.194,590.820,827.148,-17.090,546.387
1741605552.198,999.512,984.863,174.316,999.512
1741605552.201,893.066,920.410,-180.664,927.246
1741605552.205,999.512,995.605,-313.965,926.758
1741605552.209,-325.684,-371.094,-344.727,-504.395
1741605552.213,-1000.000,-1000.000,-489.746,-1000.000
1741605552.217,-931.152,-929.688,-350.098,-926.758
1741605552.174,-1000.000,-1000.000,-551.758,-1000.000
1741605552.178,-1000.000,-1000.000,-521.973,-1000.000
1741605552.182,-941.406,-937.012,-362.305,-945.312
1741605552.186,-1000.000,-1000.000,-326.660,-1000.000
1741605552.190,-877.930,-576.660,-366.699,-911.621
1741605552.194,590.820,827.148,-17.090,546.387
1741605552.198,999.512,984.863,174.316,999.512
1741605552.201,893.066,920.410,-180.664,927.246
1741605552.205,999.512,995.605,-313.965,926.758
1741605552.209,-325.684,-371.094,-344.727,-504.395
1741605552.213,-1000.000,-1000.000,-489.746,-1000.000
1741605552.217,-931.152,-929.688,-350.098,-926.758
1741605552.219,-1000.000,-1000.000,-100.586,-1000.000
1741605552.223,-1000.000,-1000.000,-145.020,-1000.000
1741605552.227,-967.773,-951.172,-284.180,-1000.000
1741605552.231,-995.117,-1000.000,-172.363,-934.570
1741605552.235,-1000.000,-938.965,-157.715,-1000.000
1741605552.239,197.266,400.879,-46.875,-536.621
1741605552.243,999.512,999.512,184.082,962.402
1741605552.246,792.480,796.875,-161.133,840.820
1741605552.250,-589.844,-564.453,-541.504,-705.078
1741605552.254,-1000.000,-1000.000,-591.309,-1000.000
1741605552.258,-925.781,-925.293,-340.820,-928.223
1741605552.262,-1000.000,-1000.000,-144.043,-1000.000
1741605552.219,-1000.000,-1000.000,-100.586,-1000.000
1741605552.223,-1000.000,-1000.000,-145.020,-1000.000
1741605552.227,-967.773,-951.172,-284.180,-1000.000
1741605552.231,-995.117,-1000.000,-172.363,-934.570
1741605552.235,-1000.000,-938.965,-157.715,-1000.000
1741605552.239,197.266,400.879,-46.875,-536.621
1741605552.243,999.512,999.512,184.082,962.402
1741605552.246,792.480,796.875,-161.133,840.820
1741605552.250,-589.844,-564.453,-541.504,-705.078
1741605552.254,-1000.000,-1000.000,-591.309,-1000.000
1741605552.258,-925.781,-925.293,-340.820,-928.223
1741605552.262,-1000.000,-1000.000,-144.043,-1000.000
1741605552.264,-942.383,-939.941,-360.352,-1000.000
1741605552.268,-1000.000,-1000.000,-447.266,-1000.000
1741605552.272,-891.113,-862.793,-400.879,-1000.000
1741605552.276,563.965,599.121,-99.121,-1000.000
1741605552.280,999.512,999.512,-100.586,-1000.000
1741605552.284,865.234,848.145,-202.148,-1000.000
1741605552.288,965.820,999.512,-12.695,-1000.000
1741605552.291,999.512,942.383,-3.418,-1000.000
1741605552.295,-202.637,-446.289,-252.441,-1000.000
1741605552.299,-1000.000,-1000.000,-424.805,-1000.000
1741605552.303,-941.895,-927.734,-417.969,-1000.000
1741605552.307,-999.023,-1000.000,-271.973,-1000.000
1741605552.309,-1000.000,-1000.000,-104.492,-1000.000
1741605552.313,-928.223,-942.383,-152.344,-1000.000
1741605552.317,-1000.000,-1000.000,-270.020,-1000.000
1741605552.321,-676.270,-331.055,-213.379,-1000.000
1741605552.325,793.457,958.496,-110.352,-1000.000
1741605552.329,999.512,967.773,-72.266,-1000.000
1741605552.333,835.938,890.137,-59.570,-1000.000
1741605552.336,999.512,999.512,-54.688,-1000.000
1741605552.340,414.551,55.176,-318.359,-1000.000
1741605552.344,-953.613,-1000.000,-654.297,-1000.000
1741605552.348,-1000.000,-976.074,-586.914,-1000.000
1741605552.352,-954.102,-980.957,-214.844,-1000.000
1741605552.354,-1000.000,-1000.000,-316.895,-1000.000
1741605552.358,-1000.000,-1000.000,-522.461,-1000.000
1741605552.362,-932.617,-940.430,-579.102,-1000.000
1741605552.366,-1000.000,-1000.000,-510.254,-1000.000
1741605552.370,-769.043,-375.977,-368.164,-1000.000
1741605552.374,723.633,949.707,-166.992,-1000.000
1741605552.378,999.512,928.223,-173.828,-1000.000
1741605552.381,951.172,981.934,-317.383,-1000.000
1741605552.385,874.512,861.816,-340.332,-1000.000
1741605552.389,-597.656,-606.934,-513.184,-1000.000
1741605552.393,-1000.000,-1000.000,-625.977,-1000.000
1741605552.397,-925.781,-925.781,-466.797,-1000.000
1741605552.354,-1000.000,-1000.000,-316.895,-1000.000
1741605552.358,-1000.000,-1000.000,-522.461,-1000.000
1741605552.362,-932.617,-940.430,-579.102,-1000.000
1741605552.366,-1000.000,-1000.000,-510.254,-1000.000
1741605552.370,-769.043,-375.977,-368.164,-1000.000
1741605552.374,723.633,949.707,-166.992,-1000.000
1741605552.378,999.512,928.223,-173.828,-1000.000
1741605552.381,951.172,981.934,-317.383,-1000.000
1741605552.385,874.512,861.816,-340.332,-1000.000
1741605552.389,-597.656,-606.934,-513.184,-1000.000
1741605552.393,-1000.000,-1000.000,-625.977,-1000.000
1741605552.397,-925.781,-925.781,-466.797,-1000.000
1741605552.399,-1000.000,-1000.000,-374.512,-1000.000
1741605552.403,-1000.000,-1000.000,-405.762,-1000.000
1741605552.407,-941.406,-933.594,-424.805,-1000.000
1741605552.411,-1000.000,-1000.000,-372.070,-1000.000
1741605552.415,-876.465,-590.820,-298.340,-1000.000
1741605552.419,583.008,824.219,-60.059,-1000.000
1741605552.423,999.512,999.512,16.113,-1000.000
1741605552.426,908.691,919.434,-133.789,-1000.000
1741605552.430,924.316,924.805,-146.973,-1000.000
1741605552.434,999.512,999.512,-114.746,-1000.000
1741605552.438,853.516,578.613,-15.625,-1000.000
1741605552.442,-602.539,-793.457,126.953,-1000.000
1741605552.399,-1000.000,-1000.000,-374.512,-1000.000
1741605552.403,-1000.000,-1000.000,-405.762,-1000.000
1741605552.407,-941.406,-933.594,-424.805,-1000.000
1741605552.411,-1000.000,-1000.000,-372.070,-1000.000
1741605552.415,-876.465,-590.820,-298.340,-1000.000
1741605552.419,583.008,824.219,-60.059,-1000.000
1741605552.423,999.512,999.512,16.113,-1000.000
1741605552.426,908.691,919.434,-133.789,-1000.000
1741605552.430,924.316,924.805,-146.973,-1000.000
1741605552.434,999.512,999.512,-114.746,-1000.000
1741605552.438,853.516,578.613,-15.625,-1000.000
1741605552.442,-602.539,-793.457,126.953,-1000.000
1741605552.444,-1000.000,-1000.000,51.270,-1000.000
1741605552.448,-937.500,-958.984,122.070,-1000.000
1741605552.452,-973.633,-959.473,302.246,-1000.000
1741605552.456,-1000.000,-1000.000,275.879,-934.570
1741605552.460,-997.559,-916.992,230.469,-1000.000
1741605552.464,375.000,523.926,479.004,-534.668
1741605552.468,999.512,999.512,666.016,859.863
1741605552.471,894.043,869.629,400.879,999.512
1741605552.475,918.945,959.961,221.191,873.047
1741605552.479,999.512,999.512,244.141,999.512
1741605552.483,229.492,-136.719,182.617,68.359
1741605552.487,-1000.000,-1000.000,91.309,-1000.000
1741605552.444,-1000.000,-1000.000,51.270,-1000.000
1741605552.448,-937.500,-958.984,122.070,-1000.000
1741605552.452,-973.633,-959.473,302.246,-1000.000
1741605552.456,-1000.000,-1000.000,275.879,-934.570
1741605552.460,-997.559,-916.992,230.469,-1000.000
1741605552.464,375.000,523.926,479.004,-534.668
1741605552.468,999.512,999.512,666.016,859.863
1741605552.471,894.043,869.629,400.879,999.512
1741605552.475,918.945,959.961,221.191,873.047
1741605552.479,999.512,999.512,244.141,999.512
1741605552.483,229.492,-136.719,182.617,68.359
1741605552.487,-1000.000,-1000.000,91.309,-1000.000
1741605552.504,-998.535,-951.660,182.129,-977.539
1741605552.508,-970.703,-1000.000,269.043,-983.398
1741605552.512,-985.840,-962.402,187.500,-984.863
1741605552.516,-986.328,-1000.000,173.340,-980.957
1741605552.520,-962.891,-870.117,246.094,-1000.000
1741605552.524,247.559,459.961,371.582,166.504
1741605552.528,999.512,999.512,466.309,999.512
1741605552.531,909.668,901.855,282.227,916.504
1741605552.535,965.820,978.027,170.898,962.402
1741605552.539,983.398,963.867,202.148,984.863
1741605552.543,902.344,916.016,241.699,909.180
1741605552.547,999.512,999.512,413.086,999.512
1741605552.504,-998.535,-951.660,182.129,-977.539
1741605552.508,-970.703,-1000.000,269.043,-983.398
1741605552.512,-985.840,-962.402,187.500,-984.863
1741605552.516,-986.328,-1000.000,173.340,-980.957
1741605552.520,-962.891,-870.117,246.094,-1000.000
1741605552.524,247.559,459.961,371.582,166.504
1741605552.528,999.512,999.512,466.309,999.512
1741605552.531,909.668,901.855,282.227,916.504
1741605552.535,965.820,978.027,170.898,962.402
1741605552.539,983.398,963.867,202.148,984.863
1741605552.543,902.344,916.016,241.699,909.180
1741605552.547,999.512,999.512,413.086,999.512
1741605552.549,784.180,202.148,272.461,852.051
1741605552.553,-697.754,-1000.000,-39.551,-580.078
1741605552.557,-1000.000,-925.293,-37.109,-1000.000
1741605552.561,-1000.000,-1000.000,274.414,-992.676
1741605552.565,-569.824,-617.188,307.129,-7.324
1741605552.569,875.000,841.797,506.348,999.512
1741605552.573,999.512,999.512,523.438,934.570
1741605552.576,928.223,924.805,125.488,955.566
1741605552.580,923.340,918.457,-14.648,971.680
1741605552.584,999.512,999.512,13.672,915.527
1741605552.588,856.934,726.562,4.395,999.512
1741605552.592,-613.281,-746.094,-75.195,315.430
1741605552.639,999.512,999.512,153.320,999.512
1741605552.643,902.832,900.879,-82.031,893.555
1741605552.647,970.215,979.980,-203.613,979.004
1741605552.651,962.402,932.617,-91.309,982.422
1741605552.655,915.527,966.797,-33.203,910.645
1741605552.659,999.512,999.512,14.160,999.512
1741605552.663,142.090,-323.242,-85.938,845.215
1741605552.666,-985.840,-1000.000,-331.543,-519.531
1741605552.670,-1000.000,-984.375,-221.191,-1000.000
1741605552.674,-864.746,-907.227,-158.691,-692.383
1741605552.678,556.641,545.410,-3.418,674.316
1741605552.682,999.512,999.512,217.285,999.512
1741605552.639,999.512,999.512,153.320,999.512
1741605552.643,902.832,900.879,-82.031,893.555
1741605552.647,970.215,979.980,-203.613,979.004
1741605552.651,962.402,932.617,-91.309,982.422
1741605552.655,915.527,966.797,-33.203,910.645
1741605552.659,999.512,999.512,14.160,999.512
1741605552.663,142.090,-323.242,-85.938,845.215
1741605552.666,-985.840,-1000.000,-331.543,-519.531
1741605552.670,-1000.000,-984.375,-221.191,-1000.000
1741605552.674,-864.746,-907.227,-158.691,-692.383
1741605552.678,556.641,545.410,-3.418,674.316
1741605552.682,999.512,999.512,217.285,999.512
1741605552.684,891.602,892.090,131.836,898.926
1741605552.688,981.934,982.422,88.379,983.398
1741605552.692,966.309,966.797,65.918,966.797
1741605552.696,966.309,967.773,76.660,966.797
1741605552.700,983.887,976.562,23.926,966.797
1741605552.704,898.438,900.391,11.719,966.797
1741605552.708,999.512,999.512,234.375,967.285
1741605552.711,733.398,437.500,168.457,966.797
1741605552.715,-748.047,-914.551,-129.395,966.797
1741605552.719,-1000.000,-1000.000,-122.070,966.797
1741605552.723,-1000.000,-1000.000,-67.871,966.797
1741605552.727,-394.531,6.836,200.684,966.797
1741605552.729,946.777,999.512,232.910,966.797
1741605552.733,999.512,940.918,49.805,966.797
1741605552.737,862.305,887.695,84.473,966.797
1741605552.741,999.512,999.512,-22.461,966.797
1741605552.745,791.504,538.086,-199.707,966.797
1741605552.749,-678.223,-871.582,-115.234,966.797
1741605552.753,-1000.000,-1000.000,-8.789,966.797
1741605552.756,-928.711,-946.289,-182.129,966.797
1741605552.760,-1000.000,-1000.000,-290.039,966.797
1741605552.764,-929.199,-937.500,-233.398,966.797
1741605552.768,-1000.000,-1000.000,-153.809,966.797
1741605552.772,-541.992,-394.043,30.273,966.797
1741605552.729,946.777,999.512,232.910,966.797
1741605552.733,999.512,940.918,49.805,966.797
1741605552.737,862.305,887.695,84.473,966.797
1741605552.741,999.512,999.512,-22.461,966.797
1741605552.745,791.504,538.086,-199.707,966.797
1741605552.749,-678.223,-871.582,-115.234,966.797
1741605552.753,-1000.000,-1000.000,-8.789,966.797
1741605552.756,-928.711,-946.289,-182.129,966.797
1741605552.760,-1000.000,-1000.000,-290.039,966.797
1741605552.764,-929.199,-937.500,-233.398,966.797
1741605552.768,-1000.000,-1000.000,-153.809,966.797
1741605552.772,-541.992,-394.043,30.273,966.797
1741605552.775,875.488,934.570,267.090,966.797
1741605552.779,999.512,987.793,313.965,966.797
1741605552.783,913.086,924.805,104.492,966.797
1741605552.787,991.211,993.652,-103.027,968.262
1741605552.791,929.199,915.039,-148.438,970.703
1741605552.795,970.215,999.512,-45.410,907.227
1741605552.799,991.699,902.832,48.340,999.512
1741605552.802,-343.262,-522.949,-192.871,325.195
1741605552.806,-1000.000,-1000.000,-457.520,-976.562
1741605552.810,-930.664,-926.270,-363.281,-1000.000
1741605552.814,-1000.000,-1000.000,-115.234,-960.938
1741605552.818,-1000.000,-1000.000,-53.223,-1000.000
1741605552.775,875.488,934.570,267.090,966.797
1741605552.779,999.512,987.793,313.965,966.797
1741605552.783,913.086,924.805,104.492,966.797
1741605552.787,991.211,993.652,-103.027,968.262
1741605552.791,929.199,915.039,-148.438,970.703
1741605552.795,970.215,999.512,-45.410,907.227
1741605552.799,991.699,902.832,48.340,999.512
1741605552.802,-343.262,-522.949,-192.871,325.195
1741605552.806,-1000.000,-1000.000,-457.520,-976.562
1741605552.810,-930.664,-926.270,-363.281,-1000.000
1741605552.814,-1000.000,-1000.000,-115.234,-960.938
1741605552.818,-1000.000,-1000.000,-53.223,-1000.000
1741605552.819,-991.699,-960.938,-240.723,-997.070
1741605552.823,-955.566,-1000.000,-246.094,-948.242
1741605552.827,-1000.000,-1000.000,-168.457,-1000.000
1741605552.831,-109.863,334.961,-87.891,-215.332
1741605552.835,999.512,999.512,15.625,999.512
1741605552.839,949.219,896.484,29.785,949.219
1741605552.843,879.883,918.945,-152.344,897.949
1741605552.846,999.512,999.512,-330.078,999.512
1741605552.850,372.559,229.492,-306.641,88.867
1741605552.854,-972.656,-1000.000,-475.098,-1000.000
1741605552.858,-1000.000,-999.023,-509.277,-982.910
1741605552.862,-957.520,-968.262,-289.551,-977.539
1741605552.879,-1000.000,-1000.000,-119.141,-1000.000
1741605552.883,-949.707,-941.406,-57.617,-1000.000
1741605552.887,-1000.000,-1000.000,-185.059,-945.801
1741605552.891,-943.848,-877.930,-225.586,-1000.000
1741605552.895,479.492,584.473,-6.836,-285.645
1741605552.899,999.512,999.512,289.062,925.293
1741605552.903,852.539,855.469,164.551,977.539
1741605552.906,999.512,999.512,126.465,952.148
1741605552.910,13.184,-7.324,-90.820,-312.988
1741605552.914,-1000.000,-1000.000,-483.398,-1000.000
1741605552.918,-967.285,-964.844,-291.504,-935.059
1741605552.922,-984.375,-985.840,22.949,-1000.000
1741605552.879,-1000.000,-1000.000,-119.141,-1000.000
1741605552.883,-949.707,-941.406,-57.617,-1000.000
1741605552.887,-1000.000,-1000.000,-185.059,-945.801
1741605552.891,-943.848,-877.930,-225.586,-1000.000
1741605552.895,479.492,584.473,-6.836,-285.645
1741605552.899,999.512,999.512,289.062,925.293
1741605552.903,852.539,855.469,164.551,977.539
1741605552.906,999.512,999.512,126.465,952.148
1741605552.910,13.184,-7.324,-90.820,-312.988
1741605552.914,-1000.000,-1000.000,-483.398,-1000.000
1741605552.918,-967.285,-964.844,-291.504,-935.059
1741605552.922,-984.375,-985.840,22.949,-1000.000
1741605552.924,-1000.000,-1000.000,-81.055,-1000.000
1741605552.928,-942.383,-939.453,-244.141,-964.844
1741605552.932,-1000.000,-1000.000,-217.285,-1000.000
1741605552.936,-891.113,-848.633,-90.820,-1000.000
1741605552.940,580.078,627.930,101.074,303.223
1741605552.944,999.512,999.512,408.691,999.512
1741605552.948,945.312,948.242,252.441,970.215
1741605552.951,873.047,874.023,-135.254,786.621
1741605552.955,-597.656,-597.656,-229.980,-672.852
1741605552.959,-1000.000,-1000.000,-309.570,-1000.000
1741605552.963,-925.781,-925.781,-348.145,-929.688
1741605552.967,-1000.000,-1000.000,-237.793,-1000.000
1741605552.924,-1000.000,-1000.000,-81.055,-1000.000
1741605552.928,-942.383,-939.453,-244.141,-964.844
1741605552.932,-1000.000,-1000.000,-217.285,-1000.000
1741605552.936,-891.113,-848.633,-90.820,-1000.000
1741605552.940,580.078,627.930,101.074,303.223
1741605552.944,999.512,999.512,408.691,999.512
1741605552.948,945.312,948.242,252.441,970.215
1741605552.951,873.047,874.023,-135.254,786.621
1741605552.955,-597.656,-597.656,-229.980,-672.852
1741605552.959,-1000.000,-1000.000,-309.570,-1000.000
1741605552.963,-925.781,-925.781,-348.145,-929.688
1741605552.967,-1000.000,-1000.000,-237.793,-1000.000
1741605552.969,-1000.000,-993.164,-154.785,-1000.000
1741605552.973,-928.223,-955.078,-145.996,-938.965
1741605552.977,-1000.000,-1000.000,-235.352,-1000.000
1741605552.981,-649.414,-158.691,-184.082,-849.121
1741605552.985,811.035,999.512,61.035,615.723
1741605552.989,999.512,954.590,202.637,999.512
1741605552.993,910.156,944.824,21.973,880.371
1741605552.996,918.945,914.062,-117.676,949.219
1741605553.000,999.512,999.512,-90.820,999.512
1741605553.004,334.961,281.738,-185.059,22.949
1741605553.008,-987.793,-1000.000,-410.645,-1000.000
1741605553.012,-1000.000,-1000.000,-82.520,-974.609
1741605552.969,-1000.000,-993.164,-154.785,-1000.000
1741605552.973,-928.223,-955.078,-145.996,-938.965
1741605552.977,-1000.000,-1000.000,-235.352,-1000.000
1741605552.981,-649.414,-158.691,-184.082,-849.121
1741605552.985,811.035,999.512,61.035,615.723
1741605552.989,999.512,954.590,202.637,999.512
1741605552.993,910.156,944.824,21.973,880.371
1741605552.996,918.945,914.062,-117.676,949.219
1741605553.000,999.512,999.512,-90.820,999.512
1741605553.004,334.961,281.738,-185.059,22.949
1741605553.008,-987.793,-1000.000,-410.645,-1000.000
1741605553.012,-1000.000,-1000.000,-82.520,-974.609
1741605553.014,-960.449,-964.355,53.223,-982.422
1741605553.018,-1000.000,-1000.000,-187.500,-1000.000
1741605553.022,-970.215,-952.148,-258.301,-985.840
1741605553.026,-989.746,-1000.000,-159.668,-964.844
1741605553.030,-1000.000,-961.426,-32.227,-1000.000
1741605553.034,220.703,443.848,156.738,-17.090
1741605553.038,999.512,999.512,351.562,999.512
1741605553.041,897.461,855.469,160.645,922.852
1741605553.045,916.992,985.352,-58.594,908.203
1741605553.049,999.512,985.352,-76.172,999.512
1741605553.053,159.668,-349.609,-102.051,100.098
1741605553.057,-1000.000,-1000.000,-201.172,-1000.000
1741605553.014,-960.449,-964.355,53.223,-982.422
1741605553.018,-1000.000,-1000.000,-187.500,-1000.000
1741605553.022,-970.215,-952.148,-258.301,-985.840
1741605553.026,-989.746,-1000.000,-159.668,-964.844
1741605553.030,-1000.000,-961.426,-32.227,-1000.000
1741605553.034,220.703,443.848,156.738,-17.090
1741605553.038,999.512,999.512,351.562,999.512
1741605553.041,897.461,855.469,160.645,922.852
1741605553.045,916.992,985.352,-58.594,908.203
1741605553.049,999.512,985.352,-76.172,999.512
1741605553.053,159.668,-349.609,-102.051,100.098
1741605553.057,-1000.000,-1000.000,-201.172,-1000.000
1741605553.060,-987.793,-931.641,-143.066,-981.445
1741605553.064,-982.910,-1000.000,16.113,-983.398
1741605553.068,-974.121,-946.777,-79.102,-986.328
1741605553.072,-997.070,-1000.000,-102.051,-973.633
1741605553.076,-1000.000,-923.828,-41.992,-1000.000
1741605553.080,266.602,511.719,94.727,70.312
1741605553.084,999.512,999.512,204.590,999.512
1741605553.087,912.598,871.582,12.695,929.199
1741605553.091,898.438,956.543,-127.441,893.066
1741605553.095,999.512,999.512,-63.477,999.512
1741605553.099,526.367,-101.074,-82.031,434.570
1741605553.103,-905.762,-1000.000,-174.805,-935.547
1741605553.104,-1000.000,-973.145,-268.066,-1000.000
1741605553.108,-894.043,-925.781,-229.004,-919.922
1741605553.112,-1000.000,-1000.000,-133.301,-1000.000
1741605553.116,-938.965,-784.668,-24.414,-1000.000
1741605553.120,484.863,686.523,43.945,246.582
1741605553.124,999.512,999.512,119.141,999.512
1741605553.128,862.305,857.422,189.453,866.699
1741605553.131,968.262,995.117,-79.102,975.098
1741605553.135,999.512,974.121,-243.652,987.305
1741605553.139,-251.465,-377.930,-244.141,-343.750
1741605553.143,-1000.000,-1000.000,-436.523,-1000.000
1741605553.147,-935.547,-930.176,-280.762,-932.129
1741605553.149,-1000.000,-1000.000,-86.914,-1000.000
1741605553.153,-1000.000,-976.562,-108.398,-1000.000
1741605553.157,-928.223,-980.957,-176.758,-932.129
1741605553.161,-1000.000,-1000.000,-155.273,-1000.000
1741605553.165,-607.422,121.094,-4.395,-749.023
1741605553.169,854.004,999.512,320.312,739.746
1741605553.173,965.820,857.422,334.473,993.652
1741605553.176,961.914,999.512,-55.664,967.773
1741605553.180,873.047,845.215,-414.551,788.574
1741605553.184,-597.656,-616.211,-526.367,-675.293
1741605553.188,-1000.000,-1000.000,-341.309,-1000.000
1741605553.192,-925.781,-926.270,-133.789,-930.664
1741605553.194,-1000.000,-1000.000,-267.090,-1000.000
1741605553.198,-945.312,-941.406,-311.523,-953.613
1741605553.202,-1000.000,-1000.000,-198.730,-1000.000
1741605553.206,-914.062,-875.488,-68.359,-969.238
1741605553.210,527.832,583.496,103.027,428.223
1741605553.214,999.512,999.512,339.355,999.512
1741605553.218,895.020,904.297,308.105,897.949
1741605553.221,969.727,941.895,-66.895,964.844
1741605553.225,925.293,981.445,-235.840,930.176
1741605553.229,999.512,963.867,-119.141,999.512
1741605553.233,30.273,-395.508,-203.613,0.000
1741605553.237,-1000.000,-1000.000,-450.684,-1000.000
1741605553.194,-1000.000,-1000.000,-267.090,-1000.000
1741605553.198,-945.312,-941.406,-311.523,-953.613
1741605553.202,-1000.000,-1000.000,-198.730,-1000.000
1741605553.206,-914.062,-875.488,-68.359,-969.238
1741605553.210,527.832,583.496,103.027,428.223
1741605553.214,999.512,999.512,339.355,999.512
1741605553.218,895.020,904.297,308.105,897.949
1741605553.221,969.727,941.895,-66.895,964.844
1741605553.225,925.293,981.445,-235.840,930.176
1741605553.229,999.512,963.867,-119.141,999.512
1741605553.233,30.273,-395.508,-203.613,0.000
1741605553.237,-1000.000,-1000.000,-450.684,-1000.000
1741605553.254,-969.727,-930.176,-332.031,-966.797
1741605553.258,-999.512,-1000.000,-133.789,-1000.000
1741605553.262,-947.266,-936.523,-103.516,-951.172
1741605553.266,-1000.000,-1000.000,40.039,-1000.000
1741605553.270,-891.113,-780.273,41.016,-923.828
1741605553.274,563.965,675.293,229.492,511.719
1741605553.278,999.512,999.512,432.617,999.512
1741605553.281,875.000,851.074,122.559,876.465
1741605553.285,948.730,999.512,-86.914,948.242
1741605553.289,999.512,930.664,-108.398,999.512
1741605553.293,-51.758,-470.215,-113.770,-32.227
1741605553.297,-1000.000,-1000.000,-54.688,-1000.000
1741605553.254,-969.727,-930.176,-332.031,-966.797
1741605553.258,-999.512,-1000.000,-133.789,-1000.000
1741605553.262,-947.266,-936.523,-103.516,-951.172
1741605553.266,-1000.000,-1000.000,40.039,-1000.000
1741605553.270,-891.113,-780.273,41.016,-923.828
1741605553.274,563.965,675.293,229.492,511.719
1741605553.278,999.512,999.512,432.617,999.512
1741605553.281,875.000,851.074,122.559,876.465
1741605553.285,948.730,999.512,-86.914,948.242
1741605553.289,999.512,930.664,-108.398,999.512
1741605553.293,-51.758,-470.215,-113.770,-32.227
1741605553.297,-1000.000,-1000.000,-54.688,-1000.000
1741605553.299,-958.496,-927.246,-55.176,-963.379
1741605553.303,-998.047,-1000.000,-268.555,-994.629
1741605553.307,-970.215,-948.242,-470.215,-975.586
1741605553.311,-996.094,-1000.000,-359.863,-988.281
1741605553.315,-1000.000,-935.059,-230.469,-1000.000
1741605553.319,260.742,492.676,-9.766,198.730
1741605553.323,999.512,999.512,281.738,999.512
1741605553.326,905.273,848.633,-43.457,911.133
1741605553.330,906.250,999.512,-324.707,905.762
1741605553.334,999.512,953.125,-273.438,999.512
1741605553.338,351.562,-425.781,-284.180,347.168
1741605553.342,-979.492,-1000.000,-318.848,-970.703
1741605553.299,-958.496,-927.246,-55.176,-963.379
1741605553.303,-998.047,-1000.000,-268.555,-994.629
1741605553.307,-970.215,-948.242,-470.215,-975.586
1741605553.311,-996.094,-1000.000,-359.863,-988.281
1741605553.315,-1000.000,-935.059,-230.469,-1000.000
1741605553.319,260.742,492.676,-9.766,198.730
1741605553.323,999.512,999.512,281.738,999.512
1741605553.326,905.273,848.633,-43.457,911.133
1741605553.330,906.250,999.512,-324.707,905.762
1741605553.334,999.512,953.125,-273.438,999.512
1741605553.338,351.562,-425.781,-284.180,347.168
1741605553.342,-979.492,-1000.000,-318.848,-970.703
1741605553.344,-1000.000,-928.223,-373.535,-1000.000
1741605553.348,-959.961,-1000.000,-312.012,-959.473
1741605553.352,-1000.000,-973.145,-262.695,-1000.000
1741605553.356,-936.035,-986.328,-223.633,-930.176
1741605553.360,-1000.000,-1000.000,-191.406,-1000.000
1741605553.364,-389.648,175.293,-154.785,-542.480
1741605553.368,943.848,999.512,148.926,871.094
1741605553.371,999.512,892.090,113.770,999.512
1741605553.375,866.699,937.012,-118.652,853.027
1741605553.379,999.512,999.512,-113.770,999.512
1741605553.383,856.934,-32.227,-139.648,820.312
1741605553.387,-598.145,-1000.000,-136.719,-639.648
1741605553.344,-1000.000,-928.223,-373.535,-1000.000
1741605553.348,-959.961,-1000.000,-312.012,-959.473
1741605553.352,-1000.000,-973.145,-262.695,-1000.000
1741605553.356,-936.035,-986.328,-223.633,-930.176
1741605553.360,-1000.000,-1000.000,-191.406,-1000.000
1741605553.364,-389.648,175.293,-154.785,-542.480
1741605553.368,943.848,999.512,148.926,871.094
1741605553.371,999.512,892.090,113.770,999.512
1741605553.375,866.699,937.012,-118.652,853.027
1741605553.379,999.512,999.512,-113.770,999.512
1741605553.383,856.934,-32.227,-139.648,820.312
1741605553.387,-598.145,-1000.000,-136.719,-639.648
1741605553.389,-1000.000,-983.887,-260.742,-1000.000
1741605553.393,-885.254,-928.223,-214.355,-891.602
1741605553.397,-1000.000,-1000.000,-26.855,-1000.000
1741605553.401,-1000.000,-888.672,-12.207,-1000.000
1741605553.405,351.074,567.383,85.938,294.434
1741605553.409,999.512,999.512,268.066,999.512
1741605553.413,896.973,902.832,93.750,900.391
1741605553.416,971.191,943.848,-233.887,973.145
1741605553.420,914.551,976.074,-344.238,910.156
1741605553.424,999.512,978.027,-317.871,999.512
1741605553.428,162.109,-366.699,-297.852,257.324
1741605553.432,-1000.000,-1000.000,-391.113,-1000.000
1741605553.434,-988.281,-930.664,-328.125,-1000.000
1741605553.438,-983.398,-1000.000,-179.199,-975.586
1741605553.442,-972.168,-951.660,-154.785,-975.098
1741605553.446,-1000.000,-1000.000,-60.547,-999.512
1741605553.450,-1000.000,-956.543,-22.949,-1000.000
1741605553.454,291.504,454.102,151.855,278.320
1741605553.458,999.512,999.512,349.121,999.512
1741605553.461,897.461,893.066,176.758,899.414
1741605553.465,972.656,982.422,-60.547,972.168
1741605553.469,983.887,963.867,-110.840,984.375
1741605553.473,895.996,916.504,-67.383,900.879
1741605553.477,999.512,999.512,71.777,999.512
1741605553.434,-988.281,-930.664,-328.125,-1000.000
1741605553.438,-983.398,-1000.000,-179.199,-975.586
1741605553.442,-972.168,-951.660,-154.785,-975.098
1741605553.446,-1000.000,-1000.000,-60.547,-999.512
1741605553.450,-1000.000,-956.543,-22.949,-1000.000
1741605553.454,291.504,454.102,151.855,278.320
1741605553.458,999.512,999.512,349.121,999.512
1741605553.461,897.461,893.066,176.758,899.414
1741605553.465,972.656,982.422,-60.547,972.168
1741605553.469,983.887,963.867,-110.840,984.375
1741605553.473,895.996,916.504,-67.383,900.879
1741605553.477,999.512,999.512,71.777,999.512
1741605553.479,692.871,195.312,-54.688,750.000
1741605553.483,-784.668,-1000.000,-377.930,-722.656
1741605553.487,-1000.000,-971.191,-400.879,-1000.000
1741605553.491,-860.840,-953.613,-80.566,-861.328
1741605553.495,-1000.000,-1000.000,62.500,-1000.000
1741605553.499,-575.195,147.949,169.434,-541.016
1741605553.503,861.328,999.512,442.871,868.164
1741605553.506,999.512,917.480,248.535,999.512
1741605553.510,927.246,950.195,71.289,930.176
1741605553.514,908.691,934.570,184.082,912.109
1741605553.518,999.512,999.512,112.305,999.512
1741605553.522,630.371,11.719,-19.043,671.387
1741605553.479,692.871,195.312,-54.688,750.000
1741605553.483,-784.668,-1000.000,-377.930,-722.656
1741605553.487,-1000.000,-971.191,-400.879,-1000.000
1741605553.491,-860.840,-953.613,-80.566,-861.328
1741605553.495,-1000.000,-1000.000,62.500,-1000.000
1741605553.499,-575.195,147.949,169.434,-541.016
1741605553.503,861.328,999.512,442.871,868.164
1741605553.506,999.512,917.480,248.535,999.512
1741605553.510,927.246,950.195,71.289,930.176
1741605553.514,908.691,934.570,184.082,912.109
1741605553.518,999.512,999.512,112.305,999.512
1741605553.522,630.371,11.719,-19.043,671.387
1741605553.524,-839.355,-1000.000,-150.391,-794.922
1741605553.528,-1000.000,-979.980,-86.914,-1000.000
1741605553.532,-948.242,-954.102,-16.602,-945.312
1741605553.536,-948.242,-995.117,6.836,-949.707
1741605553.540,-1000.000,-1000.000,-3.906,-1000.000
1741605553.544,-484.375,200.684,111.816,-481.445
1741605553.548,909.180,999.512,350.098,902.344
1741605553.551,987.793,857.422,238.770,993.652
1741605553.555,878.418,999.512,-52.734,874.512
1741605553.559,999.512,916.016,-171.875,999.512
1741605553.563,10.254,-501.953,-172.852,92.773
1741605553.567,-1000.000,-1000.000,-60.547,-1000.000
1741605553.524,-839.355,-1000.000,-150.391,-794.922
1741605553.528,-1000.000,-979.980,-86.914,-1000.000
1741605553.532,-948.242,-954.102,-16.602,-945.312
1741605553.536,-948.242,-995.117,6.836,-949.707
1741605553.540,-1000.000,-1000.000,-3.906,-1000.000
1741605553.544,-484.375,200.684,111.816,-481.445
1741605553.548,909.180,999.512,350.098,902.344
1741605553.551,987.793,857.422,238.770,993.652
1741605553.555,878.418,999.512,-52.734,874.512
1741605553.559,999.512,916.016,-171.875,999.512
1741605553.563,10.254,-501.953,-172.852,92.773
1741605553.567,-1000.000,-1000.000,-60.547,-1000.000
1741605553.570,-967.285,-926.270,6.348,-980.469
1741605553.574,-990.723,-1000.000,-167.969,-983.398
1741605553.578,-981.445,-958.984,-328.125,-986.816
1741605553.582,-977.539,-1000.000,-181.152,-972.656
1741605553.586,-1000.000,-1000.000,-109.863,-1000.000
1741605553.590,120.117,362.305,50.781,65.918
1741605553.594,999.512,999.512,387.695,999.512
1741605553.597,928.711,865.723,-40.039,936.523
1741605553.601,902.344,967.773,-406.250,897.461
1741605553.605,999.512,999.512,-302.734,999.512
1741605553.609,835.449,-234.375,-328.613,797.363
1741605553.613,-625.000,-1000.000,-507.324,-659.668
1741605553.570,-967.285,-926.270,6.348,-980.469
1741605553.574,-990.723,-1000.000,-167.969,-983.398
1741605553.578,-981.445,-958.984,-328.125,-986.816
1741605553.582,-977.539,-1000.000,-181.152,-972.656
1741605553.586,-1000.000,-1000.000,-109.863,-1000.000
1741605553.590,120.117,362.305,50.781,65.918
1741605553.594,999.512,999.512,387.695,999.512
1741605553.597,928.711,865.723,-40.039,936.523
1741605553.601,902.344,967.773,-406.250,897.461
1741605553.605,999.512,999.512,-302.734,999.512
1741605553.609,835.449,-234.375,-328.613,797.363
1741605553.613,-625.000,-1000.000,-507.324,-659.668
1741605553.615,-1000.000,-943.359,-552.734,-1000.000
1741605553.619,-932.617,-1000.000,-332.031,-933.105
1741605553.623,-993.164,-957.031,-224.121,-1000.000
1741605553.627,-978.027,-1000.000,-208.496,-964.844
1741605553.631,-1000.000,-981.445,-221.680,-1000.000
1741605553.635,122.559,403.809,-93.750,-16.602
1741605553.639,999.512,999.512,245.605,999.512
1741605553.642,929.199,854.004,-33.691,943.848
1741605553.646,896.973,989.746,-307.617,890.137
1741605553.650,999.512,970.215,-299.316,999.512
1741605553.654,771.973,-382.812,-296.875,644.043
1741605553.658,-702.148,-1000.000,-250.488,-774.902
1741605553.615,-1000.000,-943.359,-552.734,-1000.000
1741605553.619,-932.617,-1000.000,-332.031,-933.105
1741605553.623,-993.164,-957.031,-224.121,-1000.000
1741605553.627,-978.027,-1000.000,-208.496,-964.844
1741605553.631,-1000.000,-981.445,-221.680,-1000.000
1741605553.635,122.559,403.809,-93.750,-16.602
1741605553.639,999.512,999.512,245.605,999.512
1741605553.642,929.199,854.004,-33.691,943.848
1741605553.646,896.973,989.746,-307.617,890.137
1741605553.650,999.512,970.215,-299.316,999.512
1741605553.654,771.973,-382.812,-296.875,644.043
1741605553.658,-702.148,-1000.000,-250.488,-774.902
1741605553.674,-1000.000,-938.965,-285.645,-1000.000
1741605553.678,-924.316,-975.098,-191.895,-939.453
1741605553.682,-966.797,-997.559,-143.555,-958.008
1741605553.686,-1000.000,-1000.000,-178.711,-1000.000
1741605553.690,-180.176,260.742,4.395,-286.133
1741605553.694,999.512,999.512,350.098,978.027
1741605553.698,958.008,915.039,252.930,974.609
1741605553.701,916.992,921.387,-125.977,913.574
1741605553.705,952.148,999.512,-291.016,948.730
1741605553.709,999.512,918.945,-277.344,999.512
1741605553.713,-164.062,-494.629,-332.031,-89.844
1741605553.717,-1000.000,-1000.000,-395.996,-1000.000
1741605553.719,-945.312,-926.270,-271.484,-956.055
1741605553.723,-1000.000,-1000.000,-208.496,-1000.000
1741605553.727,-963.379,-945.801,-175.781,-967.773
1741605553.731,-1000.000,-1000.000,-172.852,-1000.000
1741605553.735,-1000.000,-917.969,-189.941,-1000.000
1741605553.739,323.730,522.461,103.516,286.621
1741605553.743,999.512,999.512,333.008,999.512
1741605553.746,895.996,894.043,126.953,899.414
1741605553.750,991.211,932.129,-116.699,981.445
1741605553.754,895.020,999.512,-195.312,908.203
1741605553.758,999.512,401.367,-119.629,999.512
1741605553.762,666.504,-875.977,17.578,496.582
1741605553.719,-945.312,-926.270,-271.484,-956.055
1741605553.723,-1000.000,-1000.000,-208.496,-1000.000
1741605553.727,-963.379,-945.801,-175.781,-967.773
1741605553.731,-1000.000,-1000.000,-172.852,-1000.000
1741605553.735,-1000.000,-917.969,-189.941,-1000.000
1741605553.739,323.730,522.461,103.516,286.621
1741605553.743,999.512,999.512,333.008,999.512
1741605553.746,895.996,894.043,126.953,899.414
1741605553.750,991.211,932.129,-116.699,981.445
1741605553.754,895.020,999.512,-195.312,908.203
1741605553.758,999.512,401.367,-119.629,999.512
1741605553.762,666.504,-875.977,17.578,496.582
1741605553.764,-807.617,-1000.000,-178.711,-856.445
1741605553.768,-1000.000,-970.703,-331.055,-1000.000
1741605553.772,-914.551,-959.961,-223.145,-931.641
1741605553.776,-991.699,-1000.000,-23.438,-979.980
1741605553.780,-1000.000,-944.336,8.301,-1000.000
1741605553.784,87.402,475.586,110.352,-6.348
1741605553.788,999.512,999.512,338.379,999.512
1741605553.791,916.016,893.066,75.684,930.176
1741605553.795,976.074,997.070,-110.352,968.750
1741605553.799,910.645,905.762,49.805,917.969
1741605553.803,999.512,999.512,-71.777,999.512
1741605553.807,856.934,811.035,-153.320,893.555
1741605553.764,-807.617,-1000.000,-178.711,-856.445
1741605553.768,-1000.000,-970.703,-331.055,-1000.000
1741605553.772,-914.551,-959.961,-223.145,-931.641
1741605553.776,-991.699,-1000.000,-23.438,-979.980
1741605553.780,-1000.000,-944.336,8.301,-1000.000
1741605553.784,87.402,475.586,110.352,-6.348
1741605553.788,999.512,999.512,338.379,999.512
1741605553.791,916.016,893.066,75.684,930.176
1741605553.795,976.074,997.070,-110.352,968.750
1741605553.799,910.645,905.762,49.805,917.969
1741605553.803,999.512,999.512,-71.777,999.512
1741605553.807,856.934,811.035,-153.320,893.555
1741605553.809,-597.656,-650.391,-224.609,-539.062
1741605553.813,-1000.000,-1000.000,-385.742,-1000.000
1741605553.817,-935.059,-899.902,-316.406,-933.105
1741605553.821,-948.242,-1000.000,-187.500,-949.707
1741605553.825,-1000.000,-1000.000,-133.789,-1000.000
1741605553.829,-449.707,186.523,64.453,-417.969
1741605553.833,919.922,999.512,383.301,928.711
1741605553.836,994.629,908.691,140.625,991.211
1741605553.840,919.922,966.309,-171.387,922.852
1741605553.844,995.117,984.863,-175.293,994.141
1741605553.848,908.691,907.227,-60.059,914.062
1741605553.852,999.512,999.512,156.738,999.512
1741605553.809,-597.656,-650.391,-224.609,-539.062
1741605553.813,-1000.000,-1000.000,-385.742,-1000.000
1741605553.817,-935.059,-899.902,-316.406,-933.105
1741605553.821,-948.242,-1000.000,-187.500,-949.707
1741605553.825,-1000.000,-1000.000,-133.789,-1000.000
1741605553.829,-449.707,186.523,64.453,-417.969
1741605553.833,919.922,999.512,383.301,928.711
1741605553.836,994.629,908.691,140.625,991.211
1741605553.840,919.922,966.309,-171.387,922.852
1741605553.844,995.117,984.863,-175.293,994.141
1741605553.848,908.691,907.227,-60.059,914.062
1741605553.852,999.512,999.512,156.738,999.512
1741605553.854,856.934,832.031,149.414,895.020
1741605553.858,-597.656,-628.418,-233.398,-536.621
1741605553.862,-1000.000,-1000.000,-473.633,-1000.000
1741605553.866,-868.164,-857.422,-211.914,-867.188
1741605553.870,-1000.000,-1000.000,-3.906,-1000.000
1741605553.874,-891.113,-708.008,111.816,-879.395
1741605553.878,563.965,761.719,221.191,579.590
1741605553.881,999.512,999.512,127.930,999.512
1741605553.885,892.578,862.305,33.691,894.043
1741605553.889,990.234,999.512,84.473,992.188
1741605553.893,899.902,108.887,-7.812,903.809
1741605553.897,999.512,-1000.000,-85.938,999.512
1741605553.854,856.934,832.031,149.414,895.020
1741605553.858,-597.656,-628.418,-233.398,-536.621
1741605553.862,-1000.000,-1000.000,-473.633,-1000.000
1741605553.866,-868.164,-857.422,-211.914,-867.188
1741605553.870,-1000.000,-1000.000,-3.906,-1000.000
1741605553.874,-891.113,-708.008,111.816,-879.395
1741605553.878,563.965,761.719,221.191,579.590
1741605553.881,999.512,999.512,127.930,999.512
1741605553.885,892.578,862.305,33.691,894.043
1741605553.889,990.234,999.512,84.473,992.188
1741605553.893,899.902,108.887,-7.812,903.809
1741605553.897,999.512,-1000.000,-85.938,999.512
1741605553.900,401.367,-987.793,-92.773,469.727
1741605553.904,-957.031,-982.422,-208.984,-900.879
1741605553.908,-1000.000,-983.398,-164.062,-1000.000
1741605553.912,-882.324,-980.957,-23.438,-879.395
1741605553.916,-1000.000,-1000.000,-45.898,-1000.000
1741605553.920,-601.562,130.859,67.871,-566.406
1741605553.924,846.191,999.512,389.160,856.445
1741605553.927,999.512,879.883,147.461,999.512
1741605553.931,908.203,963.867,-125.488,911.621
1741605553.935,999.512,995.605,-191.895,999.512
1741605553.939,898.438,-299.316,-185.547,891.602
1741605553.943,999.512,-1000.000,27.344,999.512
1741605553.900,401.367,-987.793,-92.773,469.727
1741605553.904,-957.031,-982.422,-208.984,-900.879
1741605553.908,-1000.000,-983.398,-164.062,-1000.000
1741605553.912,-882.324,-980.957,-23.438,-879.395
1741605553.916,-1000.000,-1000.000,-45.898,-1000.000
1741605553.920,-601.562,130.859,67.871,-566.406
1741605553.924,846.191,999.512,389.160,856.445
1741605553.927,999.512,879.883,147.461,999.512
1741605553.931,908.203,963.867,-125.488,911.621
1741605553.935,999.512,995.605,-191.895,999.512
1741605553.939,898.438,-299.316,-185.547,891.602
1741605553.943,999.512,-1000.000,27.344,999.512
1741605553.944,715.820,-937.500,-117.188,802.734
1741605553.948,-761.719,-1000.000,-334.473,-669.434
1741605553.952,-1000.000,-944.336,-309.082,-1000.000
1741605553.956,-908.203,-1000.000,-194.336,-911.621
1741605553.960,-1000.000,-899.414,-78.613,-1000.000
1741605553.964,105.469,551.270,125.977,152.344
1741605553.968,999.512,999.512,229.492,999.512
1741605553.971,927.246,854.004,-64.453,926.758
1741605553.975,890.137,989.746,-319.336,895.020
1741605553.979,999.512,982.910,-254.395,999.512
1741605553.983,526.367,-354.980,-234.375,595.215
1741605553.987,-898.926,-1000.000,-337.402,-843.750
1741605554.004,-1000.000,-931.152,-268.066,-1000.000
1741605554.008,-958.496,-1000.000,-174.316,-953.125
1741605554.012,-970.215,-945.312,-117.676,-971.680
1741605554.016,-1000.000,-1000.000,-37.109,-1000.000
1741605554.020,-979.980,-911.133,-30.762,-982.910
1741605554.024,413.086,532.715,160.156,401.367
1741605554.028,999.512,999.512,375.000,999.512
1741605554.031,892.578,866.211,103.516,894.043
1741605554.035,977.539,967.285,-185.547,977.539
1741605554.039,983.398,999.512,-219.727,981.934
1741605554.043,896.484,-181.152,-161.133,904.785
1741605554.047,999.512,-1000.000,-77.637,999.512
1741605554.004,-1000.000,-931.152,-268.066,-1000.000
1741605554.008,-958.496,-1000.000,-174.316,-953.125
1741605554.012,-970.215,-945.312,-117.676,-971.680
1741605554.016,-1000.000,-1000.000,-37.109,-1000.000
1741605554.020,-979.980,-911.133,-30.762,-982.910
1741605554.024,413.086,532.715,160.156,401.367
1741605554.028,999.512,999.512,375.000,999.512
1741605554.031,892.578,866.211,103.516,894.043
1741605554.035,977.539,967.285,-185.547,977.539
1741605554.039,983.398,999.512,-219.727,981.934
1741605554.043,896.484,-181.152,-161.133,904.785
1741605554.047,999.512,-1000.000,-77.637,999.512
1741605554.514,999.512,999.512,228.516,999.512
1741605554.518,895.020,906.250,-62.012,895.020
1741605554.522,983.398,983.887,-144.531,983.887
1741605554.526,966.309,967.285,-61.523,966.797
1741605554.530,983.887,980.469,72.754,983.887
1741605554.534,898.926,896.973,145.020,901.855
1741605554.538,999.512,999.512,231.934,999.512
1741605554.541,743.652,553.223,21.973,767.578
1741605554.545,-733.887,-875.000,-419.434,-704.590
1741605554.549,-1000.000,-1000.000,-422.852,-1000.000
1741605554.553,-930.176,-943.848,-223.145,-929.688
1741605554.557,-1000.000,-1000.000,-20.996,-1000.000
1741605554.559,-1000.000,-1000.000,75.684,-1000.000
1741605554.563,-942.383,-941.406,55.664,-945.312
1741605554.567,-1000.000,-1000.000,65.430,-1000.000
1741605554.571,-891.113,-880.859,67.871,-912.598
1741605554.575,563.965,577.148,216.797,530.273
1741605554.579,999.512,999.512,330.078,999.512
1741605554.583,898.926,907.227,199.219,898.926
1741605554.586,952.148,931.152,133.301,954.590
1741605554.590,955.078,999.512,82.031,951.172
1741605554.594,999.512,903.320,-78.613,999.512
1741605554.598,-253.418,-522.461,-222.168,-217.773
1741605554.602,-1000.000,-1000.000,-244.141,-1000.000
1741605554.559,-1000.000,-1000.000,75.684,-1000.000
1741605554.563,-942.383,-941.406,55.664,-945.312
1741605554.567,-1000.000,-1000.000,65.430,-1000.000
1741605554.571,-891.113,-880.859,67.871,-912.598
1741605554.575,563.965,577.148,216.797,530.273
1741605554.579,999.512,999.512,330.078,999.512
1741605554.583,898.926,907.227,199.219,898.926
1741605554.586,952.148,931.152,133.301,954.590
1741605554.590,955.078,999.512,82.031,951.172
1741605554.594,999.512,903.320,-78.613,999.512
1741605554.598,-253.418,-522.461,-222.168,-217.773
1741605554.602,-1000.000,-1000.000,-244.141,-1000.000
1741605554.604,-935.547,-925.781,-246.582,-938.965
1741605554.608,-1000.000,-1000.000,-312.500,-1000.000
1741605554.612,-992.676,-962.891,-253.906,-998.047
1741605554.616,-954.102,-1000.000,-125.488,-947.754
1741605554.620,-1000.000,-1000.000,-187.988,-1000.000
1741605554.624,-124.512,315.430,-70.801,-220.703
1741605554.628,999.512,999.512,235.352,999.512
1741605554.631,943.848,897.949,104.980,959.473
1741605554.635,944.824,973.633,-83.008,937.988
1741605554.639,978.027,979.492,-33.691,980.957
1741605554.643,942.871,922.363,30.762,944.824
1741605554.647,943.848,988.281,6.348,943.359
1741605554.604,-935.547,-925.781,-246.582,-938.965
1741605554.608,-1000.000,-1000.000,-312.500,-1000.000
1741605554.612,-992.676,-962.891,-253.906,-998.047
1741605554.616,-954.102,-1000.000,-125.488,-947.754
1741605554.620,-1000.000,-1000.000,-187.988,-1000.000
1741605554.624,-124.512,315.430,-70.801,-220.703
1741605554.628,999.512,999.512,235.352,999.512
1741605554.631,943.848,897.949,104.980,959.473
1741605554.635,944.824,973.633,-83.008,937.988
1741605554.639,978.027,979.492,-33.691,980.957
1741605554.643,942.871,922.363,30.762,944.824
1741605554.647,943.848,988.281,6.348,943.359
1741605554.664,999.512,948.242,29.297,999.512
1741605554.668,-155.273,-434.082,-48.340,-132.812
1741605554.672,-1000.000,-1000.000,-248.047,-1000.000
1741605554.676,-946.289,-858.398,-183.594,-950.195
1741605554.680,-996.094,-1000.000,-97.656,-994.141
1741605554.684,-1000.000,-659.180,153.320,-1000.000
1741605554.688,-1000.000,912.598,211.426,-1000.000
1741605554.691,-942.383,411.621,-60.059,-942.383
1741605554.695,-1000.000,-1000.000,-86.914,-1000.000
1741605554.699,-899.414,-909.180,120.117,-916.016
1741605554.703,518.066,577.148,333.984,546.875
1741605554.707,999.512,999.512,115.234,999.512
1741605554.664,999.512,948.242,29.297,999.512
1741605554.668,-155.273,-434.082,-48.340,-132.812
1741605554.672,-1000.000,-1000.000,-248.047,-1000.000
1741605554.676,-946.289,-858.398,-183.594,-950.195
1741605554.680,-996.094,-1000.000,-97.656,-994.141
1741605554.684,-1000.000,-659.180,153.320,-1000.000
1741605554.688,-1000.000,912.598,211.426,-1000.000
1741605554.691,-942.383,411.621,-60.059,-942.383
1741605554.695,-1000.000,-1000.000,-86.914,-1000.000
1741605554.699,-899.414,-909.180,120.117,-916.016
1741605554.703,518.066,577.148,333.984,546.875
1741605554.707,999.512,999.512,115.234,999.512
1741605554.709,8.301,-198.730,-198.730,-236.816
1741605554.713,-1000.000,-1000.000,-488.281,-1000.000
1741605554.717,-994.141,-937.500,-431.641,-966.309
1741605554.721,-911.621,-958.008,-210.938,-937.500
1741605554.725,-1000.000,-1000.000,-180.176,-1000.000
1741605554.729,-742.676,-28.320,85.938,-874.023
1741605554.733,657.715,984.863,390.625,502.930
1741605554.736,999.512,990.723,199.219,999.512
1741605554.740,788.574,841.309,-120.117,675.293
1741605554.744,-586.914,-609.375,-331.055,-687.988
1741605554.748,-1000.000,-1000.000,-356.934,-1000.000
1741605554.752,-904.785,-981.934,-194.824,-931.641
1741605554.709,8.301,-198.730,-198.730,-236.816
1741605554.713,-1000.000,-1000.000,-488.281,-1000.000
1741605554.717,-994.141,-937.500,-431.641,-966.309
1741605554.721,-911.621,-958.008,-210.938,-937.500
1741605554.725,-1000.000,-1000.000,-180.176,-1000.000
1741605554.729,-742.676,-28.320,85.938,-874.023
1741605554.733,657.715,984.863,390.625,502.930
1741605554.736,999.512,990.723,199.219,999.512
1741605554.740,788.574,841.309,-120.117,675.293
1741605554.744,-586.914,-609.375,-331.055,-687.988
1741605554.748,-1000.000,-1000.000,-356.934,-1000.000
1741605554.752,-904.785,-981.934,-194.824,-931.641
1741605554.755,-1000.000,-897.949,-67.383,-1000.000
1741605554.759,103.516,576.172,95.703,-1000.000
1741605554.763,999.512,999.512,85.449,-1000.000
1741605554.767,918.457,895.020,106.445,-1000.000
1741605554.771,970.703,981.445,104.004,-1000.000
1741605554.775,899.902,913.086,157.715,-1000.000
1741605554.779,999.512,999.512,309.570,-1000.000
1741605554.782,443.848,208.984,69.336,-1000.000
1741605554.786,-941.406,-1000.000,-87.891,-1000.000
1741605554.790,-1000.000,-996.582,129.883,-1000.000
1741605554.794,-952.148,-973.633,50.781,-1000.000
1741605554.798,-1000.000,-996.582,-96.191,-1000.000
1741605554.755,-1000.000,-897.949,-67.383,-1000.000
1741605554.759,103.516,576.172,95.703,-1000.000
1741605554.763,999.512,999.512,85.449,-1000.000
1741605554.767,918.457,895.020,106.445,-1000.000
1741605554.771,970.703,981.445,104.004,-1000.000
1741605554.775,899.902,913.086,157.715,-1000.000
1741605554.779,999.512,999.512,309.570,-1000.000
1741605554.782,443.848,208.984,69.336,-1000.000
1741605554.786,-941.406,-1000.000,-87.891,-1000.000
1741605554.790,-1000.000,-996.582,129.883,-1000.000
1741605554.794,-952.148,-973.633,50.781,-1000.000
1741605554.798,-1000.000,-996.582,-96.191,-1000.000
1741605554.799,-928.223,-961.914,-83.984,-938.477
1741605554.803,-1000.000,-1000.000,-1.953,-1000.000
1741605554.807,-588.867,-70.801,125.977,-842.285
1741605554.811,850.098,999.512,450.195,623.047
1741605554.815,999.512,958.008,262.207,999.512
1741605554.819,843.750,879.883,116.211,828.125
1741605554.823,999.512,999.512,331.543,999.512
1741605554.826,769.043,715.332,103.027,607.422
1741605554.830,-707.520,-760.742,-366.699,-820.801
1741605554.834,-1000.000,-1000.000,-405.273,-1000.000
1741605554.838,-931.641,-944.336,-204.590,-940.918
1741605554.842,-1000.000,-974.609,-46.875,-1000.000
1741605554.844,-950.684,-1000.000,77.637,-933.594
1741605554.848,-1000.000,-988.281,175.293,-1000.000
1741605554.852,-179.199,382.324,170.410,-467.285
1741605554.856,999.512,999.512,242.676,904.785
1741605554.860,967.285,912.109,219.727,999.512
1741605554.864,889.160,917.969,253.906,869.629
1741605554.868,999.512,999.512,335.938,999.512
1741605554.871,905.273,850.586,123.535,918.457
1741605554.875,-520.508,-606.934,-209.473,-495.605
1741605554.879,-1000.000,-1000.000,-151.367,-1000.000
1741605554.883,-925.781,-926.758,-95.703,-926.270
1741605554.887,-1000.000,-1000.000,-125.000,-1000.000
1741605554.844,-950.684,-1000.000,77.637,-933.594
1741605554.848,-1000.000,-988.281,175.293,-1000.000
1741605554.852,-179.199,382.324,170.410,-467.285
1741605554.856,999.512,999.512,242.676,904.785
1741605554.860,967.285,912.109,219.727,999.512
1741605554.864,889.160,917.969,253.906,869.629
1741605554.868,999.512,999.512,335.938,999.512
1741605554.871,905.273,850.586,123.535,918.457
1741605554.875,-520.508,-606.934,-209.473,-495.605
1741605554.879,-1000.000,-1000.000,-151.367,-1000.000
1741605554.883,-925.781,-926.758,-95.703,-926.270
1741605554.887,-1000.000,-1000.000,-125.000,-1000.000
1741605554.889,-939.941,-935.059,-35.645,-939.453
1741605554.893,-1000.000,-1000.000,71.777,-1000.000
1741605554.897,-864.258,-555.664,161.133,-857.910
1741605554.901,599.121,840.820,331.543,604.980
1741605554.905,999.512,999.512,291.504,999.512
1741605554.909,892.578,914.062,364.258,893.555
1741605554.913,999.512,988.281,325.684,999.512
1741605554.916,902.344,903.809,-51.758,907.715
1741605554.920,999.512,999.512,-38.086,999.512
1741605554.924,783.203,392.578,-11.719,841.797
1741605554.928,-687.500,-949.707,-289.551,-617.676
1741605554.932,-1000.000,-1000.000,-317.871,-1000.000
1741605554.889,-939.941,-935.059,-35.645,-939.453
1741605554.893,-1000.000,-1000.000,71.777,-1000.000
1741605554.897,-864.258,-555.664,161.133,-857.910
1741605554.901,599.121,840.820,331.543,604.980
1741605554.905,999.512,999.512,291.504,999.512
1741605554.909,892.578,914.062,364.258,893.555
1741605554.913,999.512,988.281,325.684,999.512
1741605554.916,902.344,903.809,-51.758,907.715
1741605554.920,999.512,999.512,-38.086,999.512
1741605554.924,783.203,392.578,-11.719,841.797
1741605554.928,-687.500,-949.707,-289.551,-617.676
1741605554.932,-1000.000,-1000.000,-317.871,-1000.000
1741605554.949,-943.359,-968.750,-142.090,-926.758
1741605554.953,-944.336,-941.406,-70.312,-961.914
1741605554.957,-1000.000,-1000.000,-46.387,-1000.000
1741605554.961,-573.242,-539.551,-0.488,-305.176
1741605554.965,866.211,880.371,137.207,956.543
1741605554.969,999.512,999.512,322.754,976.074
1741605554.973,910.645,933.105,311.035,931.152
1741605554.976,990.723,957.031,68.848,978.027
1741605554.980,934.082,695.801,-39.062,978.027
1741605554.984,962.402,932.617,166.016,899.902
1741605554.988,999.512,-43.945,120.117,999.512
1741605554.992,-277.344,-1000.000,-40.039,498.047
1741605554.949,-943.359,-968.750,-142.090,-926.758
1741605554.953,-944.336,-941.406,-70.312,-961.914
1741605554.957,-1000.000,-1000.000,-46.387,-1000.000
1741605554.961,-573.242,-539.551,-0.488,-305.176
1741605554.965,866.211,880.371,137.207,956.543
1741605554.969,999.512,999.512,322.754,976.074
1741605554.973,910.645,933.105,311.035,931.152
1741605554.976,990.723,957.031,68.848,978.027
1741605554.980,934.082,695.801,-39.062,978.027
1741605554.984,962.402,932.617,166.016,899.902
1741605554.988,999.512,-43.945,120.117,999.512
1741605554.992,-277.344,-1000.000,-40.039,498.047
1741605554.994,-1000.000,-956.543,-191.406,-898.438
1741605554.998,-952.148,-1000.000,-106.445,-1000.000
1741605555.002,-951.172,-948.242,54.199,-893.555
1741605555.006,-1000.000,-1000.000,8.789,-1000.000
1741605555.010,-939.453,-908.203,-93.262,-917.480
1741605555.014,487.793,537.598,287.109,523.438
1741605555.018,999.512,999.512,562.988,999.512
1741605555.021,891.602,892.090,99.609,892.090
1741605555.025,991.699,998.047,-204.590,990.234
1741605555.029,924.805,911.133,-77.148,936.035
1741605555.033,979.492,999.512,37.598,959.473
1741605555.037,969.727,874.023,-3.418,999.512
1741605554.994,-1000.000,-956.543,-191.406,-898.438
1741605554.998,-952.148,-1000.000,-106.445,-1000.000
1741605555.002,-951.172,-948.242,54.199,-893.555
1741605555.006,-1000.000,-1000.000,8.789,-1000.000
1741605555.010,-939.453,-908.203,-93.262,-917.480
1741605555.014,487.793,537.598,287.109,523.438
1741605555.018,999.512,999.512,562.988,999.512
1741605555.021,891.602,892.090,99.609,892.090
1741605555.025,991.699,998.047,-204.590,990.234
1741605555.029,924.805,911.133,-77.148,936.035
1741605555.033,979.492,999.512,37.598,959.473
1741605555.037,969.727,874.023,-3.418,999.512
1741605555.039,-395.020,-572.754,-290.527,-263.184
1741605555.043,-1000.000,-1000.000,-406.738,-1000.000
1741605555.047,-932.129,-894.043,-332.520,-937.988
1741605555.051,-948.242,-1000.000,-275.391,-945.312
1741605555.055,-1000.000,-1000.000,-262.695,-1000.000
1741605555.059,-330.078,231.934,-89.355,-290.039
1741605555.063,967.773,999.512,158.203,975.586
1741605555.066,991.211,871.582,-124.512,987.305
1741605555.070,857.910,965.820,-254.395,865.234
1741605555.074,999.512,999.512,-117.676,999.512
1741605555.078,640.137,-274.902,-380.859,711.914
1741605555.082,-825.195,-1000.000,-704.590,-755.371
1741605555.039,-395.020,-572.754,-290.527,-263.184
1741605555.043,-1000.000,-1000.000,-406.738,-1000.000
1741605555.047,-932.129,-894.043,-332.520,-937.988
1741605555.051,-948.242,-1000.000,-275.391,-945.312
1741605555.055,-1000.000,-1000.000,-262.695,-1000.000
1741605555.059,-330.078,231.934,-89.355,-290.039
1741605555.063,967.773,999.512,158.203,975.586
1741605555.066,991.211,871.582,-124.512,987.305
1741605555.070,857.910,965.820,-254.395,865.234
1741605555.074,999.512,999.512,-117.676,999.512
1741605555.078,640.137,-274.902,-380.859,711.914
1741605555.082,-825.195,-1000.000,-704.590,-755.371
1741605555.084,-1000.000,-953.125,-679.199,-1000.000
1741605555.088,-871.582,-932.129,-380.371,-867.676
1741605555.092,-1000.000,-1000.000,-234.863,-1000.000
1741605555.096,-805.176,-609.375,-125.977,-800.293
1741605555.100,672.363,843.262,3.906,672.363
1741605555.104,999.512,978.516,76.660,999.512
1741605555.108,828.613,937.012,72.266,831.055
1741605555.111,999.512,945.312,-237.305,999.512
1741605555.115,396.973,-472.168,-515.625,456.055
1741605555.119,-959.473,-1000.000,-650.879,-918.945
1741605555.123,-1000.000,-926.758,-585.449,-1000.000
1741605555.127,-971.680,-1000.000,-373.047,-967.285
1741605555.129,-955.078,-940.430,-292.480,-956.055
1741605555.133,-1000.000,-1000.000,-202.148,-1000.000
1741605555.137,-891.113,-863.770,-166.016,-891.113
1741605555.141,563.965,597.168,19.531,563.965
1741605555.145,999.512,999.512,178.223,999.512
1741605555.149,891.602,838.867,87.402,892.578
1741605555.153,981.934,999.512,108.398,982.910
1741605555.156,966.309,883.789,47.363,966.797
1741605555.160,966.309,-556.641,-192.383,966.797
1741605555.164,966.309,-1000.000,-33.691,966.797
1741605555.168,966.309,-895.996,41.504,966.797
1741605555.172,966.309,-1000.000,2.441,966.797
1741605555.174,966.309,-1000.000,-15.137,966.797
1741605555.178,966.309,199.707,52.246,967.285
1741605555.182,966.309,999.512,214.844,966.797
1741605555.186,982.422,925.293,250.977,981.934
1741605555.190,908.691,907.227,271.484,914.062
1741605555.194,999.512,999.512,301.758,999.512
1741605555.198,856.934,841.309,224.121,895.020
1741605555.201,-597.656,-618.164,-224.609,-536.621
1741605555.205,-1000.000,-1000.000,-437.500,-1000.000
1741605555.209,-926.758,-928.223,-139.648,-929.688
1741605555.213,-1000.000,-1000.000,-54.688,-1000.000
1741605555.217,-936.523,-943.848,-96.191,-958.008
1741605555.219,-1000.000,-1000.000,-93.750,-1000.000
1741605555.223,-367.188,-267.090,72.266,-128.418
1741605555.227,954.590,986.328,412.109,999.512
1741605555.231,980.469,966.797,329.590,949.219
1741605555.235,940.918,949.707,-31.250,944.336
1741605555.239,926.270,907.715,189.453,970.703
1741605555.243,999.512,999.512,443.359,969.238
1741605555.246,906.250,628.418,148.926,969.727
1741605555.250,-515.625,-816.406,-86.426,896.973
1741605555.254,-1000.000,-1000.000,101.562,929.688
1741605555.258,-926.270,-938.477,117.188,979.492
1741605555.262,-1000.000,-1000.000,50.781,961.914
1741605555.219,-1000.000,-1000.000,-93.750,-1000.000
1741605555.223,-367.188,-267.090,72.266,-128.418
1741605555.227,954.590,986.328,412.109,999.512
1741605555.231,980.469,966.797,329.590,949.219
1741605555.235,940.918,949.707,-31.250,944.336
1741605555.239,926.270,907.715,189.453,970.703
1741605555.243,999.512,999.512,443.359,969.238
1741605555.246,906.250,628.418,148.926,969.727
1741605555.250,-515.625,-816.406,-86.426,896.973
1741605555.254,-1000.000,-1000.000,101.562,929.688
1741605555.258,-926.270,-938.477,117.188,979.492
1741605555.262,-1000.000,-1000.000,50.781,961.914
1741605555.264,-949.707,-947.754,0.977,967.773
1741605555.268,-1000.000,-1000.000,-96.680,966.797
1741605555.272,-943.359,-930.176,-147.461,967.285
1741605555.276,477.539,500.488,-17.578,966.797
1741605555.280,999.512,999.512,153.809,966.797
1741605555.284,908.203,909.180,372.559,968.750
1741605555.288,921.875,919.922,393.066,970.703
1741605555.291,999.512,999.512,-39.551,910.645
1741605555.295,856.934,813.965,-291.992,999.512
1741605555.299,-597.656,-647.461,-360.352,377.441
1741605555.303,-1000.000,-1000.000,-433.105,-943.359
1741605555.307,-880.371,-872.070,-371.582,-977.539
1741605555.264,-949.707,-947.754,0.977,967.773
1741605555.268,-1000.000,-1000.000,-96.680,966.797
1741605555.272,-943.359,-930.176,-147.461,967.285
1741605555.276,477.539,500.488,-17.578,966.797
1741605555.280,999.512,999.512,153.809,966.797
1741605555.284,908.203,909.180,372.559,968.750
1741605555.288,921.875,919.922,393.066,970.703
1741605555.291,999.512,999.512,-39.551,910.645
1741605555.295,856.934,813.965,-291.992,999.512
1741605555.299,-597.656,-647.461,-360.352,377.441
1741605555.303,-1000.000,-1000.000,-433.105,-943.359
1741605555.307,-880.371,-872.070,-371.582,-977.539
1741605555.324,-1000.000,-1000.000,-439.453,-995.605
1741605555.328,-980.469,-901.855,-346.680,-946.289
1741605555.332,412.598,542.480,-118.652,491.699
1741605555.336,999.512,999.512,-64.941,999.512
1741605555.340,900.879,894.531,-229.980,899.902
1741605555.344,921.387,925.293,-111.328,928.223
1741605555.348,999.512,999.512,-112.793,999.512
1741605555.351,567.383,297.852,-462.402,601.074
1741605555.355,-789.062,-977.539,-616.699,-746.094
1741605555.359,-1000.000,-1000.000,-534.668,-1000.000
1741605555.363,-945.312,-963.867,-534.668,-943.848
1741605555.367,-1000.000,-1000.000,-499.512,-1000.000
1741605555.324,-1000.000,-1000.000,-439.453,-995.605
1741605555.328,-980.469,-901.855,-346.680,-946.289
1741605555.332,412.598,542.480,-118.652,491.699
1741605555.336,999.512,999.512,-64.941,999.512
1741605555.340,900.879,894.531,-229.980,899.902
1741605555.344,921.387,925.293,-111.328,928.223
1741605555.348,999.512,999.512,-112.793,999.512
1741605555.351,567.383,297.852,-462.402,601.074
1741605555.355,-789.062,-977.539,-616.699,-746.094
1741605555.359,-1000.000,-1000.000,-534.668,-1000.000
1741605555.363,-945.312,-963.867,-534.668,-943.848
1741605555.367,-1000.000,-1000.000,-499.512,-1000.000
1741605555.369,-1000.000,-1000.000,-461.914,-1000.000
1741605555.373,-941.895,-931.641,-344.727,-942.383
1741605555.377,-1000.000,-1000.000,-291.992,-1000.000
1741605555.381,-882.324,-727.539,-279.785,-891.113
1741605555.385,576.660,752.441,-69.824,566.406
1741605555.389,999.512,999.512,49.805,999.512
1741605555.393,831.055,907.715,-68.359,839.844
1741605555.396,999.512,999.512,-362.793,999.512
1741605555.400,291.016,-354.004,-593.750,199.707
1741605555.404,-1000.000,-1000.000,-619.629,-1000.000
1741605555.408,-1000.000,-931.152,-452.148,-995.605
1741605555.412,-963.867,-1000.000,-312.988,-970.215
1741605555.414,-1000.000,-997.559,-325.195,-1000.000
1741605555.418,-929.688,-950.684,-315.918,-935.059
1741605555.422,-1000.000,-1000.000,-287.109,-1000.000
1741605555.426,-714.844,-243.164,-245.117,-803.223
1741605555.430,765.625,989.746,2.930,675.293
1741605555.434,999.512,915.527,228.027,999.512
1741605555.438,868.164,974.609,196.289,872.559
1741605555.441,999.512,911.133,40.039,999.512
1741605555.445,-66.406,-524.902,-219.727,-119.141
1741605555.449,-1000.000,-1000.000,-312.988,-1000.000
1741605555.453,-956.543,-925.781,-314.453,-953.125
1741605555.457,-991.211,-1000.000,-189.453,-993.164
1741605555.459,-1000.000,-978.516,-260.742,-1000.000
1741605555.463,-936.523,-978.027,-244.141,-929.688
1741605555.467,-1000.000,-1000.000,-28.809,-1000.000
1741605555.471,-376.465,83.496,85.938,-554.199
1741605555.475,954.590,999.512,279.297,872.559
1741605555.479,960.938,878.906,331.543,989.746
1741605555.483,899.902,976.562,127.441,894.531
1741605555.486,999.512,962.891,-132.812,999.512
1741605555.490,-125.977,-414.551,-203.125,-180.176
1741605555.494,-1000.000,-1000.000,-242.676,-1000.000
1741605555.498,-949.219,-928.223,-245.117,-945.312
1741605555.502,-994.141,-1000.000,-199.707,-997.559
1741605555.504,-1000.000,-1000.000,-179.688,-1000.000
1741605555.508,-1000.000,-1000.000,-5.859,-1000.000
1741605555.512,-953.125,-942.383,93.750,-973.145
1741605555.516,-1000.000,-1000.000,1.953,-985.840
1741605555.520,-968.262,-891.113,-111.328,-1000.000
1741605555.524,449.707,579.590,224.609,190.430
1741605555.528,999.512,999.512,494.629,999.512
1741605555.531,946.289,937.012,60.059,979.492
1741605555.535,869.141,901.367,-183.105,739.746
1741605555.539,-598.145,-554.199,-215.332,-691.406
1741605555.543,-1000.000,-1000.000,-344.727,-1000.000
1741605555.547,-925.781,-925.781,-93.750,-932.617
1741605555.549,-1000.000,-1000.000,-49.805,-1000.000
1741605555.553,-1000.000,-1000.000,-169.434,-1000.000
1741605555.557,-958.496,-944.336,-124.512,-990.234
1741605555.561,-1000.000,-1000.000,-63.477,-958.496
1741605555.565,-996.582,-899.414,-115.723,-1000.000
1741605555.569,347.656,522.461,209.961,-140.625
1741605555.573,999.512,999.512,519.531,999.512
1741605555.576,984.863,977.051,92.285,939.453
1741605555.580,-76.660,-94.727,-240.723,-414.062
1741605555.584,-1000.000,-1000.000,-356.934,-1000.000
1741605555.588,-968.750,-968.750,-254.395,-930.664
1741605555.592,-940.918,-931.641,-173.828,-1000.000
1741605555.549,-1000.000,-1000.000,-49.805,-1000.000
1741605555.553,-1000.000,-1000.000,-169.434,-1000.000
1741605555.557,-958.496,-944.336,-124.512,-990.234
1741605555.561,-1000.000,-1000.000,-63.477,-958.496
1741605555.565,-996.582,-899.414,-115.723,-1000.000
1741605555.569,347.656,522.461,209.961,-140.625
1741605555.573,999.512,999.512,519.531,999.512
1741605555.576,984.863,977.051,92.285,939.453
1741605555.580,-76.660,-94.727,-240.723,-414.062
1741605555.584,-1000.000,-1000.000,-356.934,-1000.000
1741605555.588,-968.750,-968.750,-254.395,-930.664
1741605555.592,-940.918,-931.641,-173.828,-1000.000
1741605555.595,-1000.000,-1000.000,-294.434,-937.500
