timestamps,TP9,AF7,AF8,TP10
1741606355.334,999.512,918.457,-10.254,999.512
1741606355.338,134.277,-606.445,-37.109,216.309
1741606355.342,-1000.000,-1000.000,-46.387,-1000.000
1741606355.346,-984.375,622.070,-20.508,-999.512
1741606355.350,-975.586,554.199,-20.996,-968.750
1741606355.354,-1000.000,391.113,-31.738,-1000.000
1741606355.358,-942.383,147.461,-25.391,-941.406
1741606355.361,-1000.000,-1000.000,-41.016,-1000.000
1741606355.365,-891.113,-241.699,-41.992,-878.906
1741606355.369,563.965,902.832,-11.719,579.590
1741606355.373,999.512,-445.801,-28.809,999.512
1741606355.377,891.602,52.734,-30.273,893.066
1741606355.379,981.934,786.133,-18.555,982.910
1741606355.383,982.422,-734.375,-41.016,981.445
1741606355.387,908.691,338.867,-39.551,912.598
1741606355.391,999.512,996.582,-26.855,999.512
1741606355.395,858.398,-594.238,-36.621,861.328
1741606355.399,-595.703,-1000.000,-47.852,-567.871
1741606355.403,-1000.000,-453.613,-57.129,-1000.000
1741606355.406,-942.383,744.629,-65.430,-944.336
1741606355.410,-957.031,-485.840,-61.035,-952.148
1741606355.414,-1000.000,-1000.000,-60.547,-1000.000
1741606355.418,-877.441,194.824,-62.012,-825.195
1741606355.422,581.543,999.512,-42.969,638.184
1741606355.424,999.512,831.543,-49.316,999.512
1741606355.428,892.090,-812.012,-52.246,895.508
1741606355.432,982.422,-616.699,-42.969,983.398
1741606355.436,966.309,828.613,-46.875,966.797
1741606355.440,966.309,-483.887,-47.852,966.797
1741606355.444,982.422,263.184,-42.480,983.398
1741606355.448,903.809,952.637,-36.621,909.180
1741606355.451,999.512,-745.117,-47.852,999.512
1741606355.455,763.184,-1000.000,-63.965,855.957
1741606355.459,-690.918,-998.535,-48.340,-600.586
1741606355.463,-1000.000,291.992,-30.273,-1000.000
1741606355.467,-881.836,856.445,-35.645,-871.582
1741606355.424,999.512,831.543,-49.316,999.512
1741606355.428,892.090,-812.012,-52.246,895.508
1741606355.432,982.422,-616.699,-42.969,983.398
1741606355.436,966.309,828.613,-46.875,966.797
1741606355.440,966.309,-483.887,-47.852,966.797
1741606355.444,982.422,263.184,-42.480,983.398
1741606355.448,903.809,952.637,-36.621,909.180
1741606355.451,999.512,-745.117,-47.852,999.512
1741606355.455,763.184,-1000.000,-63.965,855.957
1741606355.459,-690.918,-998.535,-48.340,-600.586
1741606355.463,-1000.000,291.992,-30.273,-1000.000
1741606355.467,-881.836,856.445,-35.645,-871.582
1741606355.469,-1000.000,-735.352,-39.551,-1000.000
1741606355.473,-679.688,74.707,-29.785,-577.148
1741606355.477,659.668,999.512,-9.766,759.277
1741606355.481,999.512,470.215,-36.621,999.512
1741606355.485,907.715,-798.828,-58.594,914.551
1741606355.489,977.051,554.688,-22.461,978.027
1741606355.493,967.773,780.273,-23.926,967.773
1741606355.496,965.332,-1000.000,-60.547,974.121
1741606355.500,910.645,-868.652,-52.246,902.832
1741606355.504,999.512,672.852,-38.574,999.512
1741606355.508,220.703,-391.602,-50.781,389.160
1741606355.512,-1000.000,-1000.000,-50.293,-955.078
1741606355.516,-997.559,674.316,-32.227,-1000.000
1741606355.520,-969.238,137.695,-42.480,-956.055
1741606355.524,-1000.000,-710.449,-43.945,-1000.000
1741606355.528,-928.223,693.848,-39.062,-931.641
1741606355.532,-1000.000,-452.637,-52.246,-1000.000
1741606355.536,-687.988,141.113,-36.133,-641.602
1741606355.540,784.668,999.512,-33.691,799.316
1741606355.543,999.512,-720.215,-44.434,999.512
1741606355.547,842.773,-411.621,-37.109,847.656
1741606355.551,999.512,833.984,-38.086,999.512
1741606355.555,840.332,-605.469,-41.992,687.500
1741606355.559,-619.629,-1000.000,-30.762,-723.633
1741606355.516,-997.559,674.316,-32.227,-1000.000
1741606355.520,-969.238,137.695,-42.480,-956.055
1741606355.524,-1000.000,-710.449,-43.945,-1000.000
1741606355.528,-928.223,693.848,-39.062,-931.641
1741606355.532,-1000.000,-452.637,-52.246,-1000.000
1741606355.536,-687.988,141.113,-36.133,-641.602
1741606355.540,784.668,999.512,-33.691,799.316
1741606355.543,999.512,-720.215,-44.434,999.512
1741606355.547,842.773,-411.621,-37.109,847.656
1741606355.551,999.512,833.984,-38.086,999.512
1741606355.555,840.332,-605.469,-41.992,687.500
1741606355.559,-619.629,-1000.000,-30.762,-723.633
1741606355.559,-1000.000,150.391,-24.902,-1000.000
1741606355.563,-926.270,640.625,-45.410,-936.523
1741606355.567,-1000.000,-361.328,-28.809,-1000.000
1741606355.571,-927.734,713.379,-4.395,-930.664
1741606355.575,-1000.000,-198.730,-33.203,-1000.000
1741606355.579,-619.629,121.094,-20.508,-634.766
1741606355.583,833.984,992.188,-20.996,809.570
1741606355.586,999.512,-903.809,-39.551,999.512
1741606355.590,924.316,-404.297,-36.621,910.156
1741606355.594,911.133,977.051,-30.762,931.152
1741606355.598,999.512,-322.266,-34.668,999.512
1741606355.602,662.109,-1000.000,-41.504,397.461
1741606355.559,-1000.000,150.391,-24.902,-1000.000
1741606355.563,-926.270,640.625,-45.410,-936.523
1741606355.567,-1000.000,-361.328,-28.809,-1000.000
1741606355.571,-927.734,713.379,-4.395,-930.664
1741606355.575,-1000.000,-198.730,-33.203,-1000.000
1741606355.579,-619.629,121.094,-20.508,-634.766
1741606355.583,833.984,992.188,-20.996,809.570
1741606355.586,999.512,-903.809,-39.551,999.512
1741606355.590,924.316,-404.297,-36.621,910.156
1741606355.594,911.133,977.051,-30.762,931.152
1741606355.598,999.512,-322.266,-34.668,999.512
1741606355.602,662.109,-1000.000,-41.504,397.461
1741606355.606,-811.035,-854.004,-36.133,-898.438
1741606355.610,-1000.000,425.781,-33.691,-1000.000
1741606355.614,-949.707,-409.668,-33.691,-967.773
1741606355.618,-968.262,-59.570,-23.438,-965.332
1741606355.622,-1000.000,957.520,-22.949,-1000.000
1741606355.626,-952.637,-249.023,-17.090,-963.867
1741606355.630,461.914,789.062,-9.277,437.012
1741606355.633,999.512,225.098,-45.898,999.512
1741606355.637,892.090,-968.262,-50.781,893.555
1741606355.641,992.188,413.086,-21.484,990.723
1741606355.645,920.410,-443.359,-31.738,922.363
1741606355.649,990.234,158.203,-31.250,988.281
1741606355.606,-811.035,-854.004,-36.133,-898.438
1741606355.610,-1000.000,425.781,-33.691,-1000.000
1741606355.614,-949.707,-409.668,-33.691,-967.773
1741606355.618,-968.262,-59.570,-23.438,-965.332
1741606355.622,-1000.000,957.520,-22.949,-1000.000
1741606355.626,-952.637,-249.023,-17.090,-963.867
1741606355.630,461.914,789.062,-9.277,437.012
1741606355.633,999.512,225.098,-45.898,999.512
1741606355.637,892.090,-968.262,-50.781,893.555
1741606355.641,992.188,413.086,-21.484,990.723
1741606355.645,920.410,-443.359,-31.738,922.363
1741606355.649,990.234,158.203,-31.250,988.281
1741606355.664,942.871,871.094,-29.785,949.219
1741606355.668,-451.172,-1000.000,-40.527,-431.152
1741606355.672,-1000.000,-520.020,-23.926,-1000.000
1741606355.676,-926.758,750.977,-23.438,-928.223
1741606355.680,-1000.000,-645.508,-48.828,-1000.000
1741606355.684,-990.723,331.055,-21.484,-993.164
1741606355.688,-957.031,978.516,-17.090,-954.102
1741606355.691,-1000.000,-790.039,-34.180,-1000.000
1741606355.695,-93.750,495.117,-14.648,-152.344
1741606355.699,999.512,977.539,-20.020,999.512
1741606355.703,939.941,-776.367,-22.461,950.684
1741606355.707,946.777,437.012,-19.531,942.871
1741606355.709,985.352,723.633,-14.160,986.816
1741606355.713,917.480,-1000.000,-12.695,920.410
1741606355.717,997.070,59.570,-21.973,993.652
1741606355.721,923.828,859.863,-20.508,934.570
1741606355.725,-486.816,-790.039,-27.832,-462.891
1741606355.729,-1000.000,-71.289,-15.137,-1000.000
1741606355.733,-926.270,-213.379,-21.484,-927.246
1741606355.736,-1000.000,-1000.000,-30.762,-1000.000
1741606355.740,-939.941,679.199,-25.391,-938.477
1741606355.744,-1000.000,234.375,-26.855,-1000.000
1741606355.748,-861.328,-13.184,-11.719,-837.402
1741606355.752,601.074,999.512,-7.812,624.512
1741606355.709,985.352,723.633,-14.160,986.816
1741606355.713,917.480,-1000.000,-12.695,920.410
1741606355.717,997.070,59.570,-21.973,993.652
1741606355.721,923.828,859.863,-20.508,934.570
1741606355.725,-486.816,-790.039,-27.832,-462.891
1741606355.729,-1000.000,-71.289,-15.137,-1000.000
1741606355.733,-926.270,-213.379,-21.484,-927.246
1741606355.736,-1000.000,-1000.000,-30.762,-1000.000
1741606355.740,-939.941,679.199,-25.391,-938.477
1741606355.744,-1000.000,234.375,-26.855,-1000.000
1741606355.748,-861.328,-13.184,-11.719,-837.402
1741606355.752,601.074,999.512,-7.812,624.512
1741606355.769,999.512,-291.016,-24.902,999.512
1741606355.773,873.047,-798.340,-36.133,870.605
1741606355.777,954.590,870.605,-41.016,965.820
1741606355.781,999.512,946.289,-34.668,999.512
1741606355.785,-102.539,-855.469,-58.105,-148.926
1741606355.789,-1000.000,-749.023,-42.480,-1000.000
1741606355.793,-952.637,643.555,-24.414,-952.637
1741606355.796,-992.676,-738.770,-41.992,-994.629
1741606355.800,-1000.000,-141.113,-29.297,-1000.000
1741606355.804,-927.734,881.348,-39.062,-932.617
1741606355.808,-1000.000,-682.617,-58.594,-1000.000
1741606355.812,-615.234,322.266,-43.457,-598.633
1741606355.769,999.512,-291.016,-24.902,999.512
1741606355.773,873.047,-798.340,-36.133,870.605
1741606355.777,954.590,870.605,-41.016,965.820
1741606355.781,999.512,946.289,-34.668,999.512
1741606355.785,-102.539,-855.469,-58.105,-148.926
1741606355.789,-1000.000,-749.023,-42.480,-1000.000
1741606355.793,-952.637,643.555,-24.414,-952.637
1741606355.796,-992.676,-738.770,-41.992,-994.629
1741606355.800,-1000.000,-141.113,-29.297,-1000.000
1741606355.804,-927.734,881.348,-39.062,-932.617
1741606355.808,-1000.000,-682.617,-58.594,-1000.000
1741606355.812,-615.234,322.266,-43.457,-598.633
1741606355.799,835.938,999.512,-27.832,822.754
1741606355.803,999.512,-416.504,-49.316,999.512
1741606355.807,858.398,-934.082,-49.316,859.375
1741606355.811,999.512,622.070,-42.480,999.512
1741606355.815,777.832,-226.562,-51.758,753.906
1741606355.819,-600.098,-1000.000,-53.711,-625.977
1741606355.823,-1000.000,-765.625,-54.199,-1000.000
1741606355.826,-933.594,724.121,-48.340,-934.570
1741606355.830,-1000.000,-196.777,-62.012,-1000.000
1741606355.834,-1000.000,-889.160,-66.895,-1000.000
1741606355.838,-942.383,921.875,-58.105,-942.383
1741606355.842,-1000.000,-91.797,-52.734,-1000.000
1741606355.844,-891.113,-563.477,-40.527,-887.695
1741606355.848,563.477,718.750,-37.598,568.848
1741606355.852,999.512,-220.703,-32.227,999.512
1741606355.856,902.832,421.387,-14.648,904.297
1741606355.860,940.918,-225.098,-35.156,938.965
1741606355.864,979.004,79.590,-36.133,987.305
1741606355.868,970.703,649.414,-28.320,949.219
1741606355.871,-392.578,-1000.000,-56.641,-427.734
1741606355.875,-1000.000,-999.512,-56.152,-1000.000
1741606355.879,-928.711,728.027,-30.762,-928.711
1741606355.883,-1000.000,339.355,-14.160,-1000.000
1741606355.887,-1000.000,-992.188,-17.578,-1000.000
1741606355.890,-944.336,685.059,-19.043,-947.266
1741606355.894,-1000.000,426.270,-16.113,-1000.000
1741606355.898,-904.297,-847.656,-17.090,-926.758
1741606355.902,543.457,659.180,-6.836,506.836
1741606355.906,999.512,999.512,-12.207,999.512
1741606355.910,891.602,-379.883,-19.043,892.578
1741606355.914,981.445,-569.336,-24.902,980.957
1741606355.917,982.422,457.031,-38.086,982.910
1741606355.921,908.203,-738.770,-45.898,909.668
1741606355.925,999.512,-173.340,-20.020,999.512
1741606355.929,856.934,499.512,-19.043,860.352
1741606355.933,-597.656,-1000.000,-40.527,-593.750
1741606355.890,-944.336,685.059,-19.043,-947.266
1741606355.894,-1000.000,426.270,-16.113,-1000.000
1741606355.898,-904.297,-847.656,-17.090,-926.758
1741606355.902,543.457,659.180,-6.836,506.836
1741606355.906,999.512,999.512,-12.207,999.512
1741606355.910,891.602,-379.883,-19.043,892.578
1741606355.914,981.445,-569.336,-24.902,980.957
1741606355.917,982.422,457.031,-38.086,982.910
1741606355.921,908.203,-738.770,-45.898,909.668
1741606355.925,999.512,-173.340,-20.020,999.512
1741606355.929,856.934,499.512,-19.043,860.352
1741606355.933,-597.656,-1000.000,-40.527,-593.750
1741606355.934,-1000.000,-577.148,-27.344,-1000.000
1741606355.938,-925.781,530.273,-26.855,-926.270
1741606355.942,-1000.000,-179.688,-28.809,-1000.000
1741606355.946,-927.246,305.664,-31.738,-933.594
1741606355.950,-1000.000,-512.695,-42.480,-1000.000
1741606355.954,-629.883,344.238,-19.531,-553.223
1741606355.958,828.125,999.512,-17.578,848.633
1741606355.961,999.512,-563.477,-28.320,999.512
1741606355.965,906.250,349.609,-17.090,913.086
1741606355.969,999.023,-202.637,-34.180,998.047
1741606355.973,908.203,-1000.000,-42.969,908.691
1741606355.977,999.512,769.531,-32.715,999.512
1741606355.934,-1000.000,-577.148,-27.344,-1000.000
1741606355.938,-925.781,530.273,-26.855,-926.270
1741606355.942,-1000.000,-179.688,-28.809,-1000.000
1741606355.946,-927.246,305.664,-31.738,-933.594
1741606355.950,-1000.000,-512.695,-42.480,-1000.000
1741606355.954,-629.883,344.238,-19.531,-553.223
1741606355.958,828.125,999.512,-17.578,848.633
1741606355.961,999.512,-563.477,-28.320,999.512
1741606355.965,906.250,349.609,-17.090,913.086
1741606355.969,999.023,-202.637,-34.180,998.047
1741606355.973,908.203,-1000.000,-42.969,908.691
1741606355.977,999.512,769.531,-32.715,999.512
1741606355.981,856.934,573.730,-41.992,854.004
1741606355.985,-598.145,-1000.000,-52.246,-602.539
1741606355.989,-1000.000,-991.699,-56.641,-1000.000
1741606355.993,-925.781,749.512,-45.898,-925.293
1741606355.997,-1000.000,574.707,-32.227,-1000.000
1741606356.001,-1000.000,-451.172,-23.926,-1000.000
1741606356.005,-942.383,478.516,-39.551,-940.430
1741606356.008,-1000.000,-676.270,-39.551,-1000.000
1741606356.012,-891.113,-630.859,-36.621,-902.344
1741606356.016,563.965,999.512,-26.855,546.387
1741606356.020,999.512,98.145,-42.969,999.512
1741606356.024,891.602,-1000.000,-55.176,892.090
1741606356.069,985.840,638.672,-49.805,986.816
1741606356.073,953.613,75.195,-52.246,953.613
1741606356.077,926.758,-744.141,-41.504,930.664
1741606356.081,999.512,767.090,-31.738,999.512
1741606356.085,78.125,-549.316,-59.570,76.172
1741606356.089,-1000.000,-1000.000,-45.898,-1000.000
1741606356.093,-188.477,841.309,-4.395,-190.918
1741606356.096,999.512,544.434,-12.695,999.512
1741606356.100,946.289,-1000.000,-50.781,940.430
1741606356.104,875.977,62.012,-48.340,889.648
1741606356.108,999.512,164.551,-34.180,999.512
1741606356.112,187.012,-1000.000,-40.039,97.168
1741606356.069,985.840,638.672,-49.805,986.816
1741606356.073,953.613,75.195,-52.246,953.613
1741606356.077,926.758,-744.141,-41.504,930.664
1741606356.081,999.512,767.090,-31.738,999.512
1741606356.085,78.125,-549.316,-59.570,76.172
1741606356.089,-1000.000,-1000.000,-45.898,-1000.000
1741606356.093,-188.477,841.309,-4.395,-190.918
1741606356.096,999.512,544.434,-12.695,999.512
1741606356.100,946.289,-1000.000,-50.781,940.430
1741606356.104,875.977,62.012,-48.340,889.648
1741606356.108,999.512,164.551,-34.180,999.512
1741606356.112,187.012,-1000.000,-40.039,97.168
1741606356.114,-1000.000,-948.730,-47.852,-1000.000
1741606356.118,-984.375,571.289,-43.945,-978.027
1741606356.122,-973.633,523.438,-39.551,-974.121
1741606356.126,-944.824,-1000.000,-37.598,-950.684
1741606356.130,-1000.000,136.230,-39.062,-1000.000
1741606356.134,-216.309,999.512,-16.602,-151.855
1741606356.138,999.512,801.270,-12.207,999.512
1741606356.141,949.219,-395.020,-33.691,942.383
1741606356.145,939.453,-1000.000,-57.129,944.336
1741606356.149,983.887,-1000.000,-66.895,983.887
1741606356.153,893.066,72.266,-42.969,894.531
1741606356.157,999.512,999.512,-34.668,999.512
1741606356.114,-1000.000,-948.730,-47.852,-1000.000
1741606356.118,-984.375,571.289,-43.945,-978.027
1741606356.122,-973.633,523.438,-39.551,-974.121
1741606356.126,-944.824,-1000.000,-37.598,-950.684
1741606356.130,-1000.000,136.230,-39.062,-1000.000
1741606356.134,-216.309,999.512,-16.602,-151.855
1741606356.138,999.512,801.270,-12.207,999.512
1741606356.141,949.219,-395.020,-33.691,942.383
1741606356.145,939.453,-1000.000,-57.129,944.336
1741606356.149,983.887,-1000.000,-66.895,983.887
1741606356.153,893.066,72.266,-42.969,894.531
1741606356.157,999.512,999.512,-34.668,999.512
1741606356.159,408.691,-6.836,-44.922,429.199
1741606356.163,-980.957,-1000.000,-56.641,-964.844
1741606356.167,-1000.000,-151.367,-35.156,-1000.000
1741606356.171,-955.078,865.234,-34.668,-953.613
1741606356.175,-1000.000,-490.723,-41.992,-1000.000
1741606356.179,-1000.000,-93.750,-36.133,-1000.000
1741606356.183,-986.328,582.031,-30.273,-987.305
1741606356.186,-959.961,-514.160,-36.621,-959.473
1741606356.190,-1000.000,-631.348,-56.152,-1000.000
1741606356.194,5.371,768.555,-41.016,-12.207
1741606356.198,999.512,999.512,-25.391,999.512
1741606356.202,920.898,-187.988,-25.391,925.781
1741606356.159,408.691,-6.836,-44.922,429.199
1741606356.163,-980.957,-1000.000,-56.641,-964.844
1741606356.167,-1000.000,-151.367,-35.156,-1000.000
1741606356.171,-955.078,865.234,-34.668,-953.613
1741606356.175,-1000.000,-490.723,-41.992,-1000.000
1741606356.179,-1000.000,-93.750,-36.133,-1000.000
1741606356.183,-986.328,582.031,-30.273,-987.305
1741606356.186,-959.961,-514.160,-36.621,-959.473
1741606356.190,-1000.000,-631.348,-56.152,-1000.000
1741606356.194,5.371,768.555,-41.016,-12.207
1741606356.198,999.512,999.512,-25.391,999.512
1741606356.202,920.898,-187.988,-25.391,925.781
1741606356.205,956.543,-500.488,-30.762,953.125
1741606356.209,905.273,963.379,-24.902,910.645
1741606356.213,999.512,74.219,-12.695,999.512
1741606356.217,186.523,-1000.000,-25.391,151.367
1741606356.221,-1000.000,-875.000,-27.832,-1000.000
1741606356.225,-983.887,-64.453,-5.371,-979.492
1741606356.229,-973.145,366.699,8.301,-976.074
1741606356.232,-1000.000,717.773,-26.855,-1000.000
1741606356.236,-937.500,-615.723,-48.340,-937.988
1741606356.240,-1000.000,-776.855,-11.230,-1000.000
1741606356.244,-220.703,737.305,5.371,-214.355
1741606356.248,999.512,999.512,14.648,999.512
1741606356.249,949.707,-8.301,18.066,949.707
1741606356.253,949.707,-1000.000,-0.977,948.242
1741606356.257,899.902,32.227,11.230,903.809
1741606356.261,999.512,999.512,27.832,999.512
1741606356.265,400.879,-240.723,19.531,343.262
1741606356.269,-984.863,-1000.000,13.184,-1000.000
1741606356.273,-1000.000,285.156,10.742,-1000.000
1741606356.276,-955.566,-17.578,3.906,-960.449
1741606356.280,-1000.000,-735.352,14.160,-1000.000
1741606356.284,-1000.000,993.164,25.879,-1000.000
1741606356.288,-1000.000,-227.051,27.832,-1000.000
1741606356.292,-1000.000,-481.934,29.785,-1000.000
1741606356.249,949.707,-8.301,18.066,949.707
1741606356.253,949.707,-1000.000,-0.977,948.242
1741606356.257,899.902,32.227,11.230,903.809
1741606356.261,999.512,999.512,27.832,999.512
1741606356.265,400.879,-240.723,19.531,343.262
1741606356.269,-984.863,-1000.000,13.184,-1000.000
1741606356.273,-1000.000,285.156,10.742,-1000.000
1741606356.276,-955.566,-17.578,3.906,-960.449
1741606356.280,-1000.000,-735.352,14.160,-1000.000
1741606356.284,-1000.000,993.164,25.879,-1000.000
1741606356.288,-1000.000,-227.051,27.832,-1000.000
1741606356.292,-1000.000,-481.934,29.785,-1000.000
1741606356.294,-934.082,999.512,18.066,-929.688
1741606356.298,-1000.000,-528.320,-2.930,-1000.000
1741606356.302,-276.855,-330.566,9.277,-384.277
1741606356.306,999.512,999.512,17.090,972.656
1741606356.310,974.609,-65.430,-3.418,991.211
1741606356.314,866.211,-262.207,8.789,858.887
1741606356.318,999.512,999.512,1.953,999.512
1741606356.321,662.598,13.184,-49.316,547.363
1741606356.325,-783.691,-1000.000,-77.637,-854.004
1741606356.329,-1000.000,-1000.000,-82.520,-1000.000
1741606356.333,-937.988,78.125,-62.500,-946.777
1741606356.337,-1000.000,764.648,-37.598,-1000.000
1741606356.294,-934.082,999.512,18.066,-929.688
1741606356.298,-1000.000,-528.320,-2.930,-1000.000
1741606356.302,-276.855,-330.566,9.277,-384.277
1741606356.306,999.512,999.512,17.090,972.656
1741606356.310,974.609,-65.430,-3.418,991.211
1741606356.314,866.211,-262.207,8.789,858.887
1741606356.318,999.512,999.512,1.953,999.512
1741606356.321,662.598,13.184,-49.316,547.363
1741606356.325,-783.691,-1000.000,-77.637,-854.004
1741606356.329,-1000.000,-1000.000,-82.520,-1000.000
1741606356.333,-937.988,78.125,-62.500,-946.777
1741606356.337,-1000.000,764.648,-37.598,-1000.000
1741606356.339,-1000.000,-848.633,-52.734,-1000.000
1741606356.343,-1000.000,-747.559,-77.148,-1000.000
1741606356.347,-975.098,912.109,-64.941,-977.539
1741606356.351,-980.469,226.562,-47.363,-974.609
1741606356.355,-1000.000,-875.488,-46.875,-1000.000
1741606356.359,158.203,673.340,-52.734,125.488
1741606356.363,999.512,999.512,-75.684,999.512
1741606356.366,906.738,-684.082,-75.195,911.621
1741606356.370,964.844,-459.961,-59.082,962.891
1741606356.374,966.797,999.512,-64.453,968.262
1741606356.378,966.309,-413.086,-84.961,965.332
1741606356.382,904.297,-505.371,-71.289,907.227
1741606356.339,-1000.000,-848.633,-52.734,-1000.000
1741606356.343,-1000.000,-747.559,-77.148,-1000.000
1741606356.347,-975.098,912.109,-64.941,-977.539
1741606356.351,-980.469,226.562,-47.363,-974.609
1741606356.355,-1000.000,-875.488,-46.875,-1000.000
1741606356.359,158.203,673.340,-52.734,125.488
1741606356.363,999.512,999.512,-75.684,999.512
1741606356.366,906.738,-684.082,-75.195,911.621
1741606356.370,964.844,-459.961,-59.082,962.891
1741606356.374,966.797,999.512,-64.453,968.262
1741606356.378,966.309,-413.086,-84.961,965.332
1741606356.382,904.297,-505.371,-71.289,907.227
1741606356.399,999.512,920.410,-58.594,999.512
1741606356.403,176.270,-588.379,-87.891,154.297
1741606356.407,-1000.000,-954.102,-82.520,-1000.000
1741606356.411,-983.398,784.180,-71.777,-981.934
1741606356.415,-970.215,112.305,-88.379,-965.332
1741606356.419,-950.195,-350.586,-86.914,-961.914
1741606356.423,-1000.000,510.742,-86.426,-1000.000
1741606356.426,-150.879,999.512,-73.242,-62.012
1741606356.430,999.512,195.312,-101.074,999.512
1741606356.434,940.430,-1000.000,-125.000,933.105
1741606356.438,958.984,311.523,-99.121,963.379
1741606356.442,909.180,30.273,-88.867,913.086
1741606356.399,999.512,920.410,-58.594,999.512
1741606356.403,176.270,-588.379,-87.891,154.297
1741606356.407,-1000.000,-954.102,-82.520,-1000.000
1741606356.411,-983.398,784.180,-71.777,-981.934
1741606356.415,-970.215,112.305,-88.379,-965.332
1741606356.419,-950.195,-350.586,-86.914,-961.914
1741606356.423,-1000.000,510.742,-86.426,-1000.000
1741606356.426,-150.879,999.512,-73.242,-62.012
1741606356.430,999.512,195.312,-101.074,999.512
1741606356.434,940.430,-1000.000,-125.000,933.105
1741606356.438,958.984,311.523,-99.121,963.379
1741606356.442,909.180,30.273,-88.867,913.086
1741606356.444,999.512,-191.406,-89.844,999.512
1741606356.448,730.957,353.516,-103.027,747.070
1741606356.452,-697.754,-1000.000,-101.562,-653.320
1741606356.456,-1000.000,-589.355,-73.242,-1000.000
1741606356.460,-936.035,864.746,-67.871,-937.988
1741606356.464,-1000.000,971.191,-64.453,-1000.000
1741606356.468,-941.406,-249.023,-74.219,-943.848
1741606356.471,-1000.000,-1000.000,-90.820,-1000.000
1741606356.475,-811.035,-172.852,-79.590,-796.875
1741606356.479,607.422,999.512,-51.270,599.121
1741606356.483,999.512,20.020,-51.758,999.512
1741606356.487,900.391,-778.320,-57.617,903.809
1741606356.444,999.512,-191.406,-89.844,999.512
1741606356.448,730.957,353.516,-103.027,747.070
1741606356.452,-697.754,-1000.000,-101.562,-653.320
1741606356.456,-1000.000,-589.355,-73.242,-1000.000
1741606356.460,-936.035,864.746,-67.871,-937.988
1741606356.464,-1000.000,971.191,-64.453,-1000.000
1741606356.468,-941.406,-249.023,-74.219,-943.848
1741606356.471,-1000.000,-1000.000,-90.820,-1000.000
1741606356.475,-811.035,-172.852,-79.590,-796.875
1741606356.479,607.422,999.512,-51.270,599.121
1741606356.483,999.512,20.020,-51.758,999.512
1741606356.487,900.391,-778.320,-57.617,903.809
1741606356.490,987.793,729.004,-59.082,987.793
1741606356.494,933.105,-461.426,-74.707,929.688
1741606356.498,964.844,-269.531,-51.758,978.516
1741606356.502,994.141,495.605,-39.551,944.336
1741606356.506,-299.805,-1000.000,-72.754,-355.957
1741606356.510,-1000.000,0.977,-62.500,-1000.000
1741606356.514,-936.035,725.586,-46.875,-938.477
1741606356.517,-1000.000,-1000.000,-68.359,-1000.000
1741606356.521,-1000.000,-277.344,-73.730,-1000.000
1741606356.525,-960.938,582.520,-72.754,-963.379
1741606356.529,-1000.000,-937.988,-66.406,-1000.000
1741606356.533,-981.445,-79.102,-60.547,-964.844
1741606356.534,345.703,999.512,-56.152,329.102
1741606356.538,999.512,77.148,-57.129,999.512
1741606356.542,900.879,-602.539,-44.922,906.250
1741606356.546,972.656,894.043,-45.898,971.191
1741606356.550,966.797,-202.148,-58.594,964.844
1741606356.554,903.809,74.707,-39.062,909.180
1741606356.558,999.512,742.676,-43.457,999.512
1741606356.561,181.641,-820.312,-59.570,135.742
1741606356.565,-1000.000,-1000.000,-69.824,-1000.000
1741606356.569,-992.676,14.160,-73.242,-986.816
1741606356.573,-937.012,919.922,-64.453,-936.035
1741606356.577,-1000.000,-635.254,-51.270,-1000.000
1741606356.534,345.703,999.512,-56.152,329.102
1741606356.538,999.512,77.148,-57.129,999.512
1741606356.542,900.879,-602.539,-44.922,906.250
1741606356.546,972.656,894.043,-45.898,971.191
1741606356.550,966.797,-202.148,-58.594,964.844
1741606356.554,903.809,74.707,-39.062,909.180
1741606356.558,999.512,742.676,-43.457,999.512
1741606356.561,181.641,-820.312,-59.570,135.742
1741606356.565,-1000.000,-1000.000,-69.824,-1000.000
1741606356.569,-992.676,14.160,-73.242,-986.816
1741606356.573,-937.012,919.922,-64.453,-936.035
1741606356.577,-1000.000,-635.254,-51.270,-1000.000
1741606356.579,-1000.000,-272.461,-41.992,-934.082
1741606356.583,307.129,999.512,-60.059,380.859
1741606356.587,999.512,303.711,-57.129,999.512
1741606356.591,901.367,-1000.000,-44.434,905.762
1741606356.595,971.191,476.074,-39.062,972.168
1741606356.599,975.586,327.148,-33.203,977.539
1741606356.603,894.043,-463.867,-39.551,894.531
1741606356.606,999.512,999.512,-34.668,999.512
1741606356.610,364.746,255.371,-54.199,405.273
1741606356.614,-1000.000,-1000.000,-69.824,-979.980
1741606356.618,-1000.000,-852.539,-51.758,-1000.000
1741606356.622,-971.191,671.387,-30.762,-966.797
1741606356.639,-961.426,253.418,-31.738,-960.449
1741606356.643,-1000.000,-1000.000,-49.805,-1000.000
1741606356.647,-890.137,-24.414,-43.457,-808.594
1741606356.651,494.141,999.512,-28.320,560.059
1741606356.655,999.512,61.523,-37.598,999.512
1741606356.659,899.414,-299.316,-46.875,905.762
1741606356.663,989.258,863.281,-49.316,988.281
1741606356.666,916.016,-777.832,-60.547,919.434
1741606356.670,999.512,-297.363,-40.527,999.512
1741606356.674,858.398,500.977,-44.434,864.258
1741606356.678,-524.414,-1000.000,-61.523,-496.094
1741606356.682,-1000.000,-607.422,-50.781,-1000.000
1741606356.639,-961.426,253.418,-31.738,-960.449
1741606356.643,-1000.000,-1000.000,-49.805,-1000.000
1741606356.647,-890.137,-24.414,-43.457,-808.594
1741606356.651,494.141,999.512,-28.320,560.059
1741606356.655,999.512,61.523,-37.598,999.512
1741606356.659,899.414,-299.316,-46.875,905.762
1741606356.663,989.258,863.281,-49.316,988.281
1741606356.666,916.016,-777.832,-60.547,919.434
1741606356.670,999.512,-297.363,-40.527,999.512
1741606356.674,858.398,500.977,-44.434,864.258
1741606356.678,-524.414,-1000.000,-61.523,-496.094
1741606356.682,-1000.000,-607.422,-50.781,-1000.000
1741606356.669,-933.594,999.512,-43.457,-936.035
1741606356.673,-1000.000,-120.605,-48.340,-1000.000
1741606356.677,-1000.000,-348.633,-45.898,-1000.000
1741606356.681,-937.500,999.512,-39.062,-937.500
1741606356.685,-1000.000,-406.250,-41.992,-1000.000
1741606356.689,-221.191,-276.367,-36.133,-220.703
1741606356.693,999.512,999.512,-20.996,999.512
1741606356.696,949.707,117.676,-36.621,950.684
1741606356.700,939.941,-1000.000,-54.688,942.871
1741606356.704,966.309,-603.027,-53.711,958.984
1741606356.708,914.062,760.742,-41.016,933.594
1741606356.712,999.512,337.891,-32.715,999.512
1741606356.669,-933.594,999.512,-43.457,-936.035
1741606356.673,-1000.000,-120.605,-48.340,-1000.000
1741606356.677,-1000.000,-348.633,-45.898,-1000.000
1741606356.681,-937.500,999.512,-39.062,-937.500
1741606356.685,-1000.000,-406.250,-41.992,-1000.000
1741606356.689,-221.191,-276.367,-36.133,-220.703
1741606356.693,999.512,999.512,-20.996,999.512
1741606356.696,949.707,117.676,-36.621,950.684
1741606356.700,939.941,-1000.000,-54.688,942.871
1741606356.704,966.309,-603.027,-53.711,958.984
1741606356.708,914.062,760.742,-41.016,933.594
1741606356.712,999.512,337.891,-32.715,999.512
1741606356.715,68.359,-1000.000,-37.109,-38.086
1741606356.719,-1000.000,-1000.000,-54.199,-1000.000
1741606356.723,-967.773,127.930,-44.434,-963.379
1741606356.727,-981.934,287.109,-42.969,-986.816
1741606356.731,-1000.000,-862.305,-44.922,-1000.000
1741606356.735,-1000.000,492.188,-32.227,-1000.000
1741606356.739,-937.500,-168.457,-41.992,-935.059
1741606356.742,-1000.000,-1000.000,-58.105,-1000.000
1741606356.746,-220.703,223.145,-47.363,-247.559
1741606356.750,999.512,864.746,-39.551,999.512
1741606356.754,949.707,-690.430,-52.734,955.078
1741606356.758,938.965,239.258,-54.199,937.500
1741606356.715,68.359,-1000.000,-37.109,-38.086
1741606356.719,-1000.000,-1000.000,-54.199,-1000.000
1741606356.723,-967.773,127.930,-44.434,-963.379
1741606356.727,-981.934,287.109,-42.969,-986.816
1741606356.731,-1000.000,-862.305,-44.922,-1000.000
1741606356.735,-1000.000,492.188,-32.227,-1000.000
1741606356.739,-937.500,-168.457,-41.992,-935.059
1741606356.742,-1000.000,-1000.000,-58.105,-1000.000
1741606356.746,-220.703,223.145,-47.363,-247.559
1741606356.750,999.512,864.746,-39.551,999.512
1741606356.754,949.707,-690.430,-52.734,955.078
1741606356.758,938.965,239.258,-54.199,937.500
1741606356.774,975.098,446.777,-60.059,977.539
1741606356.778,955.078,-1000.000,-67.871,953.613
1741606356.782,921.387,43.945,-34.180,928.223
1741606356.786,999.512,549.805,-26.855,999.512
1741606356.790,-1.465,-1000.000,-64.941,-21.484
1741606356.794,-1000.000,-74.219,-50.293,-1000.000
1741606356.798,-961.426,563.965,-50.781,-966.309
1741606356.801,-974.121,-1000.000,-66.895,-959.473
1741606356.805,-960.449,-846.191,-65.918,-1000.000
1741606356.809,-1000.000,440.430,-68.848,-972.168
1741606356.813,-10.742,999.512,-53.711,213.867
1741606356.817,999.512,663.574,-40.039,999.512
1741606356.774,975.098,446.777,-60.059,977.539
1741606356.778,955.078,-1000.000,-67.871,953.613
1741606356.782,921.387,43.945,-34.180,928.223
1741606356.786,999.512,549.805,-26.855,999.512
1741606356.790,-1.465,-1000.000,-64.941,-21.484
1741606356.794,-1000.000,-74.219,-50.293,-1000.000
1741606356.798,-961.426,563.965,-50.781,-966.309
1741606356.801,-974.121,-1000.000,-66.895,-959.473
1741606356.805,-960.449,-846.191,-65.918,-1000.000
1741606356.809,-1000.000,440.430,-68.848,-972.168
1741606356.813,-10.742,999.512,-53.711,213.867
1741606356.817,999.512,663.574,-40.039,999.512
1741606356.819,922.363,-863.770,-41.016,919.922
1741606356.823,954.590,32.715,-47.852,961.914
1741606356.827,983.887,457.031,-56.641,982.910
1741606356.831,895.996,-1000.000,-62.500,902.832
1741606356.835,999.512,379.395,-52.246,999.512
1741606356.839,619.629,393.555,-47.363,692.871
1741606356.843,-825.684,-917.480,-49.316,-734.375
1741606356.846,-1000.000,-802.734,-48.340,-1000.000
1741606356.850,-941.406,-546.875,-54.199,-940.918
1741606356.854,-1000.000,722.656,-53.711,-1000.000
1741606356.858,-947.266,-380.371,-61.035,-961.426
1741606356.862,-1000.000,-521.973,-54.688,-1000.000
1741606356.819,922.363,-863.770,-41.016,919.922
1741606356.823,954.590,32.715,-47.852,961.914
1741606356.827,983.887,457.031,-56.641,982.910
1741606356.831,895.996,-1000.000,-62.500,902.832
1741606356.835,999.512,379.395,-52.246,999.512
1741606356.839,619.629,393.555,-47.363,692.871
1741606356.843,-825.684,-917.480,-49.316,-734.375
1741606356.846,-1000.000,-802.734,-48.340,-1000.000
1741606356.850,-941.406,-546.875,-54.199,-940.918
1741606356.854,-1000.000,722.656,-53.711,-1000.000
1741606356.858,-947.266,-380.371,-61.035,-961.426
1741606356.862,-1000.000,-521.973,-54.688,-1000.000
1741606356.864,-113.770,999.512,-36.621,-24.414
1741606356.868,999.512,502.441,-31.738,999.512
1741606356.872,935.059,-957.031,-38.574,930.664
1741606356.876,947.266,367.676,-40.527,952.637
1741606356.880,971.191,245.605,-34.668,970.703
1741606356.884,903.320,-208.984,-17.090,904.785
1741606356.888,999.512,878.418,-13.672,999.512
1741606356.891,186.523,-456.055,-22.949,178.711
1741606356.895,-1000.000,-1000.000,-27.832,-1000.000
1741606356.899,-994.141,-226.074,-17.578,-994.141
1741606356.903,-934.082,808.105,-3.906,-922.852
1741606356.907,-1000.000,-688.477,-4.883,-1000.000
1741606356.864,-113.770,999.512,-36.621,-24.414
1741606356.868,999.512,502.441,-31.738,999.512
1741606356.872,935.059,-957.031,-38.574,930.664
1741606356.876,947.266,367.676,-40.527,952.637
1741606356.880,971.191,245.605,-34.668,970.703
1741606356.884,903.320,-208.984,-17.090,904.785
1741606356.888,999.512,878.418,-13.672,999.512
1741606356.891,186.523,-456.055,-22.949,178.711
1741606356.895,-1000.000,-1000.000,-27.832,-1000.000
1741606356.899,-994.141,-226.074,-17.578,-994.141
1741606356.903,-934.082,808.105,-3.906,-922.852
1741606356.907,-1000.000,-688.477,-4.883,-1000.000
1741606356.909,-985.352,-238.281,-6.348,-825.195
1741606356.913,341.797,999.512,-7.324,535.645
1741606356.917,999.512,999.512,-6.836,999.512
1741606356.921,900.391,-128.418,-11.719,905.762
1741606356.925,972.168,-627.441,-18.066,976.074
1741606356.929,966.309,999.512,5.371,967.285
1741606356.933,966.309,230.469,-6.836,967.285
1741606356.936,966.797,-1000.000,-31.250,969.238
1741606356.940,903.320,7.324,-18.066,902.344
1741606356.944,999.512,717.773,-1.465,999.512
1741606356.948,187.012,-699.219,8.789,219.727
1741606356.952,-1000.000,-1000.000,-28.809,-1000.000
1741606356.909,-985.352,-238.281,-6.348,-825.195
1741606356.913,341.797,999.512,-7.324,535.645
1741606356.917,999.512,999.512,-6.836,999.512
1741606356.921,900.391,-128.418,-11.719,905.762
1741606356.925,972.168,-627.441,-18.066,976.074
1741606356.929,966.309,999.512,5.371,967.285
1741606356.933,966.309,230.469,-6.836,967.285
1741606356.936,966.797,-1000.000,-31.250,969.238
1741606356.940,903.320,7.324,-18.066,902.344
1741606356.944,999.512,717.773,-1.465,999.512
1741606356.948,187.012,-699.219,8.789,219.727
1741606356.952,-1000.000,-1000.000,-28.809,-1000.000
1741606356.954,-984.375,3.906,-7.812,-992.676
1741606356.958,-971.680,291.504,14.160,-956.543
1741606356.962,-947.754,-633.301,1.953,-973.145
1741606356.966,-1000.000,655.273,7.812,-1000.000
1741606356.970,-182.617,999.512,32.227,-6.348
1741606356.974,999.512,517.578,44.434,999.512
1741606356.978,944.824,-127.441,56.641,931.641
1741606356.981,941.895,648.926,71.777,952.148
1741606356.985,972.168,-388.672,57.129,970.703
1741606356.989,966.309,-1000.000,54.688,967.285
1741606356.993,978.027,214.355,67.383,974.609
1741606356.997,919.922,800.293,64.453,935.059
1741606357.000,998.047,-238.281,68.848,964.355
1741606357.004,894.043,-33.203,69.336,991.699
1741606357.008,-470.215,-901.367,60.547,-282.227
1741606357.012,-1000.000,-681.641,73.730,-1000.000
1741606357.016,-933.594,735.352,74.219,-938.965
1741606357.020,-1000.000,757.812,82.031,-1000.000
1741606357.024,-943.848,517.578,76.660,-941.895
1741606357.027,-1000.000,-814.453,39.551,-1000.000
1741606357.031,-836.914,-420.410,33.691,-780.273
1741606357.035,573.242,980.957,32.715,625.977
1741606357.039,999.512,999.512,28.809,999.512
1741606357.043,899.902,-162.598,33.691,903.809
1741606357.044,979.004,-679.688,19.531,979.492
1741606357.048,966.309,600.098,2.441,966.797
1741606357.052,966.309,-366.211,15.137,966.797
1741606357.056,967.285,291.992,4.395,967.285
1741606357.060,963.379,-61.523,-32.715,967.773
1741606357.064,908.691,-272.461,-30.762,904.297
1741606357.068,999.512,745.117,-23.926,999.512
1741606357.071,132.812,-747.559,-52.734,187.012
1741606357.075,-1000.000,-1000.000,-80.566,-1000.000
1741606357.079,-977.051,-1000.000,-71.289,-984.375
1741606357.083,-977.539,53.223,-59.082,-973.633
1741606357.087,-943.359,875.488,-56.641,-944.336
1741606357.089,-1000.000,-711.914,-61.523,-1000.000
1741606357.093,-220.703,-153.809,-52.246,-219.238
1741606357.097,999.512,999.512,-51.758,999.512
1741606357.101,949.707,-244.141,-70.801,950.195
1741606357.105,938.965,-271.973,-62.500,939.941
1741606357.109,973.145,430.664,-61.035,973.633
1741606357.113,966.309,-114.258,-60.059,966.797
1741606357.116,967.285,255.859,-73.242,967.773
1741606357.120,961.426,-1000.000,-88.379,963.867
1741606357.124,911.621,-128.906,-87.402,910.156
1741606357.128,999.512,461.914,-78.613,999.512
1741606357.132,96.191,-888.672,-68.359,125.488
1741606357.089,-1000.000,-711.914,-61.523,-1000.000
1741606357.093,-220.703,-153.809,-52.246,-219.238
1741606357.097,999.512,999.512,-51.758,999.512
1741606357.101,949.707,-244.141,-70.801,950.195
1741606357.105,938.965,-271.973,-62.500,939.941
1741606357.109,973.145,430.664,-61.035,973.633
1741606357.113,966.309,-114.258,-60.059,966.797
1741606357.116,967.285,255.859,-73.242,967.773
1741606357.120,961.426,-1000.000,-88.379,963.867
1741606357.124,911.621,-128.906,-87.402,910.156
1741606357.128,999.512,461.914,-78.613,999.512
1741606357.132,96.191,-888.672,-68.359,125.488
1741606357.149,-1000.000,-1000.000,-80.566,-1000.000
1741606357.153,-971.191,553.711,-83.008,-976.074
1741606357.157,-995.117,374.023,-83.984,-990.234
1741606357.161,-937.988,-1000.000,-96.680,-941.895
1741606357.165,-1000.000,301.270,-87.891,-1000.000
1741606357.169,-709.473,999.512,-64.941,-654.785
1741606357.173,729.980,954.590,-78.125,745.605
1741606357.176,999.512,-35.156,-100.098,999.512
1741606357.180,909.180,-969.727,-100.098,916.992
1741606357.184,957.031,-1000.000,-102.539,950.684
1741606357.188,944.336,-44.922,-87.891,958.496
1741606357.192,999.512,669.434,-73.730,999.512
1741606357.149,-1000.000,-1000.000,-80.566,-1000.000
1741606357.153,-971.191,553.711,-83.008,-976.074
1741606357.157,-995.117,374.023,-83.984,-990.234
1741606357.161,-937.988,-1000.000,-96.680,-941.895
1741606357.165,-1000.000,301.270,-87.891,-1000.000
1741606357.169,-709.473,999.512,-64.941,-654.785
1741606357.173,729.980,954.590,-78.125,745.605
1741606357.176,999.512,-35.156,-100.098,999.512
1741606357.180,909.180,-969.727,-100.098,916.992
1741606357.184,957.031,-1000.000,-102.539,950.684
1741606357.188,944.336,-44.922,-87.891,958.496
1741606357.192,999.512,669.434,-73.730,999.512
1741606357.194,-177.246,-817.383,-83.496,-247.559
1741606357.198,-1000.000,-1000.000,-78.125,-1000.000
1741606357.202,-941.895,401.367,-63.965,-941.406
1741606357.206,-998.047,363.281,-79.590,-1000.000
1741606357.210,-1000.000,-722.656,-77.637,-1000.000
1741606357.214,-1000.000,191.895,-64.941,-1000.000
1741606357.218,-1000.000,-341.797,-72.754,-1000.000
1741606357.221,-962.402,550.781,-69.824,-972.168
1741606357.225,-1000.000,46.875,-74.219,-988.770
1741606357.229,-992.676,-741.211,-72.266,-1000.000
1741606357.233,328.125,999.512,-36.621,200.684
1741606357.237,999.512,468.262,-28.809,999.512
1741606357.194,-177.246,-817.383,-83.496,-247.559
1741606357.198,-1000.000,-1000.000,-78.125,-1000.000
1741606357.202,-941.895,401.367,-63.965,-941.406
1741606357.206,-998.047,363.281,-79.590,-1000.000
1741606357.210,-1000.000,-722.656,-77.637,-1000.000
1741606357.214,-1000.000,191.895,-64.941,-1000.000
1741606357.218,-1000.000,-341.797,-72.754,-1000.000
1741606357.221,-962.402,550.781,-69.824,-972.168
1741606357.225,-1000.000,46.875,-74.219,-988.770
1741606357.229,-992.676,-741.211,-72.266,-1000.000
1741606357.233,328.125,999.512,-36.621,200.684
1741606357.237,999.512,468.262,-28.809,999.512
1741606357.239,900.879,-1000.000,-41.504,907.227
1741606357.243,971.680,-120.605,-45.898,966.797
1741606357.247,970.215,999.512,-42.969,972.168
1741606357.251,948.730,-599.609,-29.297,944.824
1741606357.255,932.129,-188.965,-21.973,945.801
1741606357.259,999.512,538.086,-31.250,999.512
1741606357.263,-89.355,-1000.000,-42.480,-149.414
1741606357.266,-1000.000,-484.863,-41.504,-1000.000
1741606357.270,-949.707,-194.824,-60.547,-950.684
1741606357.274,-1000.000,-885.742,-59.570,-1000.000
1741606357.278,-944.824,717.285,-33.691,-946.777
1741606357.282,-1000.000,12.207,-53.711,-1000.000
1741606357.284,-830.078,-616.211,-44.922,-833.008
1741606357.288,583.008,999.512,-17.578,565.430
1741606357.292,999.512,107.422,-30.273,999.512
1741606357.296,899.902,-777.344,-27.832,902.344
1741606357.300,979.004,731.934,-18.066,978.516
1741606357.304,966.309,999.512,-5.859,967.285
1741606357.308,966.309,-89.355,-18.555,967.285
1741606357.311,967.285,-1000.000,-47.363,971.191
1741606357.315,903.320,-498.047,-40.527,900.879
1741606357.319,999.512,744.141,-10.742,999.512
1741606357.323,187.012,-316.406,-17.578,250.000
1741606357.327,-1000.000,-1000.000,-29.297,-1000.000
1741606357.284,-830.078,-616.211,-44.922,-833.008
1741606357.288,583.008,999.512,-17.578,565.430
1741606357.292,999.512,107.422,-30.273,999.512
1741606357.296,899.902,-777.344,-27.832,902.344
1741606357.300,979.004,731.934,-18.066,978.516
1741606357.304,966.309,999.512,-5.859,967.285
1741606357.308,966.309,-89.355,-18.555,967.285
1741606357.311,967.285,-1000.000,-47.363,971.191
1741606357.315,903.320,-498.047,-40.527,900.879
1741606357.319,999.512,744.141,-10.742,999.512
1741606357.323,187.012,-316.406,-17.578,250.000
1741606357.327,-1000.000,-1000.000,-29.297,-1000.000
1741606357.329,-984.375,80.078,-17.090,-988.770
1741606357.333,-911.133,450.684,-13.184,-915.527
1741606357.337,-1000.000,-853.516,-8.301,-1000.000
1741606357.341,-210.938,683.105,5.859,-119.629
1741606357.345,999.512,635.254,-20.996,999.512
1741606357.349,948.242,-361.328,-20.020,937.988
1741606357.353,939.941,819.824,-3.906,946.777
1741606357.356,972.656,-43.457,-27.832,971.680
1741606357.360,974.609,-1000.000,-38.086,970.215
1741606357.364,932.129,-887.695,-36.621,952.148
1741606357.368,968.262,469.238,-28.320,928.711
1741606357.372,978.027,439.941,-26.367,999.512
1741606357.374,-310.059,-1000.000,-34.180,-48.828
1741606357.378,-1000.000,-1000.000,-33.691,-1000.000
1741606357.382,-928.711,302.734,-18.066,-937.500
1741606357.386,-955.566,270.020,-21.484,-957.520
1741606357.390,-1000.000,-652.344,-19.043,-1000.000
1741606357.394,-57.617,766.602,-9.766,52.734
1741606357.398,999.512,999.512,-15.625,999.512
1741606357.401,927.734,-56.152,-33.203,919.434
1741606357.405,951.172,-1000.000,-55.176,958.496
1741606357.409,969.238,336.914,-39.062,968.750
1741606357.413,976.074,-24.414,-12.695,979.980
1741606357.417,894.043,-872.070,-18.555,893.555
1741606357.374,-310.059,-1000.000,-34.180,-48.828
1741606357.378,-1000.000,-1000.000,-33.691,-1000.000
1741606357.382,-928.711,302.734,-18.066,-937.500
1741606357.386,-955.566,270.020,-21.484,-957.520
1741606357.390,-1000.000,-652.344,-19.043,-1000.000
1741606357.394,-57.617,766.602,-9.766,52.734
1741606357.398,999.512,999.512,-15.625,999.512
1741606357.401,927.734,-56.152,-33.203,919.434
1741606357.405,951.172,-1000.000,-55.176,958.496
1741606357.409,969.238,336.914,-39.062,968.750
1741606357.413,976.074,-24.414,-12.695,979.980
1741606357.417,894.043,-872.070,-18.555,893.555
1741606357.419,999.512,747.070,-34.668,999.512
1741606357.423,377.930,266.602,-40.039,473.633
1741606357.427,-995.605,-1000.000,-53.223,-940.918
1741606357.431,-1000.000,-338.379,-56.152,-1000.000
1741606357.435,-968.262,999.512,-42.480,-956.543
1741606357.439,-939.453,222.656,-43.457,-945.801
1741606357.443,-1000.000,-526.855,-50.781,-1000.000
1741606357.446,-432.129,843.262,-41.992,-353.027
1741606357.450,952.637,999.512,-44.922,982.422
1741606357.454,987.305,-719.727,-72.754,975.098
1741606357.458,859.375,-311.523,-70.312,865.723
1741606357.462,999.512,897.949,-54.688,999.512
1741606357.419,999.512,747.070,-34.668,999.512
1741606357.423,377.930,266.602,-40.039,473.633
1741606357.427,-995.605,-1000.000,-53.223,-940.918
1741606357.431,-1000.000,-338.379,-56.152,-1000.000
1741606357.435,-968.262,999.512,-42.480,-956.543
1741606357.439,-939.453,222.656,-43.457,-945.801
1741606357.443,-1000.000,-526.855,-50.781,-1000.000
1741606357.446,-432.129,843.262,-41.992,-353.027
1741606357.450,952.637,999.512,-44.922,982.422
1741606357.454,987.305,-719.727,-72.754,975.098
1741606357.458,859.375,-311.523,-70.312,865.723
1741606357.462,999.512,897.949,-54.688,999.512
1741606357.464,187.012,-557.617,-70.801,193.848
1741606357.468,-1000.000,-1000.000,-76.172,-1000.000
1741606357.472,-983.887,350.098,-64.453,-985.352
1741606357.476,-973.145,167.969,-70.801,-972.656
1741606357.480,-1000.000,-763.184,-67.383,-1000.000
1741606357.484,-1000.000,486.816,-53.223,-1000.000
1741606357.488,-1000.000,-439.941,-50.293,-1000.000
1741606357.491,-1000.000,199.219,-61.035,-1000.000
1741606357.495,-934.570,472.168,-57.617,-930.664
1741606357.499,-1000.000,-1000.000,-62.988,-1000.000
1741606357.503,-269.531,-155.273,-57.617,-348.633
1741606357.507,999.512,999.512,-39.551,989.258
1741606357.464,187.012,-557.617,-70.801,193.848
1741606357.468,-1000.000,-1000.000,-76.172,-1000.000
1741606357.472,-983.887,350.098,-64.453,-985.352
1741606357.476,-973.145,167.969,-70.801,-972.656
1741606357.480,-1000.000,-763.184,-67.383,-1000.000
1741606357.484,-1000.000,486.816,-53.223,-1000.000
1741606357.488,-1000.000,-439.941,-50.293,-1000.000
1741606357.491,-1000.000,199.219,-61.035,-1000.000
1741606357.495,-934.570,472.168,-57.617,-930.664
1741606357.499,-1000.000,-1000.000,-62.988,-1000.000
1741606357.503,-269.531,-155.273,-57.617,-348.633
1741606357.507,999.512,999.512,-39.551,989.258
1741606357.524,958.008,26.855,-51.270,972.168
1741606357.528,948.730,-1000.000,-51.270,939.453
1741606357.532,899.902,149.902,-39.551,905.762
1741606357.536,999.512,999.512,-41.992,999.512
1741606357.540,485.352,-416.992,-50.781,415.527
1741606357.544,-938.965,-1000.000,-53.223,-968.750
1741606357.548,-1000.000,275.879,-53.223,-1000.000
1741606357.551,-948.730,306.152,-65.430,-954.590
1741606357.555,-1000.000,-1000.000,-70.801,-1000.000
1741606357.559,-1000.000,-55.176,-48.340,-1000.000
1741606357.563,-937.500,710.938,-38.086,-935.059
1741606357.567,-1000.000,-847.656,-42.969,-1000.000
1741606357.524,958.008,26.855,-51.270,972.168
1741606357.528,948.730,-1000.000,-51.270,939.453
1741606357.532,899.902,149.902,-39.551,905.762
1741606357.536,999.512,999.512,-41.992,999.512
1741606357.540,485.352,-416.992,-50.781,415.527
1741606357.544,-938.965,-1000.000,-53.223,-968.750
1741606357.548,-1000.000,275.879,-53.223,-1000.000
1741606357.551,-948.730,306.152,-65.430,-954.590
1741606357.555,-1000.000,-1000.000,-70.801,-1000.000
1741606357.559,-1000.000,-55.176,-48.340,-1000.000
1741606357.563,-937.500,710.938,-38.086,-935.059
1741606357.567,-1000.000,-847.656,-42.969,-1000.000
1741606357.569,-221.191,304.688,-28.320,-256.836
1741606357.573,999.512,662.109,-23.926,999.512
1741606357.577,950.195,-909.180,-44.922,956.543
1741606357.581,949.707,422.852,-54.199,944.336
1741606357.585,899.902,270.508,-47.852,905.273
1741606357.589,999.512,-320.801,-50.781,999.512
1741606357.593,402.832,-354.004,-62.500,333.496
1741606357.596,-983.887,-1000.000,-55.664,-1000.000
1741606357.600,-1000.000,12.695,-58.594,-1000.000
1741606357.604,-955.566,138.672,-74.219,-960.938
1741606357.608,-1000.000,-455.566,-67.383,-1000.000
1741606357.612,-1000.000,999.512,-49.316,-1000.000
1741606357.569,-221.191,304.688,-28.320,-256.836
1741606357.573,999.512,662.109,-23.926,999.512
1741606357.577,950.195,-909.180,-44.922,956.543
1741606357.581,949.707,422.852,-54.199,944.336
1741606357.585,899.902,270.508,-47.852,905.273
1741606357.589,999.512,-320.801,-50.781,999.512
1741606357.593,402.832,-354.004,-62.500,333.496
1741606357.596,-983.887,-1000.000,-55.664,-1000.000
1741606357.600,-1000.000,12.695,-58.594,-1000.000
1741606357.604,-955.566,138.672,-74.219,-960.938
1741606357.608,-1000.000,-455.566,-67.383,-1000.000
1741606357.612,-1000.000,999.512,-49.316,-1000.000
1741606357.614,-937.500,53.711,-43.457,-937.500
1741606357.618,-1000.000,-1000.000,-46.387,-1000.000
1741606357.622,-221.191,17.090,-37.109,-220.703
1741606357.626,999.512,999.512,-13.672,999.512
1741606357.630,950.195,-0.977,-35.156,951.660
1741606357.634,939.453,-364.746,-61.035,937.500
1741606357.638,910.156,999.512,-43.945,915.527
1741606357.641,999.512,104.492,-50.781,999.512
1741606357.645,187.012,-1000.000,-83.008,143.555
1741606357.649,-1000.000,-1000.000,-81.055,-1000.000
1741606357.653,-983.887,-21.484,-52.734,-979.004
1741606357.657,-973.145,920.898,-35.156,-976.074
1741606357.659,-1000.000,-714.844,-33.203,-1000.000
1741606357.663,-1000.000,-322.754,-42.969,-1000.000
1741606357.667,-951.172,999.512,-40.039,-959.473
1741606357.671,-1000.000,-82.031,-35.156,-1000.000
1741606357.675,-903.809,-532.715,-34.668,-964.355
1741606357.679,474.609,937.012,-15.625,367.676
1741606357.683,999.512,999.512,-13.184,999.512
1741606357.686,899.902,13.672,-33.691,902.344
1741606357.690,977.051,-1000.000,-38.086,973.633
1741606357.694,903.809,-17.090,-10.742,905.273
1741606357.698,999.512,998.047,-5.859,999.512
1741606357.702,187.012,-439.453,-25.879,176.758
1741606357.659,-1000.000,-714.844,-33.203,-1000.000
1741606357.663,-1000.000,-322.754,-42.969,-1000.000
1741606357.667,-951.172,999.512,-40.039,-959.473
1741606357.671,-1000.000,-82.031,-35.156,-1000.000
1741606357.675,-903.809,-532.715,-34.668,-964.355
1741606357.679,474.609,937.012,-15.625,367.676
1741606357.683,999.512,999.512,-13.184,999.512
1741606357.686,899.902,13.672,-33.691,902.344
1741606357.690,977.051,-1000.000,-38.086,973.633
1741606357.694,903.809,-17.090,-10.742,905.273
1741606357.698,999.512,998.047,-5.859,999.512
1741606357.702,187.012,-439.453,-25.879,176.758
1741606357.704,-1000.000,-1000.000,-41.504,-1000.000
1741606357.708,-983.887,434.082,-40.527,-982.422
1741606357.712,-973.145,184.082,-37.109,-973.633
1741606357.716,-1000.000,-944.336,-42.480,-1000.000
1741606357.720,-946.289,829.102,-41.504,-953.125
1741606357.724,-1000.000,297.852,-42.480,-1000.000
1741606357.728,-856.445,-388.184,-34.180,-903.320
1741606357.731,542.480,999.512,-32.715,455.078
1741606357.735,999.512,409.180,-45.410,999.512
1741606357.739,902.344,-845.703,-38.086,907.227
1741606357.743,965.332,-676.270,-34.180,953.125
1741606357.747,923.340,602.051,-32.227,949.219
1741606357.749,999.512,41.016,-27.832,999.512
1741606357.753,-21.484,-1000.000,-33.203,-156.738
1741606357.757,-1000.000,-776.855,-35.156,-1000.000
1741606357.761,-956.543,746.094,-26.855,-954.102
1741606357.765,-988.281,104.980,-21.973,-993.164
1741606357.769,-1000.000,-360.352,-38.574,-1000.000
1741606357.773,-979.980,870.605,-40.527,-983.398
1741606357.776,-971.680,-451.660,-39.551,-966.797
1741606357.780,-1000.000,-467.773,-39.062,-1000.000
1741606357.784,96.191,957.520,-15.137,41.504
1741606357.788,999.512,999.512,-1.465,999.512
1741606357.792,912.109,478.027,-7.324,920.898
1741606357.749,999.512,41.016,-27.832,999.512
1741606357.753,-21.484,-1000.000,-33.203,-156.738
1741606357.757,-1000.000,-776.855,-35.156,-1000.000
1741606357.761,-956.543,746.094,-26.855,-954.102
1741606357.765,-988.281,104.980,-21.973,-993.164
1741606357.769,-1000.000,-360.352,-38.574,-1000.000
1741606357.773,-979.980,870.605,-40.527,-983.398
1741606357.776,-971.680,-451.660,-39.551,-966.797
1741606357.780,-1000.000,-467.773,-39.062,-1000.000
1741606357.784,96.191,957.520,-15.137,41.504
1741606357.788,999.512,999.512,-1.465,999.512
1741606357.792,912.109,478.027,-7.324,920.898
1741606357.794,961.914,-826.172,-27.344,959.961
1741606357.798,962.891,-1000.000,-34.180,958.984
1741606357.802,910.645,135.742,-26.855,922.852
1741606357.806,999.512,601.562,-18.066,999.512
1741606357.810,106.934,-1000.000,-18.555,26.855
1741606357.814,-1000.000,-188.477,-31.738,-1000.000
1741606357.818,-972.656,839.844,-31.738,-966.309
1741606357.821,-979.004,-754.395,-35.645,-983.887
1741606357.825,-1000.000,-1000.000,-51.270,-1000.000
1741606357.829,-1000.000,708.496,-38.574,-999.512
1741606357.833,-938.477,87.891,-31.738,-939.941
1741606357.837,-1000.000,-790.039,-32.715,-1000.000
1741606357.794,961.914,-826.172,-27.344,959.961
1741606357.798,962.891,-1000.000,-34.180,958.984
1741606357.802,910.645,135.742,-26.855,922.852
1741606357.806,999.512,601.562,-18.066,999.512
1741606357.810,106.934,-1000.000,-18.555,26.855
1741606357.814,-1000.000,-188.477,-31.738,-1000.000
1741606357.818,-972.656,839.844,-31.738,-966.309
1741606357.821,-979.004,-754.395,-35.645,-983.887
1741606357.825,-1000.000,-1000.000,-51.270,-1000.000
1741606357.829,-1000.000,708.496,-38.574,-999.512
1741606357.833,-938.477,87.891,-31.738,-939.941
1741606357.837,-1000.000,-790.039,-32.715,-1000.000
1741606357.840,-211.426,890.137,-27.832,-198.242
1741606357.844,999.512,888.672,-22.461,999.512
1741606357.848,948.730,-809.570,-29.297,947.754
1741606357.852,940.430,67.871,-36.621,942.871
1741606357.856,970.215,199.219,-43.457,967.773
1741606357.860,908.203,-231.445,-48.828,913.574
1741606357.864,999.512,911.133,-42.480,999.512
1741606357.867,131.836,-456.543,-50.781,91.309
1741606357.871,-1000.000,-1000.000,-53.711,-1000.000
1741606357.875,-976.074,-45.898,-45.410,-971.680
1741606357.879,-977.051,989.746,-50.293,-979.980
1741606357.883,-1000.000,-623.535,-40.527,-1000.000
1741606357.840,-211.426,890.137,-27.832,-198.242
1741606357.844,999.512,888.672,-22.461,999.512
1741606357.848,948.730,-809.570,-29.297,947.754
1741606357.852,940.430,67.871,-36.621,942.871
1741606357.856,970.215,199.219,-43.457,967.773
1741606357.860,908.203,-231.445,-48.828,913.574
1741606357.864,999.512,911.133,-42.480,999.512
1741606357.867,131.836,-456.543,-50.781,91.309
1741606357.871,-1000.000,-1000.000,-53.711,-1000.000
1741606357.875,-976.074,-45.898,-45.410,-971.680
1741606357.879,-977.051,989.746,-50.293,-979.980
1741606357.883,-1000.000,-623.535,-40.527,-1000.000
1741606357.899,-974.609,-134.766,-28.809,-977.051
1741606357.903,-986.328,315.430,-44.922,-984.375
1741606357.907,-1000.000,-545.898,-49.805,-1000.000
1741606357.911,157.715,934.082,-8.789,125.488
1741606357.915,999.512,941.895,-5.859,999.512
1741606357.919,914.551,-714.844,-33.203,922.852
1741606357.923,962.891,-64.453,-27.344,954.102
1741606357.926,904.785,479.980,-35.156,918.457
1741606357.930,999.512,-972.656,-43.945,999.512
1741606357.934,187.012,-1000.000,-50.293,92.285
1741606357.938,-1000.000,-767.578,-41.992,-1000.000
1741606357.942,-983.887,775.391,-26.855,-975.098
1741606357.944,-973.145,93.262,-34.180,-978.516
1741606357.948,-1000.000,-866.699,-37.598,-1000.000
1741606357.952,-1000.000,706.055,-23.926,-999.512
1741606357.956,-938.477,910.645,-8.789,-939.941
1741606357.960,-1000.000,-529.785,-24.902,-1000.000
1741606357.964,-208.496,-56.152,-36.621,-195.312
1741606357.968,999.512,999.512,-28.809,999.512
1741606357.971,948.242,254.883,-36.621,947.266
1741606357.975,953.613,-1000.000,-48.340,952.637
1741606357.979,898.438,67.383,-47.852,902.344
1741606357.983,999.512,531.250,-51.758,999.512
1741606357.987,494.629,-879.395,-52.246,438.965
1741606357.944,-973.145,93.262,-34.180,-978.516
1741606357.948,-1000.000,-866.699,-37.598,-1000.000
1741606357.952,-1000.000,706.055,-23.926,-999.512
1741606357.956,-938.477,910.645,-8.789,-939.941
1741606357.960,-1000.000,-529.785,-24.902,-1000.000
1741606357.964,-208.496,-56.152,-36.621,-195.312
1741606357.968,999.512,999.512,-28.809,999.512
1741606357.971,948.242,254.883,-36.621,947.266
1741606357.975,953.613,-1000.000,-48.340,952.637
1741606357.979,898.438,67.383,-47.852,902.344
1741606357.983,999.512,531.250,-51.758,999.512
1741606357.987,494.629,-879.395,-52.246,438.965
1741606357.989,-933.105,-1000.000,-63.965,-949.707
1741606357.993,-1000.000,-497.559,-63.965,-1000.000
1741606357.997,-946.777,999.512,-55.176,-948.242
1741606358.001,-955.078,41.016,-53.711,-958.984
1741606358.005,-1000.000,-646.484,-47.363,-1000.000
1741606358.009,-188.477,901.367,-29.785,-139.160
1741606358.013,999.512,999.512,-34.668,999.512
1741606358.016,945.801,-317.871,-65.918,934.082
1741606358.020,878.906,-864.258,-68.848,895.996
1741606358.024,999.512,-111.328,-60.059,999.512
1741606358.028,187.012,-862.793,-77.637,80.566
1741606358.032,-1000.000,-1000.000,-73.730,-1000.000
1741606357.989,-933.105,-1000.000,-63.965,-949.707
1741606357.993,-1000.000,-497.559,-63.965,-1000.000
1741606357.997,-946.777,999.512,-55.176,-948.242
1741606358.001,-955.078,41.016,-53.711,-958.984
1741606358.005,-1000.000,-646.484,-47.363,-1000.000
1741606358.009,-188.477,901.367,-29.785,-139.160
1741606358.013,999.512,999.512,-34.668,999.512
1741606358.016,945.801,-317.871,-65.918,934.082
1741606358.020,878.906,-864.258,-68.848,895.996
1741606358.024,999.512,-111.328,-60.059,999.512
1741606358.028,187.012,-862.793,-77.637,80.566
1741606358.032,-1000.000,-1000.000,-73.730,-1000.000
1741606358.034,-983.887,297.852,-55.176,-973.145
1741606358.038,-973.145,588.379,-50.781,-979.980
1741606358.042,-1000.000,-1000.000,-49.316,-1000.000
1741606358.046,-1000.000,178.711,-44.434,-1000.000
1741606358.050,-937.500,610.840,-35.156,-937.988
1741606358.054,-1000.000,-717.285,-39.551,-1000.000
1741606358.058,-220.703,392.578,-31.250,-216.309
1741606358.061,999.512,659.668,-40.039,999.512
1741606358.065,949.707,-1000.000,-58.105,950.195
1741606358.069,938.965,-115.723,-47.852,939.941
1741606358.073,973.145,999.512,-39.551,973.633
1741606358.077,967.285,-291.504,-39.551,968.262
1741606358.034,-983.887,297.852,-55.176,-973.145
1741606358.038,-973.145,588.379,-50.781,-979.980
1741606358.042,-1000.000,-1000.000,-49.316,-1000.000
1741606358.046,-1000.000,178.711,-44.434,-1000.000
1741606358.050,-937.500,610.840,-35.156,-937.988
1741606358.054,-1000.000,-717.285,-39.551,-1000.000
1741606358.058,-220.703,392.578,-31.250,-216.309
1741606358.061,999.512,659.668,-40.039,999.512
1741606358.065,949.707,-1000.000,-58.105,950.195
1741606358.069,938.965,-115.723,-47.852,939.941
1741606358.073,973.145,999.512,-39.551,973.633
1741606358.077,967.285,-291.504,-39.551,968.262
1741606358.079,959.473,-1000.000,-48.340,960.449
1741606358.083,914.551,103.027,-45.898,915.527
1741606358.087,999.512,759.766,-33.691,999.512
1741606358.091,62.988,-901.855,-42.480,76.660
1741606358.095,-1000.000,-791.504,-57.617,-1000.000
1741606358.099,-966.797,8.301,-55.176,-970.215
1741606358.103,-982.422,26.367,-42.480,-981.445
1741606358.106,-1000.000,439.941,-49.316,-1000.000
1741606358.110,-937.500,-878.906,-73.242,-940.918
1741606358.114,-1000.000,-617.188,-57.617,-1000.000
1741606358.118,-220.703,971.680,-41.016,-185.059
1741606358.122,999.512,931.152,-43.457,999.512
1741606358.125,949.707,-670.898,-55.176,945.801
1741606358.129,938.965,-36.621,-44.434,942.383
1741606358.133,986.816,470.215,-44.922,985.840
1741606358.137,910.156,-1000.000,-61.035,913.086
1741606358.141,999.512,179.199,-53.711,999.512
1741606358.145,804.688,498.047,-49.805,811.523
1741606358.149,-603.516,-1000.000,-55.664,-579.102
1741606358.152,-1000.000,-1000.000,-56.641,-1000.000
1741606358.156,-938.965,70.312,-47.363,-941.895
1741606358.160,-990.234,895.508,-45.898,-982.910
1741606358.164,-975.586,-635.742,-46.387,-992.676
1741606358.168,-1000.000,-371.582,-42.480,-1000.000
1741606358.653,999.512,830.078,-39.062,999.512
1741606358.657,-19.043,-842.285,-38.574,-20.996
1741606358.661,-1000.000,-1000.000,-41.504,-1000.000
1741606358.665,-957.031,560.547,-23.438,-958.496
1741606358.669,-1000.000,149.414,-22.949,-1000.000
1741606358.673,-938.965,-138.672,-37.598,-941.406
1741606358.677,-1000.000,-35.156,-38.086,-1000.000
1741606358.680,-748.535,-111.328,-37.598,-735.352
1741606358.684,684.570,999.512,-57.617,676.270
1741606358.688,999.512,760.742,-36.621,999.512
1741606358.692,839.844,-289.551,-28.809,855.469
1741606358.696,999.512,-1000.000,-55.176,999.512
1741606358.125,949.707,-670.898,-55.176,945.801
1741606358.129,938.965,-36.621,-44.434,942.383
1741606358.133,986.816,470.215,-44.922,985.840
1741606358.137,910.156,-1000.000,-61.035,913.086
1741606358.141,999.512,179.199,-53.711,999.512
1741606358.145,804.688,498.047,-49.805,811.523
1741606358.149,-603.516,-1000.000,-55.664,-579.102
1741606358.152,-1000.000,-1000.000,-56.641,-1000.000
1741606358.156,-938.965,70.312,-47.363,-941.895
1741606358.160,-990.234,895.508,-45.898,-982.910
1741606358.164,-975.586,-635.742,-46.387,-992.676
1741606358.168,-1000.000,-371.582,-42.480,-1000.000
1741606358.125,949.707,-670.898,-55.176,945.801
1741606358.129,938.965,-36.621,-44.434,942.383
1741606358.133,986.816,470.215,-44.922,985.840
1741606358.137,910.156,-1000.000,-61.035,913.086
1741606358.141,999.512,179.199,-53.711,999.512
1741606358.145,804.688,498.047,-49.805,811.523
1741606358.149,-603.516,-1000.000,-55.664,-579.102
1741606358.152,-1000.000,-1000.000,-56.641,-1000.000
1741606358.156,-938.965,70.312,-47.363,-941.895
1741606358.160,-990.234,895.508,-45.898,-982.910
1741606358.164,-975.586,-635.742,-46.387,-992.676
1741606358.168,-1000.000,-371.582,-42.480,-1000.000
1741606358.169,125.000,999.512,-26.855,205.078
1741606358.173,999.512,185.547,-26.855,999.512
1741606358.177,909.180,-775.391,-33.691,911.621
1741606358.181,963.379,742.188,-24.902,965.332
1741606358.185,970.215,999.512,-30.273,973.145
1741606358.189,900.391,-620.605,-44.434,898.926
1741606358.193,999.512,-71.289,-49.805,999.512
1741606358.196,240.234,283.203,-77.148,279.785
1741606358.200,-1000.000,-1000.000,-80.078,-1000.000
1741606358.204,-992.676,-1000.000,-55.176,-999.512
1741606358.208,-968.750,114.746,-46.387,-965.820
1741606358.212,-1000.000,758.301,-46.875,-1000.000
1741606358.214,-1000.000,-881.348,-46.875,-1000.000
1741606358.218,-1000.000,209.961,-44.922,-999.512
1741606358.222,-938.477,572.266,-41.992,-939.941
1741606358.226,-1000.000,-1000.000,-42.969,-1000.000
1741606358.230,-209.473,472.656,-31.738,-195.801
1741606358.234,999.512,671.387,-23.926,999.512
1741606358.238,948.242,-467.285,-34.180,947.266
1741606358.241,939.941,498.535,-41.504,941.406
1741606358.245,974.121,-351.562,-61.523,975.098
1741606358.249,957.520,-1000.000,-60.059,957.520
1741606358.253,916.992,82.031,-37.598,919.922
1741606358.257,999.512,760.254,-20.020,999.512
1741606358.214,-1000.000,-881.348,-46.875,-1000.000
1741606358.218,-1000.000,209.961,-44.922,-999.512
1741606358.222,-938.477,572.266,-41.992,-939.941
1741606358.226,-1000.000,-1000.000,-42.969,-1000.000
1741606358.230,-209.473,472.656,-31.738,-195.801
1741606358.234,999.512,671.387,-23.926,999.512
1741606358.238,948.242,-467.285,-34.180,947.266
1741606358.241,939.941,498.535,-41.504,941.406
1741606358.245,974.121,-351.562,-61.523,975.098
1741606358.249,957.520,-1000.000,-60.059,957.520
1741606358.253,916.992,82.031,-37.598,919.922
1741606358.257,999.512,760.254,-20.020,999.512
1741606358.274,36.133,-690.430,-30.762,34.180
1741606358.278,-1000.000,-1000.000,-38.574,-1000.000
1741606358.282,-963.379,145.020,-33.203,-964.844
1741606358.286,-999.023,653.320,-19.531,-997.070
1741606358.290,-940.918,-770.996,-24.902,-944.336
1741606358.294,-1000.000,106.445,-38.086,-1000.000
1741606358.298,-760.254,963.379,-37.109,-745.605
1741606358.301,669.922,919.434,-40.039,656.738
1741606358.305,999.512,-117.676,-43.945,999.512
1741606358.309,904.297,-762.695,-41.016,909.668
1741606358.313,968.262,-875.977,-44.434,960.938
1741606358.317,922.852,287.598,-42.969,937.012
1741606358.319,999.512,542.969,-31.738,999.512
1741606358.323,-16.602,-1000.000,-44.434,-90.820
1741606358.327,-1000.000,-729.004,-63.965,-1000.000
1741606358.331,-957.031,847.656,-46.387,-954.590
1741606358.335,-987.793,-104.492,-33.691,-991.211
1741606358.339,-1000.000,39.551,-21.973,-1000.000
1741606358.343,-936.523,600.586,-41.504,-943.359
1741606358.346,-1000.000,-1000.000,-65.430,-1000.000
1741606358.350,-750.977,-247.070,-41.992,-801.270
1741606358.354,681.152,999.512,-29.785,598.633
1741606358.358,999.512,442.383,-32.715,999.512
1741606358.362,902.344,-50.781,-13.672,903.320
1741606358.319,999.512,542.969,-31.738,999.512
1741606358.323,-16.602,-1000.000,-44.434,-90.820
1741606358.327,-1000.000,-729.004,-63.965,-1000.000
1741606358.331,-957.031,847.656,-46.387,-954.590
1741606358.335,-987.793,-104.492,-33.691,-991.211
1741606358.339,-1000.000,39.551,-21.973,-1000.000
1741606358.343,-936.523,600.586,-41.504,-943.359
1741606358.346,-1000.000,-1000.000,-65.430,-1000.000
1741606358.350,-750.977,-247.070,-41.992,-801.270
1741606358.354,681.152,999.512,-29.785,598.633
1741606358.358,999.512,442.383,-32.715,999.512
1741606358.362,902.344,-50.781,-13.672,903.320
1741606358.364,980.957,280.762,-20.996,979.492
1741606358.368,965.820,-962.891,-41.504,963.867
1741606358.372,905.273,51.270,-26.367,910.156
1741606358.376,999.512,908.203,-28.809,999.512
1741606358.380,167.480,-864.746,-44.922,127.441
1741606358.384,-1000.000,-297.363,-28.320,-1000.000
1741606358.388,-981.445,999.512,-23.438,-976.074
1741606358.391,-980.957,-136.719,-37.109,-983.887
1741606358.395,-979.492,-1000.000,-46.387,-973.633
1741606358.399,-985.352,-710.449,-40.527,-1000.000
1741606358.403,-1000.000,507.324,-25.391,-967.773
1741606358.407,184.082,999.512,-23.438,276.367
1741606358.410,999.512,725.586,-25.879,999.512
1741606358.414,905.762,-701.660,-28.809,912.598
1741606358.418,965.820,165.527,-17.090,966.797
1741606358.422,981.934,136.230,-24.902,981.934
1741606358.426,895.996,-854.492,-39.062,901.367
1741606358.430,999.512,887.695,-19.531,999.512
1741606358.434,622.070,260.254,-30.762,661.133
1741606358.437,-822.754,-1000.000,-62.012,-765.137
1741606358.441,-1000.000,-1000.000,-47.363,-1000.000
1741606358.445,-940.430,466.309,-33.203,-939.941
1741606358.449,-1000.000,327.637,-51.270,-1000.000
1741606358.453,-1000.000,-1000.000,-59.082,-1000.000
1741606358.454,-953.125,502.930,-43.457,-958.008
1741606358.458,-1000.000,229.492,-41.504,-1000.000
1741606358.462,-922.852,-449.219,-46.875,-946.289
1741606358.466,445.801,922.852,-39.062,389.648
1741606358.470,999.512,999.512,-22.949,999.512
1741606358.474,914.551,216.797,-11.230,914.551
1741606358.478,902.832,-764.648,-16.602,904.297
1741606358.481,999.512,348.145,-32.715,999.512
1741606358.485,573.242,-309.082,-54.688,510.742
1741606358.489,-871.094,-1000.000,-61.523,-891.602
1741606358.493,-1000.000,-32.227,-41.992,-1000.000
1741606358.497,-957.520,827.637,-39.551,-961.426
1741606358.499,-953.613,-760.254,-47.852,-954.102
1741606358.503,-1000.000,-227.539,-48.340,-1000.000
1741606358.507,-767.578,969.238,-38.574,-730.957
1741606358.511,660.645,999.512,-23.926,665.527
1741606358.515,999.512,165.527,-36.133,999.512
1741606358.519,901.855,-353.516,-40.039,907.227
1741606358.523,980.469,999.512,-23.438,978.516
1741606358.526,966.309,186.523,-38.574,968.750
1741606358.530,966.309,-1000.000,-47.852,960.938
1741606358.534,904.785,-36.621,-39.551,900.879
1741606358.538,999.512,999.512,-33.203,999.512
1741606358.542,174.316,-304.688,-29.297,149.414
1741606358.499,-953.613,-760.254,-47.852,-954.102
1741606358.503,-1000.000,-227.539,-48.340,-1000.000
1741606358.507,-767.578,969.238,-38.574,-730.957
1741606358.511,660.645,999.512,-23.926,665.527
1741606358.515,999.512,165.527,-36.133,999.512
1741606358.519,901.855,-353.516,-40.039,907.227
1741606358.523,980.469,999.512,-23.438,978.516
1741606358.526,966.309,186.523,-38.574,968.750
1741606358.530,966.309,-1000.000,-47.852,960.938
1741606358.534,904.785,-36.621,-39.551,900.879
1741606358.538,999.512,999.512,-33.203,999.512
1741606358.542,174.316,-304.688,-29.297,149.414
1741606358.548,-1000.000,-1000.000,-37.109,-1000.000
1741606358.552,-982.422,100.586,-33.691,-979.004
1741606358.556,-984.863,956.055,-27.832,-985.352
1741606358.560,-963.379,-639.648,-30.273,-958.984
1741606358.564,-1000.000,-161.133,-39.551,-1000.000
1741606358.568,-953.613,991.699,-41.016,-833.496
1741606358.572,395.020,999.512,-20.508,500.977
1741606358.575,999.512,368.164,-42.969,999.512
1741606358.579,915.039,-1000.000,-70.801,918.945
1741606358.583,899.902,-37.109,-51.758,906.738
1741606358.587,999.512,457.520,-48.340,999.512
1741606358.591,535.645,-1000.000,-63.965,487.793
1741606358.589,-904.785,-1000.000,-55.176,-899.414
1741606358.593,-1000.000,-541.016,-52.734,-1000.000
1741606358.597,-959.473,596.191,-53.711,-962.891
1741606358.601,-957.031,948.242,-25.391,-956.055
1741606358.605,-1000.000,-584.961,-31.738,-1000.000
1741606358.609,-813.477,-319.824,-39.551,-775.879
1741606358.613,604.492,999.512,-30.762,616.211
1741606358.616,999.512,-204.102,-48.340,999.512
1741606358.620,900.391,-561.523,-39.551,905.273
1741606358.624,981.445,284.668,-41.016,981.445
1741606358.628,953.613,-761.230,-48.340,954.102
1741606358.632,923.340,458.008,-46.875,926.270
1741606358.589,-904.785,-1000.000,-55.176,-899.414
1741606358.593,-1000.000,-541.016,-52.734,-1000.000
1741606358.597,-959.473,596.191,-53.711,-962.891
1741606358.601,-957.031,948.242,-25.391,-956.055
1741606358.605,-1000.000,-584.961,-31.738,-1000.000
1741606358.609,-813.477,-319.824,-39.551,-775.879
1741606358.613,604.492,999.512,-30.762,616.211
1741606358.616,999.512,-204.102,-48.340,999.512
1741606358.620,900.391,-561.523,-39.551,905.273
1741606358.624,981.445,284.668,-41.016,981.445
1741606358.628,953.613,-761.230,-48.340,954.102
1741606358.632,923.340,458.008,-46.875,926.270
1741606358.697,187.012,-923.828,-55.664,87.891
1741606358.701,-1000.000,-1000.000,-61.035,-1000.000
1741606358.705,-996.094,247.070,-45.898,-985.352
1741606358.709,-926.270,179.688,-44.922,-929.688
1741606358.713,-1000.000,-515.625,-34.668,-1000.000
1741606358.717,-923.828,982.422,-4.395,-837.891
1741606358.721,445.312,999.512,-10.254,516.113
1741606358.724,999.512,-548.828,-41.504,999.512
1741606358.728,914.551,-235.352,-45.898,918.945
1741606358.732,909.668,858.887,-46.387,912.598
1741606358.736,999.512,-601.562,-47.852,999.512
1741606358.740,686.035,-1000.000,-50.781,653.809
1741606358.697,187.012,-923.828,-55.664,87.891
1741606358.701,-1000.000,-1000.000,-61.035,-1000.000
1741606358.705,-996.094,247.070,-45.898,-985.352
1741606358.709,-926.270,179.688,-44.922,-929.688
1741606358.713,-1000.000,-515.625,-34.668,-1000.000
1741606358.717,-923.828,982.422,-4.395,-837.891
1741606358.721,445.312,999.512,-10.254,516.113
1741606358.724,999.512,-548.828,-41.504,999.512
1741606358.728,914.551,-235.352,-45.898,918.945
1741606358.732,909.668,858.887,-46.387,912.598
1741606358.736,999.512,-601.562,-47.852,999.512
1741606358.740,686.035,-1000.000,-50.781,653.809
1741606358.739,-750.977,-1000.000,-45.410,-752.930
1741606358.743,-1000.000,28.320,-42.480,-1000.000
1741606358.747,-948.242,994.141,-39.551,-951.172
1741606358.751,-973.633,-460.938,-31.738,-969.238
1741606358.755,-1000.000,-302.734,-32.715,-1000.000
1741606358.759,-968.750,999.512,-18.555,-896.973
1741606358.763,370.117,999.512,-17.090,434.570
1741606358.766,999.512,-271.484,-39.551,999.512
1741606358.770,900.391,-738.770,-32.715,905.273
1741606358.774,973.145,999.512,-16.113,973.633
1741606358.778,978.027,174.316,-41.016,977.051
1741606358.782,920.898,-1000.000,-46.875,925.293
1741606358.739,-750.977,-1000.000,-45.410,-752.930
1741606358.743,-1000.000,28.320,-42.480,-1000.000
1741606358.747,-948.242,994.141,-39.551,-951.172
1741606358.751,-973.633,-460.938,-31.738,-969.238
1741606358.755,-1000.000,-302.734,-32.715,-1000.000
1741606358.759,-968.750,999.512,-18.555,-896.973
1741606358.763,370.117,999.512,-17.090,434.570
1741606358.766,999.512,-271.484,-39.551,999.512
1741606358.770,900.391,-738.770,-32.715,905.273
1741606358.774,973.145,999.512,-16.113,973.633
1741606358.778,978.027,174.316,-41.016,977.051
1741606358.782,920.898,-1000.000,-46.875,925.293
1741606358.786,995.117,288.574,-35.645,988.281
1741606358.790,904.785,585.449,-44.922,920.898
1741606358.794,-457.031,-1000.000,-49.805,-413.086
1741606358.798,-1000.000,-55.176,-32.227,-1000.000
1741606358.802,-933.105,358.398,-27.832,-935.547
1741606358.806,-1000.000,-356.934,-19.043,-1000.000
1741606358.810,-1000.000,985.840,-7.324,-1000.000
1741606358.813,-932.129,-223.633,-33.691,-930.176
1741606358.817,-1000.000,-1000.000,-50.781,-1000.000
1741606358.821,-312.988,420.898,-22.461,-375.977
1741606358.825,999.512,999.512,17.090,976.074
1741606358.829,965.332,-106.445,6.348,977.539
1741606358.786,995.117,288.574,-35.645,988.281
1741606358.790,904.785,585.449,-44.922,920.898
1741606358.794,-457.031,-1000.000,-49.805,-413.086
1741606358.798,-1000.000,-55.176,-32.227,-1000.000
1741606358.802,-933.105,358.398,-27.832,-935.547
1741606358.806,-1000.000,-356.934,-19.043,-1000.000
1741606358.810,-1000.000,985.840,-7.324,-1000.000
1741606358.813,-932.129,-223.633,-33.691,-930.176
1741606358.817,-1000.000,-1000.000,-50.781,-1000.000
1741606358.821,-312.988,420.898,-22.461,-375.977
1741606358.825,999.512,999.512,17.090,976.074
1741606358.829,965.332,-106.445,6.348,977.539
1741606358.844,931.641,-460.449,-4.395,927.246
1741606358.848,975.586,999.512,-1.465,978.027
1741606358.852,979.980,-292.480,-19.043,977.539
1741606358.856,891.602,-417.480,-13.672,895.020
1741606358.860,999.512,999.512,0.488,999.512
1741606358.864,481.934,227.051,-12.207,405.762
1741606358.868,-941.895,-1000.000,-36.133,-978.027
1741606358.871,-1000.000,-260.254,-33.691,-1000.000
1741606358.875,-949.219,641.602,-26.367,-955.566
1741606358.879,-1000.000,-890.137,-32.227,-1000.000
1741606358.883,-963.867,237.793,-11.230,-996.582
1741606358.887,-1000.000,330.566,-12.207,-943.848
1741606358.890,-992.676,-540.527,-27.344,-1000.000
1741606358.894,310.547,999.512,-20.508,-159.180
1741606358.898,999.512,904.297,-26.855,999.512
1741606358.902,903.809,-686.035,-32.227,935.059
1741606358.906,907.715,-181.152,-24.902,746.582
1741606358.910,999.512,999.512,-14.648,999.512
1741606358.914,187.012,-40.527,-26.855,165.039
1741606358.917,-1000.000,-1000.000,-52.734,-1000.000
1741606358.921,-983.887,-237.793,-38.574,-976.074
1741606358.925,-973.145,999.512,-27.832,-976.074
1741606358.929,-1000.000,795.898,-34.668,-1000.000
1741606358.933,-1000.000,-666.504,-42.480,-1000.000
1741606358.890,-992.676,-540.527,-27.344,-1000.000
1741606358.894,310.547,999.512,-20.508,-159.180
1741606358.898,999.512,904.297,-26.855,999.512
1741606358.902,903.809,-686.035,-32.227,935.059
1741606358.906,907.715,-181.152,-24.902,746.582
1741606358.910,999.512,999.512,-14.648,999.512
1741606358.914,187.012,-40.527,-26.855,165.039
1741606358.917,-1000.000,-1000.000,-52.734,-1000.000
1741606358.921,-983.887,-237.793,-38.574,-976.074
1741606358.925,-973.145,999.512,-27.832,-976.074
1741606358.929,-1000.000,795.898,-34.668,-1000.000
1741606358.933,-1000.000,-666.504,-42.480,-1000.000
1741606358.934,-1000.000,-253.418,-37.109,-1000.000
1741606358.938,-969.238,999.512,-27.832,-999.023
1741606358.942,-994.629,-389.648,-54.199,-940.430
1741606358.946,-1000.000,-306.641,-61.523,-1000.000
1741606358.950,213.379,999.512,7.324,-236.816
1741606358.954,999.512,999.512,39.062,999.512
1741606358.958,997.070,61.035,1.953,828.125
1741606358.961,-138.184,-1000.000,-22.949,-526.367
1741606358.965,-1000.000,-880.859,-16.113,-1000.000
1741606358.969,-944.336,688.965,-2.441,-937.988
1741606358.973,-996.094,43.945,0.977,-1000.000
1741606358.977,-1000.000,-526.855,-12.695,-1000.000
1741606358.983,-993.164,999.512,-34.668,-1000.000
1741606358.987,-949.707,-13.672,-55.664,-936.523
1741606358.991,-1000.000,-692.383,-57.617,-1000.000
1741606358.995,-99.609,814.453,-61.035,-238.770
1741606358.999,999.512,999.512,-54.688,999.512
1741606359.003,934.082,844.238,-45.410,953.613
1741606359.007,948.242,-307.129,-73.242,938.477
1741606359.010,971.191,-1000.000,-115.723,976.562
1741606359.014,903.809,-200.684,-108.398,902.344
1741606359.018,999.512,999.512,-90.332,999.512
1741606359.022,186.523,-70.312,-116.699,215.332
1741606359.026,-1000.000,-1000.000,-116.211,-1000.000
1741606358.983,-993.164,999.512,-34.668,-1000.000
1741606358.987,-949.707,-13.672,-55.664,-936.523
1741606358.991,-1000.000,-692.383,-57.617,-1000.000
1741606358.995,-99.609,814.453,-61.035,-238.770
1741606358.999,999.512,999.512,-54.688,999.512
1741606359.003,934.082,844.238,-45.410,953.613
1741606359.007,948.242,-307.129,-73.242,938.477
1741606359.010,971.191,-1000.000,-115.723,976.562
1741606359.014,903.809,-200.684,-108.398,902.344
1741606359.018,999.512,999.512,-90.332,999.512
1741606359.022,186.523,-70.312,-116.699,215.332
1741606359.026,-1000.000,-1000.000,-116.211,-1000.000
1741606359.024,-984.863,212.891,-99.609,-986.328
1741606359.028,-910.156,469.238,-100.586,-912.598
1741606359.032,-1000.000,-900.879,-122.559,-1000.000
1741606359.036,-220.703,357.910,-128.906,-171.387
1741606359.040,999.512,999.512,-91.309,999.512
1741606359.044,949.707,82.031,-71.289,943.848
1741606359.048,948.730,-860.352,-69.824,954.102
1741606359.051,900.879,-991.211,-74.219,927.734
1741606359.055,999.512,140.625,-71.289,999.023
1741606359.059,371.582,304.199,-66.895,865.234
1741606359.063,-961.914,-1000.000,-72.754,-400.391
1741606359.067,-1000.000,-1000.000,-62.988,-1000.000
1741606359.071,-994.629,32.227,-39.062,-602.051
1741606359.075,235.840,999.512,-29.297,723.633
1741606359.079,999.512,379.395,-29.297,999.512
1741606359.083,907.715,-1000.000,-36.133,910.645
1741606359.087,946.289,-207.520,-29.785,978.027
1741606359.091,942.383,999.512,-6.348,906.738
1741606359.095,999.512,633.789,-4.395,999.512
1741606359.098,-158.203,-615.723,-24.902,158.203
1741606359.102,-1000.000,-1000.000,-26.855,-1000.000
1741606359.106,-959.473,-271.484,-7.812,-994.141
1741606359.110,-933.594,999.512,0.488,-904.785
1741606359.114,-1000.000,-139.648,2.930,-1000.000
1741606359.071,-994.629,32.227,-39.062,-602.051
1741606359.075,235.840,999.512,-29.297,723.633
1741606359.079,999.512,379.395,-29.297,999.512
1741606359.083,907.715,-1000.000,-36.133,910.645
1741606359.087,946.289,-207.520,-29.785,978.027
1741606359.091,942.383,999.512,-6.348,906.738
1741606359.095,999.512,633.789,-4.395,999.512
1741606359.098,-158.203,-615.723,-24.902,158.203
1741606359.102,-1000.000,-1000.000,-26.855,-1000.000
1741606359.106,-959.473,-271.484,-7.812,-994.141
1741606359.110,-933.594,999.512,0.488,-904.785
1741606359.114,-1000.000,-139.648,2.930,-1000.000
1741606359.114,-759.277,-487.305,11.230,-613.770
1741606359.118,673.340,999.512,28.809,814.453
1741606359.122,999.512,706.055,25.879,999.512
1741606359.126,901.855,-851.074,24.902,910.156
1741606359.130,980.469,-50.781,52.246,981.445
1741606359.134,966.309,999.512,67.383,966.797
1741606359.138,971.680,-149.414,39.062,967.285
1741606359.141,942.871,-1000.000,24.414,971.191
1741606359.145,948.730,302.734,52.734,899.902
1741606359.149,999.512,316.406,52.734,999.512
1741606359.153,-142.090,-1000.000,29.785,313.477
1741606359.157,-1000.000,-995.117,22.461,-1000.000
1741606359.161,-1000.000,168.945,16.602,-784.668
1741606359.165,207.520,999.512,16.602,612.793
1741606359.169,999.512,348.145,19.531,999.512
1741606359.173,904.297,-881.348,10.254,906.738
1741606359.177,967.285,358.887,5.859,977.051
1741606359.181,966.797,999.512,16.113,966.797
1741606359.185,966.309,-313.965,11.719,966.797
1741606359.188,966.309,-1000.000,3.418,966.797
1741606359.192,966.309,114.746,23.438,966.797
1741606359.196,966.309,510.254,27.344,966.797
1741606359.200,966.309,-87.402,20.996,966.797
1741606359.204,969.238,188.477,3.418,967.285
1741606359.219,953.613,-919.922,2.441,967.285
1741606359.223,926.758,408.691,17.090,904.785
1741606359.227,999.512,516.602,12.207,999.512
1741606359.231,-13.672,-1000.000,15.137,182.617
1741606359.235,-1000.000,-21.973,19.043,-1000.000
1741606359.239,-962.402,485.352,9.766,-984.863
1741606359.243,-923.828,-990.723,-17.090,-909.668
1741606359.246,-1000.000,-1000.000,-39.551,-1000.000
1741606359.250,-221.191,-70.312,-25.391,-240.234
1741606359.254,999.512,999.512,-11.719,999.512
1741606359.258,949.707,452.637,-5.371,953.613
1741606359.262,938.965,-1000.000,-23.438,937.988
1741606359.264,975.098,-48.828,-24.414,978.516
1741606359.268,954.590,853.516,-7.812,947.754
1741606359.272,921.875,-672.363,-25.879,942.383
1741606359.276,999.512,-1000.000,-33.203,999.512
1741606359.280,-5.859,-1000.000,-26.855,-105.469
1741606359.284,-1000.000,191.406,-3.418,-1000.000
1741606359.288,-958.496,754.883,-15.137,-958.008
1741606359.291,-987.305,-1000.000,-43.945,-990.234
1741606359.295,-1000.000,-170.898,-35.645,-1000.000
1741606359.299,-931.152,875.488,-30.762,-941.406
1741606359.303,-1000.000,-809.082,-33.691,-1000.000
1741606359.307,-670.410,-245.605,-22.461,-771.484
1741606359.264,975.098,-48.828,-24.414,978.516
1741606359.268,954.590,853.516,-7.812,947.754
1741606359.272,921.875,-672.363,-25.879,942.383
1741606359.276,999.512,-1000.000,-33.203,999.512
1741606359.280,-5.859,-1000.000,-26.855,-105.469
1741606359.284,-1000.000,191.406,-3.418,-1000.000
1741606359.288,-958.496,754.883,-15.137,-958.008
1741606359.291,-987.305,-1000.000,-43.945,-990.234
1741606359.295,-1000.000,-170.898,-35.645,-1000.000
1741606359.299,-931.152,875.488,-30.762,-941.406
1741606359.303,-1000.000,-809.082,-33.691,-1000.000
1741606359.307,-670.410,-245.605,-22.461,-771.484
1741606359.309,773.438,999.512,-18.066,632.812
1741606359.313,999.512,122.070,-26.855,999.512
1741606359.317,919.922,-873.535,-16.602,918.945
1741606359.321,921.875,316.895,0.977,915.527
1741606359.325,999.512,999.512,6.836,999.512
1741606359.329,764.648,249.512,-8.301,688.965
1741606359.333,-657.227,-937.988,-34.668,-734.375
1741606359.336,-1000.000,-1000.000,-53.711,-1000.000
1741606359.340,-935.059,-57.129,-38.574,-938.477
1741606359.344,-1000.000,739.258,-14.160,-1000.000
1741606359.348,-1000.000,-755.371,-20.508,-1000.000
1741606359.352,-1000.000,-698.242,-32.227,-1000.000
1741606359.356,-1000.000,779.785,-26.367,-1000.000
1741606359.360,-1000.000,195.312,-25.879,-1000.000
1741606359.364,-928.711,-1000.000,-37.598,-974.121
1741606359.368,-1000.000,317.383,-36.133,-991.699
1741606359.372,-421.387,999.512,-14.160,-1000.000
1741606359.376,870.117,899.902,-2.441,89.355
1741606359.380,999.512,963.867,-9.766,999.512
1741606359.383,446.289,-99.609,-37.109,273.926
1741606359.387,-923.828,-1000.000,-55.176,-1000.000
1741606359.391,-1000.000,-395.020,-40.039,-1000.000
1741606359.395,-948.242,910.645,-40.039,-962.402
1741606359.399,-1000.000,-525.391,-38.086,-1000.000
1741606359.356,-1000.000,779.785,-26.367,-1000.000
1741606359.360,-1000.000,195.312,-25.879,-1000.000
1741606359.364,-928.711,-1000.000,-37.598,-974.121
1741606359.368,-1000.000,317.383,-36.133,-991.699
1741606359.372,-421.387,999.512,-14.160,-1000.000
1741606359.376,870.117,899.902,-2.441,89.355
1741606359.380,999.512,963.867,-9.766,999.512
1741606359.383,446.289,-99.609,-37.109,273.926
1741606359.387,-923.828,-1000.000,-55.176,-1000.000
1741606359.391,-1000.000,-395.020,-40.039,-1000.000
1741606359.395,-948.242,910.645,-40.039,-962.402
1741606359.399,-1000.000,-525.391,-38.086,-1000.000
1741606359.399,-1000.000,-213.867,-20.508,-1000.000
1741606359.403,-1000.000,893.555,-15.625,-1000.000
1741606359.407,-928.711,-777.832,-23.438,-1000.000
1741606359.411,-1000.000,-141.602,-21.973,-1000.000
1741606359.415,-424.316,999.512,-19.531,-1000.000
1741606359.419,875.000,999.512,-12.695,-1000.000
1741606359.423,999.512,144.531,-25.391,-1000.000
1741606359.426,322.754,-1000.000,-41.016,-1000.000
1741606359.430,-983.887,-703.613,-41.016,-1000.000
1741606359.434,-1000.000,683.105,-45.410,-1000.000
1741606359.438,-895.508,-58.594,-47.363,-1000.000
1741606359.442,-1000.000,-1000.000,-46.387,-1000.000
1741606359.446,-270.508,41.016,-39.062,-999.512
1741606359.450,999.512,999.512,-33.203,-1000.000
1741606359.454,938.477,-123.535,-44.922,-971.680
1741606359.458,-588.379,-1000.000,-63.965,-994.629
1741606359.462,-726.074,-85.938,-51.758,-1000.000
1741606359.466,871.094,999.512,-14.160,165.527
1741606359.470,967.773,686.523,-22.461,999.512
1741606359.473,999.512,-613.281,-57.129,890.137
1741606359.477,66.406,-1000.000,-54.688,-279.785
1741606359.481,-1000.000,-434.082,-44.922,-1000.000
1741606359.485,-965.332,999.512,-19.043,-949.707
1741606359.489,-983.398,25.391,-26.367,-997.559
1741606359.446,-270.508,41.016,-39.062,-999.512
1741606359.450,999.512,999.512,-33.203,-1000.000
1741606359.454,938.477,-123.535,-44.922,-971.680
1741606359.458,-588.379,-1000.000,-63.965,-994.629
1741606359.462,-726.074,-85.938,-51.758,-1000.000
1741606359.466,871.094,999.512,-14.160,165.527
1741606359.470,967.773,686.523,-22.461,999.512
1741606359.473,999.512,-613.281,-57.129,890.137
1741606359.477,66.406,-1000.000,-54.688,-279.785
1741606359.481,-1000.000,-434.082,-44.922,-1000.000
1741606359.485,-965.332,999.512,-19.043,-949.707
1741606359.489,-983.398,25.391,-26.367,-997.559
1741606359.489,-1000.000,-694.336,-41.992,-1000.000
1741606359.493,-976.074,999.512,-30.762,-984.863
1741606359.497,-979.492,24.414,-35.645,-962.891
1741606359.501,-1000.000,-755.859,-28.320,-1000.000
1741606359.505,159.180,834.473,-18.555,27.832
1741606359.509,999.512,999.512,-22.949,999.512
1741606359.513,999.512,-308.105,-33.691,999.512
1741606359.516,354.492,-1000.000,-56.152,244.141
1741606359.520,-1000.000,-1000.000,-56.641,-1000.000
1741606359.524,-1000.000,104.492,-41.992,-995.117
1741606359.528,-959.473,414.551,-36.133,-967.773
1741606359.532,-1000.000,-1000.000,-42.480,-1000.000
1741606359.489,-1000.000,-694.336,-41.992,-1000.000
1741606359.493,-976.074,999.512,-30.762,-984.863
1741606359.497,-979.492,24.414,-35.645,-962.891
1741606359.501,-1000.000,-755.859,-28.320,-1000.000
1741606359.505,159.180,834.473,-18.555,27.832
1741606359.509,999.512,999.512,-22.949,999.512
1741606359.513,999.512,-308.105,-33.691,999.512
1741606359.516,354.492,-1000.000,-56.152,244.141
1741606359.520,-1000.000,-1000.000,-56.641,-1000.000
1741606359.524,-1000.000,104.492,-41.992,-995.117
1741606359.528,-959.473,414.551,-36.133,-967.773
1741606359.532,-1000.000,-1000.000,-42.480,-1000.000
1741606359.537,-1000.000,61.523,-28.320,-1000.000
1741606359.541,-1000.000,999.512,-15.137,-1000.000
1741606359.545,-975.098,-365.234,-44.922,-998.535
1741606359.549,-984.375,-1000.000,-55.176,-940.918
1741606359.553,-1000.000,146.484,-32.715,-1000.000
1741606359.557,158.203,999.512,-12.695,-182.617
1741606359.561,999.512,770.508,-26.367,999.512
1741606359.564,908.691,-837.891,-45.898,935.547
1741606359.568,906.250,-349.609,-37.109,896.484
1741606359.572,999.512,935.547,-30.762,999.512
1741606359.576,116.699,-637.207,-34.668,24.902
1741606359.580,-1000.000,-1000.000,-25.879,-1000.000
1741606359.537,-1000.000,61.523,-28.320,-1000.000
1741606359.541,-1000.000,999.512,-15.137,-1000.000
1741606359.545,-975.098,-365.234,-44.922,-998.535
1741606359.549,-984.375,-1000.000,-55.176,-940.918
1741606359.553,-1000.000,146.484,-32.715,-1000.000
1741606359.557,158.203,999.512,-12.695,-182.617
1741606359.561,999.512,770.508,-26.367,999.512
1741606359.564,908.691,-837.891,-45.898,935.547
1741606359.568,906.250,-349.609,-37.109,896.484
1741606359.572,999.512,935.547,-30.762,999.512
1741606359.576,116.699,-637.207,-34.668,24.902
1741606359.580,-1000.000,-1000.000,-25.879,-1000.000
1741606359.594,-974.121,750.000,-26.855,-963.867
1741606359.598,-978.516,11.719,-39.062,-984.375
1741606359.602,-1000.000,-726.562,-49.805,-1000.000
1741606359.606,-1000.000,847.168,-38.086,-1000.000
1741606359.610,-966.309,999.512,-11.719,-968.750
1741606359.614,-1000.000,-308.105,-29.785,-999.512
1741606359.618,-1000.000,-304.199,-49.316,-1000.000
1741606359.621,273.438,999.512,-60.547,248.535
1741606359.625,999.512,-535.645,-55.664,999.512
1741606359.629,901.855,-124.512,-34.668,909.180
1741606359.633,975.098,607.422,-31.250,972.168
1741606359.637,943.848,-1000.000,-37.598,944.824
1741606359.594,-974.121,750.000,-26.855,-963.867
1741606359.598,-978.516,11.719,-39.062,-984.375
1741606359.602,-1000.000,-726.562,-49.805,-1000.000
1741606359.606,-1000.000,847.168,-38.086,-1000.000
1741606359.610,-966.309,999.512,-11.719,-968.750
1741606359.614,-1000.000,-308.105,-29.785,-999.512
1741606359.618,-1000.000,-304.199,-49.316,-1000.000
1741606359.621,273.438,999.512,-60.547,248.535
1741606359.625,999.512,-535.645,-55.664,999.512
1741606359.629,901.855,-124.512,-34.668,909.180
1741606359.633,975.098,607.422,-31.250,972.168
1741606359.637,943.848,-1000.000,-37.598,944.824
1741606359.640,941.406,42.969,-33.691,946.289
1741606359.644,999.512,582.520,-26.855,999.512
1741606359.648,-157.227,-1000.000,-34.180,-159.668
1741606359.652,-1000.000,-357.422,-35.645,-1000.000
1741606359.656,-943.848,872.559,-23.438,-948.242
1741606359.660,-997.070,466.309,-22.461,-995.605
1741606359.664,-1000.000,-349.609,-28.320,-1000.000
1741606359.667,-937.500,-159.668,-43.945,-937.988
1741606359.671,-1000.000,-699.219,-60.059,-1000.000
1741606359.675,-221.191,-10.254,-41.504,-215.332
1741606359.679,999.512,999.512,-31.738,999.512
1741606359.683,950.195,-483.398,-38.086,949.707
1741606359.684,938.965,59.082,-26.855,939.941
1741606359.688,973.145,405.762,-38.086,973.633
1741606359.692,980.469,-869.141,-49.316,970.703
1741606359.696,902.344,174.316,-43.945,949.707
1741606359.700,999.512,897.949,-33.691,934.570
1741606359.704,686.523,40.527,-25.879,999.512
1741606359.708,-747.559,-1000.000,-48.828,-84.961
1741606359.711,-1000.000,-1000.000,-60.547,-1000.000
1741606359.715,-975.098,-50.293,-38.574,-1000.000
1741606359.719,-928.711,561.523,-33.203,-404.297
1741606359.723,458.984,788.574,-34.668,894.043
1741606359.727,999.512,123.047,-41.504,992.676
1741606359.731,899.414,-641.602,-38.086,924.805
1741606359.735,976.074,977.539,-33.203,977.539
1741606359.739,966.309,-184.570,-37.598,966.797
1741606359.743,979.004,-361.816,-26.367,975.098
1741606359.747,895.020,999.512,-19.043,933.594
1741606359.751,999.512,689.453,-10.254,967.773
1741606359.755,506.836,-177.246,-26.367,976.074
1741606359.758,-906.250,-1000.000,-58.105,-297.852
1741606359.762,-1000.000,-418.945,-39.551,-1000.000
1741606359.766,-885.742,999.512,-33.203,-877.930
1741606359.770,-1000.000,-213.379,-50.781,-1000.000
1741606359.774,-221.191,-262.207,-31.250,-215.820
1741606359.774,999.512,999.512,-28.809,999.512
1741606359.778,949.707,-36.621,-34.668,949.707
1741606359.782,938.965,-734.375,-42.969,939.941
1741606359.786,973.145,644.043,-47.852,973.633
1741606359.790,966.309,999.512,-16.602,966.797
1741606359.794,966.309,-178.223,-7.324,966.797
1741606359.798,966.309,-594.727,-28.809,966.797
1741606359.801,966.797,-498.535,-52.246,975.586
1741606359.805,903.320,-425.293,-54.688,896.484
1741606359.809,999.512,942.871,-42.969,999.512
1741606359.813,182.129,-156.738,-44.434,341.309
1741606359.817,-1000.000,-1000.000,-49.316,-960.938
1741606359.822,-955.566,-34.668,-23.926,-1000.000
1741606359.826,-1000.000,991.699,-4.883,-863.770
1741606359.830,95.703,999.512,-22.461,412.598
1741606359.834,999.512,56.152,-53.223,999.512
1741606359.838,910.645,-616.699,-32.227,906.250
1741606359.842,961.914,999.512,-7.812,973.145
1741606359.846,967.285,169.434,-29.297,967.285
1741606359.849,970.703,-1000.000,-34.668,975.098
1741606359.853,898.926,-87.402,-15.137,932.129
1741606359.857,999.512,999.512,3.418,976.074
1741606359.861,252.930,-96.680,-10.742,933.594
1741606359.865,-967.773,-1000.000,-39.551,-262.695
1741606359.822,-955.566,-34.668,-23.926,-1000.000
1741606359.826,-1000.000,991.699,-4.883,-863.770
1741606359.830,95.703,999.512,-22.461,412.598
1741606359.834,999.512,56.152,-53.223,999.512
1741606359.838,910.645,-616.699,-32.227,906.250
1741606359.842,961.914,999.512,-7.812,973.145
1741606359.846,967.285,169.434,-29.297,967.285
1741606359.849,970.703,-1000.000,-34.668,975.098
1741606359.853,898.926,-87.402,-15.137,932.129
1741606359.857,999.512,999.512,3.418,976.074
1741606359.861,252.930,-96.680,-10.742,933.594
1741606359.865,-967.773,-1000.000,-39.551,-262.695
1741606359.864,-1000.000,-193.848,-30.762,-1000.000
1741606359.868,-464.844,988.770,-1.465,-240.234
1741606359.872,908.691,999.512,2.930,999.512
1741606359.876,999.512,-63.965,-21.973,962.891
1741606359.880,916.504,-195.312,-8.301,933.594
1741606359.884,980.469,999.512,8.301,975.586
1741606359.888,966.309,-115.234,-10.254,967.285
1741606359.891,970.215,-1000.000,-35.156,971.680
1741606359.895,899.902,-406.738,-38.574,946.289
1741606359.899,999.512,911.133,-17.578,945.801
1741606359.903,240.234,-149.414,-15.625,999.512
1741606359.907,-977.539,-1000.000,-25.879,-60.059
1741606359.864,-1000.000,-193.848,-30.762,-1000.000
1741606359.868,-464.844,988.770,-1.465,-240.234
1741606359.872,908.691,999.512,2.930,999.512
1741606359.876,999.512,-63.965,-21.973,962.891
1741606359.880,916.504,-195.312,-8.301,933.594
1741606359.884,980.469,999.512,8.301,975.586
1741606359.888,966.309,-115.234,-10.254,967.285
1741606359.891,970.215,-1000.000,-35.156,971.680
1741606359.895,899.902,-406.738,-38.574,946.289
1741606359.899,999.512,911.133,-17.578,945.801
1741606359.903,240.234,-149.414,-15.625,999.512
1741606359.907,-977.539,-1000.000,-25.879,-60.059
1741606359.926,-1000.000,-250.977,-20.996,-1000.000
1741606359.930,-347.168,948.242,-9.766,-194.336
1741606359.934,969.238,999.512,-10.254,999.512
1741606359.938,976.562,-132.812,-20.996,950.684
1741606359.942,926.270,-436.035,-20.020,938.477
1741606359.946,977.539,890.625,-9.766,974.121
1741606359.950,967.285,-318.848,-14.160,966.797
1741606359.953,960.938,-1000.000,-34.180,968.262
1741606359.957,912.598,-261.719,-28.320,903.809
1741606359.961,999.512,784.668,-20.508,999.512
1741606359.965,90.820,-527.344,-38.086,195.312
1741606359.969,-1000.000,-1000.000,-36.133,-1000.000
1741606359.926,-1000.000,-250.977,-20.996,-1000.000
1741606359.930,-347.168,948.242,-9.766,-194.336
1741606359.934,969.238,999.512,-10.254,999.512
1741606359.938,976.562,-132.812,-20.996,950.684
1741606359.942,926.270,-436.035,-20.020,938.477
1741606359.946,977.539,890.625,-9.766,974.121
1741606359.950,967.285,-318.848,-14.160,966.797
1741606359.953,960.938,-1000.000,-34.180,968.262
1741606359.957,912.598,-261.719,-28.320,903.809
1741606359.961,999.512,784.668,-20.508,999.512
1741606359.965,90.820,-527.344,-38.086,195.312
1741606359.969,-1000.000,-1000.000,-36.133,-1000.000
1741606359.969,-974.121,212.402,-21.973,-987.305
1741606359.973,-914.551,763.672,-29.785,-908.203
1741606359.977,-1000.000,-854.492,-41.504,-1000.000
1741606359.981,-263.672,-96.191,-38.574,-242.676
1741606359.985,999.512,999.512,-20.508,999.512
1741606359.989,957.031,837.402,-38.086,954.102
1741606359.993,935.547,-451.172,-77.148,937.500
1741606359.996,974.121,-1000.000,-87.402,974.609
1741606360.000,966.309,341.309,-64.941,967.285
1741606360.004,966.309,441.406,-48.828,966.797
1741606360.008,969.238,-1000.000,-57.617,968.262
1741606360.012,950.684,-572.754,-59.082,961.426
1741606359.969,-974.121,212.402,-21.973,-987.305
1741606359.973,-914.551,763.672,-29.785,-908.203
1741606359.977,-1000.000,-854.492,-41.504,-1000.000
1741606359.981,-263.672,-96.191,-38.574,-242.676
1741606359.985,999.512,999.512,-20.508,999.512
1741606359.989,957.031,837.402,-38.086,954.102
1741606359.993,935.547,-451.172,-77.148,937.500
1741606359.996,974.121,-1000.000,-87.402,974.609
1741606360.000,966.309,341.309,-64.941,967.285
1741606360.004,966.309,441.406,-48.828,966.797
1741606360.008,969.238,-1000.000,-57.617,968.262
1741606360.012,950.684,-572.754,-59.082,961.426
1741606360.044,929.199,621.094,-56.641,913.086
1741606360.048,999.512,645.508,-56.152,999.512
1741606360.052,-64.941,-721.191,-58.105,91.309
1741606360.056,-1000.000,-1000.000,-64.941,-1000.000
1741606360.060,-952.148,167.480,-60.547,-971.191
1741606360.064,-984.375,999.512,-56.641,-971.680
1741606360.068,-987.793,-474.121,-70.312,-992.676
1741606360.071,-1000.000,-1000.000,-74.707,-1000.000
1741606360.075,-510.254,-214.355,-58.594,-481.445
1741606360.079,-596.191,287.109,-30.273,-587.891
1741606360.083,-1000.000,755.371,-40.039,-1000.000
1741606360.087,-909.668,-391.602,-64.453,-907.227
1741606360.044,929.199,621.094,-56.641,913.086
1741606360.048,999.512,645.508,-56.152,999.512
1741606360.052,-64.941,-721.191,-58.105,91.309
1741606360.056,-1000.000,-1000.000,-64.941,-1000.000
1741606360.060,-952.148,167.480,-60.547,-971.191
1741606360.064,-984.375,999.512,-56.641,-971.680
1741606360.068,-987.793,-474.121,-70.312,-992.676
1741606360.071,-1000.000,-1000.000,-74.707,-1000.000
1741606360.075,-510.254,-214.355,-58.594,-481.445
1741606360.079,-596.191,287.109,-30.273,-587.891
1741606360.083,-1000.000,755.371,-40.039,-1000.000
1741606360.087,-909.668,-391.602,-64.453,-907.227
1741606360.089,-1000.000,-1000.000,-79.102,-1000.000
1741606360.093,-891.113,-429.199,-71.777,-888.184
1741606360.097,563.477,786.133,-43.945,568.359
1741606360.101,999.512,875.000,-37.598,999.512
1741606360.105,891.602,-338.867,-60.547,892.578
1741606360.109,982.422,-73.242,-59.082,982.910
1741606360.113,966.309,999.512,-48.828,966.797
1741606360.116,966.309,-711.426,-67.383,966.797
1741606360.120,966.309,-856.934,-59.082,966.797
1741606360.124,966.309,778.320,-50.781,966.797
1741606360.128,966.309,312.500,-50.293,967.285
1741606360.132,966.309,-970.215,-61.035,967.285
1741606360.134,966.309,62.012,-55.176,966.797
1741606360.138,966.309,999.512,-40.527,966.797
1741606360.142,966.309,-735.352,-45.410,967.285
1741606360.146,982.422,-806.152,-39.062,967.285
1741606360.150,908.203,758.301,-21.484,966.797
1741606360.154,999.512,999.512,-2.441,966.797
1741606360.158,855.469,160.645,-19.043,966.797
1741606360.161,-616.699,-680.176,-36.621,966.797
1741606360.165,-1000.000,476.074,-28.809,966.797
1741606360.169,-985.352,-569.824,-50.781,966.797
1741606360.173,-886.719,-351.562,-51.270,966.797
1741606360.177,589.355,999.512,-32.227,967.285
1741606360.134,966.309,62.012,-55.176,966.797
1741606360.138,966.309,999.512,-40.527,966.797
1741606360.142,966.309,-735.352,-45.410,967.285
1741606360.146,982.422,-806.152,-39.062,967.285
1741606360.150,908.203,758.301,-21.484,966.797
1741606360.154,999.512,999.512,-2.441,966.797
1741606360.158,855.469,160.645,-19.043,966.797
1741606360.161,-616.699,-680.176,-36.621,966.797
1741606360.165,-1000.000,476.074,-28.809,966.797
1741606360.169,-985.352,-569.824,-50.781,966.797
1741606360.173,-886.719,-351.562,-51.270,966.797
1741606360.177,589.355,999.512,-32.227,967.285
1741606360.180,999.512,986.328,-19.043,967.285
1741606360.184,892.090,269.043,-22.949,966.797
1741606360.188,982.422,-1000.000,-28.809,966.797
1741606360.192,976.562,268.555,-17.578,967.285
1741606360.196,928.711,620.605,-12.695,966.797
1741606360.200,964.355,-575.195,-0.488,966.797
1741606360.204,999.512,487.305,-5.859,966.797
1741606360.207,-338.379,-516.113,-33.691,966.797
1741606360.211,-1000.000,-778.809,-11.719,966.797
1741606360.215,253.418,999.512,0.977,966.797
1741606360.219,999.512,880.859,-9.277,968.262
1741606360.223,877.930,-828.125,-20.508,971.191
1741606360.180,999.512,986.328,-19.043,967.285
1741606360.184,892.090,269.043,-22.949,966.797
1741606360.188,982.422,-1000.000,-28.809,966.797
1741606360.192,976.562,268.555,-17.578,967.285
1741606360.196,928.711,620.605,-12.695,966.797
1741606360.200,964.355,-575.195,-0.488,966.797
1741606360.204,999.512,487.305,-5.859,966.797
1741606360.207,-338.379,-516.113,-33.691,966.797
1741606360.211,-1000.000,-778.809,-11.719,966.797
1741606360.215,253.418,999.512,0.977,966.797
1741606360.219,999.512,880.859,-9.277,968.262
1741606360.223,877.930,-828.125,-20.508,971.191
1741606360.224,958.496,-104.980,-34.668,905.762
1741606360.228,999.512,999.512,-24.902,999.512
1741606360.232,-261.719,-808.594,-26.367,339.355
1741606360.236,-1000.000,-416.504,-27.344,-973.633
1741606360.240,-937.988,319.336,-37.598,-1000.000
1741606360.244,-1000.000,223.145,-23.926,-959.961
1741606360.248,-1000.000,-153.320,-36.133,-1000.000
1741606360.251,-1000.000,-677.246,-49.316,-1000.000
1741606360.255,-1000.000,729.980,-24.414,-1000.000
1741606360.259,-1000.000,-574.707,-45.898,-1000.000
1741606360.263,-1000.000,-975.586,-55.664,-1000.000
1741606360.267,-966.797,935.547,-55.176,-998.535
1741606360.224,958.496,-104.980,-34.668,905.762
1741606360.228,999.512,999.512,-24.902,999.512
1741606360.232,-261.719,-808.594,-26.367,339.355
1741606360.236,-1000.000,-416.504,-27.344,-973.633
1741606360.240,-937.988,319.336,-37.598,-1000.000
1741606360.244,-1000.000,223.145,-23.926,-959.961
1741606360.248,-1000.000,-153.320,-36.133,-1000.000
1741606360.251,-1000.000,-677.246,-49.316,-1000.000
1741606360.255,-1000.000,729.980,-24.414,-1000.000
1741606360.259,-1000.000,-574.707,-45.898,-1000.000
1741606360.263,-1000.000,-975.586,-55.664,-1000.000
1741606360.267,-966.797,935.547,-55.176,-998.535
1741606360.270,-997.070,499.512,-45.898,-946.777
1741606360.274,-1000.000,-806.641,-45.898,-1000.000
1741606360.278,265.625,475.098,-44.434,-248.047
1741606360.282,999.512,999.512,-40.527,999.512
1741606360.286,843.262,703.613,-37.109,906.738
1741606360.290,999.512,788.574,-20.020,989.746
1741606360.294,873.535,379.883,-34.668,865.234
1741606360.297,-572.266,-987.305,-50.293,-599.121
1741606360.301,-1000.000,-922.363,-27.832,-1000.000
1741606360.305,-925.781,542.969,-8.789,-925.781
1741606360.309,-1000.000,-571.289,-20.020,-1000.000
1741606360.313,-1000.000,-493.164,-20.508,-1000.000
1741606360.270,-997.070,499.512,-45.898,-946.777
1741606360.274,-1000.000,-806.641,-45.898,-1000.000
1741606360.278,265.625,475.098,-44.434,-248.047
1741606360.282,999.512,999.512,-40.527,999.512
1741606360.286,843.262,703.613,-37.109,906.738
1741606360.290,999.512,788.574,-20.020,989.746
1741606360.294,873.535,379.883,-34.668,865.234
1741606360.297,-572.266,-987.305,-50.293,-599.121
1741606360.301,-1000.000,-922.363,-27.832,-1000.000
1741606360.305,-925.781,542.969,-8.789,-925.781
1741606360.309,-1000.000,-571.289,-20.020,-1000.000
1741606360.313,-1000.000,-493.164,-20.508,-1000.000
1741606360.329,-1000.000,961.914,-16.602,-1000.000
1741606360.333,-941.895,-687.012,-27.832,-1000.000
1741606360.337,-1000.000,-615.234,-34.668,-1000.000
1741606360.341,-866.699,868.652,-29.785,-1000.000
1741606360.345,516.113,999.512,-20.996,-1000.000
1741606360.349,999.512,805.176,-6.348,-1000.000
1741606360.353,780.762,-768.066,-27.832,-1000.000
1741606360.356,-588.379,-967.285,-55.176,-1000.000
1741606360.360,-1000.000,637.695,-26.367,-1000.000
1741606360.364,-885.742,-439.941,-47.363,-1000.000
1741606360.368,-1000.000,-1000.000,-72.266,-1000.000
1741606360.372,-75.684,765.137,-51.758,-1000.000
1741606360.329,-1000.000,961.914,-16.602,-1000.000
1741606360.333,-941.895,-687.012,-27.832,-1000.000
1741606360.337,-1000.000,-615.234,-34.668,-1000.000
1741606360.341,-866.699,868.652,-29.785,-1000.000
1741606360.345,516.113,999.512,-20.996,-1000.000
1741606360.349,999.512,805.176,-6.348,-1000.000
1741606360.353,780.762,-768.066,-27.832,-1000.000
1741606360.356,-588.379,-967.285,-55.176,-1000.000
1741606360.360,-1000.000,637.695,-26.367,-1000.000
1741606360.364,-885.742,-439.941,-47.363,-1000.000
1741606360.368,-1000.000,-1000.000,-72.266,-1000.000
1741606360.372,-75.684,765.137,-51.758,-1000.000
1741606360.374,999.512,821.289,-56.641,-1000.000
1741606360.378,890.137,-700.684,-53.223,-1000.000
1741606360.382,979.980,428.711,-40.039,-1000.000
1741606360.386,924.805,-52.734,-51.758,-1000.000
1741606360.390,-488.770,-1000.000,-56.641,-1000.000
1741606360.394,-1000.000,592.285,-46.875,-1000.000
1741606360.398,-868.652,893.066,-43.457,-1000.000
1741606360.401,-1000.000,-821.777,-53.711,-1000.000
1741606360.405,-914.551,-529.785,-56.641,-1000.000
1741606360.409,555.664,999.512,-52.734,-1000.000
1741606360.413,999.512,939.941,-41.992,-1000.000
1741606360.417,-286.621,-781.738,-54.199,-1000.000
1741606360.419,-1000.000,-461.426,-46.875,-1000.000
1741606360.423,-903.809,876.465,-37.109,-1000.000
1741606360.427,-1000.000,-704.590,-44.434,-1000.000
1741606360.431,-995.605,-948.730,-44.434,-1000.000
1741606360.435,275.391,738.281,-34.180,-1000.000
1741606360.439,999.512,999.512,-14.160,-1000.000
1741606360.443,792.480,-286.133,-27.344,-1000.000
1741606360.446,-595.703,-1000.000,-39.062,-1000.000
1741606360.450,-1000.000,423.828,-32.715,-1000.000
1741606360.454,-951.660,-438.477,-32.715,-1000.000
1741606360.458,-968.262,-732.910,-13.184,-1000.000
1741606360.462,366.211,896.973,-8.301,-1000.000
1741606360.419,-1000.000,-461.426,-46.875,-1000.000
1741606360.423,-903.809,876.465,-37.109,-1000.000
1741606360.427,-1000.000,-704.590,-44.434,-1000.000
1741606360.431,-995.605,-948.730,-44.434,-1000.000
1741606360.435,275.391,738.281,-34.180,-1000.000
1741606360.439,999.512,999.512,-14.160,-1000.000
1741606360.443,792.480,-286.133,-27.344,-1000.000
1741606360.446,-595.703,-1000.000,-39.062,-1000.000
1741606360.450,-1000.000,423.828,-32.715,-1000.000
1741606360.454,-951.660,-438.477,-32.715,-1000.000
1741606360.458,-968.262,-732.910,-13.184,-1000.000
1741606360.462,366.211,896.973,-8.301,-1000.000
1741606360.479,999.512,943.848,-4.395,-1000.000
1741606360.483,775.879,-26.367,-9.277,-1000.000
1741606360.487,-597.656,-1000.000,-34.668,-1000.000
1741606360.491,-1000.000,-758.789,-23.926,-1000.000
1741606360.495,-925.781,759.277,-9.766,-1000.000
1741606360.499,-1000.000,336.426,-11.230,-1000.000
1741606360.503,-956.543,-291.016,-15.137,-1000.000
1741606360.506,-1000.000,-572.266,-36.133,-1000.000
1741606360.510,-986.328,-936.035,-31.738,-1000.000
1741606360.514,394.043,777.344,-20.996,-1000.000
1741606360.518,999.512,193.848,-35.645,-1000.000
1741606360.522,824.219,-980.957,-39.062,-1000.000
1741606360.524,999.512,691.895,-23.926,-1000.000
1741606360.528,667.969,37.109,-25.879,-1000.000
1741606360.532,-813.965,-1000.000,-24.902,-1000.000
1741606360.536,-1000.000,454.102,-14.160,-1000.000
1741606360.540,-984.375,416.016,-15.625,-941.895
1741606360.544,-923.828,-146.973,-10.742,-1000.000
1741606360.548,556.152,864.258,-19.043,-494.141
1741606360.551,999.512,-174.805,-22.949,786.621
1741606360.555,999.512,132.812,-6.348,999.512
1741606360.559,633.301,-225.586,-22.949,275.391
1741606360.563,-849.609,-1000.000,-37.109,-959.473
1741606360.567,-1000.000,-721.680,-26.855,-1000.000
1741606360.554,-938.477,830.566,-7.324,-960.938
1741606360.558,-1000.000,366.699,-13.184,-1000.000
1741606360.562,-1000.000,-966.309,-23.438,-1000.000
1741606360.566,-930.664,487.305,-18.066,-929.688
1741606360.570,-1000.000,206.055,-11.230,-1000.000
1741606360.574,-492.188,172.852,10.254,-655.273
1741606360.578,900.879,999.512,6.836,799.805
1741606360.581,999.512,-586.426,-31.250,999.512
1741606360.585,916.504,-1000.000,-36.621,905.273
1741606360.589,979.980,764.648,-23.926,983.398
1741606360.593,966.309,-212.402,-20.996,966.797
1741606360.597,966.309,-1000.000,-30.762,967.285
1741606360.554,-938.477,830.566,-7.324,-960.938
1741606360.558,-1000.000,366.699,-13.184,-1000.000
1741606360.562,-1000.000,-966.309,-23.438,-1000.000
1741606360.566,-930.664,487.305,-18.066,-929.688
1741606360.570,-1000.000,206.055,-11.230,-1000.000
1741606360.574,-492.188,172.852,10.254,-655.273
1741606360.578,900.879,999.512,6.836,799.805
1741606360.581,999.512,-586.426,-31.250,999.512
1741606360.585,916.504,-1000.000,-36.621,905.273
1741606360.589,979.980,764.648,-23.926,983.398
1741606360.593,966.309,-212.402,-20.996,966.797
1741606360.597,966.309,-1000.000,-30.762,967.285
1741606360.599,966.309,799.805,-39.062,967.285
1741606360.603,982.910,-161.133,-34.180,980.469
1741606360.607,905.762,-881.836,-22.461,917.969
1741606360.611,999.512,817.383,-20.508,998.535
1741606360.615,815.430,-116.211,-19.043,909.668
1741606360.619,-616.211,-1000.000,-9.766,-447.266
1741606360.623,-1000.000,-737.305,-34.668,-1000.000
1741606360.626,-1000.000,-684.570,-57.617,-932.617
1741606360.630,112.305,807.129,-16.602,328.125
1741606360.634,999.512,688.477,-29.785,999.512
1741606360.638,911.133,-1000.000,-61.523,897.949
1741606360.642,962.891,134.766,-48.340,974.609
1741606360.599,966.309,799.805,-39.062,967.285
1741606360.603,982.910,-161.133,-34.180,980.469
1741606360.607,905.762,-881.836,-22.461,917.969
1741606360.611,999.512,817.383,-20.508,998.535
1741606360.615,815.430,-116.211,-19.043,909.668
1741606360.619,-616.211,-1000.000,-9.766,-447.266
1741606360.623,-1000.000,-737.305,-34.668,-1000.000
1741606360.626,-1000.000,-684.570,-57.617,-932.617
1741606360.630,112.305,807.129,-16.602,328.125
1741606360.634,999.512,688.477,-29.785,999.512
1741606360.638,911.133,-1000.000,-61.523,897.949
1741606360.642,962.891,134.766,-48.340,974.609
1741606360.674,981.445,432.617,-46.875,968.750
1741606360.678,916.992,-798.828,-41.504,970.703
1741606360.682,999.512,520.996,-39.551,908.691
1741606360.686,916.016,-252.441,-45.410,999.512
1741606360.690,-495.117,-1000.000,-50.293,341.797
1741606360.694,-1000.000,185.059,-39.062,-973.145
1741606360.698,-856.445,913.086,-45.410,-952.148
1741606360.701,-1000.000,-751.465,-75.195,-1000.000
1741606360.705,-729.980,-182.617,-61.035,-589.844
1741606360.709,748.047,999.512,-36.133,841.309
1741606360.713,999.512,751.465,-32.715,999.512
1741606360.717,898.926,-661.621,-46.875,911.133
1741606360.674,981.445,432.617,-46.875,968.750
1741606360.678,916.992,-798.828,-41.504,970.703
1741606360.682,999.512,520.996,-39.551,908.691
1741606360.686,916.016,-252.441,-45.410,999.512
1741606360.690,-495.117,-1000.000,-50.293,341.797
1741606360.694,-1000.000,185.059,-39.062,-973.145
1741606360.698,-856.445,913.086,-45.410,-952.148
1741606360.701,-1000.000,-751.465,-75.195,-1000.000
1741606360.705,-729.980,-182.617,-61.035,-589.844
1741606360.709,748.047,999.512,-36.133,841.309
1741606360.713,999.512,751.465,-32.715,999.512
1741606360.717,898.926,-661.621,-46.875,911.133
1741606360.704,983.887,-758.789,-50.293,982.422
1741606360.708,966.309,826.660,-47.852,966.797
1741606360.712,966.309,-496.582,-47.852,966.797
1741606360.716,969.727,-447.266,-45.410,967.773
1741606360.720,942.383,878.418,-40.527,976.074
1741606360.724,952.148,-166.016,-28.809,901.367
1741606360.728,946.289,-191.406,-47.363,999.512
1741606360.731,-255.859,-439.453,-65.430,443.359
1741606360.735,-1000.000,-1000.000,-75.684,-927.246
1741606360.739,-963.867,-329.102,-72.266,-1000.000
1741606360.743,-932.617,618.164,-67.871,-886.719
1741606360.747,-1000.000,-670.898,-74.707,-1000.000
1741606360.704,983.887,-758.789,-50.293,982.422
1741606360.708,966.309,826.660,-47.852,966.797
1741606360.712,966.309,-496.582,-47.852,966.797
1741606360.716,969.727,-447.266,-45.410,967.773
1741606360.720,942.383,878.418,-40.527,976.074
1741606360.724,952.148,-166.016,-28.809,901.367
1741606360.728,946.289,-191.406,-47.363,999.512
1741606360.731,-255.859,-439.453,-65.430,443.359
1741606360.735,-1000.000,-1000.000,-75.684,-927.246
1741606360.739,-963.867,-329.102,-72.266,-1000.000
1741606360.743,-932.617,618.164,-67.871,-886.719
1741606360.747,-1000.000,-670.898,-74.707,-1000.000
1741606360.749,-799.316,362.793,-35.645,-593.262
1741606360.753,677.246,999.512,-15.625,813.965
1741606360.757,999.512,-787.109,-48.340,999.512
1741606360.761,905.762,-798.828,-46.875,916.504
1741606360.765,943.848,717.285,-38.086,958.984
1741606360.769,976.074,515.137,-31.738,945.801
1741606360.773,976.562,-105.469,-28.809,999.512
1741606360.776,-373.535,-809.082,-46.875,-141.602
1741606360.780,-1000.000,-1000.000,-42.969,-1000.000
1741606360.784,-930.176,250.000,-34.668,-950.195
1741606360.788,-1000.000,740.234,-33.203,-994.629
1741606360.792,-995.117,-678.223,-29.297,-999.023
1741606360.749,-799.316,362.793,-35.645,-593.262
1741606360.753,677.246,999.512,-15.625,813.965
1741606360.757,999.512,-787.109,-48.340,999.512
1741606360.761,905.762,-798.828,-46.875,916.504
1741606360.765,943.848,717.285,-38.086,958.984
1741606360.769,976.074,515.137,-31.738,945.801
1741606360.773,976.562,-105.469,-28.809,999.512
1741606360.776,-373.535,-809.082,-46.875,-141.602
1741606360.780,-1000.000,-1000.000,-42.969,-1000.000
1741606360.784,-930.176,250.000,-34.668,-950.195
1741606360.788,-1000.000,740.234,-33.203,-994.629
1741606360.792,-995.117,-678.223,-29.297,-999.023
1741606360.795,-985.840,598.145,-23.926,-983.398
1741606360.799,-990.234,596.191,-29.297,-994.629
1741606360.803,-810.547,-627.930,-41.016,-811.523
1741606360.807,265.625,796.875,-32.715,273.926
1741606360.811,999.512,687.988,-39.551,999.512
1741606360.815,930.176,-339.355,-37.109,931.152
1741606360.819,957.031,476.074,-41.016,958.008
1741606360.822,967.285,-375.488,-60.547,968.262
1741606360.826,972.168,232.422,-55.176,971.191
1741606360.830,944.336,-459.473,-60.059,953.613
1741606360.834,941.406,-662.598,-41.504,929.688
1741606360.838,999.512,719.727,-38.086,999.512
1741606360.840,-132.812,-699.707,-52.734,19.531
1741606360.844,-1000.000,-1000.000,-44.434,-1000.000
1741606360.848,-955.566,667.969,-39.062,-965.332
1741606360.852,-930.176,363.281,-53.223,-937.012
1741606360.856,-1000.000,-937.500,-62.012,-1000.000
1741606360.860,-386.719,617.188,-49.316,-205.566
1741606360.864,945.312,999.512,-56.152,986.816
1741606360.867,984.375,-675.781,-83.984,961.914
1741606360.871,924.805,-1000.000,-67.871,937.988
1741606360.875,977.539,688.477,-37.598,975.586
1741606360.879,982.910,77.148,-41.992,983.398
1741606360.883,905.273,-989.258,-53.223,909.180
1741606360.884,999.512,648.438,-48.828,999.512
1741606360.888,816.406,85.449,-42.969,854.980
1741606360.892,-648.926,-1000.000,-46.387,-608.398
1741606360.896,-1000.000,-767.578,-50.293,-1000.000
1741606360.900,-880.859,582.031,-29.297,-910.645
1741606360.904,-1000.000,999.512,-8.301,-1000.000
1741606360.908,-129.395,817.871,-12.695,129.883
1741606360.911,999.512,-354.004,-20.508,999.512
1741606360.915,944.336,548.828,-14.160,918.457
1741606360.919,944.336,231.445,-38.086,961.426
1741606360.923,972.168,-1000.000,-55.664,969.727
1741606360.927,968.262,575.195,-44.434,966.797
1741606360.884,999.512,648.438,-48.828,999.512
1741606360.888,816.406,85.449,-42.969,854.980
1741606360.892,-648.926,-1000.000,-46.387,-608.398
1741606360.896,-1000.000,-767.578,-50.293,-1000.000
1741606360.900,-880.859,582.031,-29.297,-910.645
1741606360.904,-1000.000,999.512,-8.301,-1000.000
1741606360.908,-129.395,817.871,-12.695,129.883
1741606360.911,999.512,-354.004,-20.508,999.512
1741606360.915,944.336,548.828,-14.160,918.457
1741606360.919,944.336,231.445,-38.086,961.426
1741606360.923,972.168,-1000.000,-55.664,969.727
1741606360.927,968.262,575.195,-44.434,966.797
1741606360.929,966.797,221.191,-40.039,966.797
1741606360.933,902.832,-916.992,-41.016,966.797
1741606360.937,999.512,584.473,-41.016,966.797
1741606360.941,270.996,-438.965,-40.527,966.797
1741606360.945,-1000.000,-1000.000,-39.551,966.797
1741606360.949,208.984,796.387,-16.113,966.797
1741606360.953,999.512,847.168,-26.367,980.469
1741606360.956,832.520,-836.914,-59.082,918.945
1741606360.960,999.512,365.234,-39.551,996.582
1741606360.964,802.246,377.930,-38.574,924.805
1741606360.968,-666.992,-1000.000,-46.387,-483.887
1741606360.972,-1000.000,388.184,-30.762,-1000.000
1741606360.929,966.797,221.191,-40.039,966.797
1741606360.933,902.832,-916.992,-41.016,966.797
1741606360.937,999.512,584.473,-41.016,966.797
1741606360.941,270.996,-438.965,-40.527,966.797
1741606360.945,-1000.000,-1000.000,-39.551,966.797
1741606360.949,208.984,796.387,-16.113,966.797
1741606360.953,999.512,847.168,-26.367,980.469
1741606360.956,832.520,-836.914,-59.082,918.945
1741606360.960,999.512,365.234,-39.551,996.582
1741606360.964,802.246,377.930,-38.574,924.805
1741606360.968,-666.992,-1000.000,-46.387,-483.887
1741606360.972,-1000.000,388.184,-30.762,-1000.000
1741606360.975,-876.465,71.289,-46.387,-905.273
1741606360.979,-1000.000,-963.379,-54.688,-1000.000
1741606360.983,-187.500,611.328,-41.992,83.008
1741606360.987,999.512,999.512,-39.062,999.512
1741606360.991,952.637,147.461,-38.086,922.363
1741606360.995,941.895,48.340,-21.484,959.961
1741606360.999,972.656,363.770,-33.691,978.516
1741606361.002,910.645,-520.020,-60.059,902.832
1741606361.006,999.512,359.863,-47.363,999.512
1741606361.010,226.074,-456.055,-50.293,433.594
1741606361.014,-1000.000,-1000.000,-62.988,-928.711
1741606361.018,-999.023,-491.211,-49.316,-1000.000
1741606361.020,-968.750,751.465,-30.762,-952.637
1741606361.024,-1000.000,550.781,-27.344,-1000.000
1741606361.028,-1000.000,-706.055,-41.504,-1000.000
1741606361.032,-935.059,-815.430,-47.852,-938.965
1741606361.036,-1000.000,629.883,-39.062,-1000.000
1741606361.040,-404.297,999.512,-18.066,-400.879
1741606361.044,937.988,863.770,-20.996,924.316
1741606361.047,987.305,-722.168,-48.828,990.234
1741606361.051,923.828,-679.688,-38.574,924.316
1741606361.055,978.027,814.453,-23.926,979.004
1741606361.059,966.309,-654.785,-25.391,967.285
1741606361.063,966.309,-918.457,-28.809,966.797
1741606361.020,-968.750,751.465,-30.762,-952.637
1741606361.024,-1000.000,550.781,-27.344,-1000.000
1741606361.028,-1000.000,-706.055,-41.504,-1000.000
1741606361.032,-935.059,-815.430,-47.852,-938.965
1741606361.036,-1000.000,629.883,-39.062,-1000.000
1741606361.040,-404.297,999.512,-18.066,-400.879
1741606361.044,937.988,863.770,-20.996,924.316
1741606361.047,987.305,-722.168,-48.828,990.234
1741606361.051,923.828,-679.688,-38.574,924.316
1741606361.055,978.027,814.453,-23.926,979.004
1741606361.059,966.309,-654.785,-25.391,967.285
1741606361.063,966.309,-918.457,-28.809,966.797
1741606361.079,966.309,884.277,-20.996,966.797
1741606361.083,973.633,-256.348,-27.832,972.168
1741606361.087,937.500,-978.516,-39.062,948.242
1741606361.091,954.102,814.453,-37.109,938.477
1741606361.095,999.512,904.297,-25.879,999.512
1741606361.099,-235.352,-609.375,-33.691,-72.754
1741606361.103,-1000.000,-1000.000,-47.852,-1000.000
1741606361.106,-946.289,-402.832,-39.551,-959.473
1741606361.110,-935.059,638.184,-18.066,-934.082
1741606361.114,-1000.000,-592.285,-31.738,-1000.000
1741606361.118,-422.852,126.465,-21.484,-289.062
1741606361.122,931.152,999.512,-7.812,971.191
1741606361.124,990.234,337.891,-24.414,971.191
1741606361.128,922.363,-794.922,-32.227,932.617
1741606361.132,978.516,678.223,-21.973,976.562
1741606361.136,966.309,541.016,-32.715,966.797
1741606361.140,966.309,-848.145,-39.062,966.797
1741606361.144,966.309,584.961,-20.020,966.797
1741606361.148,968.262,309.082,-29.297,966.797
1741606361.151,966.309,-1000.000,-52.246,981.934
1741606361.155,910.156,-228.027,-46.875,896.973
1741606361.159,999.512,943.359,-34.180,999.512
1741606361.163,253.418,-535.156,-53.223,614.258
1741606361.167,-1000.000,-1000.000,-60.547,-833.984
1741606361.124,990.234,337.891,-24.414,971.191
1741606361.128,922.363,-794.922,-32.227,932.617
1741606361.132,978.516,678.223,-21.973,976.562
1741606361.136,966.309,541.016,-32.715,966.797
1741606361.140,966.309,-848.145,-39.062,966.797
1741606361.144,966.309,584.961,-20.020,966.797
1741606361.148,968.262,309.082,-29.297,966.797
1741606361.151,966.309,-1000.000,-52.246,981.934
1741606361.155,910.156,-228.027,-46.875,896.973
1741606361.159,999.512,943.359,-34.180,999.512
1741606361.163,253.418,-535.156,-53.223,614.258
1741606361.167,-1000.000,-1000.000,-60.547,-833.984
1741606361.169,-1000.000,520.508,-39.062,-1000.000
1741606361.173,-959.473,822.266,-43.457,-920.898
1741606361.177,-962.402,-800.781,-48.828,-992.188
1741606361.181,-1000.000,123.535,-49.316,-1000.000
1741606361.185,-139.648,999.512,-47.363,17.578
1741606361.189,999.512,998.047,-31.738,999.512
1741606361.193,963.379,-348.145,-53.711,949.219
1741606361.196,872.559,-783.691,-69.336,883.789
1741606361.200,999.512,734.375,-57.617,999.512
1741606361.204,671.875,-201.660,-72.754,611.328
1741606361.208,-803.223,-1000.000,-78.613,-832.520
1741606361.212,-1000.000,-783.203,-71.289,-1000.000
1741606361.169,-1000.000,520.508,-39.062,-1000.000
1741606361.173,-959.473,822.266,-43.457,-920.898
1741606361.177,-962.402,-800.781,-48.828,-992.188
1741606361.181,-1000.000,123.535,-49.316,-1000.000
1741606361.185,-139.648,999.512,-47.363,17.578
1741606361.189,999.512,998.047,-31.738,999.512
1741606361.193,963.379,-348.145,-53.711,949.219
1741606361.196,872.559,-783.691,-69.336,883.789
1741606361.200,999.512,734.375,-57.617,999.512
1741606361.204,671.875,-201.660,-72.754,611.328
1741606361.208,-803.223,-1000.000,-78.613,-832.520
1741606361.212,-1000.000,-783.203,-71.289,-1000.000
1741606361.214,-935.059,719.238,-60.547,-939.453
1741606361.218,-1000.000,-183.105,-57.617,-1000.000
1741606361.222,-1000.000,-941.895,-67.383,-1000.000
1741606361.226,-1000.000,916.504,-68.359,-1000.000
1741606361.230,-1000.000,323.242,-59.570,-1000.000
1741606361.234,-1000.000,21.484,-40.527,-1000.000
1741606361.238,-1000.000,803.223,-48.340,-1000.000
1741606361.241,-1000.000,-797.852,-69.824,-1000.000
1741606361.245,-1000.000,0.488,-61.523,-1000.000
1741606361.249,-930.664,918.945,-59.570,-943.359
1741606361.253,-1000.000,-777.832,-58.594,-1000.000
1741606361.257,-576.660,30.273,-49.316,-950.684
1741606361.214,-935.059,719.238,-60.547,-939.453
1741606361.218,-1000.000,-183.105,-57.617,-1000.000
1741606361.222,-1000.000,-941.895,-67.383,-1000.000
1741606361.226,-1000.000,916.504,-68.359,-1000.000
1741606361.230,-1000.000,323.242,-59.570,-1000.000
1741606361.234,-1000.000,21.484,-40.527,-1000.000
1741606361.238,-1000.000,803.223,-48.340,-1000.000
1741606361.241,-1000.000,-797.852,-69.824,-1000.000
