timestamps,TP9,AF7,AF8,TP10
1741685366.789,-941.406,-55.176,-35.645,-385.254
1741685366.793,-134.766,-39.062,-37.598,198.242
1741685366.797,979.980,-41.504,-38.086,957.031
1741685366.801,-871.094,-54.199,-30.762,-217.773
1741685366.805,-203.125,-41.992,-30.762,60.059
1741685366.809,694.336,-46.387,-27.832,394.043
1741685366.813,-1000.000,-72.754,-36.133,-966.309
1741685366.816,-127.441,-45.898,-46.387,-279.785
1741685366.820,759.766,-44.922,-41.992,388.672
1741685366.824,-1000.000,-72.754,-39.551,-914.551
1741685366.828,-15.625,-49.316,-38.086,-73.730
1741685366.832,553.711,-48.828,-33.691,354.980
1741685367.314,-119.629,-55.176,-55.176,-139.648
1741685367.318,-639.648,-42.480,-52.734,-658.691
1741685367.322,999.512,-20.508,-46.875,707.520
1741685367.326,-227.051,-47.363,-43.945,-268.066
1741685367.330,-494.629,-37.598,-44.434,-425.293
1741685367.334,999.512,-21.484,-40.039,888.184
1741685367.338,-457.031,-50.293,-47.363,-388.672
1741685367.341,-472.656,-40.527,-62.012,-551.270
1741685367.345,999.512,-20.996,-54.688,729.980
1741685367.349,-423.828,-48.828,-51.758,-383.301
1741685367.353,-366.211,-40.527,-47.852,-315.918
1741685367.357,940.918,-23.926,-37.109,747.070
1741685366.835,-1000.000,-64.941,-27.344,-973.145
1741685366.839,216.309,-39.551,-30.762,59.570
1741685366.843,415.039,-39.062,-35.156,149.902
1741685366.847,-1000.000,-45.898,-36.621,-1000.000
1741685366.851,416.016,-26.367,-35.645,109.375
1741685366.855,311.035,-42.480,-40.527,16.602
1741685366.859,-987.305,-55.664,-44.434,-829.102
1741685366.862,760.254,-39.062,-38.574,392.090
1741685366.866,93.262,-60.059,-45.898,-152.344
1741685366.870,-909.668,-57.129,-53.711,-884.277
1741685366.874,961.426,-31.738,-50.293,499.512
1741685366.878,44.434,-53.223,-48.340,-80.566
1741685366.835,-1000.000,-64.941,-27.344,-973.145
1741685366.839,216.309,-39.551,-30.762,59.570
1741685366.843,415.039,-39.062,-35.156,149.902
1741685366.847,-1000.000,-45.898,-36.621,-1000.000
1741685366.851,416.016,-26.367,-35.645,109.375
1741685366.855,311.035,-42.480,-40.527,16.602
1741685366.859,-987.305,-55.664,-44.434,-829.102
1741685366.862,760.254,-39.062,-38.574,392.090
1741685366.866,93.262,-60.059,-45.898,-152.344
1741685366.870,-909.668,-57.129,-53.711,-884.277
1741685366.874,961.426,-31.738,-50.293,499.512
1741685366.878,44.434,-53.223,-48.340,-80.566
1741685366.880,-694.824,-53.223,-52.734,-609.863
1741685366.884,984.375,-35.645,-51.270,550.293
1741685366.888,-387.695,-56.152,-48.340,-472.656
1741685366.892,-434.082,-49.805,-50.781,-523.438
1741685366.896,999.512,-43.457,-48.828,694.336
1741685366.900,-723.633,-61.523,-47.363,-590.820
1741685366.904,-226.562,-47.852,-50.293,-295.898
1741685366.907,693.359,-52.246,-55.664,459.961
1741685366.911,-1000.000,-76.660,-60.059,-863.770
1741685366.915,89.355,-55.176,-51.270,61.035
1741685366.919,537.598,-50.293,-37.598,469.238
1741685366.923,-1000.000,-64.941,-49.805,-815.430
1741685366.880,-694.824,-53.223,-52.734,-609.863
1741685366.884,984.375,-35.645,-51.270,550.293
1741685366.888,-387.695,-56.152,-48.340,-472.656
1741685366.892,-434.082,-49.805,-50.781,-523.438
1741685366.896,999.512,-43.457,-48.828,694.336
1741685366.900,-723.633,-61.523,-47.363,-590.820
1741685366.904,-226.562,-47.852,-50.293,-295.898
1741685366.907,693.359,-52.246,-55.664,459.961
1741685366.911,-1000.000,-76.660,-60.059,-863.770
1741685366.915,89.355,-55.176,-51.270,61.035
1741685366.919,537.598,-50.293,-37.598,469.238
1741685366.923,-1000.000,-64.941,-49.805,-815.430
1741685366.940,276.855,-49.316,-55.176,162.598
1741685366.944,294.922,-63.477,-52.734,71.777
1741685366.948,-987.305,-73.242,-61.523,-846.680
1741685366.952,775.879,-49.316,-64.941,501.953
1741685366.956,141.602,-76.172,-74.219,-14.648
1741685366.960,-942.383,-94.238,-83.008,-858.398
1741685366.964,870.605,-81.055,-86.914,359.375
1741685366.967,-27.344,-108.398,-81.055,-279.785
1741685366.971,-673.828,-113.281,-84.961,-663.086
1741685366.975,999.512,-90.332,-89.844,555.176
1741685366.979,-394.043,-111.328,-83.984,-440.918
1741685366.983,-511.719,-107.910,-83.984,-615.234
1741685366.940,276.855,-49.316,-55.176,162.598
1741685366.944,294.922,-63.477,-52.734,71.777
1741685366.948,-987.305,-73.242,-61.523,-846.680
1741685366.952,775.879,-49.316,-64.941,501.953
1741685366.956,141.602,-76.172,-74.219,-14.648
1741685366.960,-942.383,-94.238,-83.008,-858.398
1741685366.964,870.605,-81.055,-86.914,359.375
1741685366.967,-27.344,-108.398,-81.055,-279.785
1741685366.971,-673.828,-113.281,-84.961,-663.086
1741685366.975,999.512,-90.332,-89.844,555.176
1741685366.979,-394.043,-111.328,-83.984,-440.918
1741685366.983,-511.719,-107.910,-83.984,-615.234
1741685366.985,999.512,-85.938,-77.637,571.289
1741685366.989,-510.254,-98.145,-71.289,-545.410
1741685366.993,-288.086,-90.332,-74.219,-347.656
1741685366.997,826.660,-83.496,-70.801,544.434
1741685367.001,-993.652,-101.562,-72.754,-858.398
1741685367.005,-91.797,-77.637,-69.824,-90.332
1741685367.009,683.105,-75.684,-62.500,632.812
1741685367.012,-1000.000,-95.215,-66.895,-846.191
1741685367.016,69.336,-86.914,-68.848,76.172
1741685367.020,380.859,-101.562,-62.500,295.898
1741685367.024,-1000.000,-100.586,-57.129,-859.375
1741685367.028,642.578,-66.895,-56.641,511.719
1741685366.985,999.512,-85.938,-77.637,571.289
1741685366.989,-510.254,-98.145,-71.289,-545.410
1741685366.993,-288.086,-90.332,-74.219,-347.656
1741685366.997,826.660,-83.496,-70.801,544.434
1741685367.001,-993.652,-101.562,-72.754,-858.398
1741685367.005,-91.797,-77.637,-69.824,-90.332
1741685367.009,683.105,-75.684,-62.500,632.812
1741685367.012,-1000.000,-95.215,-66.895,-846.191
1741685367.016,69.336,-86.914,-68.848,76.172
1741685367.020,380.859,-101.562,-62.500,295.898
1741685367.024,-1000.000,-100.586,-57.129,-859.375
1741685367.028,642.578,-66.895,-56.641,511.719
1741685367.029,245.605,-80.566,-51.270,188.965
1741685367.033,-1000.000,-83.984,-51.270,-861.816
1741685367.037,750.488,-62.988,-62.500,457.031
1741685367.041,129.883,-81.543,-64.941,-29.297
1741685367.045,-781.250,-84.961,-63.965,-630.859
1741685367.049,999.512,-60.059,-54.688,778.809
1741685367.053,-32.227,-71.777,-51.270,-75.684
1741685367.056,-739.746,-84.473,-60.059,-720.215
1741685367.060,999.512,-70.801,-50.293,643.555
1741685367.064,-81.055,-80.078,-49.316,-144.531
1741685367.068,-674.805,-78.613,-57.617,-570.801
1741685367.072,999.512,-54.688,-51.758,696.289
1741685367.029,245.605,-80.566,-51.270,188.965
1741685367.033,-1000.000,-83.984,-51.270,-861.816
1741685367.037,750.488,-62.988,-62.500,457.031
1741685367.041,129.883,-81.543,-64.941,-29.297
1741685367.045,-781.250,-84.961,-63.965,-630.859
1741685367.049,999.512,-60.059,-54.688,778.809
1741685367.053,-32.227,-71.777,-51.270,-75.684
1741685367.056,-739.746,-84.473,-60.059,-720.215
1741685367.060,999.512,-70.801,-50.293,643.555
1741685367.064,-81.055,-80.078,-49.316,-144.531
1741685367.068,-674.805,-78.613,-57.617,-570.801
1741685367.072,999.512,-54.688,-51.758,696.289
1741685367.075,-286.621,-68.848,-50.293,-361.328
1741685367.079,-484.863,-69.824,-57.129,-502.930
1741685367.083,999.512,-58.105,-54.688,882.812
1741685367.087,-471.680,-76.172,-47.852,-331.055
1741685367.091,-370.605,-62.988,-43.945,-322.754
1741685367.095,947.754,-50.781,-30.273,720.703
1741685367.099,-830.566,-78.613,-32.227,-580.566
1741685367.102,-149.902,-70.801,-50.293,-34.668
1741685367.106,628.906,-76.172,-57.129,597.656
1741685367.110,-1000.000,-93.262,-61.523,-777.832
1741685367.114,169.434,-58.105,-56.152,189.453
1741685367.118,459.961,-57.129,-45.898,399.414
1741685367.075,-286.621,-68.848,-50.293,-361.328
1741685367.079,-484.863,-69.824,-57.129,-502.930
1741685367.083,999.512,-58.105,-54.688,882.812
1741685367.087,-471.680,-76.172,-47.852,-331.055
1741685367.091,-370.605,-62.988,-43.945,-322.754
1741685367.095,947.754,-50.781,-30.273,720.703
1741685367.099,-830.566,-78.613,-32.227,-580.566
1741685367.102,-149.902,-70.801,-50.293,-34.668
1741685367.106,628.906,-76.172,-57.129,597.656
1741685367.110,-1000.000,-93.262,-61.523,-777.832
1741685367.114,169.434,-58.105,-56.152,189.453
1741685367.118,459.961,-57.129,-45.898,399.414
1741685367.119,-1000.000,-65.918,-47.852,-817.871
1741685367.123,525.391,-52.734,-49.805,371.582
1741685367.127,271.484,-69.336,-47.852,206.055
1741685367.131,-1000.000,-72.266,-44.922,-714.355
1741685367.135,806.641,-50.781,-45.898,491.211
1741685367.139,149.902,-58.594,-46.875,76.660
1741685367.143,-777.344,-57.129,-41.504,-528.809
1741685367.146,999.512,-39.062,-39.551,745.605
1741685367.150,-154.297,-55.176,-38.086,-194.824
1741685367.154,-602.539,-41.992,-26.855,-625.000
1741685367.158,999.512,-25.879,-18.066,860.352
1741685367.162,-253.906,-41.992,-20.508,-160.645
1741685367.165,-447.266,-32.227,-21.973,-344.727
1741685367.169,999.512,-18.066,-10.254,817.871
1741685367.173,-574.219,-43.945,-12.695,-471.680
1741685367.177,-337.891,-39.062,-22.461,-255.859
1741685367.181,999.512,-24.414,-18.555,887.207
1741685367.185,-784.180,-39.551,-17.090,-432.129
1741685367.189,-134.766,-26.367,-20.996,18.555
1741685367.192,493.652,-29.297,-19.043,453.125
1741685367.196,-1000.000,-27.832,-15.625,-725.586
1741685367.200,480.469,-6.348,-19.043,461.426
1741685367.204,273.926,-14.648,-19.043,295.898
1741685367.208,-976.562,-6.836,-18.066,-712.891
1741685367.165,-447.266,-32.227,-21.973,-344.727
1741685367.169,999.512,-18.066,-10.254,817.871
1741685367.173,-574.219,-43.945,-12.695,-471.680
1741685367.177,-337.891,-39.062,-22.461,-255.859
1741685367.181,999.512,-24.414,-18.555,887.207
1741685367.185,-784.180,-39.551,-17.090,-432.129
1741685367.189,-134.766,-26.367,-20.996,18.555
1741685367.192,493.652,-29.297,-19.043,453.125
1741685367.196,-1000.000,-27.832,-15.625,-725.586
1741685367.200,480.469,-6.348,-19.043,461.426
1741685367.204,273.926,-14.648,-19.043,295.898
1741685367.208,-976.562,-6.836,-18.066,-712.891
1741685367.209,838.867,8.301,-24.414,544.922
1741685367.213,69.336,-13.672,-20.020,-66.406
1741685367.217,-635.742,-14.648,-15.137,-536.621
1741685367.221,999.512,6.348,-11.719,815.430
1741685367.225,-232.422,-6.836,-7.324,-177.246
1741685367.229,-465.332,-6.348,-8.301,-385.742
1741685367.233,999.512,2.930,-15.137,724.121
1741685367.236,-561.523,-20.020,-18.066,-391.113
1741685367.240,-391.113,-17.090,-18.066,-283.691
1741685367.244,999.512,-5.859,-21.484,716.797
1741685367.248,-701.660,-20.508,-24.902,-507.812
1741685367.252,-269.043,-13.672,-29.297,-174.805
1741685367.209,838.867,8.301,-24.414,544.922
1741685367.213,69.336,-13.672,-20.020,-66.406
1741685367.217,-635.742,-14.648,-15.137,-536.621
1741685367.221,999.512,6.348,-11.719,815.430
1741685367.225,-232.422,-6.836,-7.324,-177.246
1741685367.229,-465.332,-6.348,-8.301,-385.742
1741685367.233,999.512,2.930,-15.137,724.121
1741685367.236,-561.523,-20.020,-18.066,-391.113
1741685367.240,-391.113,-17.090,-18.066,-283.691
1741685367.244,999.512,-5.859,-21.484,716.797
1741685367.248,-701.660,-20.508,-24.902,-507.812
1741685367.252,-269.043,-13.672,-29.297,-174.805
1741685367.254,975.586,-9.277,-24.414,807.617
1741685367.258,-852.539,-29.297,-24.902,-532.227
1741685367.262,-133.301,-20.508,-36.621,-24.414
1741685367.266,613.281,-27.344,-43.457,531.738
1741685367.270,-1000.000,-43.945,-40.527,-777.832
1741685367.274,288.086,-18.066,-35.645,291.504
1741685367.278,461.426,-22.461,-30.762,492.676
1741685367.281,-1000.000,-32.715,-36.133,-769.043
1741685367.285,397.949,-15.137,-36.133,312.988
1741685367.289,195.312,-33.203,-39.062,23.438
1741685367.293,-731.445,-31.738,-44.434,-668.945
1741685367.297,999.512,-20.020,-46.875,756.836
1741685367.254,975.586,-9.277,-24.414,807.617
1741685367.258,-852.539,-29.297,-24.902,-532.227
1741685367.262,-133.301,-20.508,-36.621,-24.414
1741685367.266,613.281,-27.344,-43.457,531.738
1741685367.270,-1000.000,-43.945,-40.527,-777.832
1741685367.274,288.086,-18.066,-35.645,291.504
1741685367.278,461.426,-22.461,-30.762,492.676
1741685367.281,-1000.000,-32.715,-36.133,-769.043
1741685367.285,397.949,-15.137,-36.133,312.988
1741685367.289,195.312,-33.203,-39.062,23.438
1741685367.293,-731.445,-31.738,-44.434,-668.945
1741685367.297,999.512,-20.020,-46.875,756.836
1741685367.359,-821.289,-57.617,-48.828,-678.223
1741685367.363,-249.512,-43.457,-49.805,-262.207
1741685367.367,958.984,-28.320,-40.039,844.727
1741685367.371,-886.719,-54.688,-47.363,-578.125
1741685367.375,-153.320,-39.062,-52.246,-93.262
1741685367.379,658.691,-32.715,-53.223,523.438
1741685367.383,-1000.000,-51.270,-56.641,-813.965
1741685367.386,189.453,-31.738,-53.711,212.891
1741685367.390,435.059,-36.621,-50.293,403.320
1741685367.394,-1000.000,-46.387,-52.734,-869.629
1741685367.398,536.133,-31.250,-49.805,256.348
1741685367.402,213.867,-39.551,-46.875,38.086
1741685367.359,-821.289,-57.617,-48.828,-678.223
1741685367.363,-249.512,-43.457,-49.805,-262.207
1741685367.367,958.984,-28.320,-40.039,844.727
1741685367.371,-886.719,-54.688,-47.363,-578.125
1741685367.375,-153.320,-39.062,-52.246,-93.262
1741685367.379,658.691,-32.715,-53.223,523.438
1741685367.383,-1000.000,-51.270,-56.641,-813.965
1741685367.386,189.453,-31.738,-53.711,212.891
1741685367.390,435.059,-36.621,-50.293,403.320
1741685367.394,-1000.000,-46.387,-52.734,-869.629
1741685367.398,536.133,-31.250,-49.805,256.348
1741685367.402,213.867,-39.551,-46.875,38.086
1741685367.404,-881.836,-43.945,-50.293,-667.480
1741685367.408,911.133,-36.133,-57.129,512.695
1741685367.412,-18.066,-43.457,-45.898,-191.406
1741685367.416,-760.254,-42.480,-45.410,-716.797
1741685367.420,999.512,-18.066,-47.363,587.402
1741685367.424,-29.297,-22.949,-35.645,-162.109
1741685367.428,-610.840,-29.297,-43.945,-567.383
1741685367.431,999.512,-27.344,-41.016,683.594
1741685367.435,-432.617,-27.832,-15.137,-415.527
1741685367.439,-420.898,9.277,16.602,-470.703
1741685367.443,999.512,18.066,15.137,753.418
1741685367.447,-718.262,1.465,-9.766,-601.562
1741685367.404,-881.836,-43.945,-50.293,-667.480
1741685367.408,911.133,-36.133,-57.129,512.695
1741685367.412,-18.066,-43.457,-45.898,-191.406
1741685367.416,-760.254,-42.480,-45.410,-716.797
1741685367.420,999.512,-18.066,-47.363,587.402
1741685367.424,-29.297,-22.949,-35.645,-162.109
1741685367.428,-610.840,-29.297,-43.945,-567.383
1741685367.431,999.512,-27.344,-41.016,683.594
1741685367.435,-432.617,-27.832,-15.137,-415.527
1741685367.439,-420.898,9.277,16.602,-470.703
1741685367.443,999.512,18.066,15.137,753.418
1741685367.447,-718.262,1.465,-9.766,-601.562
1741685367.450,-237.793,27.832,-9.766,-325.195
1741685367.454,685.547,57.129,-4.395,462.402
1741685367.458,-1000.000,53.711,4.883,-874.512
1741685367.462,69.824,89.844,23.926,98.145
1741685367.466,414.551,96.191,15.625,339.355
1741685367.470,-1000.000,116.211,8.301,-979.980
1741685367.474,411.621,178.711,18.066,185.547
1741685367.477,187.988,167.480,19.043,-77.637
1741685367.481,-892.090,150.879,19.531,-858.887
1741685367.485,897.461,162.598,21.973,476.074
1741685367.489,-93.262,138.184,9.277,-270.508
1741685367.493,-578.613,127.930,5.371,-638.672
1741685367.450,-237.793,27.832,-9.766,-325.195
1741685367.454,685.547,57.129,-4.395,462.402
1741685367.458,-1000.000,53.711,4.883,-874.512
1741685367.462,69.824,89.844,23.926,98.145
1741685367.466,414.551,96.191,15.625,339.355
1741685367.470,-1000.000,116.211,8.301,-979.980
1741685367.474,411.621,178.711,18.066,185.547
1741685367.477,187.988,167.480,19.043,-77.637
1741685367.481,-892.090,150.879,19.531,-858.887
1741685367.485,897.461,162.598,21.973,476.074
1741685367.489,-93.262,138.184,9.277,-270.508
1741685367.493,-578.613,127.930,5.371,-638.672
1741685367.494,999.512,129.395,9.766,602.051
1741685367.498,-460.938,85.449,2.930,-447.266
1741685367.502,-342.773,77.148,-2.930,-275.391
1741685367.506,983.398,82.031,-2.441,803.223
1741685367.510,-801.758,47.363,0.488,-504.395
1741685367.514,-217.773,47.363,-10.742,-128.418
1741685367.518,852.051,40.039,-27.832,662.598
1741685367.521,-993.652,0.488,-40.039,-586.426
1741685367.525,-122.070,2.930,-49.316,36.133
1741685367.529,678.711,-9.277,-49.805,596.680
1741685367.533,-1000.000,-41.992,-49.316,-756.348
1741685367.537,117.188,-27.832,-51.758,203.613
1741685367.539,672.363,-34.180,-55.664,758.789
1741685367.543,-1000.000,-54.688,-65.918,-672.363
1741685367.547,120.117,-35.156,-63.477,292.480
1741685367.551,458.008,-48.340,-56.641,553.223
1741685367.555,-1000.000,-72.266,-65.430,-687.988
1741685367.559,410.645,-57.129,-76.660,479.492
1741685367.563,377.930,-82.520,-71.289,526.855
1741685367.566,-1000.000,-102.051,-62.988,-652.344
1741685367.570,286.133,-80.566,-63.477,340.332
1741685367.574,277.344,-88.379,-72.266,185.547
1741685367.578,-866.699,-103.027,-76.172,-629.395
1741685367.582,891.602,-83.496,-71.777,668.945
1741685367.539,672.363,-34.180,-55.664,758.789
1741685367.543,-1000.000,-54.688,-65.918,-672.363
1741685367.547,120.117,-35.156,-63.477,292.480
1741685367.551,458.008,-48.340,-56.641,553.223
1741685367.555,-1000.000,-72.266,-65.430,-687.988
1741685367.559,410.645,-57.129,-76.660,479.492
1741685367.563,377.930,-82.520,-71.289,526.855
1741685367.566,-1000.000,-102.051,-62.988,-652.344
1741685367.570,286.133,-80.566,-63.477,340.332
1741685367.574,277.344,-88.379,-72.266,185.547
1741685367.578,-866.699,-103.027,-76.172,-629.395
1741685367.582,891.602,-83.496,-71.777,668.945
1741685367.585,5.371,-116.211,-69.824,-59.082
1741685367.589,-659.668,-142.578,-67.871,-618.164
1741685367.593,999.512,-129.395,-69.336,703.613
1741685367.597,-193.848,-148.926,-64.941,-198.242
1741685367.601,-478.516,-142.090,-71.777,-369.629
1741685367.605,999.512,-132.812,-89.355,718.262
1741685367.609,-642.578,-147.949,-90.332,-471.680
1741685367.612,-245.605,-130.859,-79.590,-227.051
1741685367.616,861.328,-131.348,-81.543,604.492
1741685367.620,-977.539,-142.090,-84.473,-635.254
1741685367.624,-73.730,-113.770,-83.984,27.832
1741685367.628,585.449,-108.887,-83.008,431.152
1741685367.585,5.371,-116.211,-69.824,-59.082
1741685367.589,-659.668,-142.578,-67.871,-618.164
1741685367.593,999.512,-129.395,-69.336,703.613
1741685367.597,-193.848,-148.926,-64.941,-198.242
1741685367.601,-478.516,-142.090,-71.777,-369.629
1741685367.605,999.512,-132.812,-89.355,718.262
1741685367.609,-642.578,-147.949,-90.332,-471.680
1741685367.612,-245.605,-130.859,-79.590,-227.051
1741685367.616,861.328,-131.348,-81.543,604.492
1741685367.620,-977.539,-142.090,-84.473,-635.254
1741685367.624,-73.730,-113.770,-83.984,27.832
1741685367.628,585.449,-108.887,-83.008,431.152
1741685367.629,-1000.000,-120.605,-77.148,-906.738
1741685367.633,285.156,-93.750,-79.102,239.746
1741685367.637,415.039,-98.145,-81.543,437.012
1741685367.641,-1000.000,-118.652,-79.590,-838.867
1741685367.645,541.016,-94.238,-70.312,345.703
1741685367.649,225.586,-102.539,-66.895,51.758
1741685367.653,-791.016,-104.980,-79.590,-760.254
1741685367.656,999.512,-78.125,-80.078,638.672
1741685367.660,-8.301,-99.609,-77.637,-106.934
1741685367.664,-629.883,-96.191,-73.242,-610.840
1741685367.668,999.512,-79.590,-71.289,608.887
1741685367.672,-338.867,-91.309,-68.848,-346.680
1741685367.629,-1000.000,-120.605,-77.148,-906.738
1741685367.633,285.156,-93.750,-79.102,239.746
1741685367.637,415.039,-98.145,-81.543,437.012
1741685367.641,-1000.000,-118.652,-79.590,-838.867
1741685367.645,541.016,-94.238,-70.312,345.703
1741685367.649,225.586,-102.539,-66.895,51.758
1741685367.653,-791.016,-104.980,-79.590,-760.254
1741685367.656,999.512,-78.125,-80.078,638.672
1741685367.660,-8.301,-99.609,-77.637,-106.934
1741685367.664,-629.883,-96.191,-73.242,-610.840
1741685367.668,999.512,-79.590,-71.289,608.887
1741685367.672,-338.867,-91.309,-68.848,-346.680
1741685367.689,-298.340,-70.801,-66.406,-216.309
1741685367.693,876.953,-70.801,-68.359,683.594
1741685367.697,-928.711,-81.543,-60.547,-554.688
1741685367.701,-119.141,-52.734,-56.152,6.836
1741685367.705,730.469,-59.082,-56.641,642.090
1741685367.709,-1000.000,-84.473,-61.035,-515.625
1741685367.713,75.195,-63.965,-61.523,304.688
1741685367.716,458.496,-69.336,-60.059,416.504
1741685367.720,-1000.000,-87.891,-68.848,-957.031
1741685367.724,351.562,-59.570,-63.477,314.941
1741685367.728,350.098,-66.406,-62.500,366.211
1741685367.732,-1000.000,-75.684,-71.777,-861.816
1741685367.689,-298.340,-70.801,-66.406,-216.309
1741685367.693,876.953,-70.801,-68.359,683.594
1741685367.697,-928.711,-81.543,-60.547,-554.688
1741685367.701,-119.141,-52.734,-56.152,6.836
1741685367.705,730.469,-59.082,-56.641,642.090
1741685367.709,-1000.000,-84.473,-61.035,-515.625
1741685367.713,75.195,-63.965,-61.523,304.688
1741685367.716,458.496,-69.336,-60.059,416.504
1741685367.720,-1000.000,-87.891,-68.848,-957.031
1741685367.724,351.562,-59.570,-63.477,314.941
1741685367.728,350.098,-66.406,-62.500,366.211
1741685367.732,-1000.000,-75.684,-71.777,-861.816
1741685367.735,698.730,-52.734,-65.430,540.039
1741685367.739,142.090,-78.125,-67.383,50.781
1741685367.743,-696.777,-83.008,-71.289,-720.215
1741685367.747,999.512,-61.035,-65.430,790.527
1741685367.751,-193.359,-81.055,-61.523,-185.547
1741685367.755,-384.277,-63.965,-55.664,-357.910
1741685367.759,954.102,-49.316,-53.223,715.820
1741685367.762,-797.852,-72.266,-55.176,-664.551
1741685367.766,-149.414,-59.570,-55.664,-59.082
1741685367.770,642.578,-59.570,-56.641,674.805
1741685367.774,-1000.000,-68.359,-50.781,-772.461
1741685367.778,191.895,-46.875,-43.457,157.227
1741685367.735,698.730,-52.734,-65.430,540.039
1741685367.739,142.090,-78.125,-67.383,50.781
1741685367.743,-696.777,-83.008,-71.289,-720.215
1741685367.747,999.512,-61.035,-65.430,790.527
1741685367.751,-193.359,-81.055,-61.523,-185.547
1741685367.755,-384.277,-63.965,-55.664,-357.910
1741685367.759,954.102,-49.316,-53.223,715.820
1741685367.762,-797.852,-72.266,-55.176,-664.551
1741685367.766,-149.414,-59.570,-55.664,-59.082
1741685367.770,642.578,-59.570,-56.641,674.805
1741685367.774,-1000.000,-68.359,-50.781,-772.461
1741685367.778,191.895,-46.875,-43.457,157.227
1741685367.779,409.668,-57.129,-44.434,336.914
1741685367.783,-1000.000,-72.754,-51.270,-763.672
1741685367.787,572.754,-40.039,-41.504,505.859
1741685367.791,291.016,-50.293,-37.109,262.695
1741685367.795,-1000.000,-72.266,-47.363,-824.707
1741685367.799,718.750,-46.875,-49.316,461.914
1741685367.803,143.555,-51.270,-52.734,70.801
1741685367.806,-757.812,-44.434,-52.246,-580.078
1741685367.810,999.512,-35.645,-50.781,629.395
1741685367.814,-195.312,-63.477,-52.246,-332.520
1741685367.818,-463.379,-47.363,-56.152,-489.258
1741685367.822,999.512,-27.832,-52.246,897.949
1741685367.779,409.668,-57.129,-44.434,336.914
1741685367.783,-1000.000,-72.754,-51.270,-763.672
1741685367.787,572.754,-40.039,-41.504,505.859
1741685367.791,291.016,-50.293,-37.109,262.695
1741685367.795,-1000.000,-72.266,-47.363,-824.707
1741685367.799,718.750,-46.875,-49.316,461.914
1741685367.803,143.555,-51.270,-52.734,70.801
1741685367.806,-757.812,-44.434,-52.246,-580.078
1741685367.810,999.512,-35.645,-50.781,629.395
1741685367.814,-195.312,-63.477,-52.246,-332.520
1741685367.818,-463.379,-47.363,-56.152,-489.258
1741685367.822,999.512,-27.832,-52.246,897.949
1741685367.824,-476.562,-53.711,-53.223,-344.238
1741685367.828,-374.512,-43.457,-55.176,-358.887
1741685367.832,999.512,-26.855,-44.434,717.773
1741685367.836,-734.375,-42.969,-43.457,-628.418
1741685367.840,-190.918,-26.855,-42.969,-108.398
1741685367.844,753.906,-23.438,-28.320,760.254
1741685367.848,-1000.000,-40.039,-27.344,-715.332
1741685367.851,63.477,-26.855,-43.945,47.852
1741685367.855,328.125,-39.062,-52.734,152.344
1741685367.859,-1000.000,-42.480,-47.852,-907.227
1741685367.863,715.332,-14.648,-40.039,485.352
1741685367.867,206.055,-29.785,-35.645,77.148
1741685367.824,-476.562,-53.711,-53.223,-344.238
1741685367.828,-374.512,-43.457,-55.176,-358.887
1741685367.832,999.512,-26.855,-44.434,717.773
1741685367.836,-734.375,-42.969,-43.457,-628.418
1741685367.840,-190.918,-26.855,-42.969,-108.398
1741685367.844,753.906,-23.438,-28.320,760.254
1741685367.848,-1000.000,-40.039,-27.344,-715.332
1741685367.851,63.477,-26.855,-43.945,47.852
1741685367.855,328.125,-39.062,-52.734,152.344
1741685367.859,-1000.000,-42.480,-47.852,-907.227
1741685367.863,715.332,-14.648,-40.039,485.352
1741685367.867,206.055,-29.785,-35.645,77.148
1741685367.870,-952.637,-48.340,-31.250,-902.832
1741685367.874,880.859,-35.156,-37.598,389.648
1741685367.878,32.715,-60.059,-42.480,-215.332
1741685367.882,-560.059,-61.035,-42.480,-547.852
1741685367.886,999.512,-46.387,-39.551,768.066
1741685367.890,-372.559,-77.148,-38.086,-406.738
1741685367.894,-384.277,-60.547,-37.109,-440.430
1741685367.897,999.512,-51.270,-31.250,813.477
1741685367.901,-759.766,-86.426,-36.133,-563.477
1741685367.905,-202.637,-64.453,-44.434,-148.926
1741685367.909,734.375,-55.176,-54.199,707.031
1741685367.913,-1000.000,-75.684,-60.547,-873.047
1741685367.870,-952.637,-48.340,-31.250,-902.832
1741685367.874,880.859,-35.156,-37.598,389.648
1741685367.878,32.715,-60.059,-42.480,-215.332
1741685367.882,-560.059,-61.035,-42.480,-547.852
1741685367.886,999.512,-46.387,-39.551,768.066
1741685367.890,-372.559,-77.148,-38.086,-406.738
1741685367.894,-384.277,-60.547,-37.109,-440.430
1741685367.897,999.512,-51.270,-31.250,813.477
1741685367.901,-759.766,-86.426,-36.133,-563.477
1741685367.905,-202.637,-64.453,-44.434,-148.926
1741685367.909,734.375,-55.176,-54.199,707.031
1741685367.913,-1000.000,-75.684,-60.547,-873.047
1741685367.914,-83.496,-56.152,-58.105,-88.379
1741685367.918,765.625,-57.129,-53.223,718.750
1741685367.922,-1000.000,-76.660,-49.316,-759.277
1741685367.926,-71.777,-54.688,-51.270,-48.828
1741685367.930,629.395,-48.340,-45.898,483.398
1741685367.934,-1000.000,-65.918,-44.434,-821.289
1741685367.938,179.688,-54.199,-44.922,212.891
1741685367.941,342.773,-59.082,-46.387,308.594
1741685367.945,-991.211,-54.199,-47.852,-777.344
1741685367.949,747.070,-29.785,-42.480,392.090
1741685367.953,43.945,-45.410,-47.363,-136.230
1741685367.957,-517.578,-43.945,-56.152,-427.734
1741685367.914,-83.496,-56.152,-58.105,-88.379
1741685367.918,765.625,-57.129,-53.223,718.750
1741685367.922,-1000.000,-76.660,-49.316,-759.277
1741685367.926,-71.777,-54.688,-51.270,-48.828
1741685367.930,629.395,-48.340,-45.898,483.398
1741685367.934,-1000.000,-65.918,-44.434,-821.289
1741685367.938,179.688,-54.199,-44.922,212.891
1741685367.941,342.773,-59.082,-46.387,308.594
1741685367.945,-991.211,-54.199,-47.852,-777.344
1741685367.949,747.070,-29.785,-42.480,392.090
1741685367.953,43.945,-45.410,-47.363,-136.230
1741685367.957,-517.578,-43.945,-56.152,-427.734
1741685367.961,999.512,-22.949,-56.641,825.195
1741685367.965,-488.770,-41.992,-53.223,-388.672
1741685367.969,-396.973,-41.992,-55.664,-437.012
1741685367.973,999.512,-36.133,-51.758,622.559
1741685367.977,-700.684,-56.641,-49.316,-562.500
1741685367.981,-194.824,-38.086,-55.664,-56.641
1741685367.985,786.621,-27.344,-50.781,700.195
1741685367.988,-1000.000,-48.340,-52.246,-729.492
1741685367.992,-80.566,-38.574,-59.082,-86.426
1741685367.996,663.574,-43.457,-57.617,492.676
1741685368.000,-1000.000,-56.641,-56.641,-725.098
1741685368.004,145.996,-30.762,-49.316,240.723
1741685367.961,999.512,-22.949,-56.641,825.195
1741685367.965,-488.770,-41.992,-53.223,-388.672
1741685367.969,-396.973,-41.992,-55.664,-437.012
1741685367.973,999.512,-36.133,-51.758,622.559
1741685367.977,-700.684,-56.641,-49.316,-562.500
1741685367.981,-194.824,-38.086,-55.664,-56.641
1741685367.985,786.621,-27.344,-50.781,700.195
1741685367.988,-1000.000,-48.340,-52.246,-729.492
1741685367.992,-80.566,-38.574,-59.082,-86.426
1741685367.996,663.574,-43.457,-57.617,492.676
1741685368.000,-1000.000,-56.641,-56.641,-725.098
1741685368.004,145.996,-30.762,-49.316,240.723
1741685368.004,460.938,-40.039,-43.945,406.738
1741685368.008,-1000.000,-62.012,-48.340,-1000.000
1741685368.012,300.293,-28.320,-41.992,265.137
1741685368.016,421.875,-32.715,-36.621,486.328
1741685368.020,-1000.000,-48.340,-41.504,-867.676
1741685368.024,539.551,-26.367,-42.480,330.566
1741685368.028,207.031,-47.363,-48.340,6.836
1741685368.031,-964.844,-53.711,-49.316,-939.453
1741685368.035,889.648,-30.273,-38.574,500.977
1741685368.039,98.145,-44.434,-42.969,-81.543
1741685368.043,-686.523,-47.363,-51.270,-692.383
1741685368.047,999.512,-33.691,-50.781,664.551
1741685368.004,460.938,-40.039,-43.945,406.738
1741685368.008,-1000.000,-62.012,-48.340,-1000.000
1741685368.012,300.293,-28.320,-41.992,265.137
1741685368.016,421.875,-32.715,-36.621,486.328
1741685368.020,-1000.000,-48.340,-41.504,-867.676
1741685368.024,539.551,-26.367,-42.480,330.566
1741685368.028,207.031,-47.363,-48.340,6.836
1741685368.031,-964.844,-53.711,-49.316,-939.453
1741685368.035,889.648,-30.273,-38.574,500.977
1741685368.039,98.145,-44.434,-42.969,-81.543
1741685368.043,-686.523,-47.363,-51.270,-692.383
1741685368.047,999.512,-33.691,-50.781,664.551
1741685368.065,-155.273,-47.852,-54.199,-168.457
1741685368.069,-552.734,-46.387,-58.594,-451.172
1741685368.073,999.512,-29.297,-52.734,722.656
1741685368.077,-375.000,-49.316,-56.641,-375.977
1741685368.081,-457.031,-41.016,-63.965,-453.125
1741685368.085,999.512,-18.555,-55.176,759.277
1741685368.089,-547.852,-43.457,-56.152,-413.086
1741685368.092,-252.930,-32.715,-61.523,-167.969
1741685368.096,750.977,-26.855,-55.176,631.348
1741685368.100,-1000.000,-55.176,-49.316,-809.082
1741685368.104,-76.660,-38.574,-51.270,-55.664
1741685368.108,733.398,-30.762,-49.316,673.828
1741685368.065,-155.273,-47.852,-54.199,-168.457
1741685368.069,-552.734,-46.387,-58.594,-451.172
1741685368.073,999.512,-29.297,-52.734,722.656
1741685368.077,-375.000,-49.316,-56.641,-375.977
1741685368.081,-457.031,-41.016,-63.965,-453.125
1741685368.085,999.512,-18.555,-55.176,759.277
1741685368.089,-547.852,-43.457,-56.152,-413.086
1741685368.092,-252.930,-32.715,-61.523,-167.969
1741685368.096,750.977,-26.855,-55.176,631.348
1741685368.100,-1000.000,-55.176,-49.316,-809.082
1741685368.104,-76.660,-38.574,-51.270,-55.664
1741685368.108,733.398,-30.762,-49.316,673.828
1741685368.109,-1000.000,-52.246,-50.781,-743.652
1741685368.113,34.180,-40.527,-51.270,78.125
1741685368.117,518.555,-44.922,-55.664,411.621
1741685368.121,-1000.000,-58.105,-57.617,-883.301
1741685368.125,372.070,-33.691,-45.410,338.867
1741685368.129,472.656,-38.574,-39.551,511.719
1741685368.133,-1000.000,-48.828,-48.340,-784.180
1741685368.136,446.289,-28.320,-54.199,224.609
1741685368.140,231.445,-48.828,-57.617,-74.707
1741685368.144,-943.848,-54.199,-57.617,-893.555
1741685368.148,889.160,-26.855,-50.293,635.742
1741685368.152,136.230,-54.199,-49.316,60.547
1741685368.109,-1000.000,-52.246,-50.781,-743.652
1741685368.113,34.180,-40.527,-51.270,78.125
1741685368.117,518.555,-44.922,-55.664,411.621
1741685368.121,-1000.000,-58.105,-57.617,-883.301
1741685368.125,372.070,-33.691,-45.410,338.867
1741685368.129,472.656,-38.574,-39.551,511.719
1741685368.133,-1000.000,-48.828,-48.340,-784.180
1741685368.136,446.289,-28.320,-54.199,224.609
1741685368.140,231.445,-48.828,-57.617,-74.707
1741685368.144,-943.848,-54.199,-57.617,-893.555
1741685368.148,889.160,-26.855,-50.293,635.742
1741685368.152,136.230,-54.199,-49.316,60.547
1741685368.154,-866.211,-61.523,-48.828,-856.445
1741685368.158,966.797,-33.203,-45.410,459.473
1741685368.162,-18.555,-46.875,-44.922,-180.664
1741685368.166,-633.301,-45.410,-49.805,-567.383
1741685368.170,999.512,-26.855,-49.805,651.855
1741685368.174,-314.453,-40.527,-43.457,-408.203
1741685368.178,-425.781,-23.926,-34.180,-518.555
1741685368.181,999.512,-22.949,-29.297,678.223
1741685368.185,-685.059,-55.664,-40.039,-569.336
1741685368.189,-252.441,-34.668,-40.527,-250.977
1741685368.193,895.020,-26.367,-37.109,693.848
1741685368.197,-954.102,-51.758,-49.805,-787.598
1741685368.154,-866.211,-61.523,-48.828,-856.445
1741685368.158,966.797,-33.203,-45.410,459.473
1741685368.162,-18.555,-46.875,-44.922,-180.664
1741685368.166,-633.301,-45.410,-49.805,-567.383
1741685368.170,999.512,-26.855,-49.805,651.855
1741685368.174,-314.453,-40.527,-43.457,-408.203
1741685368.178,-425.781,-23.926,-34.180,-518.555
1741685368.181,999.512,-22.949,-29.297,678.223
1741685368.185,-685.059,-55.664,-40.039,-569.336
1741685368.189,-252.441,-34.668,-40.527,-250.977
1741685368.193,895.020,-26.367,-37.109,693.848
1741685368.197,-954.102,-51.758,-49.805,-787.598
1741685368.154,-866.211,-61.523,-48.828,-856.445
1741685368.158,966.797,-33.203,-45.410,459.473
1741685368.162,-18.555,-46.875,-44.922,-180.664
1741685368.166,-633.301,-45.410,-49.805,-567.383
1741685368.170,999.512,-26.855,-49.805,651.855
1741685368.174,-314.453,-40.527,-43.457,-408.203
1741685368.178,-425.781,-23.926,-34.180,-518.555
1741685368.181,999.512,-22.949,-29.297,678.223
1741685368.185,-685.059,-55.664,-40.039,-569.336
1741685368.189,-252.441,-34.668,-40.527,-250.977
1741685368.193,895.020,-26.367,-37.109,693.848
1741685368.197,-954.102,-51.758,-49.805,-787.598
1741685368.199,-176.758,-36.133,-55.176,-203.613
1741685368.203,820.801,-22.461,-42.969,667.480
1741685368.207,-1000.000,-37.598,-39.551,-756.348
1741685368.211,-66.895,-34.668,-45.410,-65.918
1741685368.215,618.652,-34.180,-43.945,479.004
1741685368.219,-1000.000,-38.574,-45.410,-805.664
1741685368.223,179.199,-9.766,-40.527,270.996
1741685368.226,363.281,-22.461,-41.992,349.609
1741685368.230,-1000.000,-41.016,-47.363,-887.695
1741685368.234,627.441,-17.090,-41.992,316.895
1741685368.238,199.707,-20.996,-35.156,14.648
1741685368.242,-897.949,-27.832,-36.621,-744.629
1741685368.199,-176.758,-36.133,-55.176,-203.613
1741685368.203,820.801,-22.461,-42.969,667.480
1741685368.207,-1000.000,-37.598,-39.551,-756.348
1741685368.211,-66.895,-34.668,-45.410,-65.918
1741685368.215,618.652,-34.180,-43.945,479.004
1741685368.219,-1000.000,-38.574,-45.410,-805.664
1741685368.223,179.199,-9.766,-40.527,270.996
1741685368.226,363.281,-22.461,-41.992,349.609
1741685368.230,-1000.000,-41.016,-47.363,-887.695
1741685368.234,627.441,-17.090,-41.992,316.895
1741685368.238,199.707,-20.996,-35.156,14.648
1741685368.242,-897.949,-27.832,-36.621,-744.629
1741685368.245,939.453,-8.301,-38.574,650.391
1741685368.249,99.609,-28.320,-36.621,-30.762
1741685368.253,-881.348,-38.086,-40.527,-884.766
1741685368.257,958.984,-18.555,-43.457,591.309
1741685368.261,83.984,-38.086,-38.574,-8.789
1741685368.265,-557.129,-33.691,-42.480,-540.039
1741685368.269,999.512,-15.137,-55.176,683.594
1741685368.272,-315.430,-40.527,-59.570,-401.855
1741685368.276,-512.207,-34.668,-54.688,-612.793
1741685368.280,999.512,-20.996,-51.758,738.770
1741685368.284,-548.340,-50.781,-57.129,-456.543
1741685368.288,-267.090,-28.809,-44.922,-277.832
1741685368.245,939.453,-8.301,-38.574,650.391
1741685368.249,99.609,-28.320,-36.621,-30.762
1741685368.253,-881.348,-38.086,-40.527,-884.766
1741685368.257,958.984,-18.555,-43.457,591.309
1741685368.261,83.984,-38.086,-38.574,-8.789
1741685368.265,-557.129,-33.691,-42.480,-540.039
1741685368.269,999.512,-15.137,-55.176,683.594
1741685368.272,-315.430,-40.527,-59.570,-401.855
1741685368.276,-512.207,-34.668,-54.688,-612.793
1741685368.280,999.512,-20.996,-51.758,738.770
1741685368.284,-548.340,-50.781,-57.129,-456.543
1741685368.288,-267.090,-28.809,-44.922,-277.832
1741685368.755,-352.051,-31.738,-40.527,-415.527
1741685368.759,919.434,-25.391,-42.480,582.520
1741685368.763,-859.375,-44.434,-45.898,-708.008
1741685368.767,-153.809,-26.367,-43.945,-249.023
1741685368.771,705.566,-27.832,-38.574,399.414
1741685368.775,-1000.000,-43.457,-36.133,-705.078
1741685368.779,155.273,-22.461,-41.016,136.719
1741685368.782,329.590,-38.086,-44.434,101.562
1741685368.786,-1000.000,-54.688,-50.293,-950.684
1741685368.790,665.039,-29.785,-48.828,272.461
1741685368.794,222.656,-38.086,-42.969,-5.371
1741685368.798,-919.434,-45.410,-48.828,-774.902
1741685368.289,799.316,-15.625,-36.133,608.887
1741685368.293,-1000.000,-45.410,-39.062,-829.102
1741685368.297,-11.719,-16.602,-36.621,46.875
1741685368.301,602.539,0.977,-34.668,644.531
1741685368.305,-1000.000,-20.996,-35.645,-920.898
1741685368.309,165.039,-5.859,-41.016,38.086
1741685368.313,439.453,-20.996,-41.504,229.980
1741685368.316,-1000.000,-38.574,-46.875,-967.773
1741685368.320,454.102,-15.137,-52.246,300.781
1741685368.324,319.824,-27.832,-54.688,184.570
1741685368.328,-1000.000,-38.574,-60.059,-975.098
1741685368.332,638.672,-17.090,-60.547,318.359
1741685368.289,799.316,-15.625,-36.133,608.887
1741685368.293,-1000.000,-45.410,-39.062,-829.102
1741685368.297,-11.719,-16.602,-36.621,46.875
1741685368.301,602.539,0.977,-34.668,644.531
1741685368.305,-1000.000,-20.996,-35.645,-920.898
1741685368.309,165.039,-5.859,-41.016,38.086
1741685368.313,439.453,-20.996,-41.504,229.980
1741685368.316,-1000.000,-38.574,-46.875,-967.773
1741685368.320,454.102,-15.137,-52.246,300.781
1741685368.324,319.824,-27.832,-54.688,184.570
1741685368.328,-1000.000,-38.574,-60.059,-975.098
1741685368.332,638.672,-17.090,-60.547,318.359
1741685368.334,225.098,-28.320,-63.965,70.801
1741685368.338,-947.754,-24.414,-61.035,-781.250
1741685368.342,876.953,-1.953,-55.664,538.574
1741685368.346,86.426,-27.832,-57.129,-98.145
1741685368.350,-792.969,-28.320,-59.570,-814.941
1741685368.354,999.512,-7.324,-58.594,601.562
1741685368.358,-115.723,-29.297,-55.664,-184.570
1741685368.361,-505.859,-22.949,-52.246,-517.578
1741685368.365,996.094,-9.277,-48.828,585.938
1741685368.369,-638.184,-36.621,-48.828,-661.621
1741685368.373,-294.434,-20.508,-50.781,-322.754
1741685368.377,975.098,-5.371,-40.039,855.957
1741685368.334,225.098,-28.320,-63.965,70.801
1741685368.338,-947.754,-24.414,-61.035,-781.250
1741685368.342,876.953,-1.953,-55.664,538.574
1741685368.346,86.426,-27.832,-57.129,-98.145
1741685368.350,-792.969,-28.320,-59.570,-814.941
1741685368.354,999.512,-7.324,-58.594,601.562
1741685368.358,-115.723,-29.297,-55.664,-184.570
1741685368.361,-505.859,-22.949,-52.246,-517.578
1741685368.365,996.094,-9.277,-48.828,585.938
1741685368.369,-638.184,-36.621,-48.828,-661.621
1741685368.373,-294.434,-20.508,-50.781,-322.754
1741685368.377,975.098,-5.371,-40.039,855.957
1741685368.394,-855.469,-35.156,-43.457,-622.070
1741685368.398,-173.828,-27.344,-52.246,-238.281
1741685368.402,738.281,-26.855,-49.805,503.906
1741685368.406,-1000.000,-47.852,-51.758,-764.648
1741685368.410,70.801,-29.785,-50.781,153.809
1741685368.414,548.340,-34.668,-43.945,500.488
1741685368.418,-1000.000,-45.410,-42.480,-846.680
1741685368.421,334.961,-15.625,-48.340,173.828
1741685368.425,378.418,-26.855,-57.617,160.645
1741685368.429,-1000.000,-50.781,-55.664,-942.383
1741685368.433,521.973,-37.109,-48.828,348.145
1741685368.437,291.992,-42.969,-44.434,132.812
1741685368.394,-855.469,-35.156,-43.457,-622.070
1741685368.398,-173.828,-27.344,-52.246,-238.281
1741685368.402,738.281,-26.855,-49.805,503.906
1741685368.406,-1000.000,-47.852,-51.758,-764.648
1741685368.410,70.801,-29.785,-50.781,153.809
1741685368.414,548.340,-34.668,-43.945,500.488
1741685368.418,-1000.000,-45.410,-42.480,-846.680
1741685368.421,334.961,-15.625,-48.340,173.828
1741685368.425,378.418,-26.855,-57.617,160.645
1741685368.429,-1000.000,-50.781,-55.664,-942.383
1741685368.433,521.973,-37.109,-48.828,348.145
1741685368.437,291.992,-42.969,-44.434,132.812
1741685368.439,-1000.000,-57.129,-52.246,-969.727
1741685368.443,688.477,-38.574,-54.199,375.000
1741685368.447,195.312,-49.316,-56.152,69.336
1741685368.451,-865.234,-58.594,-55.176,-737.793
1741685368.455,958.496,-42.480,-48.828,558.105
1741685368.459,2.441,-44.434,-54.688,-206.543
1741685368.463,-687.500,-29.297,-56.152,-768.066
1741685368.466,999.512,-14.648,-47.852,649.414
1741685368.470,-188.965,-39.062,-56.152,-295.898
1741685368.474,-570.312,-37.598,-60.547,-685.059
1741685368.478,999.512,-23.926,-45.898,650.391
1741685368.482,-367.676,-41.016,-46.387,-451.660
1741685368.439,-1000.000,-57.129,-52.246,-969.727
1741685368.443,688.477,-38.574,-54.199,375.000
1741685368.447,195.312,-49.316,-56.152,69.336
1741685368.451,-865.234,-58.594,-55.176,-737.793
1741685368.455,958.496,-42.480,-48.828,558.105
1741685368.459,2.441,-44.434,-54.688,-206.543
1741685368.463,-687.500,-29.297,-56.152,-768.066
1741685368.466,999.512,-14.648,-47.852,649.414
1741685368.470,-188.965,-39.062,-56.152,-295.898
1741685368.474,-570.312,-37.598,-60.547,-685.059
1741685368.478,999.512,-23.926,-45.898,650.391
1741685368.482,-367.676,-41.016,-46.387,-451.660
1741685368.484,-318.359,-26.855,-45.898,-385.742
1741685368.488,894.531,-23.926,-49.805,650.391
1741685368.492,-898.926,-47.852,-55.176,-671.875
1741685368.496,-49.805,-25.391,-48.340,-104.004
1741685368.500,537.598,-25.879,-47.852,321.777
1741685368.504,-1000.000,-31.738,-49.805,-770.508
1741685368.508,449.219,-14.648,-45.410,316.406
1741685368.511,269.531,-36.133,-44.434,82.031
1741685368.515,-1000.000,-41.992,-58.105,-943.359
1741685368.519,751.953,-24.902,-60.547,317.871
1741685368.523,213.867,-36.133,-59.082,42.480
1741685368.527,-952.637,-35.156,-55.664,-686.523
1741685368.484,-318.359,-26.855,-45.898,-385.742
1741685368.488,894.531,-23.926,-49.805,650.391
1741685368.492,-898.926,-47.852,-55.176,-671.875
1741685368.496,-49.805,-25.391,-48.340,-104.004
1741685368.500,537.598,-25.879,-47.852,321.777
1741685368.504,-1000.000,-31.738,-49.805,-770.508
1741685368.508,449.219,-14.648,-45.410,316.406
1741685368.511,269.531,-36.133,-44.434,82.031
1741685368.515,-1000.000,-41.992,-58.105,-943.359
1741685368.519,751.953,-24.902,-60.547,317.871
1741685368.523,213.867,-36.133,-59.082,42.480
1741685368.527,-952.637,-35.156,-55.664,-686.523
1741685368.529,867.676,-13.184,-45.898,518.555
1741685368.533,119.141,-36.621,-47.852,-118.652
1741685368.537,-874.512,-47.363,-48.340,-890.137
1741685368.541,984.375,-20.996,-46.875,512.695
1741685368.545,72.266,-30.762,-45.410,-103.027
1741685368.549,-781.738,-43.457,-49.316,-742.188
1741685368.553,999.512,-29.297,-46.387,547.852
1741685368.556,-84.473,-42.969,-40.527,-292.969
1741685368.560,-693.848,-52.734,-47.363,-773.926
1741685368.564,999.512,-35.156,-47.363,582.520
1741685368.568,-196.289,-45.898,-38.574,-315.430
1741685368.572,-489.258,-36.621,-39.062,-557.129
1741685368.529,867.676,-13.184,-45.898,518.555
1741685368.533,119.141,-36.621,-47.852,-118.652
1741685368.537,-874.512,-47.363,-48.340,-890.137
1741685368.541,984.375,-20.996,-46.875,512.695
1741685368.545,72.266,-30.762,-45.410,-103.027
1741685368.549,-781.738,-43.457,-49.316,-742.188
1741685368.553,999.512,-29.297,-46.387,547.852
1741685368.556,-84.473,-42.969,-40.527,-292.969
1741685368.560,-693.848,-52.734,-47.363,-773.926
1741685368.564,999.512,-35.156,-47.363,582.520
1741685368.568,-196.289,-45.898,-38.574,-315.430
1741685368.572,-489.258,-36.621,-39.062,-557.129
1741685368.575,999.512,-14.648,-31.738,583.008
1741685368.579,-560.547,-25.879,-32.715,-598.145
1741685368.583,-290.039,-14.160,-37.109,-354.004
1741685368.587,948.242,-11.719,-40.527,653.809
1741685368.591,-875.977,-40.039,-38.086,-741.211
1741685368.595,-123.535,-18.555,-25.879,-259.277
1741685368.599,672.852,-17.578,-33.691,334.961
1741685368.602,-1000.000,-43.945,-41.992,-919.434
1741685368.606,97.656,-24.414,-41.016,-6.836
1741685368.610,484.375,-28.809,-39.062,231.445
1741685368.614,-1000.000,-42.969,-39.551,-1000.000
1741685368.618,279.785,-20.996,-33.203,35.156
1741685368.575,999.512,-14.648,-31.738,583.008
1741685368.579,-560.547,-25.879,-32.715,-598.145
1741685368.583,-290.039,-14.160,-37.109,-354.004
1741685368.587,948.242,-11.719,-40.527,653.809
1741685368.591,-875.977,-40.039,-38.086,-741.211
1741685368.595,-123.535,-18.555,-25.879,-259.277
1741685368.599,672.852,-17.578,-33.691,334.961
1741685368.602,-1000.000,-43.945,-41.992,-919.434
1741685368.606,97.656,-24.414,-41.016,-6.836
1741685368.610,484.375,-28.809,-39.062,231.445
1741685368.614,-1000.000,-42.969,-39.551,-1000.000
1741685368.618,279.785,-20.996,-33.203,35.156
1741685368.619,371.582,-39.062,-28.809,110.352
1741685368.623,-1000.000,-49.805,-32.715,-984.863
1741685368.627,576.172,-19.043,-28.809,232.910
1741685368.631,209.473,-40.039,-32.715,-78.125
1741685368.635,-933.105,-47.852,-41.992,-944.336
1741685368.639,916.504,-14.160,-37.598,464.355
1741685368.643,84.961,-33.691,-31.738,-108.887
1741685368.646,-740.234,-35.645,-34.668,-805.664
1741685368.650,956.543,-23.438,-35.156,335.449
1741685368.654,-361.816,-53.711,-33.691,-561.035
1741685368.658,-326.172,-41.992,-35.156,-397.461
1741685368.662,893.066,-35.645,-35.645,575.195
1741685368.664,-912.598,-57.129,-41.504,-744.141
1741685368.668,-106.445,-39.062,-41.504,-212.891
1741685368.672,703.613,-36.621,-31.250,381.348
1741685368.676,-1000.000,-51.270,-38.086,-827.637
1741685368.680,105.957,-30.273,-39.551,85.449
1741685368.684,516.113,-26.855,-30.273,316.895
1741685368.688,-1000.000,-45.898,-42.969,-1000.000
1741685368.691,187.988,-27.344,-45.410,-28.320
1741685368.695,597.168,-23.926,-36.133,291.016
1741685368.699,-1000.000,-41.504,-39.551,-941.406
1741685368.703,180.664,-21.973,-36.133,61.523
1741685368.707,441.895,-24.902,-33.691,228.027
1741685368.664,-912.598,-57.129,-41.504,-744.141
1741685368.668,-106.445,-39.062,-41.504,-212.891
1741685368.672,703.613,-36.621,-31.250,381.348
1741685368.676,-1000.000,-51.270,-38.086,-827.637
1741685368.680,105.957,-30.273,-39.551,85.449
1741685368.684,516.113,-26.855,-30.273,316.895
1741685368.688,-1000.000,-45.898,-42.969,-1000.000
1741685368.691,187.988,-27.344,-45.410,-28.320
1741685368.695,597.168,-23.926,-36.133,291.016
1741685368.699,-1000.000,-41.504,-39.551,-941.406
1741685368.703,180.664,-21.973,-36.133,61.523
1741685368.707,441.895,-24.902,-33.691,228.027
1741685368.709,-1000.000,-41.504,-33.691,-1000.000
1741685368.713,430.664,-25.879,-26.855,219.238
1741685368.717,334.961,-33.203,-20.020,161.621
1741685368.721,-1000.000,-37.109,-25.391,-933.594
1741685368.725,664.551,-20.020,-35.156,297.363
1741685368.729,171.875,-36.621,-40.527,-101.562
1741685368.733,-845.703,-39.551,-42.969,-856.934
1741685368.736,971.680,-14.160,-37.598,536.133
1741685368.740,-58.105,-38.574,-43.945,-211.914
1741685368.744,-607.910,-41.016,-45.898,-706.055
1741685368.748,999.512,-16.602,-40.039,583.984
1741685368.752,-295.898,-34.668,-41.992,-435.547
1741685368.709,-1000.000,-41.504,-33.691,-1000.000
1741685368.713,430.664,-25.879,-26.855,219.238
1741685368.717,334.961,-33.203,-20.020,161.621
1741685368.721,-1000.000,-37.109,-25.391,-933.594
1741685368.725,664.551,-20.020,-35.156,297.363
1741685368.729,171.875,-36.621,-40.527,-101.562
1741685368.733,-845.703,-39.551,-42.969,-856.934
1741685368.736,971.680,-14.160,-37.598,536.133
1741685368.740,-58.105,-38.574,-43.945,-211.914
1741685368.744,-607.910,-41.016,-45.898,-706.055
1741685368.748,999.512,-16.602,-40.039,583.984
1741685368.752,-295.898,-34.668,-41.992,-435.547
1741685368.709,-1000.000,-41.504,-33.691,-1000.000
1741685368.713,430.664,-25.879,-26.855,219.238
1741685368.717,334.961,-33.203,-20.020,161.621
1741685368.721,-1000.000,-37.109,-25.391,-933.594
1741685368.725,664.551,-20.020,-35.156,297.363
1741685368.729,171.875,-36.621,-40.527,-101.562
1741685368.733,-845.703,-39.551,-42.969,-856.934
1741685368.736,971.680,-14.160,-37.598,536.133
1741685368.740,-58.105,-38.574,-43.945,-211.914
1741685368.744,-607.910,-41.016,-45.898,-706.055
1741685368.748,999.512,-16.602,-40.039,583.984
1741685368.752,-295.898,-34.668,-41.992,-435.547
1741685368.814,932.129,-25.391,-46.875,496.582
1741685368.818,106.445,-38.574,-41.992,-162.109
1741685368.822,-894.531,-41.016,-46.387,-908.203
1741685368.826,974.609,-22.461,-47.852,491.699
1741685368.830,23.926,-42.480,-39.551,-159.668
1741685368.834,-601.074,-37.598,-38.574,-678.711
1741685368.838,999.512,-21.484,-41.992,453.613
1741685368.841,-410.156,-47.852,-41.504,-570.312
1741685368.845,-377.930,-39.551,-38.086,-456.543
1741685368.849,958.008,-25.879,-33.691,616.699
1741685368.853,-818.359,-40.039,-38.086,-697.754
1741685368.857,-217.285,-15.137,-38.574,-368.164
1741685368.814,932.129,-25.391,-46.875,496.582
1741685368.818,106.445,-38.574,-41.992,-162.109
1741685368.822,-894.531,-41.016,-46.387,-908.203
1741685368.826,974.609,-22.461,-47.852,491.699
1741685368.830,23.926,-42.480,-39.551,-159.668
1741685368.834,-601.074,-37.598,-38.574,-678.711
1741685368.838,999.512,-21.484,-41.992,453.613
1741685368.841,-410.156,-47.852,-41.504,-570.312
1741685368.845,-377.930,-39.551,-38.086,-456.543
1741685368.849,958.008,-25.879,-33.691,616.699
1741685368.853,-818.359,-40.039,-38.086,-697.754
1741685368.857,-217.285,-15.137,-38.574,-368.164
1741685368.859,844.238,-11.230,-30.762,393.555
1741685368.863,-979.004,-42.969,-41.504,-856.445
1741685368.867,-30.273,-25.391,-49.316,-60.547
1741685368.871,564.941,-22.949,-41.016,393.066
1741685368.875,-1000.000,-45.410,-44.922,-999.023
1741685368.879,128.418,-24.414,-42.969,-26.367
1741685368.883,513.184,-41.992,-37.109,279.785
1741685368.886,-1000.000,-60.059,-41.504,-920.410
1741685368.890,382.324,-26.367,-46.875,155.273
1741685368.894,276.855,-38.574,-52.734,7.812
1741685368.898,-997.559,-40.039,-51.270,-942.871
1741685368.902,810.059,-13.184,-43.945,393.066
1741685368.859,844.238,-11.230,-30.762,393.555
1741685368.863,-979.004,-42.969,-41.504,-856.445
1741685368.867,-30.273,-25.391,-49.316,-60.547
1741685368.871,564.941,-22.949,-41.016,393.066
1741685368.875,-1000.000,-45.410,-44.922,-999.023
1741685368.879,128.418,-24.414,-42.969,-26.367
1741685368.883,513.184,-41.992,-37.109,279.785
1741685368.886,-1000.000,-60.059,-41.504,-920.410
1741685368.890,382.324,-26.367,-46.875,155.273
1741685368.894,276.855,-38.574,-52.734,7.812
1741685368.898,-997.559,-40.039,-51.270,-942.871
1741685368.902,810.059,-13.184,-43.945,393.066
1741685368.904,113.281,-31.250,-44.434,-110.840
1741685368.908,-749.512,-35.645,-41.992,-761.719
1741685368.912,999.512,-20.020,-32.715,522.461
1741685368.916,-212.891,-34.668,-37.598,-402.832
1741685368.920,-476.562,-26.367,-33.203,-567.383
1741685368.924,999.512,-23.926,-28.320,646.484
1741685368.928,-650.391,-46.875,-35.156,-523.926
1741685368.931,-157.227,-24.414,-37.109,-147.461
1741685368.935,550.293,-39.551,-42.480,337.402
1741685368.939,-1000.000,-69.336,-45.410,-941.895
1741685368.943,317.383,-43.945,-44.922,239.258
1741685368.947,331.543,-52.734,-45.410,264.160
1741685368.904,113.281,-31.250,-44.434,-110.840
1741685368.908,-749.512,-35.645,-41.992,-761.719
1741685368.912,999.512,-20.020,-32.715,522.461
1741685368.916,-212.891,-34.668,-37.598,-402.832
1741685368.920,-476.562,-26.367,-33.203,-567.383
1741685368.924,999.512,-23.926,-28.320,646.484
1741685368.928,-650.391,-46.875,-35.156,-523.926
1741685368.931,-157.227,-24.414,-37.109,-147.461
1741685368.935,550.293,-39.551,-42.480,337.402
1741685368.939,-1000.000,-69.336,-45.410,-941.895
1741685368.943,317.383,-43.945,-44.922,239.258
1741685368.947,331.543,-52.734,-45.410,264.160
1741685368.949,-1000.000,-55.664,-39.551,-856.934
1741685368.953,707.520,-30.273,-29.297,292.480
1741685368.957,103.516,-43.457,-22.949,-134.277
1741685368.961,-688.477,-46.875,-24.902,-586.426
1741685368.965,999.512,-30.762,-27.832,582.031
1741685368.969,-219.238,-43.457,-30.762,-336.426
1741685368.973,-517.090,-36.133,-34.180,-570.801
1741685368.976,999.512,-28.809,-34.668,511.230
1741685368.980,-503.906,-47.852,-33.203,-413.086
1741685368.984,-363.281,-32.715,-35.156,-269.531
1741685368.988,990.234,-27.344,-36.133,552.246
1741685368.992,-776.367,-51.758,-37.598,-678.223
1741685368.949,-1000.000,-55.664,-39.551,-856.934
1741685368.953,707.520,-30.273,-29.297,292.480
1741685368.957,103.516,-43.457,-22.949,-134.277
1741685368.961,-688.477,-46.875,-24.902,-586.426
1741685368.965,999.512,-30.762,-27.832,582.031
1741685368.969,-219.238,-43.457,-30.762,-336.426
1741685368.973,-517.090,-36.133,-34.180,-570.801
1741685368.976,999.512,-28.809,-34.668,511.230
1741685368.980,-503.906,-47.852,-33.203,-413.086
1741685368.984,-363.281,-32.715,-35.156,-269.531
1741685368.988,990.234,-27.344,-36.133,552.246
1741685368.992,-776.367,-51.758,-37.598,-678.223
1741685368.994,-201.172,-37.598,-37.598,-177.246
1741685368.998,791.504,-32.715,-36.621,655.762
1741685369.002,-1000.000,-51.270,-36.133,-665.527
1741685369.006,34.180,-33.203,-37.109,78.613
1741685369.010,460.938,-38.086,-37.109,340.332
1741685369.014,-1000.000,-44.434,-30.273,-784.668
1741685369.018,576.172,-18.066,-25.391,418.457
1741685369.021,244.629,-36.133,-26.367,107.910
1741685369.025,-1000.000,-45.898,-24.414,-889.648
1741685369.029,782.227,-19.531,-25.879,359.863
1741685369.033,-3.906,-33.691,-33.203,-247.559
1741685369.037,-473.633,-29.785,-29.297,-499.023
1741685369.039,986.816,-27.832,-34.668,578.125
1741685369.043,-664.062,-51.758,-43.457,-580.566
1741685369.047,-211.914,-39.062,-38.574,-258.789
1741685369.051,730.469,-40.527,-34.668,461.914
1741685369.055,-1000.000,-57.129,-34.180,-813.965
1741685369.059,103.027,-31.738,-32.715,108.887
1741685369.063,506.836,-35.645,-33.691,387.207
1741685369.066,-1000.000,-55.664,-38.086,-1000.000
1741685369.070,227.539,-30.762,-36.133,34.180
1741685369.074,368.652,-39.551,-37.598,128.418
1741685369.078,-975.586,-46.875,-36.133,-814.941
1741685369.082,747.070,-20.508,-34.180,416.504
1741685369.039,986.816,-27.832,-34.668,578.125
1741685369.043,-664.062,-51.758,-43.457,-580.566
1741685369.047,-211.914,-39.062,-38.574,-258.789
1741685369.051,730.469,-40.527,-34.668,461.914
1741685369.055,-1000.000,-57.129,-34.180,-813.965
1741685369.059,103.027,-31.738,-32.715,108.887
1741685369.063,506.836,-35.645,-33.691,387.207
1741685369.066,-1000.000,-55.664,-38.086,-1000.000
1741685369.070,227.539,-30.762,-36.133,34.180
1741685369.074,368.652,-39.551,-37.598,128.418
1741685369.078,-975.586,-46.875,-36.133,-814.941
1741685369.082,747.070,-20.508,-34.180,416.504
1741685369.085,110.840,-38.086,-36.621,-125.000
1741685369.089,-702.148,-40.039,-41.016,-761.230
1741685369.093,999.512,-24.414,-42.480,529.297
1741685369.097,-183.594,-43.945,-40.527,-360.840
1741685369.101,-425.781,-31.250,-33.203,-454.102
1741685369.105,987.305,-19.531,-29.297,664.062
1741685369.109,-725.098,-41.992,-36.133,-602.539
1741685369.112,-177.734,-27.832,-38.574,-185.059
1741685369.116,674.805,-30.762,-39.551,509.277
1741685369.120,-1000.000,-44.922,-38.086,-809.570
1741685369.124,133.301,-8.789,-35.156,109.863
1741685369.128,375.000,-10.254,-39.551,230.957
1741685369.085,110.840,-38.086,-36.621,-125.000
1741685369.089,-702.148,-40.039,-41.016,-761.230
1741685369.093,999.512,-24.414,-42.480,529.297
1741685369.097,-183.594,-43.945,-40.527,-360.840
1741685369.101,-425.781,-31.250,-33.203,-454.102
1741685369.105,987.305,-19.531,-29.297,664.062
1741685369.109,-725.098,-41.992,-36.133,-602.539
1741685369.112,-177.734,-27.832,-38.574,-185.059
1741685369.116,674.805,-30.762,-39.551,509.277
1741685369.120,-1000.000,-44.922,-38.086,-809.570
1741685369.124,133.301,-8.789,-35.156,109.863
1741685369.128,375.000,-10.254,-39.551,230.957
1741685369.129,-1000.000,-25.879,-47.363,-860.840
1741685369.133,695.801,-3.906,-45.898,436.523
1741685369.137,112.305,-27.344,-41.504,-7.324
1741685369.141,-649.902,-33.203,-33.203,-605.957
1741685369.145,994.141,-26.855,-34.180,598.145
1741685369.149,-443.848,-57.617,-41.504,-435.059
1741685369.153,-285.645,-53.711,-46.387,-310.059
1741685369.156,847.656,-49.805,-50.781,572.266
1741685369.160,-965.332,-62.988,-47.852,-593.262
1741685369.164,-33.203,-35.156,-47.363,-7.324
1741685369.168,548.340,-30.762,-41.992,300.781
1741685369.172,-1000.000,-47.852,-38.574,-725.586
1741685369.129,-1000.000,-25.879,-47.363,-860.840
1741685369.133,695.801,-3.906,-45.898,436.523
1741685369.137,112.305,-27.344,-41.504,-7.324
1741685369.141,-649.902,-33.203,-33.203,-605.957
1741685369.145,994.141,-26.855,-34.180,598.145
1741685369.149,-443.848,-57.617,-41.504,-435.059
1741685369.153,-285.645,-53.711,-46.387,-310.059
1741685369.156,847.656,-49.805,-50.781,572.266
1741685369.160,-965.332,-62.988,-47.852,-593.262
1741685369.164,-33.203,-35.156,-47.363,-7.324
1741685369.168,548.340,-30.762,-41.992,300.781
1741685369.172,-1000.000,-47.852,-38.574,-725.586
1741685369.190,412.598,-26.855,-41.016,334.961
1741685369.194,267.578,-33.691,-34.668,88.867
1741685369.198,-953.125,-35.156,-35.645,-863.770
1741685369.202,860.840,-11.230,-32.715,421.387
1741685369.206,63.965,-30.273,-29.297,-77.637
1741685369.210,-619.141,-30.273,-38.574,-503.906
1741685369.214,999.512,-9.766,-32.227,663.574
1741685369.217,-315.430,-30.273,-29.297,-396.973
1741685369.221,-462.402,-32.227,-37.598,-557.129
1741685369.225,999.512,-30.762,-41.016,591.797
1741685369.229,-579.102,-49.316,-37.109,-484.375
1741685369.233,-262.207,-25.391,-33.203,-203.125
1741685369.190,412.598,-26.855,-41.016,334.961
1741685369.194,267.578,-33.691,-34.668,88.867
1741685369.198,-953.125,-35.156,-35.645,-863.770
1741685369.202,860.840,-11.230,-32.715,421.387
1741685369.206,63.965,-30.273,-29.297,-77.637
1741685369.210,-619.141,-30.273,-38.574,-503.906
1741685369.214,999.512,-9.766,-32.227,663.574
1741685369.217,-315.430,-30.273,-29.297,-396.973
1741685369.221,-462.402,-32.227,-37.598,-557.129
1741685369.225,999.512,-30.762,-41.016,591.797
1741685369.229,-579.102,-49.316,-37.109,-484.375
1741685369.233,-262.207,-25.391,-33.203,-203.125
1741685369.236,845.215,-22.461,-33.203,615.723
1741685369.240,-987.305,-47.363,-35.645,-808.105
1741685369.244,-107.422,-24.414,-40.039,-104.492
1741685369.248,708.008,-22.949,-36.621,621.582
1741685369.252,-1000.000,-42.969,-37.109,-764.160
1741685369.256,104.004,-22.461,-38.574,76.172
1741685369.260,436.523,-32.227,-32.227,273.438
1741685369.263,-1000.000,-50.781,-37.598,-829.102
1741685369.267,566.895,-20.996,-35.645,435.059
1741685369.271,200.684,-36.133,-40.527,82.031
1741685369.275,-783.691,-49.316,-54.199,-769.043
1741685369.279,996.582,-29.297,-43.945,612.793
1741685369.236,845.215,-22.461,-33.203,615.723
1741685369.240,-987.305,-47.363,-35.645,-808.105
1741685369.244,-107.422,-24.414,-40.039,-104.492
1741685369.248,708.008,-22.949,-36.621,621.582
1741685369.252,-1000.000,-42.969,-37.109,-764.160
1741685369.256,104.004,-22.461,-38.574,76.172
1741685369.260,436.523,-32.227,-32.227,273.438
1741685369.263,-1000.000,-50.781,-37.598,-829.102
1741685369.267,566.895,-20.996,-35.645,435.059
1741685369.271,200.684,-36.133,-40.527,82.031
1741685369.275,-783.691,-49.316,-54.199,-769.043
1741685369.279,996.582,-29.297,-43.945,612.793
1741685369.279,-139.160,-45.410,-37.109,-230.957
1741685369.283,-511.719,-38.086,-39.551,-532.715
1741685369.287,999.512,-29.785,-39.062,708.984
1741685369.291,-397.461,-56.641,-37.109,-364.746
1741685369.295,-394.531,-31.250,-37.598,-370.117
1741685369.299,999.512,-4.395,-51.270,624.512
1741685369.303,-709.473,-21.973,-50.781,-519.531
1741685369.306,-120.117,-6.348,-44.434,-11.719
1741685369.310,567.871,-5.859,-42.480,469.727
1741685369.314,-1000.000,-16.113,-40.039,-838.379
1741685369.318,142.090,9.766,-43.945,177.734
1741685369.322,575.684,12.695,-43.457,512.207
1741685369.279,-139.160,-45.410,-37.109,-230.957
1741685369.283,-511.719,-38.086,-39.551,-532.715
1741685369.287,999.512,-29.785,-39.062,708.984
1741685369.291,-397.461,-56.641,-37.109,-364.746
1741685369.295,-394.531,-31.250,-37.598,-370.117
1741685369.299,999.512,-4.395,-51.270,624.512
1741685369.303,-709.473,-21.973,-50.781,-519.531
1741685369.306,-120.117,-6.348,-44.434,-11.719
1741685369.310,567.871,-5.859,-42.480,469.727
1741685369.314,-1000.000,-16.113,-40.039,-838.379
1741685369.318,142.090,9.766,-43.945,177.734
1741685369.322,575.684,12.695,-43.457,512.207
1741685369.324,-1000.000,-5.859,-51.270,-834.473
1741685369.328,232.910,11.719,-58.105,174.805
1741685369.332,400.879,6.836,-46.387,263.672
1741685369.336,-1000.000,-7.324,-54.688,-855.469
1741685369.340,591.309,8.301,-76.660,413.574
1741685369.344,239.746,-7.324,-77.637,153.809
1741685369.348,-927.246,-18.066,-75.195,-763.184
1741685369.351,835.449,-3.906,-65.918,375.977
1741685369.355,-91.309,-13.672,-59.570,-368.652
1741685369.359,-486.328,-8.301,-62.500,-548.340
1741685369.363,999.512,9.766,-59.082,681.152
1741685369.367,-468.262,-10.742,-52.246,-495.605
1741685369.324,-1000.000,-5.859,-51.270,-834.473
1741685369.328,232.910,11.719,-58.105,174.805
1741685369.332,400.879,6.836,-46.387,263.672
1741685369.336,-1000.000,-7.324,-54.688,-855.469
1741685369.340,591.309,8.301,-76.660,413.574
1741685369.344,239.746,-7.324,-77.637,153.809
1741685369.348,-927.246,-18.066,-75.195,-763.184
1741685369.351,835.449,-3.906,-65.918,375.977
1741685369.355,-91.309,-13.672,-59.570,-368.652
1741685369.359,-486.328,-8.301,-62.500,-548.340
1741685369.363,999.512,9.766,-59.082,681.152
1741685369.367,-468.262,-10.742,-52.246,-495.605
1741685369.370,-336.914,1.465,-46.875,-408.203
1741685369.374,994.629,10.254,-40.527,569.824
1741685369.378,-774.902,-11.719,-50.781,-674.805
1741685369.382,-238.281,-2.930,-47.363,-238.770
1741685369.386,941.406,1.953,-27.344,638.672
1741685369.390,-891.602,-15.625,-29.785,-687.500
1741685369.394,-153.320,-0.977,-31.738,-139.160
1741685369.397,687.988,-7.812,-35.156,512.207
1741685369.401,-1000.000,-34.668,-41.992,-842.773
1741685369.405,125.000,-8.301,-33.691,81.543
1741685369.409,463.379,-8.789,-36.621,331.543
1741685369.413,-1000.000,-26.855,-36.621,-938.965
1741685369.370,-336.914,1.465,-46.875,-408.203
1741685369.374,994.629,10.254,-40.527,569.824
1741685369.378,-774.902,-11.719,-50.781,-674.805
1741685369.382,-238.281,-2.930,-47.363,-238.770
1741685369.386,941.406,1.953,-27.344,638.672
1741685369.390,-891.602,-15.625,-29.785,-687.500
1741685369.394,-153.320,-0.977,-31.738,-139.160
1741685369.397,687.988,-7.812,-35.156,512.207
1741685369.401,-1000.000,-34.668,-41.992,-842.773
1741685369.405,125.000,-8.301,-33.691,81.543
1741685369.409,463.379,-8.789,-36.621,331.543
1741685369.413,-1000.000,-26.855,-36.621,-938.965
1741685369.414,438.965,-7.324,-34.180,261.719
1741685369.418,354.004,-14.160,-30.762,243.164
1741685369.422,-1000.000,-31.250,-32.227,-863.770
1741685369.426,645.996,-8.789,-35.156,363.281
1741685369.430,176.270,-21.973,-40.527,-18.555
1741685369.434,-806.152,-30.273,-46.875,-743.652
1741685369.438,966.797,-14.648,-41.016,577.148
1741685369.441,-193.848,-43.457,-39.062,-329.102
1741685369.445,-368.652,-26.367,-30.762,-429.199
1741685369.449,912.109,-10.742,-31.250,634.277
1741685369.453,-833.496,-24.902,-37.109,-647.461
1741685369.457,-62.012,-7.324,-32.715,11.230
1741685369.414,438.965,-7.324,-34.180,261.719
1741685369.418,354.004,-14.160,-30.762,243.164
1741685369.422,-1000.000,-31.250,-32.227,-863.770
1741685369.426,645.996,-8.789,-35.156,363.281
1741685369.430,176.270,-21.973,-40.527,-18.555
1741685369.434,-806.152,-30.273,-46.875,-743.652
1741685369.438,966.797,-14.648,-41.016,577.148
1741685369.441,-193.848,-43.457,-39.062,-329.102
1741685369.445,-368.652,-26.367,-30.762,-429.199
1741685369.449,912.109,-10.742,-31.250,634.277
1741685369.453,-833.496,-24.902,-37.109,-647.461
1741685369.457,-62.012,-7.324,-32.715,11.230
1741685369.460,574.219,-17.090,-36.621,520.020
1741685369.464,-1000.000,-41.016,-40.039,-857.910
1741685369.468,163.086,-25.391,-36.621,66.406
1741685369.472,388.184,-28.809,-38.574,201.660
1741685369.476,-1000.000,-37.109,-35.645,-733.887
1741685369.480,673.828,-19.043,-27.832,438.477
1741685369.484,151.855,-37.109,-33.203,-5.371
1741685369.487,-860.352,-39.551,-31.250,-751.953
1741685369.491,932.129,-13.184,-29.297,453.613
1741685369.495,-151.367,-30.762,-37.598,-341.309
1741685369.499,-408.691,-26.855,-31.250,-403.809
1741685369.503,999.512,-9.766,-27.832,715.332
1741685369.460,574.219,-17.090,-36.621,520.020
1741685369.464,-1000.000,-41.016,-40.039,-857.910
1741685369.468,163.086,-25.391,-36.621,66.406
1741685369.472,388.184,-28.809,-38.574,201.660
1741685369.476,-1000.000,-37.109,-35.645,-733.887
1741685369.480,673.828,-19.043,-27.832,438.477
1741685369.484,151.855,-37.109,-33.203,-5.371
1741685369.487,-860.352,-39.551,-31.250,-751.953
1741685369.491,932.129,-13.184,-29.297,453.613
1741685369.495,-151.367,-30.762,-37.598,-341.309
1741685369.499,-408.691,-26.855,-31.250,-403.809
1741685369.503,999.512,-9.766,-27.832,715.332
1741685369.504,-692.383,-30.762,-37.109,-614.258
1741685369.508,-255.859,-22.461,-37.109,-325.195
1741685369.512,941.406,-15.625,-31.738,619.141
1741685369.516,-884.766,-39.062,-37.109,-611.816
1741685369.520,-115.723,-23.438,-34.180,-22.949
1741685369.524,656.738,-26.367,-32.227,488.770
1741685369.528,-1000.000,-48.340,-38.574,-876.465
1741685369.531,93.262,-19.531,-35.645,88.867
1741685369.535,455.078,-30.273,-29.297,366.211
1741685369.539,-1000.000,-47.363,-33.203,-816.406
1741685369.543,452.148,-26.855,-36.621,270.996
1741685369.547,245.605,-37.598,-36.133,44.922
1741685369.504,-692.383,-30.762,-37.109,-614.258
1741685369.508,-255.859,-22.461,-37.109,-325.195
1741685369.512,941.406,-15.625,-31.738,619.141
1741685369.516,-884.766,-39.062,-37.109,-611.816
1741685369.520,-115.723,-23.438,-34.180,-22.949
1741685369.524,656.738,-26.367,-32.227,488.770
1741685369.528,-1000.000,-48.340,-38.574,-876.465
1741685369.531,93.262,-19.531,-35.645,88.867
1741685369.535,455.078,-30.273,-29.297,366.211
1741685369.539,-1000.000,-47.363,-33.203,-816.406
1741685369.543,452.148,-26.855,-36.621,270.996
1741685369.547,245.605,-37.598,-36.133,44.922
1741685369.564,-874.023,-37.109,-36.621,-723.633
1741685369.568,909.668,-19.531,-38.574,537.598
1741685369.572,-64.941,-33.203,-40.527,-196.777
1741685369.576,-505.371,-21.484,-39.551,-506.348
1741685369.580,999.512,-7.324,-39.062,585.938
1741685369.584,-557.617,-31.250,-40.527,-422.363
1741685369.588,-270.996,-21.973,-49.316,-165.039
1741685369.591,842.285,-13.672,-45.898,568.848
1741685369.595,-987.793,-31.250,-39.551,-766.113
1741685369.599,-106.934,-17.090,-40.527,-165.527
1741685369.603,694.824,-23.926,-36.621,458.496
1741685369.607,-1000.000,-26.855,-37.109,-703.125
1741685369.564,-874.023,-37.109,-36.621,-723.633
1741685369.568,909.668,-19.531,-38.574,537.598
1741685369.572,-64.941,-33.203,-40.527,-196.777
1741685369.576,-505.371,-21.484,-39.551,-506.348
1741685369.580,999.512,-7.324,-39.062,585.938
1741685369.584,-557.617,-31.250,-40.527,-422.363
1741685369.588,-270.996,-21.973,-49.316,-165.039
1741685369.591,842.285,-13.672,-45.898,568.848
1741685369.595,-987.793,-31.250,-39.551,-766.113
1741685369.599,-106.934,-17.090,-40.527,-165.527
1741685369.603,694.824,-23.926,-36.621,458.496
1741685369.607,-1000.000,-26.855,-37.109,-703.125
1741685369.609,244.629,2.441,-31.250,230.957
1741685369.613,346.680,-22.949,-30.273,199.707
1741685369.617,-1000.000,-37.109,-46.387,-913.086
1741685369.621,671.387,-10.742,-47.852,348.633
1741685369.625,170.410,-27.832,-46.875,48.828
1741685369.629,-765.137,-36.621,-44.434,-602.051
1741685369.633,982.910,-25.879,-38.574,550.781
1741685369.636,-223.633,-40.039,-38.574,-387.695
1741685369.640,-470.215,-27.832,-41.016,-550.781
1741685369.644,999.512,-12.695,-39.551,690.430
1741685369.648,-612.305,-32.715,-32.227,-474.121
1741685369.652,-204.102,-18.066,-28.809,-197.266
1741685369.609,244.629,2.441,-31.250,230.957
1741685369.613,346.680,-22.949,-30.273,199.707
1741685369.617,-1000.000,-37.109,-46.387,-913.086
1741685369.621,671.387,-10.742,-47.852,348.633
1741685369.625,170.410,-27.832,-46.875,48.828
1741685369.629,-765.137,-36.621,-44.434,-602.051
1741685369.633,982.910,-25.879,-38.574,550.781
1741685369.636,-223.633,-40.039,-38.574,-387.695
1741685369.640,-470.215,-27.832,-41.016,-550.781
1741685369.644,999.512,-12.695,-39.551,690.430
1741685369.648,-612.305,-32.715,-32.227,-474.121
1741685369.652,-204.102,-18.066,-28.809,-197.266
1741685369.655,678.711,-16.113,-29.297,440.430
1741685369.659,-1000.000,-36.133,-34.668,-771.973
1741685369.663,285.156,-17.578,-38.086,266.113
1741685369.667,328.613,-26.855,-31.738,279.297
1741685369.671,-1000.000,-32.227,-32.715,-839.844
1741685369.675,720.703,-4.395,-32.227,429.688
1741685369.679,77.637,-19.531,-29.297,-120.605
1741685369.682,-557.617,-24.414,-27.344,-586.914
1741685369.686,999.512,-5.371,-26.855,692.383
1741685369.690,-509.766,-41.504,-41.992,-499.512
1741685369.694,-288.086,-25.391,-22.949,-330.566
1741685369.698,864.746,18.066,-5.859,651.367
1741685369.655,678.711,-16.113,-29.297,440.430
1741685369.659,-1000.000,-36.133,-34.668,-771.973
1741685369.663,285.156,-17.578,-38.086,266.113
1741685369.667,328.613,-26.855,-31.738,279.297
1741685369.671,-1000.000,-32.227,-32.715,-839.844
1741685369.675,720.703,-4.395,-32.227,429.688
1741685369.679,77.637,-19.531,-29.297,-120.605
1741685369.682,-557.617,-24.414,-27.344,-586.914
1741685369.686,999.512,-5.371,-26.855,692.383
1741685369.690,-509.766,-41.504,-41.992,-499.512
1741685369.694,-288.086,-25.391,-22.949,-330.566
1741685369.698,864.746,18.066,-5.859,651.367
1741685369.655,678.711,-16.113,-29.297,440.430
1741685369.659,-1000.000,-36.133,-34.668,-771.973
1741685369.663,285.156,-17.578,-38.086,266.113
1741685369.667,328.613,-26.855,-31.738,279.297
1741685369.671,-1000.000,-32.227,-32.715,-839.844
1741685369.675,720.703,-4.395,-32.227,429.688
1741685369.679,77.637,-19.531,-29.297,-120.605
1741685369.682,-557.617,-24.414,-27.344,-586.914
1741685369.686,999.512,-5.371,-26.855,692.383
1741685369.690,-509.766,-41.504,-41.992,-499.512
1741685369.694,-288.086,-25.391,-22.949,-330.566
1741685369.698,864.746,18.066,-5.859,651.367
1741685369.700,-939.941,5.371,16.113,-625.000
1741685369.704,-9.277,44.922,24.414,56.641
1741685369.708,401.367,29.785,-20.020,244.629
1741685369.712,-1000.000,-10.742,2.441,-914.062
1741685369.716,480.957,47.852,49.805,279.297
1741685369.720,220.703,72.754,-2.441,9.277
1741685369.724,-939.941,117.676,-27.832,-859.863
1741685369.727,753.418,174.805,64.453,361.328
1741685369.731,-158.203,55.664,-61.035,-328.125
1741685369.735,-997.559,17.090,-155.762,-979.980
1741685369.739,932.129,202.148,72.266,673.828
1741685369.743,142.578,370.605,244.141,113.770
1741685369.744,-909.668,375.000,353.027,-851.562
1741685369.748,925.293,291.504,538.086,565.918
1741685369.752,31.250,498.047,661.133,-156.250
1741685369.756,-671.875,845.703,632.812,-694.336
1741685369.760,999.512,975.586,622.070,741.699
1741685369.764,-290.039,958.008,553.223,-279.785
1741685369.768,-559.570,966.309,434.082,-611.328
1741685369.771,974.121,967.285,398.926,611.328
1741685369.775,-633.301,967.285,343.262,-510.254
1741685369.779,-377.930,967.285,311.035,-285.645
1741685369.783,999.512,966.797,359.375,924.316
1741685369.787,-619.629,967.285,375.488,-365.234
1741685369.789,-329.590,966.797,348.145,-243.652
1741685369.793,999.512,967.285,344.727,736.816
1741685369.797,-761.719,965.332,325.684,-409.668
1741685369.801,-200.684,965.332,259.766,14.160
1741685369.805,768.066,967.285,201.660,698.730
1741685369.809,-1000.000,873.047,146.973,-620.117
1741685369.813,-123.535,749.023,80.078,40.039
1741685369.816,679.688,677.734,25.391,667.969
1741685369.820,-1000.000,628.906,18.066,-639.648
1741685369.824,78.125,645.508,9.277,275.391
1741685369.828,405.273,594.238,-69.336,416.992
1741685369.832,-1000.000,479.492,-145.508,-930.664
1741685369.789,-329.590,966.797,348.145,-243.652
1741685369.793,999.512,967.285,344.727,736.816
1741685369.797,-761.719,965.332,325.684,-409.668
1741685369.801,-200.684,965.332,259.766,14.160
1741685369.805,768.066,967.285,201.660,698.730
1741685369.809,-1000.000,873.047,146.973,-620.117
1741685369.813,-123.535,749.023,80.078,40.039
1741685369.816,679.688,677.734,25.391,667.969
1741685369.820,-1000.000,628.906,18.066,-639.648
1741685369.824,78.125,645.508,9.277,275.391
1741685369.828,405.273,594.238,-69.336,416.992
1741685369.832,-1000.000,479.492,-145.508,-930.664
1741685369.834,515.625,416.992,-187.012,443.848
1741685369.838,255.859,334.961,-219.238,264.160
1741685369.842,-917.969,296.875,-227.539,-756.348
1741685369.846,882.812,302.734,-225.586,537.109
1741685369.850,-27.832,235.840,-233.887,-207.031
1741685369.854,-442.383,240.234,-248.535,-473.633
1741685369.858,999.512,202.148,-241.211,757.812
1741685369.861,-581.543,-30.762,-235.352,-489.258
1741685369.865,-356.934,-182.617,-238.770,-364.258
1741685369.869,999.512,-248.535,-215.820,674.316
1741685369.873,-683.594,-285.156,-180.664,-463.379
1741685369.877,-77.148,-275.391,-197.266,90.332
1741685369.834,515.625,416.992,-187.012,443.848
1741685369.838,255.859,334.961,-219.238,264.160
1741685369.842,-917.969,296.875,-227.539,-756.348
1741685369.846,882.812,302.734,-225.586,537.109
1741685369.850,-27.832,235.840,-233.887,-207.031
1741685369.854,-442.383,240.234,-248.535,-473.633
1741685369.858,999.512,202.148,-241.211,757.812
1741685369.861,-581.543,-30.762,-235.352,-489.258
1741685369.865,-356.934,-182.617,-238.770,-364.258
1741685369.869,999.512,-248.535,-215.820,674.316
1741685369.873,-683.594,-285.156,-180.664,-463.379
1741685369.877,-77.148,-275.391,-197.266,90.332
1741685369.880,576.172,-292.480,-230.957,497.559
1741685369.884,-1000.000,-320.312,-250.488,-895.508
1741685369.888,118.652,-296.875,-271.484,102.051
1741685369.892,471.680,-309.570,-286.133,375.977
1741685369.896,-1000.000,-375.488,-338.379,-936.523
1741685369.900,308.105,-415.527,-379.883,143.555
1741685369.904,322.754,-448.730,-375.000,79.590
1741685369.907,-1000.000,-465.820,-368.164,-988.281
1741685369.911,654.297,-445.801,-365.234,298.340
1741685369.915,162.598,-469.238,-360.840,-79.590
1741685369.919,-765.625,-487.305,-354.004,-793.945
1741685369.923,981.934,-472.168,-342.285,422.852
1741685369.880,576.172,-292.480,-230.957,497.559
1741685369.884,-1000.000,-320.312,-250.488,-895.508
1741685369.888,118.652,-296.875,-271.484,102.051
1741685369.892,471.680,-309.570,-286.133,375.977
1741685369.896,-1000.000,-375.488,-338.379,-936.523
1741685369.900,308.105,-415.527,-379.883,143.555
1741685369.904,322.754,-448.730,-375.000,79.590
1741685369.907,-1000.000,-465.820,-368.164,-988.281
1741685369.911,654.297,-445.801,-365.234,298.340
1741685369.915,162.598,-469.238,-360.840,-79.590
1741685369.919,-765.625,-487.305,-354.004,-793.945
1741685369.923,981.934,-472.168,-342.285,422.852
1741685369.940,-212.891,-474.609,-328.125,-422.852
1741685369.944,-561.523,-473.145,-324.219,-677.734
1741685369.948,999.512,-463.867,-331.055,597.168
1741685369.952,-342.285,-494.141,-342.285,-467.285
1741685369.956,-432.129,-493.164,-342.285,-565.430
1741685369.960,999.512,-471.191,-330.566,527.344
1741685369.964,-696.289,-484.863,-327.148,-631.348
1741685369.967,-179.199,-473.633,-322.754,-224.609
1741685369.971,634.277,-466.797,-323.242,329.102
1741685369.975,-1000.000,-479.980,-318.359,-1000.000
1741685369.979,49.805,-470.215,-302.734,-122.559
1741685369.983,496.094,-465.820,-300.293,202.148
1741685369.940,-212.891,-474.609,-328.125,-422.852
1741685369.944,-561.523,-473.145,-324.219,-677.734
1741685369.948,999.512,-463.867,-331.055,597.168
1741685369.952,-342.285,-494.141,-342.285,-467.285
1741685369.956,-432.129,-493.164,-342.285,-565.430
1741685369.960,999.512,-471.191,-330.566,527.344
1741685369.964,-696.289,-484.863,-327.148,-631.348
1741685369.967,-179.199,-473.633,-322.754,-224.609
1741685369.971,634.277,-466.797,-323.242,329.102
1741685369.975,-1000.000,-479.980,-318.359,-1000.000
1741685369.979,49.805,-470.215,-302.734,-122.559
1741685369.983,496.094,-465.820,-300.293,202.148
1741685369.985,-1000.000,-470.215,-289.062,-915.527
1741685369.989,448.242,-446.289,-269.531,182.129
1741685369.993,297.852,-443.848,-261.719,40.527
1741685369.997,-1000.000,-437.988,-254.395,-935.547
1741685370.001,730.469,-407.715,-241.699,336.426
1741685370.005,158.203,-412.598,-241.211,-74.707
1741685370.009,-786.133,-406.738,-228.516,-775.879
1741685370.012,997.559,-385.254,-209.961,448.730
1741685370.016,-135.742,-400.391,-207.520,-371.094
1741685370.020,-661.621,-376.465,-208.496,-760.254
1741685370.024,999.512,-341.309,-198.730,532.227
1741685370.028,-206.055,-348.633,-195.801,-367.676
1741685369.985,-1000.000,-470.215,-289.062,-915.527
1741685369.989,448.242,-446.289,-269.531,182.129
1741685369.993,297.852,-443.848,-261.719,40.527
1741685369.997,-1000.000,-437.988,-254.395,-935.547
1741685370.001,730.469,-407.715,-241.699,336.426
1741685370.005,158.203,-412.598,-241.211,-74.707
1741685370.009,-786.133,-406.738,-228.516,-775.879
1741685370.012,997.559,-385.254,-209.961,448.730
1741685370.016,-135.742,-400.391,-207.520,-371.094
1741685370.020,-661.621,-376.465,-208.496,-760.254
1741685370.024,999.512,-341.309,-198.730,532.227
1741685370.028,-206.055,-348.633,-195.801,-367.676
1741685370.029,-610.840,-331.055,-204.590,-707.520
1741685370.033,999.512,-295.898,-206.055,419.434
1741685370.037,-422.852,-307.617,-198.730,-591.309
1741685370.041,-333.984,-272.949,-185.059,-425.293
1741685370.045,943.359,-230.957,-190.918,547.363
1741685370.049,-851.074,-252.441,-201.172,-660.156
1741685370.053,-142.090,-243.164,-196.289,-180.176
1741685370.056,635.742,-238.770,-185.059,299.316
1741685370.060,-1000.000,-247.559,-176.270,-847.656
1741685370.064,107.422,-230.957,-179.199,7.324
1741685370.068,529.785,-238.770,-182.129,244.629
1741685370.072,-1000.000,-244.629,-179.199,-889.648
1741685370.029,-610.840,-331.055,-204.590,-707.520
1741685370.033,999.512,-295.898,-206.055,419.434
1741685370.037,-422.852,-307.617,-198.730,-591.309
1741685370.041,-333.984,-272.949,-185.059,-425.293
1741685370.045,943.359,-230.957,-190.918,547.363
1741685370.049,-851.074,-252.441,-201.172,-660.156
1741685370.053,-142.090,-243.164,-196.289,-180.176
1741685370.056,635.742,-238.770,-185.059,299.316
1741685370.060,-1000.000,-247.559,-176.270,-847.656
1741685370.064,107.422,-230.957,-179.199,7.324
1741685370.068,529.785,-238.770,-182.129,244.629
1741685370.072,-1000.000,-244.629,-179.199,-889.648
1741685370.074,296.875,-222.656,-171.875,80.078
1741685370.078,367.676,-228.027,-168.457,94.238
1741685370.082,-1000.000,-231.934,-167.480,-871.582
1741685370.086,599.609,-217.773,-160.645,284.180
1741685370.090,202.148,-226.562,-154.297,-89.355
1741685370.094,-956.543,-252.441,-152.344,-909.180
1741685370.098,866.699,-292.969,-155.273,372.070
1741685370.101,51.758,-334.473,-150.879,-188.965
1741685370.105,-683.105,-322.266,-149.902,-697.266
1741685370.109,999.512,-279.785,-148.438,514.160
1741685370.113,-249.023,-293.457,-132.812,-445.312
1741685370.117,-439.941,-290.527,-116.211,-513.184
1741685370.074,296.875,-222.656,-171.875,80.078
1741685370.078,367.676,-228.027,-168.457,94.238
1741685370.082,-1000.000,-231.934,-167.480,-871.582
1741685370.086,599.609,-217.773,-160.645,284.180
1741685370.090,202.148,-226.562,-154.297,-89.355
1741685370.094,-956.543,-252.441,-152.344,-909.180
1741685370.098,866.699,-292.969,-155.273,372.070
1741685370.101,51.758,-334.473,-150.879,-188.965
1741685370.105,-683.105,-322.266,-149.902,-697.266
1741685370.109,999.512,-279.785,-148.438,514.160
1741685370.113,-249.023,-293.457,-132.812,-445.312
1741685370.117,-439.941,-290.527,-116.211,-513.184
1741685370.119,998.047,-269.043,-109.375,617.188
1741685370.123,-716.309,-269.531,-107.422,-655.273
1741685370.127,-175.293,-243.652,-103.516,-239.258
1741685370.131,609.863,-248.047,-102.539,381.836
1741685370.135,-1000.000,-253.906,-94.727,-819.824
1741685370.139,336.914,-220.703,-93.750,200.684
1741685370.143,354.004,-218.262,-94.238,185.059
1741685370.146,-1000.000,-224.121,-88.379,-823.242
1741685370.150,578.613,-204.102,-80.566,190.430
1741685370.154,135.742,-199.707,-73.730,-211.426
1741685370.158,-708.984,-200.195,-70.312,-655.273
1741685370.162,999.512,-183.105,-70.801,496.094
1741685370.165,-241.211,-192.871,-66.895,-358.887
1741685370.169,-621.582,-186.523,-59.082,-650.391
1741685370.173,999.512,-167.480,-59.570,447.266
1741685370.177,-328.613,-190.430,-59.082,-482.910
1741685370.181,-366.211,-176.758,-59.570,-406.738
1741685370.185,999.023,-148.438,-55.176,566.406
1741685370.189,-754.395,-166.016,-41.504,-651.855
1741685370.192,-304.688,-168.457,-60.059,-354.980
1741685370.196,967.773,-175.293,-71.777,563.965
1741685370.200,-827.148,-187.012,-56.152,-614.258
1741685370.204,-115.234,-158.691,-51.270,-64.453
1741685370.208,562.500,-153.809,-53.223,388.672
1741685370.165,-241.211,-192.871,-66.895,-358.887
1741685370.169,-621.582,-186.523,-59.082,-650.391
1741685370.173,999.512,-167.480,-59.570,447.266
1741685370.177,-328.613,-190.430,-59.082,-482.910
1741685370.181,-366.211,-176.758,-59.570,-406.738
1741685370.185,999.023,-148.438,-55.176,566.406
1741685370.189,-754.395,-166.016,-41.504,-651.855
1741685370.192,-304.688,-168.457,-60.059,-354.980
1741685370.196,967.773,-175.293,-71.777,563.965
1741685370.200,-827.148,-187.012,-56.152,-614.258
1741685370.204,-115.234,-158.691,-51.270,-64.453
1741685370.208,562.500,-153.809,-53.223,388.672
1741685370.210,-1000.000,-174.316,-59.570,-875.488
1741685370.214,287.598,-157.227,-62.012,146.973
1741685370.218,378.418,-157.227,-69.336,220.703
1741685370.222,-1000.000,-166.504,-78.613,-816.406
1741685370.226,552.734,-134.766,-73.242,293.457
1741685370.230,127.930,-142.578,-75.684,-130.859
1741685370.234,-623.535,-148.438,-77.148,-631.836
1741685370.237,999.512,-130.859,-72.266,574.707
1741685370.241,-405.273,-150.391,-70.801,-453.125
1741685370.245,-372.070,-136.230,-66.406,-479.980
1741685370.249,980.957,-117.188,-59.570,464.355
1741685370.253,-782.715,-130.371,-52.246,-625.488
1741685370.210,-1000.000,-174.316,-59.570,-875.488
1741685370.214,287.598,-157.227,-62.012,146.973
1741685370.218,378.418,-157.227,-69.336,220.703
1741685370.222,-1000.000,-166.504,-78.613,-816.406
1741685370.226,552.734,-134.766,-73.242,293.457
1741685370.230,127.930,-142.578,-75.684,-130.859
1741685370.234,-623.535,-148.438,-77.148,-631.836
1741685370.237,999.512,-130.859,-72.266,574.707
1741685370.241,-405.273,-150.391,-70.801,-453.125
1741685370.245,-372.070,-136.230,-66.406,-479.980
1741685370.249,980.957,-117.188,-59.570,464.355
1741685370.253,-782.715,-130.371,-52.246,-625.488
1741685370.210,-1000.000,-174.316,-59.570,-875.488
1741685370.214,287.598,-157.227,-62.012,146.973
1741685370.218,378.418,-157.227,-69.336,220.703
1741685370.222,-1000.000,-166.504,-78.613,-816.406
1741685370.226,552.734,-134.766,-73.242,293.457
1741685370.230,127.930,-142.578,-75.684,-130.859
1741685370.234,-623.535,-148.438,-77.148,-631.836
1741685370.237,999.512,-130.859,-72.266,574.707
1741685370.241,-405.273,-150.391,-70.801,-453.125
1741685370.245,-372.070,-136.230,-66.406,-479.980
1741685370.249,980.957,-117.188,-59.570,464.355
1741685370.253,-782.715,-130.371,-52.246,-625.488
1741685370.254,-136.230,-108.887,-46.875,-71.289
1741685370.258,651.855,-95.215,-34.180,435.059
1741685370.262,-1000.000,-107.910,-32.715,-820.801
1741685370.266,95.703,-84.961,-48.340,14.160
1741685370.270,478.516,-86.426,-42.480,260.254
1741685370.274,-1000.000,-102.539,-39.062,-770.996
1741685370.278,379.883,-83.008,-40.527,311.035
1741685370.281,310.059,-93.262,-35.156,113.281
1741685370.285,-1000.000,-106.445,-29.785,-965.332
1741685370.289,648.438,-83.008,-17.578,318.848
1741685370.293,212.402,-96.191,-23.438,41.992
1741685370.297,-938.965,-106.445,-68.848,-751.465
1741685370.254,-136.230,-108.887,-46.875,-71.289
1741685370.258,651.855,-95.215,-34.180,435.059
1741685370.262,-1000.000,-107.910,-32.715,-820.801
1741685370.266,95.703,-84.961,-48.340,14.160
1741685370.270,478.516,-86.426,-42.480,260.254
1741685370.274,-1000.000,-102.539,-39.062,-770.996
1741685370.278,379.883,-83.008,-40.527,311.035
1741685370.281,310.059,-93.262,-35.156,113.281
1741685370.285,-1000.000,-106.445,-29.785,-965.332
1741685370.289,648.438,-83.008,-17.578,318.848
1741685370.293,212.402,-96.191,-23.438,41.992
1741685370.297,-938.965,-106.445,-68.848,-751.465
1741685370.314,863.281,-89.844,-97.656,457.031
1741685370.318,-41.992,-102.051,-96.680,-295.410
1741685370.322,-566.895,-90.820,-93.262,-636.230
1741685370.326,999.512,-72.754,-92.773,660.156
1741685370.330,-459.473,-90.332,-91.309,-448.730
1741685370.334,-224.609,-72.754,-82.520,-248.535
1741685370.338,678.223,-77.637,-81.543,440.430
1741685370.341,-1000.000,-96.680,-88.379,-856.445
1741685370.345,193.359,-74.219,-86.426,162.598
1741685370.349,289.062,-99.609,-88.379,192.871
1741685370.353,-943.359,-110.352,-90.332,-819.336
1741685370.357,806.641,-74.219,-83.496,415.039
1741685370.314,863.281,-89.844,-97.656,457.031
1741685370.318,-41.992,-102.051,-96.680,-295.410
1741685370.322,-566.895,-90.820,-93.262,-636.230
1741685370.326,999.512,-72.754,-92.773,660.156
1741685370.330,-459.473,-90.332,-91.309,-448.730
1741685370.334,-224.609,-72.754,-82.520,-248.535
1741685370.338,678.223,-77.637,-81.543,440.430
1741685370.341,-1000.000,-96.680,-88.379,-856.445
1741685370.345,193.359,-74.219,-86.426,162.598
1741685370.349,289.062,-99.609,-88.379,192.871
1741685370.353,-943.359,-110.352,-90.332,-819.336
1741685370.357,806.641,-74.219,-83.496,415.039
1741685370.359,-59.570,-93.262,-74.219,-307.617
1741685370.363,-473.145,-90.820,-71.289,-522.461
1741685370.367,999.512,-72.266,-74.219,715.820
1741685370.371,-585.449,-94.727,-71.777,-513.184
1741685370.375,-273.438,-83.984,-66.895,-335.938
1741685370.379,864.746,-77.637,-70.312,509.277
1741685370.383,-957.520,-93.750,-70.801,-678.223
1741685370.386,-46.387,-77.637,-55.176,24.902
1741685370.390,544.922,-86.426,-55.664,377.930
1741685370.394,-1000.000,-99.121,-66.406,-874.023
1741685370.398,298.828,-79.102,-61.523,110.352
1741685370.402,318.848,-95.703,-59.082,102.051
1741685370.359,-59.570,-93.262,-74.219,-307.617
1741685370.363,-473.145,-90.820,-71.289,-522.461
1741685370.367,999.512,-72.266,-74.219,715.820
1741685370.371,-585.449,-94.727,-71.777,-513.184
1741685370.375,-273.438,-83.984,-66.895,-335.938
1741685370.379,864.746,-77.637,-70.312,509.277
1741685370.383,-957.520,-93.750,-70.801,-678.223
1741685370.386,-46.387,-77.637,-55.176,24.902
1741685370.390,544.922,-86.426,-55.664,377.930
1741685370.394,-1000.000,-99.121,-66.406,-874.023
1741685370.398,298.828,-79.102,-61.523,110.352
1741685370.402,318.848,-95.703,-59.082,102.051
1741685370.404,-1000.000,-98.145,-57.129,-790.039
1741685370.408,737.305,-76.172,-56.152,402.344
1741685370.412,87.402,-97.168,-60.547,-180.664
1741685370.416,-709.961,-102.539,-60.059,-755.371
1741685370.420,999.512,-79.590,-55.176,629.395
1741685370.424,-100.586,-98.633,-53.223,-261.719
1741685370.428,-441.895,-88.379,-44.922,-468.750
1741685370.431,998.047,-68.848,-39.062,703.613
1741685370.435,-676.270,-93.750,-44.922,-615.723
1741685370.439,-267.090,-83.008,-41.992,-288.574
1741685370.443,908.691,-76.660,-38.086,734.863
1741685370.447,-928.711,-90.332,-41.992,-644.043
1741685370.404,-1000.000,-98.145,-57.129,-790.039
1741685370.408,737.305,-76.172,-56.152,402.344
1741685370.412,87.402,-97.168,-60.547,-180.664
1741685370.416,-709.961,-102.539,-60.059,-755.371
1741685370.420,999.512,-79.590,-55.176,629.395
1741685370.424,-100.586,-98.633,-53.223,-261.719
1741685370.428,-441.895,-88.379,-44.922,-468.750
1741685370.431,998.047,-68.848,-39.062,703.613
1741685370.435,-676.270,-93.750,-44.922,-615.723
1741685370.439,-267.090,-83.008,-41.992,-288.574
1741685370.443,908.691,-76.660,-38.086,734.863
1741685370.447,-928.711,-90.332,-41.992,-644.043
1741685370.449,-59.082,-66.406,-37.598,20.020
1741685370.453,398.438,-76.172,-40.039,302.246
1741685370.457,-998.047,-87.891,-40.039,-846.680
1741685370.461,683.594,-59.570,-32.715,447.266
1741685370.465,153.320,-76.660,-32.227,49.805
1741685370.469,-730.957,-75.195,-37.598,-681.641
1741685370.473,999.512,-53.223,-37.109,493.164
1741685370.476,-228.516,-75.195,-31.738,-358.887
1741685370.480,-403.320,-69.824,-34.180,-374.512
1741685370.484,999.512,-59.570,-34.668,626.953
1741685370.488,-719.238,-81.055,-31.738,-507.812
1741685370.492,-245.117,-70.312,-32.227,-166.016
1741685370.449,-59.082,-66.406,-37.598,20.020
1741685370.453,398.438,-76.172,-40.039,302.246
1741685370.457,-998.047,-87.891,-40.039,-846.680
1741685370.461,683.594,-59.570,-32.715,447.266
1741685370.465,153.320,-76.660,-32.227,49.805
1741685370.469,-730.957,-75.195,-37.598,-681.641
1741685370.473,999.512,-53.223,-37.109,493.164
1741685370.476,-228.516,-75.195,-31.738,-358.887
1741685370.480,-403.320,-69.824,-34.180,-374.512
1741685370.484,999.512,-59.570,-34.668,626.953
1741685370.488,-719.238,-81.055,-31.738,-507.812
1741685370.492,-245.117,-70.312,-32.227,-166.016
1741685370.494,857.910,-66.406,-32.715,551.758
1741685370.498,-896.973,-77.637,-33.203,-653.320
1741685370.502,-11.230,-55.176,-30.762,66.895
1741685370.506,683.105,-47.363,-20.508,610.352
1741685370.510,-1000.000,-64.941,-30.762,-879.395
1741685370.514,-24.414,-53.223,-42.969,-41.016
1741685370.518,744.629,-52.246,-28.809,619.141
1741685370.521,-1000.000,-66.406,-28.320,-649.902
1741685370.525,71.777,-52.734,-32.715,95.215
1741685370.529,394.043,-60.059,-29.297,193.848
1741685370.533,-1000.000,-66.406,-23.926,-753.906
1741685370.537,668.457,-43.945,-23.926,464.844
1741685370.494,857.910,-66.406,-32.715,551.758
1741685370.498,-896.973,-77.637,-33.203,-653.320
1741685370.502,-11.230,-55.176,-30.762,66.895
1741685370.506,683.105,-47.363,-20.508,610.352
1741685370.510,-1000.000,-64.941,-30.762,-879.395
1741685370.514,-24.414,-53.223,-42.969,-41.016
1741685370.518,744.629,-52.246,-28.809,619.141
1741685370.521,-1000.000,-66.406,-28.320,-649.902
1741685370.525,71.777,-52.734,-32.715,95.215
1741685370.529,394.043,-60.059,-29.297,193.848
1741685370.533,-1000.000,-66.406,-23.926,-753.906
1741685370.537,668.457,-43.945,-23.926,464.844
1741685370.539,166.504,-50.293,-26.367,51.758
1741685370.543,-873.535,-51.758,-23.438,-707.031
1741685370.547,933.594,-36.621,-24.902,487.305
1741685370.551,-83.008,-49.316,-27.344,-292.969
1741685370.555,-485.840,-49.316,-26.855,-492.676
1741685370.559,999.512,-38.574,-27.832,653.809
1741685370.563,-544.922,-54.199,-33.691,-487.793
1741685370.566,-237.793,-51.270,-32.715,-307.129
1741685370.570,774.414,-51.758,-20.508,391.602
1741685370.574,-1000.000,-66.895,-22.949,-732.422
1741685370.578,11.230,-45.410,-28.320,81.543
1741685370.582,545.898,-42.969,-21.484,408.691
1741685370.539,166.504,-50.293,-26.367,51.758
1741685370.543,-873.535,-51.758,-23.438,-707.031
1741685370.547,933.594,-36.621,-24.902,487.305
1741685370.551,-83.008,-49.316,-27.344,-292.969
1741685370.555,-485.840,-49.316,-26.855,-492.676
1741685370.559,999.512,-38.574,-27.832,653.809
1741685370.563,-544.922,-54.199,-33.691,-487.793
1741685370.566,-237.793,-51.270,-32.715,-307.129
1741685370.570,774.414,-51.758,-20.508,391.602
1741685370.574,-1000.000,-66.895,-22.949,-732.422
1741685370.578,11.230,-45.410,-28.320,81.543
1741685370.582,545.898,-42.969,-21.484,408.691
1741685370.584,-1000.000,-60.059,-24.414,-850.586
1741685370.588,211.426,-45.898,-26.367,74.707
1741685370.592,466.797,-53.711,-24.902,264.160
1741685370.596,-1000.000,-61.035,-21.484,-671.387
1741685370.600,480.469,-40.527,-20.020,354.980
1741685370.604,229.004,-50.781,-22.949,48.340
1741685370.608,-846.680,-51.758,-29.297,-735.352
1741685370.611,963.379,-38.086,-24.902,548.828
1741685370.615,47.363,-66.406,-20.508,-90.332
1741685370.619,-817.871,-66.895,-29.297,-707.031
1741685370.623,999.512,-45.898,-35.645,560.547
1741685370.627,-120.605,-62.500,-30.762,-250.000
1741685370.584,-1000.000,-60.059,-24.414,-850.586
1741685370.588,211.426,-45.898,-26.367,74.707
1741685370.592,466.797,-53.711,-24.902,264.160
1741685370.596,-1000.000,-61.035,-21.484,-671.387
1741685370.600,480.469,-40.527,-20.020,354.980
1741685370.604,229.004,-50.781,-22.949,48.340
1741685370.608,-846.680,-51.758,-29.297,-735.352
1741685370.611,963.379,-38.086,-24.902,548.828
1741685370.615,47.363,-66.406,-20.508,-90.332
1741685370.619,-817.871,-66.895,-29.297,-707.031
1741685370.623,999.512,-45.898,-35.645,560.547
1741685370.627,-120.605,-62.500,-30.762,-250.000
1741685370.629,-479.980,-50.293,-23.926,-453.125
1741685370.633,999.512,-30.762,-21.973,664.551
1741685370.637,-651.855,-44.922,-22.949,-476.562
1741685370.641,-244.629,-32.227,-27.832,-200.195
1741685370.645,782.715,-34.180,-29.785,511.230
1741685370.649,-1000.000,-57.129,-31.738,-692.383
1741685370.653,15.625,-42.480,-36.621,107.910
1741685370.656,455.566,-47.852,-31.250,365.234
1741685370.660,-1000.000,-58.105,-31.250,-792.969
1741685370.664,420.898,-38.574,-38.086,212.402
1741685370.668,357.910,-39.551,-32.227,161.133
1741685370.672,-1000.000,-43.457,-26.855,-680.176
1741685370.629,-479.980,-50.293,-23.926,-453.125
1741685370.633,999.512,-30.762,-21.973,664.551
1741685370.637,-651.855,-44.922,-22.949,-476.562
1741685370.641,-244.629,-32.227,-27.832,-200.195
1741685370.645,782.715,-34.180,-29.785,511.230
1741685370.649,-1000.000,-57.129,-31.738,-692.383
1741685370.653,15.625,-42.480,-36.621,107.910
1741685370.656,455.566,-47.852,-31.250,365.234
1741685370.660,-1000.000,-58.105,-31.250,-792.969
1741685370.664,420.898,-38.574,-38.086,212.402
1741685370.668,357.910,-39.551,-32.227,161.133
1741685370.672,-1000.000,-43.457,-26.855,-680.176
1741685370.690,683.594,-26.367,-28.320,470.215
1741685370.694,168.457,-29.785,-25.879,72.754
1741685370.698,-899.902,-28.320,-24.902,-668.945
1741685370.702,951.660,-10.254,-23.926,562.012
1741685370.706,25.879,-24.414,-22.949,-40.039
1741685370.710,-587.402,-27.832,-25.879,-388.184
1741685370.714,999.512,-17.578,-36.133,733.887
1741685370.717,-457.520,-33.203,-43.945,-404.785
1741685370.721,-375.000,-20.020,-38.086,-350.586
1741685370.725,979.492,-10.254,-45.410,738.770
1741685370.729,-794.434,-21.484,-50.293,-490.234
1741685370.733,-126.953,-5.371,-42.969,19.531
1741685370.690,683.594,-26.367,-28.320,470.215
1741685370.694,168.457,-29.785,-25.879,72.754
1741685370.698,-899.902,-28.320,-24.902,-668.945
1741685370.702,951.660,-10.254,-23.926,562.012
1741685370.706,25.879,-24.414,-22.949,-40.039
1741685370.710,-587.402,-27.832,-25.879,-388.184
1741685370.714,999.512,-17.578,-36.133,733.887
1741685370.717,-457.520,-33.203,-43.945,-404.785
1741685370.721,-375.000,-20.020,-38.086,-350.586
1741685370.725,979.492,-10.254,-45.410,738.770
1741685370.729,-794.434,-21.484,-50.293,-490.234
1741685370.733,-126.953,-5.371,-42.969,19.531
1741685370.735,567.871,-2.441,-41.016,514.160
1741685370.739,-1000.000,-14.160,-41.016,-817.871
1741685370.743,191.895,-4.395,-35.645,256.348
1741685370.747,371.582,-15.625,-34.180,399.902
1741685370.751,-1000.000,-22.461,-37.598,-708.496
1741685370.755,665.527,-3.418,-39.062,457.520
1741685370.759,51.270,-20.508,-36.133,-75.684
1741685370.762,-610.840,-7.324,-35.645,-520.996
1741685370.766,999.512,20.508,-32.227,768.066
1741685370.770,-325.684,11.230,-26.855,-242.676
1741685370.774,-374.512,34.668,-30.762,-284.668
1741685370.778,936.523,41.992,-29.297,610.840
1741685370.735,567.871,-2.441,-41.016,514.160
1741685370.739,-1000.000,-14.160,-41.016,-817.871
1741685370.743,191.895,-4.395,-35.645,256.348
1741685370.747,371.582,-15.625,-34.180,399.902
1741685370.751,-1000.000,-22.461,-37.598,-708.496
1741685370.755,665.527,-3.418,-39.062,457.520
1741685370.759,51.270,-20.508,-36.133,-75.684
1741685370.762,-610.840,-7.324,-35.645,-520.996
1741685370.766,999.512,20.508,-32.227,768.066
1741685370.770,-325.684,11.230,-26.855,-242.676
1741685370.774,-374.512,34.668,-30.762,-284.668
1741685370.778,936.523,41.992,-29.297,610.840
1741685370.779,-809.082,17.578,-22.461,-524.414
1741685370.783,-96.680,29.785,-19.531,72.266
1741685370.787,639.648,27.344,-19.043,566.895
1741685370.791,-1000.000,11.230,-16.602,-647.461
1741685370.795,108.398,27.832,-11.719,180.664
1741685370.799,452.637,26.367,-3.418,320.801
1741685370.803,-1000.000,11.719,0.977,-635.254
1741685370.806,561.035,28.320,-9.277,474.609
1741685370.810,165.039,16.602,-18.555,4.883
1741685370.814,-846.680,14.648,-11.230,-762.695
1741685370.818,998.047,35.645,0.000,654.297
1741685370.822,-32.715,19.043,-1.953,-107.422
1741685370.779,-809.082,17.578,-22.461,-524.414
1741685370.783,-96.680,29.785,-19.531,72.266
1741685370.787,639.648,27.344,-19.043,566.895
1741685370.791,-1000.000,11.230,-16.602,-647.461
1741685370.795,108.398,27.832,-11.719,180.664
1741685370.799,452.637,26.367,-3.418,320.801
1741685370.803,-1000.000,11.719,0.977,-635.254
1741685370.806,561.035,28.320,-9.277,474.609
1741685370.810,165.039,16.602,-18.555,4.883
1741685370.814,-846.680,14.648,-11.230,-762.695
1741685370.818,998.047,35.645,0.000,654.297
1741685370.822,-32.715,19.043,-1.953,-107.422
1741685370.824,-494.141,24.414,3.418,-479.004
1741685370.828,999.512,40.527,9.766,675.781
1741685370.832,-577.148,20.508,3.418,-498.047
1741685370.836,-257.812,27.344,6.836,-199.219
1741685370.840,870.117,32.227,12.207,752.930
1741685370.844,-950.195,7.324,1.953,-544.922
1741685370.848,-22.949,50.781,31.738,173.828
1741685370.851,688.477,143.555,127.930,684.082
1741685370.855,-1000.000,185.547,184.082,-581.543
1741685370.859,346.680,208.496,191.895,416.992
1741685370.863,531.738,207.520,196.289,615.723
1741685370.867,-1000.000,187.012,185.547,-508.789
1741685370.824,-494.141,24.414,3.418,-479.004
1741685370.828,999.512,40.527,9.766,675.781
1741685370.832,-577.148,20.508,3.418,-498.047
1741685370.836,-257.812,27.344,6.836,-199.219
1741685370.840,870.117,32.227,12.207,752.930
1741685370.844,-950.195,7.324,1.953,-544.922
1741685370.848,-22.949,50.781,31.738,173.828
1741685370.851,688.477,143.555,127.930,684.082
1741685370.855,-1000.000,185.547,184.082,-581.543
1741685370.859,346.680,208.496,191.895,416.992
1741685370.863,531.738,207.520,196.289,615.723
1741685370.867,-1000.000,187.012,185.547,-508.789
1741685370.870,478.027,190.430,174.316,498.047
1741685370.874,208.496,172.363,164.551,209.473
1741685370.878,-709.961,165.039,157.715,-422.363
1741685370.882,999.512,176.270,153.809,868.652
1741685370.886,-110.840,141.602,139.648,-51.758
1741685370.890,-434.082,140.625,131.348,-279.785
1741685370.894,999.512,147.949,131.348,872.070
1741685370.897,-585.449,110.840,120.117,-317.871
1741685370.901,-203.613,104.980,109.375,42.480
1741685370.905,678.223,104.004,107.910,705.566
1741685370.909,-1000.000,96.680,100.586,-622.559
1741685370.913,153.320,110.352,98.633,287.598
1741685370.914,505.371,96.680,92.285,579.102
1741685370.918,-1000.000,74.707,80.078,-641.113
1741685370.922,395.508,82.520,83.496,481.934
1741685370.926,298.340,69.336,76.172,310.059
1741685370.930,-984.375,57.617,65.430,-738.281
1741685370.934,812.500,73.730,66.895,642.090
1741685370.938,170.410,51.270,51.758,241.699
1741685370.941,-916.016,35.645,43.457,-585.449
1741685370.945,895.508,49.316,51.758,657.715
1741685370.949,-64.453,26.855,45.898,-165.039
1741685370.953,-422.363,38.086,37.109,-335.449
1741685370.957,999.512,46.875,41.016,908.203
1741685370.914,505.371,96.680,92.285,579.102
1741685370.918,-1000.000,74.707,80.078,-641.113
1741685370.922,395.508,82.520,83.496,481.934
1741685370.926,298.340,69.336,76.172,310.059
1741685370.930,-984.375,57.617,65.430,-738.281
1741685370.934,812.500,73.730,66.895,642.090
1741685370.938,170.410,51.270,51.758,241.699
1741685370.941,-916.016,35.645,43.457,-585.449
1741685370.945,895.508,49.316,51.758,657.715
1741685370.949,-64.453,26.855,45.898,-165.039
1741685370.953,-422.363,38.086,37.109,-335.449
1741685370.957,999.512,46.875,41.016,908.203
1741685370.959,-623.535,16.602,39.062,-357.910
1741685370.963,-218.750,35.156,27.832,-77.148
1741685370.967,753.906,33.691,20.020,640.625
1741685370.971,-1000.000,13.672,9.766,-581.055
1741685370.975,77.637,25.879,9.766,272.461
1741685370.979,617.188,19.043,23.926,665.039
1741685370.983,-1000.000,7.324,19.043,-625.488
1741685370.986,206.543,24.414,14.648,266.602
1741685370.990,320.312,13.184,6.348,252.930
1741685370.994,-1000.000,0.977,-1.465,-643.066
1741685370.998,739.746,17.578,-0.977,619.141
1741685371.002,161.621,-6.348,-5.371,162.109
1741685370.959,-623.535,16.602,39.062,-357.910
1741685370.963,-218.750,35.156,27.832,-77.148
1741685370.967,753.906,33.691,20.020,640.625
1741685370.971,-1000.000,13.672,9.766,-581.055
1741685370.975,77.637,25.879,9.766,272.461
1741685370.979,617.188,19.043,23.926,665.039
1741685370.983,-1000.000,7.324,19.043,-625.488
1741685370.986,206.543,24.414,14.648,266.602
1741685370.990,320.312,13.184,6.348,252.930
1741685370.994,-1000.000,0.977,-1.465,-643.066
1741685370.998,739.746,17.578,-0.977,619.141
1741685371.002,161.621,-6.348,-5.371,162.109
1741685371.484,-664.062,-47.363,-21.484,-425.293
1741685371.488,999.512,-23.926,-22.949,660.156
1741685371.492,-381.348,-35.156,-26.855,-343.750
1741685371.496,-423.340,-38.574,-25.879,-386.719
1741685371.500,999.512,-28.320,-26.367,657.227
1741685371.504,-647.461,-45.410,-19.043,-458.008
1741685371.508,-229.004,-36.621,-15.137,-136.230
1741685371.511,761.230,-33.203,-17.578,521.973
1741685371.515,-1000.000,-54.688,-16.602,-806.641
1741685371.519,-41.016,-24.414,-11.230,-22.461
1741685371.523,750.000,-14.160,-4.883,615.234
1741685371.527,-1000.000,-38.086,-4.395,-630.371
1741685371.005,-880.859,-14.160,-6.836,-639.648
1741685371.009,959.473,6.348,-4.883,685.059
1741685371.013,19.531,-13.672,-3.418,43.457
1741685371.017,-646.973,-11.719,-6.348,-436.035
1741685371.021,999.512,3.906,-8.301,818.359
1741685371.025,-215.820,-21.973,-8.789,-215.820
1741685371.029,-481.934,-20.996,-13.184,-411.133
1741685371.032,999.512,-7.812,-10.254,875.977
1741685371.036,-514.160,-34.668,-8.301,-283.691
1741685371.040,-294.434,-23.926,-11.230,-116.699
1741685371.044,855.469,-13.184,-12.207,739.258
1741685371.048,-956.543,-39.062,-20.020,-602.051
1741685371.005,-880.859,-14.160,-6.836,-639.648
1741685371.009,959.473,6.348,-4.883,685.059
1741685371.013,19.531,-13.672,-3.418,43.457
1741685371.017,-646.973,-11.719,-6.348,-436.035
1741685371.021,999.512,3.906,-8.301,818.359
1741685371.025,-215.820,-21.973,-8.789,-215.820
1741685371.029,-481.934,-20.996,-13.184,-411.133
1741685371.032,999.512,-7.812,-10.254,875.977
1741685371.036,-514.160,-34.668,-8.301,-283.691
1741685371.040,-294.434,-23.926,-11.230,-116.699
1741685371.044,855.469,-13.184,-12.207,739.258
1741685371.048,-956.543,-39.062,-20.020,-602.051
1741685371.064,-57.129,-59.570,-60.547,116.211
1741685371.068,505.371,-91.797,-97.656,521.973
1741685371.072,-1000.000,-105.469,-91.309,-753.418
1741685371.076,350.098,-88.379,-85.449,343.750
1741685371.080,171.875,-100.586,-95.215,97.656
1741685371.084,-645.996,-96.191,-92.285,-538.574
1741685371.088,999.512,-77.148,-75.684,763.672
1741685371.091,-304.199,-95.215,-66.895,-214.355
1741685371.095,-551.758,-86.914,-74.707,-473.145
1741685371.099,999.512,-76.172,-78.613,682.129
1741685371.103,-463.379,-90.332,-70.312,-291.016
1741685371.107,-278.809,-72.266,-61.035,-80.078
1741685371.064,-57.129,-59.570,-60.547,116.211
1741685371.068,505.371,-91.797,-97.656,521.973
1741685371.072,-1000.000,-105.469,-91.309,-753.418
1741685371.076,350.098,-88.379,-85.449,343.750
1741685371.080,171.875,-100.586,-95.215,97.656
1741685371.084,-645.996,-96.191,-92.285,-538.574
1741685371.088,999.512,-77.148,-75.684,763.672
1741685371.091,-304.199,-95.215,-66.895,-214.355
1741685371.095,-551.758,-86.914,-74.707,-473.145
1741685371.099,999.512,-76.172,-78.613,682.129
1741685371.103,-463.379,-90.332,-70.312,-291.016
1741685371.107,-278.809,-72.266,-61.035,-80.078
1741685371.109,790.039,-67.383,-64.453,666.992
1741685371.113,-1000.000,-86.426,-68.359,-684.082
1741685371.117,-100.098,-62.012,-62.012,20.508
1741685371.121,713.379,-59.570,-55.176,719.727
1741685371.125,-1000.000,-74.219,-51.270,-622.559
1741685371.129,61.523,-56.152,-50.781,199.707
1741685371.133,502.441,-59.570,-43.945,458.496
1741685371.136,-1000.000,-70.801,-45.898,-788.574
1741685371.140,267.090,-59.570,-54.688,308.105
1741685371.144,353.027,-83.008,-53.711,357.422
1741685371.148,-1000.000,-89.355,-47.363,-643.066
1741685371.152,709.473,-54.199,-41.504,566.895
1741685371.109,790.039,-67.383,-64.453,666.992
1741685371.113,-1000.000,-86.426,-68.359,-684.082
1741685371.117,-100.098,-62.012,-62.012,20.508
1741685371.121,713.379,-59.570,-55.176,719.727
1741685371.125,-1000.000,-74.219,-51.270,-622.559
1741685371.129,61.523,-56.152,-50.781,199.707
1741685371.133,502.441,-59.570,-43.945,458.496
1741685371.136,-1000.000,-70.801,-45.898,-788.574
1741685371.140,267.090,-59.570,-54.688,308.105
1741685371.144,353.027,-83.008,-53.711,357.422
1741685371.148,-1000.000,-89.355,-47.363,-643.066
1741685371.152,709.473,-54.199,-41.504,566.895
1741685371.154,32.227,-70.312,-44.434,-55.176
1741685371.158,-593.750,-70.312,-45.898,-510.254
1741685371.162,999.512,-49.805,-34.180,881.836
1741685371.166,-307.617,-65.430,-27.832,-175.293
1741685371.170,-418.945,-51.758,-31.738,-304.688
1741685371.174,994.629,-43.945,-31.250,727.539
1741685371.178,-723.145,-62.988,-28.320,-467.285
1741685371.181,-127.930,-37.109,-26.367,85.449
1741685371.185,584.961,-42.480,-29.785,599.609
1741685371.189,-1000.000,-65.430,-36.621,-787.598
1741685371.193,147.949,-33.203,-32.715,180.176
1741685371.197,451.660,-30.273,-20.508,394.531
1741685371.154,32.227,-70.312,-44.434,-55.176
1741685371.158,-593.750,-70.312,-45.898,-510.254
1741685371.162,999.512,-49.805,-34.180,881.836
1741685371.166,-307.617,-65.430,-27.832,-175.293
1741685371.170,-418.945,-51.758,-31.738,-304.688
1741685371.174,994.629,-43.945,-31.250,727.539
1741685371.178,-723.145,-62.988,-28.320,-467.285
1741685371.181,-127.930,-37.109,-26.367,85.449
1741685371.185,584.961,-42.480,-29.785,599.609
1741685371.189,-1000.000,-65.430,-36.621,-787.598
1741685371.193,147.949,-33.203,-32.715,180.176
1741685371.197,451.660,-30.273,-20.508,394.531
1741685371.199,-1000.000,-45.410,-25.879,-673.340
1741685371.203,515.625,-32.227,-25.879,469.238
1741685371.207,254.395,-49.316,-10.254,217.773
1741685371.211,-971.191,-49.805,-4.395,-653.320
1741685371.215,637.695,-19.043,-0.977,450.684
1741685371.219,-136.719,-31.250,-3.418,-66.406
1741685371.223,-743.652,-31.250,-5.371,-471.191
1741685371.226,984.375,-28.320,-9.277,681.152
1741685371.230,-232.910,-49.805,-7.324,-271.484
1741685371.234,-500.000,-40.527,-1.465,-424.316
1741685371.238,999.512,-18.555,0.977,890.625
1741685371.242,-429.688,-34.180,-2.441,-257.812
1741685371.199,-1000.000,-45.410,-25.879,-673.340
1741685371.203,515.625,-32.227,-25.879,469.238
1741685371.207,254.395,-49.316,-10.254,217.773
1741685371.211,-971.191,-49.805,-4.395,-653.320
1741685371.215,637.695,-19.043,-0.977,450.684
1741685371.219,-136.719,-31.250,-3.418,-66.406
1741685371.223,-743.652,-31.250,-5.371,-471.191
1741685371.226,984.375,-28.320,-9.277,681.152
1741685371.230,-232.910,-49.805,-7.324,-271.484
1741685371.234,-500.000,-40.527,-1.465,-424.316
1741685371.238,999.512,-18.555,0.977,890.625
1741685371.242,-429.688,-34.180,-2.441,-257.812
1741685371.244,-349.121,-33.691,-9.277,-227.539
1741685371.248,887.207,-30.273,-2.930,696.289
1741685371.252,-886.230,-56.152,-6.836,-574.219
1741685371.256,-96.191,-38.086,-6.348,97.656
1741685371.260,677.734,-39.551,-1.953,739.258
1741685371.264,-1000.000,-65.430,-10.742,-616.699
1741685371.268,113.281,-40.527,-8.301,323.242
1741685371.271,410.156,-50.293,-7.812,458.984
1741685371.275,-1000.000,-67.871,-19.043,-787.598
1741685371.279,543.457,-33.691,-18.555,511.230
1741685371.283,330.566,-31.738,-5.371,436.035
1741685371.287,-1000.000,-39.551,-2.930,-590.820
1741685371.290,684.570,-20.508,-8.301,526.367
1741685371.294,190.918,-35.645,-10.254,211.914
1741685371.298,-904.297,-41.016,-14.160,-440.918
1741685371.302,917.969,-20.508,-14.648,719.727
1741685371.306,31.250,-37.598,-21.973,52.246
1741685371.310,-691.406,-34.180,-24.902,-484.863
1741685371.314,999.512,-21.484,-19.043,744.141
1741685371.317,-209.473,-51.758,-20.996,-120.605
1741685371.321,-381.836,-54.199,-18.555,-158.203
1741685371.325,964.355,-40.039,-14.160,877.930
1741685371.329,-781.738,-54.688,-13.672,-505.371
1741685371.333,-214.844,-44.922,-15.625,-83.984
1741685371.290,684.570,-20.508,-8.301,526.367
1741685371.294,190.918,-35.645,-10.254,211.914
1741685371.298,-904.297,-41.016,-14.160,-440.918
1741685371.302,917.969,-20.508,-14.648,719.727
1741685371.306,31.250,-37.598,-21.973,52.246
1741685371.310,-691.406,-34.180,-24.902,-484.863
1741685371.314,999.512,-21.484,-19.043,744.141
1741685371.317,-209.473,-51.758,-20.996,-120.605
1741685371.321,-381.836,-54.199,-18.555,-158.203
1741685371.325,964.355,-40.039,-14.160,877.930
1741685371.329,-781.738,-54.688,-13.672,-505.371
1741685371.333,-214.844,-44.922,-15.625,-83.984
1741685371.815,-127.930,-16.602,-23.438,-175.293
1741685371.819,-604.492,-21.973,-28.809,-649.414
1741685371.823,999.512,-4.883,-29.785,747.070
1741685371.827,-221.680,-26.855,-28.809,-189.453
1741685371.831,-422.852,-18.555,-26.367,-270.996
1741685371.835,993.652,-7.812,-22.461,808.105
1741685371.839,-712.891,-30.762,-34.668,-504.395
1741685371.842,-185.547,-17.578,-37.109,-87.402
1741685371.846,691.895,-19.043,-24.414,671.387
1741685371.850,-1000.000,-38.574,-32.227,-687.012
1741685371.854,84.961,-16.602,-40.527,212.402
1741685371.858,425.293,-23.926,-38.574,418.457
1741685372.130,-1000.000,-41.992,-34.668,-681.152
1741685372.134,536.133,-17.090,-33.691,523.438
1741685372.138,317.383,-23.926,-31.738,312.012
1741685372.142,-1000.000,-44.434,-32.715,-772.461
1741685372.146,688.965,-23.438,-25.879,462.402
1741685372.150,222.168,-24.902,-22.949,185.547
1741685372.154,-962.891,-38.574,-28.320,-551.270
1741685372.157,834.961,-26.367,-31.250,584.473
1741685372.161,70.801,-34.180,-27.832,-31.738
1741685372.165,-842.773,-42.969,-32.227,-664.062
1741685372.169,999.512,-29.785,-36.133,686.523
1741685372.173,45.410,-35.156,-29.297,16.602
1741685371.860,-1000.000,-43.457,-40.039,-795.898
1741685371.864,574.707,-18.555,-35.645,516.113
1741685371.868,333.008,-27.832,-37.598,368.652
1741685371.872,-1000.000,-32.715,-33.691,-746.582
1741685371.876,695.801,-12.695,-32.715,497.070
1741685371.880,195.312,-26.855,-32.715,141.602
1741685371.884,-869.141,-29.297,-28.809,-585.449
1741685371.887,960.449,-8.789,-27.344,671.387
1741685371.891,35.645,-20.020,-26.367,-39.551
1741685371.895,-713.379,-20.508,-29.785,-587.402
1741685371.899,999.512,-4.883,-29.297,712.891
1741685371.903,-153.809,-25.391,-32.227,-154.297
1741685371.860,-1000.000,-43.457,-40.039,-795.898
1741685371.864,574.707,-18.555,-35.645,516.113
1741685371.868,333.008,-27.832,-37.598,368.652
1741685371.872,-1000.000,-32.715,-33.691,-746.582
1741685371.876,695.801,-12.695,-32.715,497.070
1741685371.880,195.312,-26.855,-32.715,141.602
1741685371.884,-869.141,-29.297,-28.809,-585.449
1741685371.887,960.449,-8.789,-27.344,671.387
1741685371.891,35.645,-20.020,-26.367,-39.551
1741685371.895,-713.379,-20.508,-29.785,-587.402
1741685371.899,999.512,-4.883,-29.297,712.891
1741685371.903,-153.809,-25.391,-32.227,-154.297
1741685371.904,-479.004,-16.602,-31.250,-340.332
1741685371.908,999.512,0.977,-27.344,845.215
1741685371.912,-547.852,-28.320,-32.715,-443.359
1741685371.916,-329.590,-19.531,-34.668,-271.973
1741685371.920,999.512,-10.254,-30.762,889.648
1741685371.924,-739.258,-44.434,-34.668,-454.590
1741685371.928,-194.824,-33.203,-33.691,-52.246
1741685371.931,684.570,-26.367,-32.715,635.254
1741685371.935,-1000.000,-46.875,-35.156,-763.184
1741685371.939,120.117,-23.438,-30.762,216.309
1741685371.943,496.582,-19.043,-35.156,586.426
1741685371.947,-1000.000,-31.250,-47.852,-704.102
1741685371.904,-479.004,-16.602,-31.250,-340.332
1741685371.908,999.512,0.977,-27.344,845.215
1741685371.912,-547.852,-28.320,-32.715,-443.359
1741685371.916,-329.590,-19.531,-34.668,-271.973
1741685371.920,999.512,-10.254,-30.762,889.648
1741685371.924,-739.258,-44.434,-34.668,-454.590
1741685371.928,-194.824,-33.203,-33.691,-52.246
1741685371.931,684.570,-26.367,-32.715,635.254
1741685371.935,-1000.000,-46.875,-35.156,-763.184
1741685371.939,120.117,-23.438,-30.762,216.309
1741685371.943,496.582,-19.043,-35.156,586.426
1741685371.947,-1000.000,-31.250,-47.852,-704.102
1741685371.949,435.547,-4.395,-52.246,423.340
1741685371.953,241.699,-14.648,-50.781,217.285
1741685371.957,-894.043,-32.715,-51.270,-648.926
1741685371.961,915.527,-17.578,-52.246,670.410
1741685371.965,4.883,-24.902,-49.805,-20.996
1741685371.969,-579.590,-22.461,-50.293,-489.258
1741685371.973,999.512,-9.766,-43.457,731.445
1741685371.976,-309.570,-29.785,-35.645,-252.441
1741685371.980,-416.504,-29.785,-35.645,-255.371
1741685371.984,999.512,-19.531,-27.832,872.070
1741685371.988,-621.094,-34.180,-21.484,-364.746
1741685371.992,-305.176,-22.461,-30.762,-198.730
1741685371.949,435.547,-4.395,-52.246,423.340
1741685371.953,241.699,-14.648,-50.781,217.285
1741685371.957,-894.043,-32.715,-51.270,-648.926
1741685371.961,915.527,-17.578,-52.246,670.410
1741685371.965,4.883,-24.902,-49.805,-20.996
1741685371.969,-579.590,-22.461,-50.293,-489.258
1741685371.973,999.512,-9.766,-43.457,731.445
1741685371.976,-309.570,-29.785,-35.645,-252.441
1741685371.980,-416.504,-29.785,-35.645,-255.371
1741685371.984,999.512,-19.531,-27.832,872.070
1741685371.988,-621.094,-34.180,-21.484,-364.746
1741685371.992,-305.176,-22.461,-30.762,-198.730
1741685371.995,983.398,-17.090,-39.551,730.469
1741685371.999,-808.594,-31.738,-31.738,-496.094
1741685372.003,-111.816,-12.695,-28.320,111.328
1741685372.007,560.547,-21.484,-38.086,606.445
1741685372.011,-1000.000,-44.434,-41.992,-788.574
1741685372.015,185.547,-16.113,-43.457,231.934
1741685372.019,667.480,-1.953,-36.133,667.480
1741685372.022,-1000.000,-21.484,-34.668,-626.953
1741685372.026,21.973,-19.531,-53.223,135.742
1741685372.030,610.840,-22.949,-45.898,486.816
1741685372.034,-1000.000,-31.738,-34.668,-645.020
1741685372.038,267.090,-20.020,-37.109,376.465
1741685372.039,402.832,-38.086,-40.527,427.246
1741685372.043,-1000.000,-48.340,-46.875,-803.711
1741685372.047,469.238,-19.531,-43.457,435.059
1741685372.051,277.832,-32.715,-37.598,279.785
1741685372.055,-962.402,-45.410,-35.645,-651.367
1741685372.059,821.777,-25.879,-35.156,677.734
1741685372.063,137.207,-46.875,-36.133,141.113
1741685372.066,-972.168,-48.340,-38.574,-757.812
1741685372.070,886.719,-22.461,-34.180,561.035
1741685372.074,114.258,-39.551,-27.344,51.270
1741685372.078,-689.453,-28.809,-26.367,-496.582
1741685372.082,999.512,-4.395,-27.344,814.453
1741685372.039,402.832,-38.086,-40.527,427.246
1741685372.043,-1000.000,-48.340,-46.875,-803.711
1741685372.047,469.238,-19.531,-43.457,435.059
1741685372.051,277.832,-32.715,-37.598,279.785
1741685372.055,-962.402,-45.410,-35.645,-651.367
1741685372.059,821.777,-25.879,-35.156,677.734
1741685372.063,137.207,-46.875,-36.133,141.113
1741685372.066,-972.168,-48.340,-38.574,-757.812
1741685372.070,886.719,-22.461,-34.180,561.035
1741685372.074,114.258,-39.551,-27.344,51.270
1741685372.078,-689.453,-28.809,-26.367,-496.582
1741685372.082,999.512,-4.395,-27.344,814.453
1741685372.100,-115.723,-29.297,-22.949,-105.957
1741685372.104,-679.688,-28.809,-30.762,-583.984
1741685372.108,999.512,-7.812,-38.574,808.105
1741685372.112,-159.180,-27.832,-35.156,-134.277
1741685372.116,-494.141,-25.879,-39.551,-400.391
1741685372.120,999.512,-17.578,-36.621,800.781
1741685372.124,-592.285,-42.480,-34.180,-409.180
1741685372.127,-245.117,-30.273,-37.598,-102.051
1741685372.131,793.457,-33.203,-33.691,768.066
1741685372.135,-1000.000,-53.223,-35.645,-636.230
1741685372.139,14.160,-28.809,-44.434,145.020
1741685372.143,467.773,-29.297,-39.551,493.164
1741685372.100,-115.723,-29.297,-22.949,-105.957
1741685372.104,-679.688,-28.809,-30.762,-583.984
1741685372.108,999.512,-7.812,-38.574,808.105
1741685372.112,-159.180,-27.832,-35.156,-134.277
1741685372.116,-494.141,-25.879,-39.551,-400.391
1741685372.120,999.512,-17.578,-36.621,800.781
1741685372.124,-592.285,-42.480,-34.180,-409.180
1741685372.127,-245.117,-30.273,-37.598,-102.051
1741685372.131,793.457,-33.203,-33.691,768.066
1741685372.135,-1000.000,-53.223,-35.645,-636.230
1741685372.139,14.160,-28.809,-44.434,145.020
1741685372.143,467.773,-29.297,-39.551,493.164
1741685372.189,-695.801,-21.973,-22.949,-542.969
1741685372.193,999.512,-5.859,-19.531,754.395
1741685372.197,-215.332,-34.180,-23.926,-300.781
1741685372.201,-462.402,-24.414,-20.508,-467.285
1741685372.205,999.512,3.418,-13.184,932.129
1741685372.209,-420.898,-22.461,-22.949,-302.734
1741685372.213,-356.934,-19.043,-28.809,-293.945
1741685372.216,959.473,-9.766,-27.832,686.035
1741685372.220,-807.129,-41.016,-34.668,-652.832
1741685372.224,-163.086,-30.762,-35.156,-111.816
1741685372.228,759.277,-26.367,-24.902,666.504
1741685372.232,-1000.000,-43.945,-20.508,-732.422
1741685372.189,-695.801,-21.973,-22.949,-542.969
1741685372.193,999.512,-5.859,-19.531,754.395
1741685372.197,-215.332,-34.180,-23.926,-300.781
1741685372.201,-462.402,-24.414,-20.508,-467.285
1741685372.205,999.512,3.418,-13.184,932.129
1741685372.209,-420.898,-22.461,-22.949,-302.734
1741685372.213,-356.934,-19.043,-28.809,-293.945
1741685372.216,959.473,-9.766,-27.832,686.035
1741685372.220,-807.129,-41.016,-34.668,-652.832
1741685372.224,-163.086,-30.762,-35.156,-111.816
1741685372.228,759.277,-26.367,-24.902,666.504
1741685372.232,-1000.000,-43.945,-20.508,-732.422
1741685372.234,64.453,-20.020,-21.484,83.008
1741685372.238,433.594,-26.855,-18.555,375.977
1741685372.242,-1000.000,-42.969,-24.414,-679.688
1741685372.246,601.074,-22.949,-26.367,465.332
1741685372.250,219.238,-29.785,-19.531,160.645
1741685372.254,-916.016,-29.785,-28.320,-658.691
1741685372.258,880.371,-22.461,-33.203,501.953
1741685372.261,-38.086,-49.805,-31.738,-147.461
1741685372.265,-617.676,-43.945,-30.273,-497.070
1741685372.269,999.512,-29.785,-30.762,703.613
1741685372.273,-341.309,-49.316,-36.621,-403.320
1741685372.277,-458.496,-37.598,-38.574,-510.742
1741685372.234,64.453,-20.020,-21.484,83.008
1741685372.238,433.594,-26.855,-18.555,375.977
1741685372.242,-1000.000,-42.969,-24.414,-679.688
1741685372.246,601.074,-22.949,-26.367,465.332
1741685372.250,219.238,-29.785,-19.531,160.645
1741685372.254,-916.016,-29.785,-28.320,-658.691
1741685372.258,880.371,-22.461,-33.203,501.953
1741685372.261,-38.086,-49.805,-31.738,-147.461
1741685372.265,-617.676,-43.945,-30.273,-497.070
1741685372.269,999.512,-29.785,-30.762,703.613
1741685372.273,-341.309,-49.316,-36.621,-403.320
1741685372.277,-458.496,-37.598,-38.574,-510.742
1741685372.234,64.453,-20.020,-21.484,83.008
1741685372.238,433.594,-26.855,-18.555,375.977
1741685372.242,-1000.000,-42.969,-24.414,-679.688
1741685372.246,601.074,-22.949,-26.367,465.332
1741685372.250,219.238,-29.785,-19.531,160.645
1741685372.254,-916.016,-29.785,-28.320,-658.691
1741685372.258,880.371,-22.461,-33.203,501.953
1741685372.261,-38.086,-49.805,-31.738,-147.461
1741685372.265,-617.676,-43.945,-30.273,-497.070
1741685372.269,999.512,-29.785,-30.762,703.613
1741685372.273,-341.309,-49.316,-36.621,-403.320
1741685372.277,-458.496,-37.598,-38.574,-510.742
1741685372.279,999.512,-27.344,-37.109,728.516
1741685372.283,-550.293,-49.316,-36.621,-482.910
1741685372.287,-239.258,-33.691,-29.297,-185.547
1741685372.291,812.988,-25.879,-20.996,677.246
1741685372.295,-999.023,-39.062,-20.996,-786.621
1741685372.299,-1.465,-19.043,-20.020,73.242
1741685372.303,642.090,-22.949,-16.602,663.574
1741685372.306,-1000.000,-50.781,-25.391,-793.457
1741685372.310,117.676,-31.738,-33.203,110.840
1741685372.314,458.984,-33.691,-35.156,312.012
1741685372.318,-1000.000,-50.293,-36.133,-780.762
1741685372.322,547.363,-21.484,-32.227,447.266
1741685372.279,999.512,-27.344,-37.109,728.516
1741685372.283,-550.293,-49.316,-36.621,-482.910
1741685372.287,-239.258,-33.691,-29.297,-185.547
1741685372.291,812.988,-25.879,-20.996,677.246
1741685372.295,-999.023,-39.062,-20.996,-786.621
1741685372.299,-1.465,-19.043,-20.020,73.242
1741685372.303,642.090,-22.949,-16.602,663.574
1741685372.306,-1000.000,-50.781,-25.391,-793.457
1741685372.310,117.676,-31.738,-33.203,110.840
1741685372.314,458.984,-33.691,-35.156,312.012
1741685372.318,-1000.000,-50.293,-36.133,-780.762
1741685372.322,547.363,-21.484,-32.227,447.266
1741685372.324,234.375,-33.203,-27.832,144.043
1741685372.328,-953.125,-44.922,-30.273,-797.363
1741685372.332,879.395,-23.438,-32.227,525.879
1741685372.336,40.039,-36.621,-28.320,-75.684
1741685372.340,-584.961,-29.297,-27.344,-483.887
1741685372.344,999.512,-12.207,-21.484,778.320
1741685372.348,-371.582,-41.992,-19.043,-326.660
1741685372.351,-521.484,-40.527,-23.926,-559.570
1741685372.355,999.512,-28.809,-28.320,664.062
1741685372.359,-428.223,-50.293,-29.297,-431.152
1741685372.363,-364.746,-37.109,-26.855,-333.984
1741685372.367,997.559,-25.391,-23.438,714.844
1741685372.324,234.375,-33.203,-27.832,144.043
1741685372.328,-953.125,-44.922,-30.273,-797.363
1741685372.332,879.395,-23.438,-32.227,525.879
1741685372.336,40.039,-36.621,-28.320,-75.684
1741685372.340,-584.961,-29.297,-27.344,-483.887
1741685372.344,999.512,-12.207,-21.484,778.320
