timestamps,TP9,AF7,AF8,TP10
1741689427.926,-1000.000,943.848,-79.102,-1000.000
1741689427.930,110.352,999.512,-11.230,115.234
1741689427.934,999.512,861.816,8.301,999.512
1741689427.938,875.000,999.512,42.969,893.066
1741689427.942,999.512,625.977,4.883,999.512
1741689427.946,-77.637,-752.930,-60.059,-147.461
1741689427.950,-1000.000,-1000.000,-101.562,-1000.000
1741689427.953,-953.613,-940.918,-110.352,-951.660
1741689427.957,-976.562,-956.055,-25.879,-981.934
1741689427.961,-964.355,-1000.000,-52.734,-960.449
1741689427.965,-1000.000,-143.555,-148.438,-1000.000
1741689427.969,44.434,999.512,-88.379,-1.465
1741689427.971,999.512,893.066,-27.344,999.512
1741689427.975,999.512,999.512,-35.645,999.512
1741689427.979,463.867,69.336,-55.664,388.184
1741689427.983,-882.324,-1000.000,-132.324,-913.086
1741689427.987,-1000.000,-1000.000,-120.605,-1000.000
1741689427.991,-155.273,-36.133,-55.664,-162.598
1741689427.995,958.008,999.512,-4.883,963.379
1741689427.998,999.512,999.512,-9.277,999.512
1741689428.002,672.363,206.543,-119.141,663.086
1741689428.006,-729.980,-1000.000,-124.512,-714.355
1741689428.010,-1000.000,-1000.000,-93.750,-1000.000
1741689428.014,-937.988,-903.320,-68.359,-941.895
1741689427.971,999.512,893.066,-27.344,999.512
1741689427.975,999.512,999.512,-35.645,999.512
1741689427.979,463.867,69.336,-55.664,388.184
1741689427.983,-882.324,-1000.000,-132.324,-913.086
1741689427.987,-1000.000,-1000.000,-120.605,-1000.000
1741689427.991,-155.273,-36.133,-55.664,-162.598
1741689427.995,958.008,999.512,-4.883,963.379
1741689427.998,999.512,999.512,-9.277,999.512
1741689428.002,672.363,206.543,-119.141,663.086
1741689428.006,-729.980,-1000.000,-124.512,-714.355
1741689428.010,-1000.000,-1000.000,-93.750,-1000.000
1741689428.014,-937.988,-903.320,-68.359,-941.895
1741689428.016,-952.148,-1000.000,-64.453,-948.730
1741689428.020,-1000.000,-630.371,-135.254,-1000.000
1741689428.024,-220.703,784.668,-134.766,-253.906
1741689428.028,999.512,999.512,-48.340,999.512
1741689428.032,926.270,839.355,0.000,929.688
1741689428.036,916.016,999.512,18.555,922.852
1741689428.040,999.512,534.180,-44.434,999.512
1741689428.043,-171.387,-889.648,-97.656,-204.590
1741689428.047,-1000.000,-1000.000,-64.941,-1000.000
1741689428.051,-945.801,-911.133,-48.340,-948.242
1741689428.055,-982.422,-1000.000,-14.648,-983.398
1741689428.059,-962.891,22.461,-38.086,-963.379
1741689428.016,-952.148,-1000.000,-64.453,-948.730
1741689428.020,-1000.000,-630.371,-135.254,-1000.000
1741689428.024,-220.703,784.668,-134.766,-253.906
1741689428.028,999.512,999.512,-48.340,999.512
1741689428.032,926.270,839.355,0.000,929.688
1741689428.036,916.016,999.512,18.555,922.852
1741689428.040,999.512,534.180,-44.434,999.512
1741689428.043,-171.387,-889.648,-97.656,-204.590
1741689428.047,-1000.000,-1000.000,-64.941,-1000.000
1741689428.051,-945.801,-911.133,-48.340,-948.242
1741689428.055,-982.422,-1000.000,-14.648,-983.398
1741689428.059,-962.891,22.461,-38.086,-963.379
1741689428.061,-1000.000,999.512,-94.727,-1000.000
1741689428.065,32.715,933.594,-39.551,17.090
1741689428.069,999.512,886.230,6.348,999.512
1741689428.073,891.113,999.512,24.414,922.852
1741689428.077,999.512,448.242,-3.418,962.402
1741689428.081,-142.090,-937.012,-16.602,-278.320
1741689428.085,-1000.000,-1000.000,-13.672,-1000.000
1741689428.088,-958.008,-952.637,-24.414,-952.637
1741689428.092,-942.871,-951.660,22.461,-962.891
1741689428.096,-1000.000,-1000.000,2.441,-1000.000
1741689428.100,-856.934,-206.055,-74.707,-985.840
1741689428.104,552.246,999.512,-8.789,340.332
1741689428.061,-1000.000,999.512,-94.727,-1000.000
1741689428.065,32.715,933.594,-39.551,17.090
1741689428.069,999.512,886.230,6.348,999.512
1741689428.073,891.113,999.512,24.414,922.852
1741689428.077,999.512,448.242,-3.418,962.402
1741689428.081,-142.090,-937.012,-16.602,-278.320
1741689428.085,-1000.000,-1000.000,-13.672,-1000.000
1741689428.088,-958.008,-952.637,-24.414,-952.637
1741689428.092,-942.871,-951.660,22.461,-962.891
1741689428.096,-1000.000,-1000.000,2.441,-1000.000
1741689428.100,-856.934,-206.055,-74.707,-985.840
1741689428.104,552.246,999.512,-8.789,340.332
1741689428.106,999.512,879.883,70.312,999.512
1741689428.110,988.281,999.512,61.035,999.512
1741689428.114,700.684,306.152,23.438,641.113
1741689428.118,-676.758,-971.191,-37.598,-719.238
1741689428.122,-1000.000,-1000.000,-34.668,-1000.000
1741689428.126,-237.793,-135.742,11.719,-245.605
1741689428.130,994.629,999.512,48.340,992.676
1741689428.133,962.891,913.086,29.785,964.844
1741689428.137,932.617,981.934,-26.855,932.617
1741689428.141,985.840,35.645,1.953,984.863
1741689428.145,893.555,-1000.000,43.945,895.996
1741689428.149,999.512,20.996,73.730,999.512
1741689428.152,395.996,516.113,77.637,355.469
1741689428.156,-987.793,-1000.000,30.273,-1000.000
1741689428.160,-1000.000,-978.027,12.695,-1000.000
1741689428.164,-956.055,-1000.000,44.434,-959.473
1741689428.168,-1000.000,-607.910,79.102,-1000.000
1741689428.172,-1000.000,739.258,105.469,-1000.000
1741689428.176,-975.098,999.512,70.312,-961.426
1741689428.179,-981.445,178.711,38.574,-1000.000
1741689428.183,-1000.000,-1000.000,74.707,-950.684
1741689428.187,162.109,85.938,113.281,350.098
1741689428.191,999.512,999.512,144.043,999.512
1741689428.195,908.691,915.527,96.191,907.227
1741689428.152,395.996,516.113,77.637,355.469
1741689428.156,-987.793,-1000.000,30.273,-1000.000
1741689428.160,-1000.000,-978.027,12.695,-1000.000
1741689428.164,-956.055,-1000.000,44.434,-959.473
1741689428.168,-1000.000,-607.910,79.102,-1000.000
1741689428.172,-1000.000,739.258,105.469,-1000.000
1741689428.176,-975.098,999.512,70.312,-961.426
1741689428.179,-981.445,178.711,38.574,-1000.000
1741689428.183,-1000.000,-1000.000,74.707,-950.684
1741689428.187,162.109,85.938,113.281,350.098
1741689428.191,999.512,999.512,144.043,999.512
1741689428.195,908.691,915.527,96.191,907.227
1741689428.196,955.078,890.625,59.082,969.238
1741689428.200,921.387,999.512,77.637,908.203
1741689428.204,999.512,323.730,81.543,999.512
1741689428.208,22.949,-941.895,98.633,145.996
1741689428.212,-1000.000,-1000.000,31.250,-1000.000
1741689428.216,-964.355,-557.129,-1.953,-978.516
1741689428.220,-984.375,999.512,29.297,-976.074
1741689428.223,-1000.000,256.348,37.109,-1000.000
1741689428.227,-999.512,-1000.000,68.359,-999.023
1741689428.231,-939.453,-937.500,13.184,-939.941
1741689428.235,-1000.000,-1000.000,-26.367,-1000.000
1741689428.239,-195.312,34.180,37.109,-188.965
1741689428.196,955.078,890.625,59.082,969.238
1741689428.200,921.387,999.512,77.637,908.203
1741689428.204,999.512,323.730,81.543,999.512
1741689428.208,22.949,-941.895,98.633,145.996
1741689428.212,-1000.000,-1000.000,31.250,-1000.000
1741689428.216,-964.355,-557.129,-1.953,-978.516
1741689428.220,-984.375,999.512,29.297,-976.074
1741689428.223,-1000.000,256.348,37.109,-1000.000
1741689428.227,-999.512,-1000.000,68.359,-999.023
1741689428.231,-939.453,-937.500,13.184,-939.941
1741689428.235,-1000.000,-1000.000,-26.367,-1000.000
1741689428.239,-195.312,34.180,37.109,-188.965
1741689428.241,999.512,999.512,54.199,999.512
1741689428.245,909.668,999.512,36.133,919.922
1741689428.249,999.512,657.715,-26.367,999.512
1741689428.253,5.371,-658.203,-101.074,-47.363
1741689428.257,-1000.000,-1000.000,-87.402,-1000.000
1741689428.261,-631.348,-153.320,-54.199,-557.617
1741689428.265,774.902,999.512,-46.875,817.871
1741689428.268,999.512,905.762,-79.102,999.512
1741689428.272,913.086,999.512,-129.395,918.945
1741689428.276,948.242,40.527,-105.469,948.242
1741689428.280,965.820,-1000.000,-73.730,967.285
1741689428.284,991.211,-968.750,-46.387,980.469
1741689428.241,999.512,999.512,54.199,999.512
1741689428.245,909.668,999.512,36.133,919.922
1741689428.249,999.512,657.715,-26.367,999.512
1741689428.253,5.371,-658.203,-101.074,-47.363
1741689428.257,-1000.000,-1000.000,-87.402,-1000.000
1741689428.261,-631.348,-153.320,-54.199,-557.617
1741689428.265,774.902,999.512,-46.875,817.871
1741689428.268,999.512,905.762,-79.102,999.512
1741689428.272,913.086,999.512,-129.395,918.945
1741689428.276,948.242,40.527,-105.469,948.242
1741689428.280,965.820,-1000.000,-73.730,967.285
1741689428.284,991.211,-968.750,-46.387,980.469
1741689428.301,-306.152,-993.652,-57.617,-299.316
1741689428.305,-1000.000,-934.082,-152.832,-1000.000
1741689428.309,-887.207,-1000.000,-113.281,-904.297
1741689428.313,-1000.000,-462.891,-61.035,-1000.000
1741689428.317,-66.406,867.188,-58.594,16.113
1741689428.321,999.512,999.512,3.906,999.512
1741689428.325,928.711,868.652,-34.668,925.293
1741689428.328,957.031,-587.891,-66.406,961.426
1741689428.332,899.902,-794.434,-33.691,900.879
1741689428.336,999.512,999.512,-11.719,999.512
1741689428.340,298.340,276.855,-32.715,299.316
1741689428.344,-1000.000,-1000.000,-94.238,-1000.000
1741689428.301,-306.152,-993.652,-57.617,-299.316
1741689428.305,-1000.000,-934.082,-152.832,-1000.000
1741689428.309,-887.207,-1000.000,-113.281,-904.297
1741689428.313,-1000.000,-462.891,-61.035,-1000.000
1741689428.317,-66.406,867.188,-58.594,16.113
1741689428.321,999.512,999.512,3.906,999.512
1741689428.325,928.711,868.652,-34.668,925.293
1741689428.328,957.031,-587.891,-66.406,961.426
1741689428.332,899.902,-794.434,-33.691,900.879
1741689428.336,999.512,999.512,-11.719,999.512
1741689428.340,298.340,276.855,-32.715,299.316
1741689428.344,-1000.000,-1000.000,-94.238,-1000.000
1741689428.346,-1000.000,-986.816,-124.023,-1000.000
1741689428.350,-964.355,-923.340,-107.422,-964.355
1741689428.354,-1000.000,-1000.000,-77.148,-1000.000
1741689428.358,-937.500,-880.371,-16.113,-935.547
1741689428.362,-1000.000,465.820,-40.039,-1000.000
1741689428.366,-214.844,999.512,-30.762,-245.605
1741689428.370,999.512,846.680,46.875,989.258
1741689428.373,929.688,999.512,50.293,967.773
1741689428.377,999.512,143.066,62.012,899.414
1741689428.381,-108.887,-1000.000,-9.766,-277.832
1741689428.385,-1000.000,-1000.000,-63.477,-1000.000
1741689428.389,-404.297,-165.039,-13.672,-361.328
1741689428.346,-1000.000,-986.816,-124.023,-1000.000
1741689428.350,-964.355,-923.340,-107.422,-964.355
1741689428.354,-1000.000,-1000.000,-77.148,-1000.000
1741689428.358,-937.500,-880.371,-16.113,-935.547
1741689428.362,-1000.000,465.820,-40.039,-1000.000
1741689428.366,-214.844,999.512,-30.762,-245.605
1741689428.370,999.512,846.680,46.875,989.258
1741689428.373,929.688,999.512,50.293,967.773
1741689428.377,999.512,143.066,62.012,899.414
1741689428.381,-108.887,-1000.000,-9.766,-277.832
1741689428.385,-1000.000,-1000.000,-63.477,-1000.000
1741689428.389,-404.297,-165.039,-13.672,-361.328
1741689428.391,859.375,969.727,-7.812,870.605
1741689428.395,999.512,999.512,20.508,999.512
1741689428.399,544.434,277.344,-16.113,519.531
1741689428.403,-764.648,-965.332,-43.945,-781.250
1741689428.407,-1000.000,-1000.000,-12.207,-1000.000
1741689428.411,-270.508,-122.070,20.020,-254.883
1741689428.415,982.422,999.512,34.180,989.746
1741689428.418,968.262,895.996,-6.348,965.820
1741689428.422,930.176,999.512,-26.855,932.617
1741689428.426,976.562,97.656,-12.207,976.562
1741689428.430,903.809,-1000.000,-5.859,904.785
1741689428.434,999.512,14.648,33.203,999.512
1741689428.391,859.375,969.727,-7.812,870.605
1741689428.395,999.512,999.512,20.508,999.512
1741689428.399,544.434,277.344,-16.113,519.531
1741689428.403,-764.648,-965.332,-43.945,-781.250
1741689428.407,-1000.000,-1000.000,-12.207,-1000.000
1741689428.411,-270.508,-122.070,20.020,-254.883
1741689428.415,982.422,999.512,34.180,989.746
1741689428.418,968.262,895.996,-6.348,965.820
1741689428.422,930.176,999.512,-26.855,932.617
1741689428.426,976.562,97.656,-12.207,976.562
1741689428.430,903.809,-1000.000,-5.859,904.785
1741689428.434,999.512,14.648,33.203,999.512
1741689428.437,186.523,289.551,-2.930,180.664
1741689428.441,-1000.000,-1000.000,-64.941,-1000.000
1741689428.445,-983.887,-1000.000,-50.781,-982.910
1741689428.449,-973.145,-914.062,-18.555,-973.633
1741689428.453,-1000.000,-1000.000,29.785,-1000.000
1741689428.457,-932.129,-126.953,28.320,-931.152
1741689428.461,-1000.000,999.512,-22.461,-1000.000
1741689428.464,-304.199,935.547,-44.434,-334.961
1741689428.468,928.711,889.648,-14.648,918.457
1741689428.472,999.512,999.512,40.039,999.512
1741689428.476,410.645,131.836,4.883,347.168
1741689428.480,-953.613,-1000.000,-49.316,-978.516
1741689428.437,186.523,289.551,-2.930,180.664
1741689428.441,-1000.000,-1000.000,-64.941,-1000.000
1741689428.445,-983.887,-1000.000,-50.781,-982.910
1741689428.449,-973.145,-914.062,-18.555,-973.633
1741689428.453,-1000.000,-1000.000,29.785,-1000.000
1741689428.457,-932.129,-126.953,28.320,-931.152
1741689428.461,-1000.000,999.512,-22.461,-1000.000
1741689428.464,-304.199,935.547,-44.434,-334.961
1741689428.468,928.711,889.648,-14.648,918.457
1741689428.472,999.512,999.512,40.039,999.512
1741689428.476,410.645,131.836,4.883,347.168
1741689428.480,-953.613,-1000.000,-49.316,-978.516
1741689428.481,-1000.000,-988.770,-45.410,-1000.000
1741689428.485,-951.660,-928.223,-25.879,-966.309
1741689428.489,-953.125,-1000.000,-15.625,-941.406
1741689428.493,-1000.000,-889.648,-9.766,-1000.000
1741689428.497,-203.613,487.793,-64.453,-410.156
1741689428.501,999.512,999.512,-53.711,972.168
1741689428.505,878.418,999.512,2.930,915.527
1741689428.508,999.512,431.641,-26.367,999.512
1741689428.512,650.879,-951.172,-37.109,578.613
1741689428.516,-738.281,-980.469,-89.844,-785.156
1741689428.520,-1000.000,-1000.000,-86.914,-1000.000
1741689428.524,-145.508,-65.918,-16.113,-169.922
1741689428.481,-1000.000,-988.770,-45.410,-1000.000
1741689428.485,-951.660,-928.223,-25.879,-966.309
1741689428.489,-953.125,-1000.000,-15.625,-941.406
1741689428.493,-1000.000,-889.648,-9.766,-1000.000
1741689428.497,-203.613,487.793,-64.453,-410.156
1741689428.501,999.512,999.512,-53.711,972.168
1741689428.505,878.418,999.512,2.930,915.527
1741689428.508,999.512,431.641,-26.367,999.512
1741689428.512,650.879,-951.172,-37.109,578.613
1741689428.516,-738.281,-980.469,-89.844,-785.156
1741689428.520,-1000.000,-1000.000,-86.914,-1000.000
1741689428.524,-145.508,-65.918,-16.113,-169.922
1741689428.526,965.820,997.559,11.230,961.426
1741689428.530,999.512,999.512,20.996,999.512
1741689428.534,774.414,413.086,-41.992,750.977
1741689428.538,-602.539,-883.301,-70.801,-606.445
1741689428.542,-1000.000,-1000.000,-49.316,-1000.000
1741689428.546,-1000.000,-439.941,-15.137,-1000.000
1741689428.550,-233.398,894.531,-5.371,-153.809
1741689428.553,999.512,999.512,-45.898,999.512
1741689428.557,962.402,848.633,-51.270,954.590
1741689428.561,865.234,999.512,5.859,871.582
1741689428.565,999.512,336.426,5.859,999.512
1741689428.569,447.266,-1000.000,15.625,458.984
1741689428.526,965.820,997.559,11.230,961.426
1741689428.530,999.512,999.512,20.996,999.512
1741689428.534,774.414,413.086,-41.992,750.977
1741689428.538,-602.539,-883.301,-70.801,-606.445
1741689428.542,-1000.000,-1000.000,-49.316,-1000.000
1741689428.546,-1000.000,-439.941,-15.137,-1000.000
1741689428.550,-233.398,894.531,-5.371,-153.809
1741689428.553,999.512,999.512,-45.898,999.512
1741689428.557,962.402,848.633,-51.270,954.590
1741689428.561,865.234,999.512,5.859,871.582
1741689428.565,999.512,336.426,5.859,999.512
1741689428.569,447.266,-1000.000,15.625,458.984
1741689428.571,-974.609,-1000.000,-26.367,-960.449
1741689428.575,-956.055,-912.598,-92.285,-961.426
1741689428.579,-1000.000,-1000.000,-29.297,-1000.000
1741689428.583,-521.973,-90.332,-10.254,-474.121
1741689428.587,911.621,983.398,19.531,931.641
1741689428.591,999.512,999.512,47.363,993.652
1741689428.595,916.016,480.469,-26.367,920.410
1741689428.598,981.445,-927.246,-29.785,979.980
1741689428.602,903.809,-1000.000,20.508,905.273
1741689428.606,999.512,427.246,38.086,999.512
1741689428.610,187.012,293.945,6.836,173.828
1741689428.614,-1000.000,-1000.000,-45.898,-1000.000
1741689428.571,-974.609,-1000.000,-26.367,-960.449
1741689428.575,-956.055,-912.598,-92.285,-961.426
1741689428.579,-1000.000,-1000.000,-29.297,-1000.000
1741689428.583,-521.973,-90.332,-10.254,-474.121
1741689428.587,911.621,983.398,19.531,931.641
1741689428.591,999.512,999.512,47.363,993.652
1741689428.595,916.016,480.469,-26.367,920.410
1741689428.598,981.445,-927.246,-29.785,979.980
1741689428.602,903.809,-1000.000,20.508,905.273
1741689428.606,999.512,427.246,38.086,999.512
1741689428.610,187.012,293.945,6.836,173.828
1741689428.614,-1000.000,-1000.000,-45.898,-1000.000
1741689428.616,-910.645,-947.266,-58.105,-911.133
1741689428.620,-1000.000,-1000.000,-34.668,-1000.000
1741689428.624,-467.773,21.973,5.859,-448.730
1741689428.628,937.988,999.512,-0.977,936.523
1741689428.632,996.094,847.656,-40.039,994.629
1741689428.636,902.832,999.512,6.348,905.273
1741689428.640,943.848,445.312,36.133,945.801
1741689428.643,999.512,-958.496,9.277,999.512
1741689428.647,-92.285,-1000.000,-20.020,-90.820
1741689428.651,-1000.000,-884.277,-105.469,-1000.000
1741689428.655,-1000.000,-1000.000,-89.355,-1000.000
1741689428.659,-796.875,-302.734,-10.254,-762.207
1741689428.616,-910.645,-947.266,-58.105,-911.133
1741689428.620,-1000.000,-1000.000,-34.668,-1000.000
1741689428.624,-467.773,21.973,5.859,-448.730
1741689428.628,937.988,999.512,-0.977,936.523
1741689428.632,996.094,847.656,-40.039,994.629
1741689428.636,902.832,999.512,6.348,905.273
1741689428.640,943.848,445.312,36.133,945.801
1741689428.643,999.512,-958.496,9.277,999.512
1741689428.647,-92.285,-1000.000,-20.020,-90.820
1741689428.651,-1000.000,-884.277,-105.469,-1000.000
1741689428.655,-1000.000,-1000.000,-89.355,-1000.000
1741689428.659,-796.875,-302.734,-10.254,-762.207
1741689428.676,579.102,933.105,16.602,594.238
1741689428.680,999.512,999.512,23.926,999.512
1741689428.684,959.961,415.527,-27.832,894.531
1741689428.688,-172.363,-873.047,-40.527,-254.395
1741689428.692,-1000.000,-1000.000,-5.859,-1000.000
1741689428.696,-1000.000,-142.578,24.414,-904.297
1741689428.700,165.527,999.512,14.160,296.387
1741689428.703,999.512,947.266,-32.715,999.512
1741689428.707,915.039,948.730,-27.344,920.410
1741689428.711,933.105,941.406,19.043,931.641
1741689428.715,962.402,948.730,21.484,973.633
1741689428.719,999.512,843.750,29.297,967.773
1741689428.676,579.102,933.105,16.602,594.238
1741689428.680,999.512,999.512,23.926,999.512
1741689428.684,959.961,415.527,-27.832,894.531
1741689428.688,-172.363,-873.047,-40.527,-254.395
1741689428.692,-1000.000,-1000.000,-5.859,-1000.000
1741689428.696,-1000.000,-142.578,24.414,-904.297
1741689428.700,165.527,999.512,14.160,296.387
1741689428.703,999.512,947.266,-32.715,999.512
1741689428.707,915.039,948.730,-27.344,920.410
1741689428.711,933.105,941.406,19.043,931.641
1741689428.715,962.402,948.730,21.484,973.633
1741689428.719,999.512,843.750,29.297,967.773
1741689428.722,-284.180,-434.570,-41.992,-333.008
1741689428.726,-1000.000,-1000.000,-88.867,-1000.000
1741689428.730,-936.035,-910.645,-29.785,-937.012
1741689428.734,-1000.000,-985.840,-11.719,-1000.000
1741689428.738,-1000.000,-1000.000,6.836,-1000.000
1741689428.742,-1000.000,156.738,-16.602,-996.094
1741689428.746,-937.988,999.512,-68.359,-945.801
1741689428.749,-1000.000,-397.461,-53.711,-1000.000
1741689428.753,-214.355,-408.203,-29.785,-150.391
1741689428.757,999.512,999.512,24.414,999.512
1741689428.761,949.219,479.492,-0.977,966.309
1741689428.765,948.242,-1000.000,-63.965,642.578
1741689428.722,-284.180,-434.570,-41.992,-333.008
1741689428.726,-1000.000,-1000.000,-88.867,-1000.000
1741689428.730,-936.035,-910.645,-29.785,-937.012
1741689428.734,-1000.000,-985.840,-11.719,-1000.000
1741689428.738,-1000.000,-1000.000,6.836,-1000.000
1741689428.742,-1000.000,156.738,-16.602,-996.094
1741689428.746,-937.988,999.512,-68.359,-945.801
1741689428.749,-1000.000,-397.461,-53.711,-1000.000
1741689428.753,-214.355,-408.203,-29.785,-150.391
1741689428.757,999.512,999.512,24.414,999.512
1741689428.761,949.219,479.492,-0.977,966.309
1741689428.765,948.242,-1000.000,-63.965,642.578
1741689428.766,937.988,-292.969,-20.020,698.730
1741689428.770,969.238,999.512,-3.906,999.512
1741689428.774,979.980,403.320,15.625,945.312
1741689428.778,-321.289,-984.375,-18.066,-322.754
1741689428.782,-1000.000,-1000.000,-55.664,-1000.000
1741689428.786,-1000.000,183.594,6.836,-1000.000
1741689428.790,-242.676,997.070,19.531,-123.047
1741689428.793,999.512,999.512,27.344,999.512
1741689428.797,625.977,243.164,17.090,544.922
1741689428.801,-747.070,-988.770,-45.410,-791.016
1741689428.805,-1000.000,-1000.000,-71.289,-1000.000
1741689428.809,-252.441,-130.371,-32.715,-261.230
1741689428.811,988.770,992.188,54.199,987.305
1741689428.815,965.332,989.746,66.895,967.285
1741689428.819,931.641,791.504,-25.391,931.641
1741689428.823,989.746,-464.844,-23.438,989.258
1741689428.827,891.602,-1000.000,28.320,893.555
1741689428.831,999.512,60.547,71.777,999.512
1741689428.835,507.324,516.113,75.195,467.773
1741689428.838,-926.758,-994.141,-9.277,-945.801
1741689428.842,-1000.000,-1000.000,-43.457,-1000.000
1741689428.846,-947.266,-947.266,-2.930,-950.195
1741689428.850,-1000.000,-953.125,20.508,-1000.000
1741689428.854,-931.152,-1000.000,7.324,-938.477
1741689428.811,988.770,992.188,54.199,987.305
1741689428.815,965.332,989.746,66.895,967.285
1741689428.819,931.641,791.504,-25.391,931.641
1741689428.823,989.746,-464.844,-23.438,989.258
1741689428.827,891.602,-1000.000,28.320,893.555
1741689428.831,999.512,60.547,71.777,999.512
1741689428.835,507.324,516.113,75.195,467.773
1741689428.838,-926.758,-994.141,-9.277,-945.801
1741689428.842,-1000.000,-1000.000,-43.457,-1000.000
1741689428.846,-947.266,-947.266,-2.930,-950.195
1741689428.850,-1000.000,-953.125,20.508,-1000.000
1741689428.854,-931.152,-1000.000,7.324,-938.477
1741689428.856,-1000.000,-193.848,-100.586,-1000.000
1741689428.860,-676.270,999.512,-121.582,-739.258
1741689428.864,769.043,890.625,-45.898,674.316
1741689428.868,973.633,999.512,-7.324,991.211
1741689428.872,999.512,724.609,-5.859,999.512
1741689428.876,202.148,-658.203,-57.129,155.273
1741689428.880,-1000.000,-1000.000,-97.656,-1000.000
1741689428.883,-983.887,-872.559,-82.520,-978.027
1741689428.887,-973.145,-1000.000,-47.852,-976.562
1741689428.891,-1000.000,-56.641,-22.461,-1000.000
1741689428.895,-937.500,760.742,-90.332,-937.988
1741689428.899,-1000.000,-854.980,-105.469,-1000.000
1741689428.901,-221.191,-151.367,-76.660,-217.285
1741689428.905,999.512,999.512,-59.570,999.512
1741689428.909,950.195,997.070,13.184,945.801
1741689428.913,938.965,790.527,-22.949,967.773
1741689428.917,987.793,-825.684,-64.453,796.387
1741689428.921,905.762,-119.141,-20.996,745.605
1741689428.925,999.512,584.473,-0.977,999.512
1741689428.928,751.465,-994.141,-7.812,797.852
1741689428.932,-684.570,-1000.000,-31.250,-598.633
1741689428.936,-1000.000,-876.465,-80.566,-1000.000
1741689428.940,-973.145,-1000.000,-75.195,-989.258
1741689428.944,-923.340,-379.883,-28.809,-855.469
1741689428.901,-221.191,-151.367,-76.660,-217.285
1741689428.905,999.512,999.512,-59.570,999.512
1741689428.909,950.195,997.070,13.184,945.801
1741689428.913,938.965,790.527,-22.949,967.773
1741689428.917,987.793,-825.684,-64.453,796.387
1741689428.921,905.762,-119.141,-20.996,745.605
1741689428.925,999.512,584.473,-0.977,999.512
1741689428.928,751.465,-994.141,-7.812,797.852
1741689428.932,-684.570,-1000.000,-31.250,-598.633
1741689428.936,-1000.000,-876.465,-80.566,-1000.000
1741689428.940,-973.145,-1000.000,-75.195,-989.258
1741689428.944,-923.340,-379.883,-28.809,-855.469
1741689428.947,466.309,933.105,38.086,543.457
1741689428.951,999.512,998.535,19.043,999.512
1741689428.955,899.414,839.355,-73.730,902.832
1741689428.959,986.328,-355.469,-52.734,988.281
1741689428.963,893.555,-1000.000,-20.508,895.020
1741689428.967,999.512,315.918,13.184,999.512
1741689428.971,391.113,454.102,20.020,390.137
1741689428.974,-990.234,-1000.000,-80.566,-988.281
1741689428.978,-1000.000,-963.867,-81.055,-1000.000
1741689428.982,-956.543,-998.535,-27.344,-956.543
1741689428.986,-1000.000,-867.188,-0.977,-1000.000
1741689428.990,-951.172,501.953,11.230,-950.684
1741689428.947,466.309,933.105,38.086,543.457
1741689428.951,999.512,998.535,19.043,999.512
1741689428.955,899.414,839.355,-73.730,902.832
1741689428.959,986.328,-355.469,-52.734,988.281
1741689428.963,893.555,-1000.000,-20.508,895.020
1741689428.967,999.512,315.918,13.184,999.512
1741689428.971,391.113,454.102,20.020,390.137
1741689428.974,-990.234,-1000.000,-80.566,-988.281
1741689428.978,-1000.000,-963.867,-81.055,-1000.000
1741689428.982,-956.543,-998.535,-27.344,-956.543
1741689428.986,-1000.000,-867.188,-0.977,-1000.000
1741689428.990,-951.172,501.953,11.230,-950.684
1741689429.006,-1000.000,999.512,-54.688,-1000.000
1741689429.010,-898.926,909.180,-58.594,-871.582
1741689429.014,453.125,908.691,-11.230,458.984
1741689429.018,999.512,999.512,24.414,999.512
1741689429.022,989.746,294.434,20.996,914.062
1741689429.026,-136.719,-1000.000,-46.387,-269.043
1741689429.030,-1000.000,-1000.000,-80.566,-1000.000
1741689429.033,-944.336,-976.074,-71.289,-942.383
1741689429.037,-996.094,-960.938,-71.289,-1000.000
1741689429.041,-939.453,-1000.000,-54.688,-938.477
1741689429.045,-1000.000,-880.371,-92.773,-1000.000
1741689429.049,-204.102,492.676,-108.887,-216.797
1741689429.006,-1000.000,999.512,-54.688,-1000.000
1741689429.010,-898.926,909.180,-58.594,-871.582
1741689429.014,453.125,908.691,-11.230,458.984
1741689429.018,999.512,999.512,24.414,999.512
1741689429.022,989.746,294.434,20.996,914.062
1741689429.026,-136.719,-1000.000,-46.387,-269.043
1741689429.030,-1000.000,-1000.000,-80.566,-1000.000
1741689429.033,-944.336,-976.074,-71.289,-942.383
1741689429.037,-996.094,-960.938,-71.289,-1000.000
1741689429.041,-939.453,-1000.000,-54.688,-938.477
1741689429.045,-1000.000,-880.371,-92.773,-1000.000
1741689429.049,-204.102,492.676,-108.887,-216.797
1741689429.051,999.512,999.512,-20.508,999.512
1741689429.055,891.113,999.512,-3.906,905.762
1741689429.059,999.512,362.793,2.441,999.512
1741689429.063,197.754,-952.637,-49.316,100.098
1741689429.067,-1000.000,-1000.000,-86.426,-1000.000
1741689429.071,-416.992,-116.211,-0.977,-349.121
1741689429.075,906.250,999.512,5.371,924.805
1741689429.078,999.512,999.023,17.578,999.512
1741689429.082,137.207,-148.926,8.789,142.578
1741689429.086,-991.699,-1000.000,-71.777,-993.652
1741689429.090,-1000.000,-1000.000,-73.730,-1000.000
1741689429.094,-261.230,-147.461,-49.805,-263.184
1741689429.051,999.512,999.512,-20.508,999.512
1741689429.055,891.113,999.512,-3.906,905.762
1741689429.059,999.512,362.793,2.441,999.512
1741689429.063,197.754,-952.637,-49.316,100.098
1741689429.067,-1000.000,-1000.000,-86.426,-1000.000
1741689429.071,-416.992,-116.211,-0.977,-349.121
1741689429.075,906.250,999.512,5.371,924.805
1741689429.078,999.512,999.023,17.578,999.512
1741689429.082,137.207,-148.926,8.789,142.578
1741689429.086,-991.699,-1000.000,-71.777,-993.652
1741689429.090,-1000.000,-1000.000,-73.730,-1000.000
1741689429.094,-261.230,-147.461,-49.805,-263.184
1741689429.096,999.512,999.512,-5.859,999.512
1741689429.100,960.938,984.375,-17.090,962.402
1741689429.104,937.988,802.246,-99.609,937.988
1741689429.108,975.098,-458.984,-53.711,974.121
1741689429.112,928.223,-1000.000,-16.602,929.688
1741689429.116,984.863,27.832,-13.672,993.164
1741689429.120,345.703,634.277,-13.184,309.570
1741689429.123,-896.484,-813.965,-83.984,-910.156
1741689429.127,-1000.000,-1000.000,-129.395,-1000.000
1741689429.131,-951.172,-925.293,-106.445,-955.566
1741689429.135,-1000.000,-978.027,-72.266,-1000.000
1741689429.139,-931.152,-1000.000,-47.363,-930.176
1741689429.096,999.512,999.512,-5.859,999.512
1741689429.100,960.938,984.375,-17.090,962.402
1741689429.104,937.988,802.246,-99.609,937.988
1741689429.108,975.098,-458.984,-53.711,974.121
1741689429.112,928.223,-1000.000,-16.602,929.688
1741689429.116,984.863,27.832,-13.672,993.164
1741689429.120,345.703,634.277,-13.184,309.570
1741689429.123,-896.484,-813.965,-83.984,-910.156
1741689429.127,-1000.000,-1000.000,-129.395,-1000.000
1741689429.131,-951.172,-925.293,-106.445,-955.566
1741689429.135,-1000.000,-978.027,-72.266,-1000.000
1741689429.139,-931.152,-1000.000,-47.363,-930.176
1741689429.141,-1000.000,-9.277,-102.539,-1000.000
1741689429.145,-332.520,999.512,-109.375,-369.629
1741689429.149,997.070,898.926,-56.641,979.980
1741689429.153,905.762,956.543,-16.602,913.574
1741689429.157,999.512,933.105,-45.410,999.512
1741689429.161,196.777,-256.348,-66.406,205.078
1741689429.165,-1000.000,-1000.000,-53.711,-1000.000
1741689429.168,-984.375,-900.391,-81.543,-985.352
1741689429.172,-973.633,-1000.000,-53.711,-976.074
1741689429.176,-944.336,-794.434,-0.488,-941.406
1741689429.180,-1000.000,593.262,-57.129,-1000.000
1741689429.184,-216.797,999.512,-61.035,-265.625
1741689429.141,-1000.000,-9.277,-102.539,-1000.000
1741689429.145,-332.520,999.512,-109.375,-369.629
1741689429.149,997.070,898.926,-56.641,979.980
1741689429.153,905.762,956.543,-16.602,913.574
1741689429.157,999.512,933.105,-45.410,999.512
1741689429.161,196.777,-256.348,-66.406,205.078
1741689429.165,-1000.000,-1000.000,-53.711,-1000.000
1741689429.168,-984.375,-900.391,-81.543,-985.352
1741689429.172,-973.633,-1000.000,-53.711,-976.074
1741689429.176,-944.336,-794.434,-0.488,-941.406
1741689429.180,-1000.000,593.262,-57.129,-1000.000
1741689429.184,-216.797,999.512,-61.035,-265.625
1741689429.186,999.512,845.215,-16.602,990.723
1741689429.190,918.457,999.512,-4.883,953.125
1741689429.194,999.512,162.109,26.367,947.754
1741689429.198,-27.832,-1000.000,-53.223,-168.457
1741689429.202,-1000.000,-1000.000,-103.027,-1000.000
1741689429.206,-448.730,-172.852,-53.223,-397.461
1741689429.210,841.797,969.238,-17.090,859.375
1741689429.213,999.512,999.512,2.441,999.512
1741689429.217,548.828,244.141,-43.457,514.648
1741689429.221,-832.520,-1000.000,-86.426,-852.539
1741689429.225,-999.023,-981.445,-66.895,-991.211
1741689429.229,-1000.000,-1000.000,6.836,-1000.000
1741689429.186,999.512,845.215,-16.602,990.723
1741689429.190,918.457,999.512,-4.883,953.125
1741689429.194,999.512,162.109,26.367,947.754
1741689429.198,-27.832,-1000.000,-53.223,-168.457
1741689429.202,-1000.000,-1000.000,-103.027,-1000.000
1741689429.206,-448.730,-172.852,-53.223,-397.461
1741689429.210,841.797,969.238,-17.090,859.375
1741689429.213,999.512,999.512,2.441,999.512
1741689429.217,548.828,244.141,-43.457,514.648
1741689429.221,-832.520,-1000.000,-86.426,-852.539
1741689429.225,-999.023,-981.445,-66.895,-991.211
1741689429.229,-1000.000,-1000.000,6.836,-1000.000
1741689429.696,-855.957,506.836,-68.848,-893.555
1741689429.700,542.969,999.512,-17.090,467.285
1741689429.704,999.512,903.809,-5.371,999.512
1741689429.708,899.902,984.375,12.695,902.832
1741689429.712,978.027,933.594,-19.531,975.586
1741689429.716,967.285,968.262,-30.762,971.680
1741689429.720,903.320,976.074,-2.930,899.414
1741689429.723,999.512,-301.270,-21.973,999.512
1741689429.727,191.406,-1000.000,16.113,263.672
1741689429.731,-1000.000,-884.277,-15.625,-1000.000
1741689429.735,-948.242,-1000.000,-89.844,-994.629
1741689429.739,-1000.000,-146.973,-33.203,-976.074
1741689429.231,-236.328,147.461,50.781,-236.816
1741689429.235,999.512,999.512,11.230,999.512
1741689429.239,950.195,909.668,-7.812,951.660
1741689429.243,939.941,962.891,18.066,938.477
1741689429.247,910.156,889.160,20.508,913.574
1741689429.251,999.512,999.512,65.918,999.512
1741689429.255,187.012,9.766,10.254,156.738
1741689429.258,-1000.000,-1000.000,-115.234,-1000.000
1741689429.262,-983.887,-963.867,-73.242,-979.980
1741689429.266,-973.145,-925.781,-30.273,-975.586
1741689429.270,-1000.000,-1000.000,-1.465,-1000.000
1741689429.274,-934.570,-183.594,-3.906,-932.617
1741689429.277,-1000.000,999.512,-72.266,-1000.000
1741689429.281,-266.602,957.520,-69.336,-302.246
1741689429.285,999.512,873.535,-8.789,982.422
1741689429.289,918.457,999.512,30.273,946.777
1741689429.293,999.512,501.465,23.926,990.234
1741689429.297,-43.945,-894.531,-23.438,-162.109
1741689429.301,-1000.000,-1000.000,-71.777,-1000.000
1741689429.304,-953.125,-952.637,-63.477,-948.242
1741689429.308,-991.211,-998.535,-8.789,-996.582
1741689429.312,-939.453,-962.891,-8.301,-938.965
1741689429.316,-1000.000,-1000.000,-84.961,-1000.000
1741689429.320,-212.402,22.949,-87.402,-209.961
1741689429.277,-1000.000,999.512,-72.266,-1000.000
1741689429.281,-266.602,957.520,-69.336,-302.246
1741689429.285,999.512,873.535,-8.789,982.422
1741689429.289,918.457,999.512,30.273,946.777
1741689429.293,999.512,501.465,23.926,990.234
1741689429.297,-43.945,-894.531,-23.438,-162.109
1741689429.301,-1000.000,-1000.000,-71.777,-1000.000
1741689429.304,-953.125,-952.637,-63.477,-948.242
1741689429.308,-991.211,-998.535,-8.789,-996.582
1741689429.312,-939.453,-962.891,-8.301,-938.965
1741689429.316,-1000.000,-1000.000,-84.961,-1000.000
1741689429.320,-212.402,22.949,-87.402,-209.961
1741689429.321,999.512,999.512,-9.277,992.188
1741689429.325,951.172,999.512,46.387,983.398
1741689429.329,958.496,295.410,36.621,850.098
1741689429.333,-244.629,-989.746,-66.895,-400.391
1741689429.337,-1000.000,-1000.000,-79.102,-1000.000
1741689429.341,-183.594,-41.016,-6.348,-192.383
1741689429.345,999.512,999.512,33.691,999.512
1741689429.348,999.512,352.051,23.926,945.312
1741689429.352,-249.512,-980.957,-88.867,-357.422
1741689429.356,-1000.000,-977.051,-120.117,-1000.000
1741689429.360,-1000.000,-1000.000,-61.523,-1000.000
1741689429.364,-221.191,-7.812,0.000,-208.008
1741689429.321,999.512,999.512,-9.277,992.188
1741689429.325,951.172,999.512,46.387,983.398
1741689429.329,958.496,295.410,36.621,850.098
1741689429.333,-244.629,-989.746,-66.895,-400.391
1741689429.337,-1000.000,-1000.000,-79.102,-1000.000
1741689429.341,-183.594,-41.016,-6.348,-192.383
1741689429.345,999.512,999.512,33.691,999.512
1741689429.348,999.512,352.051,23.926,945.312
1741689429.352,-249.512,-980.957,-88.867,-357.422
1741689429.356,-1000.000,-977.051,-120.117,-1000.000
1741689429.360,-1000.000,-1000.000,-61.523,-1000.000
1741689429.364,-221.191,-7.812,0.000,-208.008
1741689429.366,999.512,999.512,35.156,999.512
1741689429.370,949.707,999.512,-41.992,948.242
1741689429.374,938.965,539.062,-66.406,940.918
1741689429.378,973.633,-805.176,-5.859,973.633
1741689429.382,903.809,-1000.000,7.324,904.785
1741689429.386,999.512,51.270,15.625,999.512
1741689429.390,187.012,322.266,-22.949,179.199
1741689429.393,-1000.000,-1000.000,-103.516,-1000.000
1741689429.397,-983.887,-1000.000,-88.379,-982.910
1741689429.401,-975.098,-944.824,-59.082,-975.586
1741689429.405,-997.070,-979.492,-49.316,-999.023
1741689429.409,-953.613,-1000.000,-45.410,-951.172
1741689429.366,999.512,999.512,35.156,999.512
1741689429.370,949.707,999.512,-41.992,948.242
1741689429.374,938.965,539.062,-66.406,940.918
1741689429.378,973.633,-805.176,-5.859,973.633
1741689429.382,903.809,-1000.000,7.324,904.785
1741689429.386,999.512,51.270,15.625,999.512
1741689429.390,187.012,322.266,-22.949,179.199
1741689429.393,-1000.000,-1000.000,-103.516,-1000.000
1741689429.397,-983.887,-1000.000,-88.379,-982.910
1741689429.401,-975.098,-944.824,-59.082,-975.586
1741689429.405,-997.070,-979.492,-49.316,-999.023
1741689429.409,-953.613,-1000.000,-45.410,-951.172
1741689429.426,-1000.000,64.453,-58.594,-1000.000
1741689429.430,-51.270,999.512,-20.020,-88.867
1741689429.434,999.512,920.410,10.742,999.512
1741689429.438,927.246,972.656,36.133,934.082
1741689429.442,951.660,888.672,6.836,948.730
1741689429.446,979.492,999.512,-32.227,979.980
1741689429.450,924.805,533.203,9.277,930.176
1741689429.453,985.352,-889.648,16.602,976.074
1741689429.457,933.105,-1000.000,23.926,955.566
1741689429.461,-406.738,-886.719,1.465,-348.145
1741689429.465,-1000.000,-1000.000,-80.566,-1000.000
1741689429.469,-860.352,-190.918,-67.871,-873.535
1741689429.426,-1000.000,64.453,-58.594,-1000.000
1741689429.430,-51.270,999.512,-20.020,-88.867
1741689429.434,999.512,920.410,10.742,999.512
1741689429.438,927.246,972.656,36.133,934.082
1741689429.442,951.660,888.672,6.836,948.730
1741689429.446,979.492,999.512,-32.227,979.980
1741689429.450,924.805,533.203,9.277,930.176
1741689429.453,985.352,-889.648,16.602,976.074
1741689429.457,933.105,-1000.000,23.926,955.566
1741689429.461,-406.738,-886.719,1.465,-348.145
1741689429.465,-1000.000,-1000.000,-80.566,-1000.000
1741689429.469,-860.352,-190.918,-67.871,-873.535
1741689429.471,-1000.000,999.512,-31.250,-1000.000
1741689429.475,-491.699,946.777,-25.879,-367.188
1741689429.479,920.410,941.895,-35.156,957.031
1741689429.483,999.512,975.586,-97.656,992.676
1741689429.487,854.980,901.855,-71.289,879.395
1741689429.491,999.512,999.512,20.996,999.512
1741689429.495,728.516,225.098,29.297,873.047
1741689429.498,-696.289,-1000.000,-12.695,-489.746
1741689429.502,-1000.000,-1000.000,-109.863,-1000.000
1741689429.506,-936.523,-916.992,-124.023,-934.570
1741689429.510,-952.148,-1000.000,-54.688,-948.242
1741689429.514,-1000.000,-739.258,-7.812,-1000.000
1741689429.471,-1000.000,999.512,-31.250,-1000.000
1741689429.475,-491.699,946.777,-25.879,-367.188
1741689429.479,920.410,941.895,-35.156,957.031
1741689429.483,999.512,975.586,-97.656,992.676
1741689429.487,854.980,901.855,-71.289,879.395
1741689429.491,999.512,999.512,20.996,999.512
1741689429.495,728.516,225.098,29.297,873.047
1741689429.498,-696.289,-1000.000,-12.695,-489.746
1741689429.502,-1000.000,-1000.000,-109.863,-1000.000
1741689429.506,-936.523,-916.992,-124.023,-934.570
1741689429.510,-952.148,-1000.000,-54.688,-948.242
1741689429.514,-1000.000,-739.258,-7.812,-1000.000
1741689429.516,-211.914,607.422,6.348,-200.684
1741689429.520,999.512,999.512,-56.641,999.512
1741689429.524,948.730,901.367,-62.500,949.219
1741689429.528,939.453,986.328,-0.977,937.012
1741689429.532,911.133,865.723,1.465,917.969
1741689429.536,999.512,999.512,13.184,999.512
1741689429.540,172.852,114.746,-32.227,111.816
1741689429.543,-1000.000,-1000.000,-121.582,-1000.000
1741689429.547,-981.934,-973.633,-74.219,-974.121
1741689429.551,-974.121,-919.922,-22.461,-979.004
1741689429.555,-1000.000,-1000.000,-36.621,-1000.000
1741689429.559,-937.988,-180.176,-42.480,-939.453
1741689429.516,-211.914,607.422,6.348,-200.684
1741689429.520,999.512,999.512,-56.641,999.512
1741689429.524,948.730,901.367,-62.500,949.219
1741689429.528,939.453,986.328,-0.977,937.012
1741689429.532,911.133,865.723,1.465,917.969
1741689429.536,999.512,999.512,13.184,999.512
1741689429.540,172.852,114.746,-32.227,111.816
1741689429.543,-1000.000,-1000.000,-121.582,-1000.000
1741689429.547,-981.934,-973.633,-74.219,-974.121
1741689429.551,-974.121,-919.922,-22.461,-979.004
1741689429.555,-1000.000,-1000.000,-36.621,-1000.000
1741689429.559,-937.988,-180.176,-42.480,-939.453
1741689429.561,-1000.000,999.512,-73.242,-1000.000
1741689429.565,-217.773,955.566,-74.219,-196.777
1741689429.569,999.512,886.230,-45.898,999.512
1741689429.573,887.207,999.512,-7.324,895.996
1741689429.577,999.512,674.805,-33.691,999.512
1741689429.581,188.477,-687.500,-62.012,92.773
1741689429.585,-1000.000,-1000.000,-58.594,-1000.000
1741689429.588,-995.605,-945.312,-76.172,-981.445
1741689429.592,-924.805,-947.754,-50.781,-944.336
1741689429.596,-1000.000,-1000.000,-64.453,-1000.000
1741689429.600,-907.227,-218.262,-110.840,-997.070
1741689429.604,479.980,999.512,-62.012,310.547
1741689429.606,999.512,889.648,9.277,999.512
1741689429.610,999.512,999.512,13.672,999.512
1741689429.614,430.176,173.828,-29.297,384.766
1741689429.618,-897.949,-1000.000,-111.816,-915.039
1741689429.622,-1000.000,-1000.000,-108.887,-1000.000
1741689429.626,-364.258,-185.547,-44.434,-349.121
1741689429.630,915.527,974.609,-6.348,916.016
1741689429.633,976.562,999.512,-9.766,997.559
1741689429.637,952.637,147.461,-76.172,860.352
1741689429.641,-176.758,-1000.000,-95.215,-280.762
1741689429.645,-1000.000,-1000.000,-64.941,-1000.000
1741689429.649,-400.391,-34.180,-25.879,-351.074
1741689429.651,935.547,999.512,-39.062,956.055
1741689429.655,992.188,999.512,-87.891,983.398
1741689429.659,919.922,700.684,-66.895,925.293
1741689429.663,980.469,-599.609,-11.230,975.586
1741689429.667,903.320,-1000.000,10.254,910.156
1741689429.671,999.512,2.930,39.551,999.512
1741689429.675,187.012,253.906,-40.039,127.930
1741689429.678,-1000.000,-1000.000,-73.242,-1000.000
1741689429.682,-983.887,-1000.000,-31.738,-976.562
1741689429.686,-986.328,-916.504,-39.062,-988.770
1741689429.690,-953.125,-1000.000,-19.531,-958.008
1741689429.694,-1000.000,-860.352,-60.059,-1000.000
1741689429.651,935.547,999.512,-39.062,956.055
1741689429.655,992.188,999.512,-87.891,983.398
1741689429.659,919.922,700.684,-66.895,925.293
1741689429.663,980.469,-599.609,-11.230,975.586
1741689429.667,903.320,-1000.000,10.254,910.156
1741689429.671,999.512,2.930,39.551,999.512
1741689429.675,187.012,253.906,-40.039,127.930
1741689429.678,-1000.000,-1000.000,-73.242,-1000.000
1741689429.682,-983.887,-1000.000,-31.738,-976.562
1741689429.686,-986.328,-916.504,-39.062,-988.770
1741689429.690,-953.125,-1000.000,-19.531,-958.008
1741689429.694,-1000.000,-860.352,-60.059,-1000.000
1741689429.741,27.832,999.512,-1.465,216.309
1741689429.745,999.512,945.801,10.742,999.512
1741689429.749,917.480,866.699,-13.672,912.109
1741689429.753,959.473,999.512,-61.523,967.773
1741689429.757,957.031,139.648,-31.738,957.031
1741689429.761,920.898,-600.586,-6.348,922.363
1741689429.765,999.512,956.543,-23.926,999.512
1741689429.768,2.930,-33.203,-65.918,2.930
1741689429.772,-1000.000,-1000.000,-140.625,-1000.000
1741689429.776,-959.473,-867.188,-136.230,-959.961
1741689429.780,-986.816,-1000.000,-89.355,-986.328
1741689429.784,-1000.000,-344.727,-49.316,-1000.000
1741689429.741,27.832,999.512,-1.465,216.309
1741689429.745,999.512,945.801,10.742,999.512
1741689429.749,917.480,866.699,-13.672,912.109
1741689429.753,959.473,999.512,-61.523,967.773
1741689429.757,957.031,139.648,-31.738,957.031
1741689429.761,920.898,-600.586,-6.348,922.363
1741689429.765,999.512,956.543,-23.926,999.512
1741689429.768,2.930,-33.203,-65.918,2.930
1741689429.772,-1000.000,-1000.000,-140.625,-1000.000
1741689429.776,-959.473,-867.188,-136.230,-959.961
1741689429.780,-986.816,-1000.000,-89.355,-986.328
1741689429.784,-1000.000,-344.727,-49.316,-1000.000
1741689429.801,-935.547,989.258,-16.113,-939.453
1741689429.805,-1000.000,972.656,-77.637,-1000.000
1741689429.809,-737.793,928.711,-86.426,-754.883
1741689429.813,701.172,989.746,-34.668,660.645
1741689429.817,999.512,895.996,14.160,999.512
1741689429.821,865.234,999.512,34.668,874.023
1741689429.825,999.512,514.648,-48.340,999.512
1741689429.828,-63.477,-902.832,-76.172,-84.961
1741689429.832,-1000.000,-1000.000,-51.270,-1000.000
1741689429.836,-965.820,-890.625,-38.086,-966.797
1741689429.840,-936.523,-1000.000,-27.832,-940.918
1741689429.844,-1000.000,-162.598,-62.500,-1000.000
1741689429.801,-935.547,989.258,-16.113,-939.453
1741689429.805,-1000.000,972.656,-77.637,-1000.000
1741689429.809,-737.793,928.711,-86.426,-754.883
1741689429.813,701.172,989.746,-34.668,660.645
1741689429.817,999.512,895.996,14.160,999.512
1741689429.821,865.234,999.512,34.668,874.023
1741689429.825,999.512,514.648,-48.340,999.512
1741689429.828,-63.477,-902.832,-76.172,-84.961
1741689429.832,-1000.000,-1000.000,-51.270,-1000.000
1741689429.836,-965.820,-890.625,-38.086,-966.797
1741689429.840,-936.523,-1000.000,-27.832,-940.918
1741689429.844,-1000.000,-162.598,-62.500,-1000.000
1741689429.846,-849.121,999.512,-91.309,-872.559
1741689429.850,567.871,949.707,-65.918,512.207
1741689429.854,999.512,875.488,-21.973,999.512
1741689429.858,980.957,999.512,-17.578,990.723
1741689429.862,732.422,308.105,-83.984,686.523
1741689429.866,-711.426,-1000.000,-103.027,-745.605
1741689429.870,-1000.000,-1000.000,-99.121,-1000.000
1741689429.873,-946.289,-947.266,-124.512,-952.148
1741689429.877,-942.383,-975.586,-90.332,-941.406
1741689429.881,-1000.000,-1000.000,-117.676,-1000.000
1741689429.885,-417.480,30.762,-166.016,-524.902
1741689429.889,973.633,999.512,-92.285,905.273
1741689429.891,914.551,854.004,-35.645,937.500
1741689429.895,999.512,999.512,-15.625,999.512
1741689429.899,634.277,287.598,-41.992,605.469
1741689429.903,-738.770,-974.121,-101.074,-758.789
1741689429.907,-1000.000,-1000.000,-54.688,-1000.000
1741689429.911,-389.648,-182.617,-27.344,-352.051
1741689429.915,864.258,999.512,7.812,879.395
1741689429.918,999.512,999.512,2.930,999.512
1741689429.922,137.695,-107.422,-84.961,166.016
1741689429.926,-984.863,-1000.000,-82.031,-978.516
1741689429.930,-1000.000,-1000.000,-38.574,-1000.000
1741689429.934,-362.305,-74.707,18.555,-367.188
1741689429.891,914.551,854.004,-35.645,937.500
1741689429.895,999.512,999.512,-15.625,999.512
1741689429.899,634.277,287.598,-41.992,605.469
1741689429.903,-738.770,-974.121,-101.074,-758.789
1741689429.907,-1000.000,-1000.000,-54.688,-1000.000
1741689429.911,-389.648,-182.617,-27.344,-352.051
1741689429.915,864.258,999.512,7.812,879.395
1741689429.918,999.512,999.512,2.930,999.512
1741689429.922,137.695,-107.422,-84.961,166.016
1741689429.926,-984.863,-1000.000,-82.031,-978.516
1741689429.930,-1000.000,-1000.000,-38.574,-1000.000
1741689429.934,-362.305,-74.707,18.555,-367.188
1741689429.936,964.844,989.746,4.395,956.543
1741689429.940,979.004,999.512,-36.621,982.422
1741689429.944,925.781,434.082,5.859,924.805
1741689429.948,915.039,-952.148,59.570,917.480
1741689429.952,999.512,-1000.000,77.148,999.512
1741689429.956,182.617,-867.676,76.172,166.504
1741689429.960,-1000.000,-979.492,-66.406,-1000.000
1741689429.963,-1000.000,-1000.000,-118.164,-1000.000
1741689429.967,-313.965,96.191,-41.016,-300.293
1741689429.971,999.512,999.512,-12.207,999.512
1741689429.975,849.121,328.125,0.488,780.273
1741689429.979,-564.941,-989.746,-51.758,-641.602
1741689429.936,964.844,989.746,4.395,956.543
1741689429.940,979.004,999.512,-36.621,982.422
1741689429.944,925.781,434.082,5.859,924.805
1741689429.948,915.039,-952.148,59.570,917.480
1741689429.952,999.512,-1000.000,77.148,999.512
1741689429.956,182.617,-867.676,76.172,166.504
1741689429.960,-1000.000,-979.492,-66.406,-1000.000
1741689429.963,-1000.000,-1000.000,-118.164,-1000.000
1741689429.967,-313.965,96.191,-41.016,-300.293
1741689429.971,999.512,999.512,-12.207,999.512
1741689429.975,849.121,328.125,0.488,780.273
1741689429.979,-564.941,-989.746,-51.758,-641.602
1741689429.981,-1000.000,-1000.000,-66.895,-1000.000
1741689429.985,-934.082,-932.129,-37.109,-936.035
1741689429.989,-1000.000,-998.047,-19.531,-1000.000
1741689429.993,-938.477,-1000.000,0.000,-937.988
1741689429.997,-1000.000,153.809,-62.988,-1000.000
1741689430.001,-207.031,999.512,-69.824,-209.473
1741689430.005,999.512,853.516,-9.277,999.512
1741689430.008,922.363,999.512,-21.484,953.613
1741689430.012,999.512,192.383,-6.836,926.270
1741689430.016,-69.336,-1000.000,-52.246,-229.492
1741689430.020,-1000.000,-1000.000,-104.980,-1000.000
1741689430.024,-422.363,-174.316,-56.641,-385.254
1741689430.026,866.699,960.938,-36.621,874.512
1741689430.030,999.512,999.512,-6.348,999.512
1741689430.034,724.121,384.277,-44.922,702.637
1741689430.038,-541.992,-908.691,-37.109,-560.547
1741689430.042,-1000.000,-1000.000,19.531,-1000.000
1741689430.046,-426.758,-157.715,49.805,-394.043
1741689430.050,908.203,999.512,82.520,921.875
1741689430.053,998.535,953.125,45.898,993.164
1741689430.057,930.664,873.535,-24.414,935.059
1741689430.061,905.762,999.512,12.695,906.738
1741689430.065,999.512,258.301,101.562,999.512
1741689430.069,496.094,-1000.000,137.695,530.762
1741689430.026,866.699,960.938,-36.621,874.512
1741689430.030,999.512,999.512,-6.348,999.512
1741689430.034,724.121,384.277,-44.922,702.637
1741689430.038,-541.992,-908.691,-37.109,-560.547
1741689430.042,-1000.000,-1000.000,19.531,-1000.000
1741689430.046,-426.758,-157.715,49.805,-394.043
1741689430.050,908.203,999.512,82.520,921.875
1741689430.053,998.535,953.125,45.898,993.164
1741689430.057,930.664,873.535,-24.414,935.059
1741689430.061,905.762,999.512,12.695,906.738
1741689430.065,999.512,258.301,101.562,999.512
1741689430.069,496.094,-1000.000,137.695,530.762
1741689430.072,-933.105,-1000.000,84.961,-906.738
1741689430.076,-1000.000,-899.902,23.926,-1000.000
1741689430.080,-889.648,-1000.000,36.621,-895.020
1741689430.084,-1000.000,-598.145,62.988,-1000.000
1741689430.088,-172.852,808.105,70.312,-105.469
1741689430.092,999.512,999.512,108.887,999.512
1741689430.096,954.590,872.070,63.965,946.777
1741689430.099,896.973,999.512,28.809,907.227
1741689430.103,999.512,909.668,68.359,989.258
1741689430.107,898.926,-405.273,66.406,930.664
1741689430.111,-464.844,-1000.000,22.949,-394.531
1741689430.115,-1000.000,-939.453,-26.367,-1000.000
1741689430.072,-933.105,-1000.000,84.961,-906.738
1741689430.076,-1000.000,-899.902,23.926,-1000.000
1741689430.080,-889.648,-1000.000,36.621,-895.020
1741689430.084,-1000.000,-598.145,62.988,-1000.000
1741689430.088,-172.852,808.105,70.312,-105.469
1741689430.092,999.512,999.512,108.887,999.512
1741689430.096,954.590,872.070,63.965,946.777
1741689430.099,896.973,999.512,28.809,907.227
1741689430.103,999.512,909.668,68.359,989.258
1741689430.107,898.926,-405.273,66.406,930.664
1741689430.111,-464.844,-1000.000,22.949,-394.531
1741689430.115,-1000.000,-939.453,-26.367,-1000.000
1741689430.116,-933.594,-1000.000,-10.254,-936.035
1741689430.120,-1000.000,-938.965,10.254,-1000.000
1741689430.124,-1000.000,-1000.000,29.785,-1000.000
1741689430.128,-937.500,-205.566,25.879,-936.523
1741689430.132,-1000.000,999.512,-44.434,-1000.000
1741689430.136,-207.520,944.336,-36.621,-227.539
1741689430.140,983.887,885.742,15.137,971.191
1741689430.143,999.512,999.512,50.781,999.512
1741689430.147,803.223,113.281,57.617,685.547
1741689430.151,-573.242,-1000.000,-46.387,-695.312
1741689430.155,-1000.000,-910.156,-93.262,-1000.000
1741689430.159,-1000.000,-1000.000,-28.809,-1000.000
1741689430.116,-933.594,-1000.000,-10.254,-936.035
1741689430.120,-1000.000,-938.965,10.254,-1000.000
1741689430.124,-1000.000,-1000.000,29.785,-1000.000
1741689430.128,-937.500,-205.566,25.879,-936.523
1741689430.132,-1000.000,999.512,-44.434,-1000.000
1741689430.136,-207.520,944.336,-36.621,-227.539
1741689430.140,983.887,885.742,15.137,971.191
1741689430.143,999.512,999.512,50.781,999.512
1741689430.147,803.223,113.281,57.617,685.547
1741689430.151,-573.242,-1000.000,-46.387,-695.312
1741689430.155,-1000.000,-910.156,-93.262,-1000.000
1741689430.159,-1000.000,-1000.000,-28.809,-1000.000
1741689430.176,-528.809,-259.766,-1.953,-541.504
1741689430.180,906.738,999.512,-6.348,889.160
1741689430.184,999.512,956.543,-58.594,999.512
1741689430.188,928.223,939.941,-77.637,929.199
1741689430.192,906.250,909.180,-24.902,907.227
1741689430.196,999.512,999.512,-13.672,999.512
1741689430.200,469.727,228.027,-0.488,496.094
1741689430.203,-949.219,-1000.000,-63.477,-930.176
1741689430.207,-1000.000,-943.359,-152.344,-1000.000
1741689430.211,-888.672,-1000.000,-125.000,-889.648
1741689430.215,-1000.000,-885.742,-73.730,-1000.000
1741689430.219,-208.496,491.211,-27.832,-175.781
1741689430.176,-528.809,-259.766,-1.953,-541.504
1741689430.180,906.738,999.512,-6.348,889.160
1741689430.184,999.512,956.543,-58.594,999.512
1741689430.188,928.223,939.941,-77.637,929.199
1741689430.192,906.250,909.180,-24.902,907.227
1741689430.196,999.512,999.512,-13.672,999.512
1741689430.200,469.727,228.027,-0.488,496.094
1741689430.203,-949.219,-1000.000,-63.477,-930.176
1741689430.207,-1000.000,-943.359,-152.344,-1000.000
1741689430.211,-888.672,-1000.000,-125.000,-889.648
1741689430.215,-1000.000,-885.742,-73.730,-1000.000
1741689430.219,-208.496,491.211,-27.832,-175.781
1741689430.221,999.512,999.512,-74.219,999.512
1741689430.225,957.520,999.512,-116.211,954.102
1741689430.229,903.809,404.785,-74.219,904.297
1741689430.233,979.004,-981.934,-57.129,988.770
1741689430.237,971.191,-1000.000,-57.129,930.176
1741689430.241,-345.215,-953.613,-70.801,-383.789
1741689430.245,-1000.000,-954.590,-168.945,-1000.000
1741689430.248,-1000.000,-1000.000,-149.414,-1000.000
1741689430.252,-352.539,-230.469,-97.168,-349.609
1741689430.256,973.145,999.512,-96.191,995.117
1741689430.260,999.512,595.703,-107.910,999.512
1741689430.264,-186.523,-793.945,-181.152,-284.668
1741689430.221,999.512,999.512,-74.219,999.512
1741689430.225,957.520,999.512,-116.211,954.102
1741689430.229,903.809,404.785,-74.219,904.297
1741689430.233,979.004,-981.934,-57.129,988.770
1741689430.237,971.191,-1000.000,-57.129,930.176
1741689430.241,-345.215,-953.613,-70.801,-383.789
1741689430.245,-1000.000,-954.590,-168.945,-1000.000
1741689430.248,-1000.000,-1000.000,-149.414,-1000.000
1741689430.252,-352.539,-230.469,-97.168,-349.609
1741689430.256,973.145,999.512,-96.191,995.117
1741689430.260,999.512,595.703,-107.910,999.512
1741689430.264,-186.523,-793.945,-181.152,-284.668
1741689430.266,-1000.000,-1000.000,-171.387,-1000.000
1741689430.270,-953.125,-936.035,-133.301,-947.754
1741689430.274,-958.984,-964.355,-100.098,-975.586
1741689430.278,-1000.000,-1000.000,-91.309,-981.445
1741689430.282,-991.699,-69.824,-148.926,-1000.000
1741689430.286,339.844,999.512,-83.008,162.598
1741689430.290,999.512,999.512,31.738,999.512
1741689430.293,999.512,687.012,15.137,999.512
1741689430.297,539.551,-647.461,-45.410,450.684
1741689430.301,-848.145,-1000.000,-122.070,-888.672
1741689430.305,-1000.000,-913.574,-70.312,-1000.000
1741689430.309,-166.992,235.840,-9.766,-140.625
1741689430.266,-1000.000,-1000.000,-171.387,-1000.000
1741689430.270,-953.125,-936.035,-133.301,-947.754
1741689430.274,-958.984,-964.355,-100.098,-975.586
1741689430.278,-1000.000,-1000.000,-91.309,-981.445
1741689430.282,-991.699,-69.824,-148.926,-1000.000
1741689430.286,339.844,999.512,-83.008,162.598
1741689430.290,999.512,999.512,31.738,999.512
1741689430.293,999.512,687.012,15.137,999.512
1741689430.297,539.551,-647.461,-45.410,450.684
1741689430.301,-848.145,-1000.000,-122.070,-888.672
1741689430.305,-1000.000,-913.574,-70.312,-1000.000
1741689430.309,-166.992,235.840,-9.766,-140.625
1741689430.311,984.863,999.512,-21.484,999.512
1741689430.315,999.512,521.973,-13.672,999.512
1741689430.319,-71.777,-808.105,-83.496,-147.461
1741689430.323,-1000.000,-1000.000,-109.863,-1000.000
1741689430.327,-1000.000,-1000.000,-41.504,-1000.000
1741689430.331,-210.449,-90.332,2.930,-213.379
1741689430.335,999.512,999.512,32.715,999.512
1741689430.338,949.707,949.219,-42.480,950.684
1741689430.342,945.801,899.902,-77.637,947.266
1741689430.346,903.320,-366.211,-33.203,903.809
1741689430.350,999.512,-1000.000,-60.059,999.512
1741689430.354,306.641,-870.605,-38.086,324.219
1741689430.311,984.863,999.512,-21.484,999.512
1741689430.315,999.512,521.973,-13.672,999.512
1741689430.319,-71.777,-808.105,-83.496,-147.461
1741689430.323,-1000.000,-1000.000,-109.863,-1000.000
1741689430.327,-1000.000,-1000.000,-41.504,-1000.000
1741689430.331,-210.449,-90.332,2.930,-213.379
1741689430.335,999.512,999.512,32.715,999.512
1741689430.338,949.707,949.219,-42.480,950.684
1741689430.342,945.801,899.902,-77.637,947.266
1741689430.346,903.320,-366.211,-33.203,903.809
1741689430.350,999.512,-1000.000,-60.059,999.512
1741689430.354,306.641,-870.605,-38.086,324.219
1741689430.357,-1000.000,-1000.000,-66.406,-1000.000
1741689430.361,-1000.000,-431.641,-101.562,-1000.000
1741689430.365,-963.379,999.512,-63.477,-961.914
1741689430.369,-1000.000,265.137,-35.645,-1000.000
1741689430.373,-927.246,-1000.000,12.207,-934.082
1741689430.377,-1000.000,-503.906,-21.973,-1000.000
1741689430.381,-585.449,811.035,-78.125,-667.480
1741689430.384,854.980,953.125,-41.016,751.953
1741689430.388,955.078,999.512,29.785,976.074
1741689430.392,999.512,630.371,55.664,999.512
1741689430.396,202.148,-794.434,-5.371,166.992
1741689430.400,-1000.000,-1000.000,-76.172,-1000.000
1741689430.401,-984.863,-954.590,-61.523,-979.492
1741689430.405,-971.191,-940.918,-33.691,-980.469
1741689430.409,-948.242,-1000.000,-6.348,-938.965
1741689430.413,-1000.000,-457.031,-19.531,-1000.000
1741689430.417,-181.641,882.324,-97.168,-300.781
1741689430.421,999.512,999.512,-59.082,999.512
1741689430.425,879.395,785.156,-22.461,897.461
1741689430.428,999.512,-500.488,-42.969,999.512
1741689430.432,705.566,-1000.000,-47.363,601.074
1741689430.436,-746.094,-935.547,-98.633,-826.172
1741689430.440,-1000.000,-952.637,-114.258,-989.258
1741689430.444,-1000.000,-1000.000,-75.684,-1000.000
1741689430.401,-984.863,-954.590,-61.523,-979.492
1741689430.405,-971.191,-940.918,-33.691,-980.469
1741689430.409,-948.242,-1000.000,-6.348,-938.965
1741689430.413,-1000.000,-457.031,-19.531,-1000.000
1741689430.417,-181.641,882.324,-97.168,-300.781
1741689430.421,999.512,999.512,-59.082,999.512
1741689430.425,879.395,785.156,-22.461,897.461
1741689430.428,999.512,-500.488,-42.969,999.512
1741689430.432,705.566,-1000.000,-47.363,601.074
1741689430.436,-746.094,-935.547,-98.633,-826.172
1741689430.440,-1000.000,-952.637,-114.258,-989.258
1741689430.444,-1000.000,-1000.000,-75.684,-1000.000
1741689430.446,-389.648,-153.809,-20.996,-413.086
1741689430.450,979.492,999.512,-2.930,965.332
1741689430.454,976.074,943.359,-37.598,981.934
1741689430.458,931.641,944.336,-24.902,931.152
1741689430.462,909.180,910.645,23.438,909.668
1741689430.466,999.512,999.512,30.762,999.512
1741689430.470,270.996,176.270,29.785,295.898
1741689430.473,-1000.000,-1000.000,-55.176,-1000.000
1741689430.477,-997.559,-961.914,-109.375,-1000.000
1741689430.481,-966.309,-944.336,-54.199,-964.355
1741689430.485,-1000.000,-1000.000,-4.883,-1000.000
1741689430.489,-1000.000,58.105,20.020,-1000.000
1741689430.446,-389.648,-153.809,-20.996,-413.086
1741689430.450,979.492,999.512,-2.930,965.332
1741689430.454,976.074,943.359,-37.598,981.934
1741689430.458,931.641,944.336,-24.902,931.152
1741689430.462,909.180,910.645,23.438,909.668
1741689430.466,999.512,999.512,30.762,999.512
1741689430.470,270.996,176.270,29.785,295.898
1741689430.473,-1000.000,-1000.000,-55.176,-1000.000
1741689430.477,-997.559,-961.914,-109.375,-1000.000
1741689430.481,-966.309,-944.336,-54.199,-964.355
1741689430.485,-1000.000,-1000.000,-4.883,-1000.000
1741689430.489,-1000.000,58.105,20.020,-1000.000
1741689430.491,-994.141,999.512,-59.570,-990.234
1741689430.495,-947.266,16.113,-79.102,-955.566
1741689430.499,-1000.000,-1000.000,-26.855,-1000.000
1741689430.503,-108.887,-101.074,-16.113,-55.664
1741689430.507,999.512,999.512,13.672,999.512
1741689430.511,934.570,999.512,-9.277,931.641
1741689430.515,949.707,552.246,-61.523,954.590
1741689430.518,958.496,-1000.000,-48.340,954.590
1741689430.522,922.363,-593.750,-16.113,932.129
1741689430.526,999.512,999.512,-20.996,999.512
1741689430.530,-11.719,-73.730,-97.168,-66.895
1741689430.534,-1000.000,-1000.000,-152.832,-1000.000
1741689430.491,-994.141,999.512,-59.570,-990.234
1741689430.495,-947.266,16.113,-79.102,-955.566
1741689430.499,-1000.000,-1000.000,-26.855,-1000.000
1741689430.503,-108.887,-101.074,-16.113,-55.664
1741689430.507,999.512,999.512,13.672,999.512
1741689430.511,934.570,999.512,-9.277,931.641
1741689430.515,949.707,552.246,-61.523,954.590
1741689430.518,958.496,-1000.000,-48.340,954.590
1741689430.522,922.363,-593.750,-16.113,932.129
1741689430.526,999.512,999.512,-20.996,999.512
1741689430.530,-11.719,-73.730,-97.168,-66.895
1741689430.534,-1000.000,-1000.000,-152.832,-1000.000
1741689430.551,-957.520,-881.836,-92.773,-954.102
1741689430.555,-989.258,-1000.000,-25.391,-992.188
1741689430.559,-994.141,-185.059,-19.531,-995.605
1741689430.563,-951.172,999.512,-60.059,-948.730
1741689430.567,-1000.000,962.891,-57.129,-1000.000
1741689430.571,-69.824,871.582,24.902,-107.422
1741689430.575,999.512,999.512,59.082,999.512
1741689430.578,999.512,523.926,34.180,999.512
1741689430.582,168.457,-882.812,-11.230,135.742
1741689430.586,-1000.000,-988.770,-78.613,-1000.000
1741689430.590,-1000.000,-1000.000,-58.105,-1000.000
1741689430.594,-225.586,-214.844,-17.578,-238.770
1741689430.551,-957.520,-881.836,-92.773,-954.102
1741689430.555,-989.258,-1000.000,-25.391,-992.188
1741689430.559,-994.141,-185.059,-19.531,-995.605
1741689430.563,-951.172,999.512,-60.059,-948.730
1741689430.567,-1000.000,962.891,-57.129,-1000.000
1741689430.571,-69.824,871.582,24.902,-107.422
1741689430.575,999.512,999.512,59.082,999.512
1741689430.578,999.512,523.926,34.180,999.512
1741689430.582,168.457,-882.812,-11.230,135.742
1741689430.586,-1000.000,-988.770,-78.613,-1000.000
1741689430.590,-1000.000,-1000.000,-58.105,-1000.000
1741689430.594,-225.586,-214.844,-17.578,-238.770
1741689430.596,956.543,999.512,15.625,957.031
1741689430.600,999.512,935.059,-29.297,999.512
1741689430.604,151.367,-302.734,-105.469,125.488
1741689430.608,-995.605,-1000.000,-85.449,-1000.000
1741689430.612,-1000.000,-1000.000,-44.922,-1000.000
1741689430.616,-287.598,-142.090,-0.977,-313.965
1741689430.620,997.070,999.512,-14.160,986.328
1741689430.623,966.797,889.648,-62.988,972.656
1741689430.627,923.340,999.512,-43.457,922.363
1741689430.631,925.781,772.461,-18.555,927.734
1741689430.635,999.512,-592.285,-4.883,999.512
1741689430.639,35.156,-1000.000,-9.766,46.387
1741689430.596,956.543,999.512,15.625,957.031
1741689430.600,999.512,935.059,-29.297,999.512
1741689430.604,151.367,-302.734,-105.469,125.488
1741689430.608,-995.605,-1000.000,-85.449,-1000.000
1741689430.612,-1000.000,-1000.000,-44.922,-1000.000
1741689430.616,-287.598,-142.090,-0.977,-313.965
1741689430.620,997.070,999.512,-14.160,986.328
1741689430.623,966.797,889.648,-62.988,972.656
1741689430.627,923.340,999.512,-43.457,922.363
1741689430.631,925.781,772.461,-18.555,927.734
1741689430.635,999.512,-592.285,-4.883,999.512
1741689430.639,35.156,-1000.000,-9.766,46.387
1741689430.642,-1000.000,-1000.000,-84.961,-1000.000
1741689430.646,-951.172,-373.047,-69.824,-997.559
1741689430.650,-1000.000,980.469,-34.668,-876.465
1741689430.654,195.312,977.051,-7.324,413.574
1741689430.658,999.512,923.340,54.688,999.512
1741689430.662,904.785,923.340,-7.324,908.203
1741689430.666,966.797,999.512,-47.852,972.168
1741689430.669,904.297,103.516,-14.648,905.762
1741689430.673,999.512,-1000.000,-18.066,999.512
1741689430.677,180.176,-910.645,1.953,172.363
1741689430.681,-1000.000,-1000.000,-77.637,-1000.000
1741689430.685,-982.910,-243.652,-100.586,-981.934
1741689430.642,-1000.000,-1000.000,-84.961,-1000.000
1741689430.646,-951.172,-373.047,-69.824,-997.559
1741689430.650,-1000.000,980.469,-34.668,-876.465
1741689430.654,195.312,977.051,-7.324,413.574
1741689430.658,999.512,923.340,54.688,999.512
1741689430.662,904.785,923.340,-7.324,908.203
1741689430.666,966.797,999.512,-47.852,972.168
1741689430.669,904.297,103.516,-14.648,905.762
1741689430.673,999.512,-1000.000,-18.066,999.512
1741689430.677,180.176,-910.645,1.953,172.363
1741689430.681,-1000.000,-1000.000,-77.637,-1000.000
1741689430.685,-982.910,-243.652,-100.586,-981.934
1741689430.686,-973.633,999.512,-48.340,-974.121
1741689430.690,-1000.000,999.512,-44.434,-1000.000
1741689430.694,-940.918,-71.777,-16.113,-948.242
1741689430.698,-1000.000,-1000.000,-51.758,-1000.000
1741689430.702,-802.246,59.082,-78.125,-843.750
1741689430.706,611.816,999.512,-39.551,520.020
1741689430.710,999.512,999.512,-22.461,999.512
1741689430.713,999.512,453.613,3.906,999.512
1741689430.717,100.098,-944.336,-25.391,9.277
1741689430.721,-1000.000,-965.332,-119.629,-1000.000
1741689430.725,-957.520,-1000.000,-82.031,-954.102
1741689430.729,-1000.000,-563.965,-29.297,-1000.000
1741689430.686,-973.633,999.512,-48.340,-974.121
1741689430.690,-1000.000,999.512,-44.434,-1000.000
1741689430.694,-940.918,-71.777,-16.113,-948.242
1741689430.698,-1000.000,-1000.000,-51.758,-1000.000
1741689430.702,-802.246,59.082,-78.125,-843.750
1741689430.706,611.816,999.512,-39.551,520.020
1741689430.710,999.512,999.512,-22.461,999.512
1741689430.713,999.512,453.613,3.906,999.512
1741689430.717,100.098,-944.336,-25.391,9.277
1741689430.721,-1000.000,-965.332,-119.629,-1000.000
1741689430.725,-957.520,-1000.000,-82.031,-954.102
1741689430.729,-1000.000,-563.965,-29.297,-1000.000
1741689430.731,192.383,856.934,5.859,207.520
1741689430.735,999.512,999.512,5.859,999.512
1741689430.739,917.480,844.238,-23.438,919.434
1741689430.743,916.504,999.512,-24.902,919.922
1741689430.747,999.512,372.559,-13.672,999.512
1741689430.751,861.328,-991.699,14.648,875.000
1741689430.755,-520.996,-1000.000,-29.297,-482.422
1741689430.758,-1000.000,-959.473,-122.559,-1000.000
1741689430.762,-933.594,-1000.000,-102.051,-935.547
1741689430.766,-1000.000,-948.730,-61.523,-1000.000
1741689430.770,-1000.000,-1000.000,-41.992,-1000.000
1741689430.774,-982.910,-107.422,10.254,-983.887
1741689430.776,-966.309,999.512,-49.805,-966.797
1741689430.780,-1000.000,936.035,-68.359,-1000.000
1741689430.784,57.617,948.242,-12.695,40.527
1741689430.788,999.512,977.051,10.254,999.512
1741689430.792,854.980,899.414,8.789,868.164
1741689430.796,999.512,999.512,-44.434,999.512
1741689430.800,756.348,278.809,-72.754,812.500
1741689430.803,-667.480,-1000.000,-81.543,-572.754
1741689430.807,-1000.000,-1000.000,-46.387,-1000.000
1741689430.811,-950.684,-899.902,-12.695,-949.707
1741689430.815,-943.359,-1000.000,-88.867,-946.289
1741689430.819,-1000.000,-267.090,-96.680,-1000.000
1741689430.776,-966.309,999.512,-49.805,-966.797
1741689430.780,-1000.000,936.035,-68.359,-1000.000
1741689430.784,57.617,948.242,-12.695,40.527
1741689430.788,999.512,977.051,10.254,999.512
1741689430.792,854.980,899.414,8.789,868.164
1741689430.796,999.512,999.512,-44.434,999.512
1741689430.800,756.348,278.809,-72.754,812.500
1741689430.803,-667.480,-1000.000,-81.543,-572.754
1741689430.807,-1000.000,-1000.000,-46.387,-1000.000
1741689430.811,-950.684,-899.902,-12.695,-949.707
1741689430.815,-943.359,-1000.000,-88.867,-946.289
1741689430.819,-1000.000,-267.090,-96.680,-1000.000
1741689430.821,-652.832,978.027,-45.410,-696.777
1741689430.825,738.281,986.816,-14.648,687.012
1741689430.829,999.512,825.684,4.883,999.512
1741689430.833,97.168,-356.934,-56.152,-20.508
1741689430.837,-1000.000,-1000.000,-95.703,-1000.000
1741689430.841,-947.266,-136.719,-36.621,-873.047
1741689430.845,302.246,971.191,-26.367,353.516
1741689430.848,999.512,999.512,-27.344,999.512
1741689430.852,714.355,545.898,-38.574,583.984
1741689430.856,-564.941,-771.484,-82.031,-692.383
1741689430.860,-1000.000,-1000.000,-47.363,-1000.000
1741689430.864,-815.430,-172.363,-6.836,-768.555
1741689430.821,-652.832,978.027,-45.410,-696.777
1741689430.825,738.281,986.816,-14.648,687.012
1741689430.829,999.512,825.684,4.883,999.512
1741689430.833,97.168,-356.934,-56.152,-20.508
1741689430.837,-1000.000,-1000.000,-95.703,-1000.000
1741689430.841,-947.266,-136.719,-36.621,-873.047
1741689430.845,302.246,971.191,-26.367,353.516
1741689430.848,999.512,999.512,-27.344,999.512
1741689430.852,714.355,545.898,-38.574,583.984
1741689430.856,-564.941,-771.484,-82.031,-692.383
1741689430.860,-1000.000,-1000.000,-47.363,-1000.000
1741689430.864,-815.430,-172.363,-6.836,-768.555
1741689430.867,494.141,949.707,19.043,541.016
1741689430.871,999.512,999.512,-32.715,999.512
1741689430.875,899.902,566.895,-77.637,903.809
1741689430.879,985.352,-816.406,-20.020,984.375
1741689430.883,895.020,-1000.000,1.465,897.949
1741689430.887,999.512,392.090,20.020,999.512
1741689430.891,342.773,416.992,-26.367,313.477
1741689430.894,-1000.000,-1000.000,-95.215,-1000.000
1741689430.898,-1000.000,-1000.000,-68.848,-1000.000
1741689430.902,-966.309,-902.344,-5.859,-967.773
1741689430.906,-987.305,-1000.000,29.297,-987.793
1741689430.910,-978.516,-718.750,11.719,-978.027
1741689430.867,494.141,949.707,19.043,541.016
1741689430.871,999.512,999.512,-32.715,999.512
1741689430.875,899.902,566.895,-77.637,903.809
1741689430.879,985.352,-816.406,-20.020,984.375
1741689430.883,895.020,-1000.000,1.465,897.949
1741689430.887,999.512,392.090,20.020,999.512
1741689430.891,342.773,416.992,-26.367,313.477
1741689430.894,-1000.000,-1000.000,-95.215,-1000.000
1741689430.898,-1000.000,-1000.000,-68.848,-1000.000
1741689430.902,-966.309,-902.344,-5.859,-967.773
1741689430.906,-987.305,-1000.000,29.297,-987.793
1741689430.910,-978.516,-718.750,11.719,-978.027
1741689430.926,-1000.000,677.734,-48.340,-1000.000
1741689430.930,158.691,999.512,-6.348,137.695
1741689430.934,999.512,848.145,42.480,999.512
1741689430.938,977.539,999.512,35.645,999.512
1741689430.942,761.719,154.297,48.340,658.203
1741689430.946,-657.227,-1000.000,-13.184,-751.465
1741689430.950,-1000.000,-979.980,-68.848,-1000.000
1741689430.953,-936.035,-981.934,-56.641,-941.406
1741689430.957,-1000.000,-979.492,6.836,-1000.000
1741689430.961,-948.730,-986.328,-1.953,-941.895
1741689430.965,-1000.000,-1000.000,-103.516,-1000.000
1741689430.969,-90.332,185.547,-65.918,-163.086
1741689430.926,-1000.000,677.734,-48.340,-1000.000
1741689430.930,158.691,999.512,-6.348,137.695
1741689430.934,999.512,848.145,42.480,999.512
1741689430.938,977.539,999.512,35.645,999.512
1741689430.942,761.719,154.297,48.340,658.203
1741689430.946,-657.227,-1000.000,-13.184,-751.465
1741689430.950,-1000.000,-979.980,-68.848,-1000.000
1741689430.953,-936.035,-981.934,-56.641,-941.406
1741689430.957,-1000.000,-979.492,6.836,-1000.000
1741689430.961,-948.730,-986.328,-1.953,-941.895
1741689430.965,-1000.000,-1000.000,-103.516,-1000.000
1741689430.969,-90.332,185.547,-65.918,-163.086
1741689430.971,999.512,999.512,4.883,999.512
1741689430.975,918.457,999.512,14.160,966.797
1741689430.979,999.512,224.121,27.832,877.441
1741689430.983,-151.855,-999.512,-52.246,-339.355
1741689430.987,-1000.000,-1000.000,-80.078,-1000.000
1741689430.991,-257.812,-161.133,-47.363,-250.000
1741689430.995,928.711,992.676,-27.344,928.711
1741689430.998,999.512,999.512,1.953,999.512
1741689431.002,286.621,23.926,-34.180,242.676
1741689431.006,-1000.000,-1000.000,-57.617,-1000.000
1741689431.010,-1000.000,-977.051,-44.434,-999.512
1741689431.014,-962.891,-948.242,-28.809,-969.238
1741689430.971,999.512,999.512,4.883,999.512
1741689430.975,918.457,999.512,14.160,966.797
1741689430.979,999.512,224.121,27.832,877.441
1741689430.983,-151.855,-999.512,-52.246,-339.355
1741689430.987,-1000.000,-1000.000,-80.078,-1000.000
1741689430.991,-257.812,-161.133,-47.363,-250.000
1741689430.995,928.711,992.676,-27.344,928.711
1741689430.998,999.512,999.512,1.953,999.512
1741689431.002,286.621,23.926,-34.180,242.676
1741689431.006,-1000.000,-1000.000,-57.617,-1000.000
1741689431.010,-1000.000,-977.051,-44.434,-999.512
1741689431.014,-962.891,-948.242,-28.809,-969.238
1741689430.971,999.512,999.512,4.883,999.512
1741689430.975,918.457,999.512,14.160,966.797
1741689430.979,999.512,224.121,27.832,877.441
1741689430.983,-151.855,-999.512,-52.246,-339.355
1741689430.987,-1000.000,-1000.000,-80.078,-1000.000
1741689430.991,-257.812,-161.133,-47.363,-250.000
1741689430.995,928.711,992.676,-27.344,928.711
1741689430.998,999.512,999.512,1.953,999.512
1741689431.002,286.621,23.926,-34.180,242.676
1741689431.006,-1000.000,-1000.000,-57.617,-1000.000
1741689431.010,-1000.000,-977.051,-44.434,-999.512
1741689431.014,-962.891,-948.242,-28.809,-969.238
1741689431.016,-948.242,-1000.000,0.488,-943.359
1741689431.020,-1000.000,-989.746,-51.270,-1000.000
1741689431.024,-221.191,275.879,-111.816,-275.391
1741689431.028,999.512,999.512,-46.387,999.512
1741689431.032,903.320,835.938,-16.602,911.133
1741689431.036,972.168,999.512,-2.441,974.609
1741689431.040,897.949,442.383,-60.059,869.141
1741689431.043,-477.051,-959.961,-125.977,-504.883
1741689431.047,-1000.000,-1000.000,-100.098,-1000.000
1741689431.051,-939.453,-890.625,-84.473,-940.918
1741689431.055,-983.398,-1000.000,-57.129,-986.816
1741689431.059,-982.910,-208.984,-38.574,-978.027
1741689431.016,-948.242,-1000.000,0.488,-943.359
1741689431.020,-1000.000,-989.746,-51.270,-1000.000
1741689431.024,-221.191,275.879,-111.816,-275.391
1741689431.028,999.512,999.512,-46.387,999.512
1741689431.032,903.320,835.938,-16.602,911.133
1741689431.036,972.168,999.512,-2.441,974.609
1741689431.040,897.949,442.383,-60.059,869.141
1741689431.043,-477.051,-959.961,-125.977,-504.883
1741689431.047,-1000.000,-1000.000,-100.098,-1000.000
1741689431.051,-939.453,-890.625,-84.473,-940.918
1741689431.055,-983.398,-1000.000,-57.129,-986.816
1741689431.059,-982.910,-208.984,-38.574,-978.027
1741689431.061,-1000.000,999.512,-66.895,-1000.000
1741689431.065,184.570,898.926,-56.641,132.324
1741689431.069,999.512,987.305,18.555,999.512
1741689431.073,999.512,833.984,71.777,999.512
1741689431.077,478.516,-540.527,31.250,380.371
1741689431.081,-942.383,-1000.000,-51.758,-984.863
1741689431.085,-1000.000,-936.035,-85.449,-1000.000
1741689431.088,-951.172,-949.707,-71.777,-958.496
1741689431.092,-1000.000,-1000.000,-23.438,-1000.000
1741689431.096,-952.637,-187.988,-30.273,-948.242
1741689431.100,-1000.000,999.512,-117.188,-1000.000
1741689431.104,-42.969,948.730,-75.195,-98.633
1741689431.061,-1000.000,999.512,-66.895,-1000.000
1741689431.065,184.570,898.926,-56.641,132.324
1741689431.069,999.512,987.305,18.555,999.512
1741689431.073,999.512,833.984,71.777,999.512
1741689431.077,478.516,-540.527,31.250,380.371
1741689431.081,-942.383,-1000.000,-51.758,-984.863
1741689431.085,-1000.000,-936.035,-85.449,-1000.000
1741689431.088,-951.172,-949.707,-71.777,-958.496
1741689431.092,-1000.000,-1000.000,-23.438,-1000.000
1741689431.096,-952.637,-187.988,-30.273,-948.242
1741689431.100,-1000.000,999.512,-117.188,-1000.000
1741689431.104,-42.969,948.730,-75.195,-98.633
1741689431.106,999.512,877.930,2.441,999.512
1741689431.110,986.816,999.512,12.695,999.512
1741689431.114,788.086,213.379,-15.625,702.637
1741689431.118,-540.039,-1000.000,-88.379,-616.699
1741689431.122,-1000.000,-1000.000,-87.402,-1000.000
1741689431.126,-153.809,-186.523,-46.387,-159.668
1741689431.130,961.914,999.512,-4.395,965.332
1741689431.133,999.512,835.449,-4.395,999.512
1741689431.137,179.199,-430.176,-62.012,157.715
1741689431.141,-1000.000,-1000.000,-57.617,-1000.000
1741689431.145,-1000.000,-812.012,-15.137,-1000.000
1741689431.149,116.211,423.340,15.137,180.176
1741689431.152,999.512,999.512,-10.254,999.512
1741689431.156,912.109,512.207,-66.406,910.645
1741689431.160,960.938,-745.605,-64.453,964.355
1741689431.164,981.445,-1000.000,-54.199,980.469
1741689431.168,891.602,-947.754,-41.016,894.043
1741689431.172,999.512,527.344,14.648,999.512
1741689431.176,499.023,571.777,-19.531,482.910
1741689431.179,-931.152,-1000.000,-69.824,-933.594
1741689431.183,-1000.000,-1000.000,-33.691,-1000.000
1741689431.187,-956.055,-941.406,-20.996,-958.008
1741689431.191,-944.336,-969.238,-3.906,-943.848
1741689431.195,-1000.000,-1000.000,-20.996,-1000.000
1741689431.152,999.512,999.512,-10.254,999.512
1741689431.156,912.109,512.207,-66.406,910.645
1741689431.160,960.938,-745.605,-64.453,964.355
1741689431.164,981.445,-1000.000,-54.199,980.469
1741689431.168,891.602,-947.754,-41.016,894.043
1741689431.172,999.512,527.344,14.648,999.512
1741689431.176,499.023,571.777,-19.531,482.910
1741689431.179,-931.152,-1000.000,-69.824,-933.594
1741689431.183,-1000.000,-1000.000,-33.691,-1000.000
1741689431.187,-956.055,-941.406,-20.996,-958.008
1741689431.191,-944.336,-969.238,-3.906,-943.848
1741689431.195,-1000.000,-1000.000,-20.996,-1000.000
1741689431.197,-371.094,-60.547,-71.289,-390.137
1741689431.201,993.164,999.512,-13.184,980.469
1741689431.205,901.367,898.926,45.410,908.691
1741689431.209,999.512,999.512,27.344,999.512
1741689431.213,452.637,-47.363,-7.812,421.875
1741689431.217,-963.867,-1000.000,-58.594,-954.102
1741689431.221,-968.262,-898.926,-65.918,-996.582
1741689431.224,-1000.000,-1000.000,-42.480,-1000.000
1741689431.228,-212.402,-197.266,6.836,23.438
1741689431.232,999.512,999.512,8.301,999.512
1741689431.236,947.266,936.523,-36.621,929.199
1741689431.240,941.406,898.438,8.789,956.055
1741689431.197,-371.094,-60.547,-71.289,-390.137
1741689431.201,993.164,999.512,-13.184,980.469
1741689431.205,901.367,898.926,45.410,908.691
1741689431.209,999.512,999.512,27.344,999.512
1741689431.213,452.637,-47.363,-7.812,421.875
1741689431.217,-963.867,-1000.000,-58.594,-954.102
1741689431.221,-968.262,-898.926,-65.918,-996.582
1741689431.224,-1000.000,-1000.000,-42.480,-1000.000
1741689431.228,-212.402,-197.266,6.836,23.438
1741689431.232,999.512,999.512,8.301,999.512
1741689431.236,947.266,936.523,-36.621,929.199
1741689431.240,941.406,898.438,8.789,956.055
1741689431.241,909.668,999.512,24.414,906.250
1741689431.245,999.512,6.348,15.137,999.512
1741689431.249,207.031,-1000.000,-8.301,242.188
1741689431.253,-1000.000,-1000.000,-111.328,-1000.000
1741689431.257,-1000.000,-519.043,-112.793,-991.699
1741689431.261,44.434,827.637,-62.988,213.867
1741689431.265,999.512,999.512,-31.738,999.512
1741689431.268,436.523,37.598,-52.246,396.484
1741689431.272,-940.918,-1000.000,-132.812,-944.824
1741689431.276,-1000.000,-907.715,-135.254,-1000.000
1741689431.280,-948.242,-1000.000,-79.590,-951.172
1741689431.284,-1000.000,-673.340,-45.898,-1000.000
1741689431.241,909.668,999.512,24.414,906.250
1741689431.245,999.512,6.348,15.137,999.512
1741689431.249,207.031,-1000.000,-8.301,242.188
1741689431.253,-1000.000,-1000.000,-111.328,-1000.000
1741689431.257,-1000.000,-519.043,-112.793,-991.699
1741689431.261,44.434,827.637,-62.988,213.867
1741689431.265,999.512,999.512,-31.738,999.512
1741689431.268,436.523,37.598,-52.246,396.484
1741689431.272,-940.918,-1000.000,-132.812,-944.824
1741689431.276,-1000.000,-907.715,-135.254,-1000.000
1741689431.280,-948.242,-1000.000,-79.590,-951.172
1741689431.284,-1000.000,-673.340,-45.898,-1000.000
1741689431.301,-927.246,733.398,-21.484,-927.734
1741689431.305,-1000.000,999.512,-68.359,-1000.000
1741689431.309,-441.895,911.621,-95.215,-464.844
1741689431.313,957.031,981.934,-51.270,938.965
1741689431.317,951.660,915.039,-13.184,956.055
1741689431.321,928.711,999.512,-5.859,934.570
1741689431.325,979.980,292.969,-56.152,925.781
1741689431.328,-347.168,-976.562,-104.492,-395.508
1741689431.332,-1000.000,-1000.000,-122.070,-1000.000
1741689431.336,-936.523,-919.434,-99.609,-939.941
1741689431.340,-997.559,-1000.000,-53.223,-998.535
1741689431.344,-950.195,-89.844,-57.617,-950.195
1741689431.301,-927.246,733.398,-21.484,-927.734
1741689431.305,-1000.000,999.512,-68.359,-1000.000
1741689431.309,-441.895,911.621,-95.215,-464.844
1741689431.313,957.031,981.934,-51.270,938.965
1741689431.317,951.660,915.039,-13.184,956.055
1741689431.321,928.711,999.512,-5.859,934.570
1741689431.325,979.980,292.969,-56.152,925.781
1741689431.328,-347.168,-976.562,-104.492,-395.508
1741689431.332,-1000.000,-1000.000,-122.070,-1000.000
1741689431.336,-936.523,-919.434,-99.609,-939.941
1741689431.340,-997.559,-1000.000,-53.223,-998.535
1741689431.344,-950.195,-89.844,-57.617,-950.195
1741689431.346,-1000.000,999.512,-82.520,-1000.000
1741689431.350,-79.590,928.711,-68.359,-97.168
1741689431.354,999.512,914.062,-28.809,999.023
1741689431.358,999.512,999.512,-15.137,999.512
1741689431.362,176.270,-66.406,-53.223,181.152
1741689431.366,-1000.000,-1000.000,-84.473,-1000.000
1741689431.370,-922.363,-926.270,-90.820,-921.387
1741689431.373,-1000.000,-1000.000,-63.477,-1000.000
1741689431.377,-228.027,38.574,-23.438,-261.719
1741689431.381,999.512,999.512,-19.043,999.512
1741689431.385,964.844,914.551,-32.227,970.215
1741689431.389,875.488,906.738,-24.414,876.465
1741689431.346,-1000.000,999.512,-82.520,-1000.000
1741689431.350,-79.590,928.711,-68.359,-97.168
1741689431.354,999.512,914.062,-28.809,999.023
1741689431.358,999.512,999.512,-15.137,999.512
1741689431.362,176.270,-66.406,-53.223,181.152
1741689431.366,-1000.000,-1000.000,-84.473,-1000.000
1741689431.370,-922.363,-926.270,-90.820,-921.387
1741689431.373,-1000.000,-1000.000,-63.477,-1000.000
1741689431.377,-228.027,38.574,-23.438,-261.719
1741689431.381,999.512,999.512,-19.043,999.512
1741689431.385,964.844,914.551,-32.227,970.215
1741689431.389,875.488,906.738,-24.414,876.465
1741689431.391,999.512,999.512,4.395,999.512
1741689431.395,721.680,81.543,41.016,730.957
1741689431.399,-710.449,-1000.000,20.508,-680.176
1741689431.403,-1000.000,-958.984,-54.199,-1000.000
1741689431.407,-1000.000,-1000.000,-28.320,-1000.000
1741689431.411,-235.352,173.340,18.555,-218.262
1741689431.415,999.512,999.512,58.594,999.512
1741689431.418,950.195,911.133,24.902,948.730
1741689431.422,940.918,901.855,-33.691,942.383
1741689431.426,963.379,999.512,2.441,965.820
1741689431.430,918.945,217.773,44.434,916.992
1741689431.434,999.512,-1000.000,97.656,999.512
1741689431.391,999.512,999.512,4.395,999.512
1741689431.395,721.680,81.543,41.016,730.957
1741689431.399,-710.449,-1000.000,20.508,-680.176
1741689431.403,-1000.000,-958.984,-54.199,-1000.000
1741689431.407,-1000.000,-1000.000,-28.320,-1000.000
1741689431.411,-235.352,173.340,18.555,-218.262
1741689431.415,999.512,999.512,58.594,999.512
1741689431.418,950.195,911.133,24.902,948.730
1741689431.422,940.918,901.855,-33.691,942.383
1741689431.426,963.379,999.512,2.441,965.820
1741689431.430,918.945,217.773,44.434,916.992
1741689431.434,999.512,-1000.000,97.656,999.512
1741689431.436,20.508,-1000.000,80.078,55.176
1741689431.440,-1000.000,-904.785,-46.875,-1000.000
1741689431.444,-915.527,-1000.000,-73.730,-930.176
1741689431.448,-1000.000,-661.621,-20.020,-1000.000
1741689431.452,-50.293,765.625,34.668,14.648
1741689431.456,999.512,970.703,80.078,999.512
1741689431.460,926.758,999.512,-1.953,922.363
1741689431.463,954.590,618.164,-61.523,960.449
1741689431.467,904.297,-788.574,-18.555,902.832
1741689431.471,999.512,-1000.000,-0.977,999.512
1741689431.475,208.984,-945.312,25.391,236.816
1741689431.479,-1000.000,-950.195,-27.832,-987.793
1741689431.436,20.508,-1000.000,80.078,55.176
1741689431.440,-1000.000,-904.785,-46.875,-1000.000
1741689431.444,-915.527,-1000.000,-73.730,-930.176
1741689431.448,-1000.000,-661.621,-20.020,-1000.000
1741689431.452,-50.293,765.625,34.668,14.648
1741689431.456,999.512,970.703,80.078,999.512
1741689431.460,926.758,999.512,-1.953,922.363
1741689431.463,954.590,618.164,-61.523,960.449
1741689431.467,904.297,-788.574,-18.555,902.832
1741689431.471,999.512,-1000.000,-0.977,999.512
1741689431.475,208.984,-945.312,25.391,236.816
1741689431.479,-1000.000,-950.195,-27.832,-987.793
1741689431.482,-1000.000,-1000.000,-58.105,-1000.000
1741689431.486,-804.688,-218.262,-6.836,-712.891
1741689431.490,568.359,999.512,20.508,655.273
1741689431.494,999.512,964.844,81.055,999.512
1741689431.498,899.902,869.141,10.254,906.250
1741689431.502,979.004,999.512,-41.016,978.516
1741689431.506,904.297,575.684,10.254,906.250
1741689431.509,999.512,-856.934,-19.531,999.512
1741689431.513,180.176,-1000.000,-32.227,160.156
1741689431.517,-1000.000,-894.043,-64.941,-1000.000
1741689431.521,-982.910,-1000.000,-78.125,-980.469
1741689431.525,-973.633,-134.277,-12.695,-975.098
1741689431.482,-1000.000,-1000.000,-58.105,-1000.000
1741689431.486,-804.688,-218.262,-6.836,-712.891
1741689431.490,568.359,999.512,20.508,655.273
1741689431.494,999.512,964.844,81.055,999.512
1741689431.498,899.902,869.141,10.254,906.250
1741689431.502,979.004,999.512,-41.016,978.516
1741689431.506,904.297,575.684,10.254,906.250
1741689431.509,999.512,-856.934,-19.531,999.512
1741689431.513,180.176,-1000.000,-32.227,160.156
1741689431.517,-1000.000,-894.043,-64.941,-1000.000
1741689431.521,-982.910,-1000.000,-78.125,-980.469
1741689431.525,-973.633,-134.277,-12.695,-975.098
1741689431.482,-1000.000,-1000.000,-58.105,-1000.000
1741689431.486,-804.688,-218.262,-6.836,-712.891
1741689431.490,568.359,999.512,20.508,655.273
1741689431.494,999.512,964.844,81.055,999.512
1741689431.498,899.902,869.141,10.254,906.250
1741689431.502,979.004,999.512,-41.016,978.516
1741689431.506,904.297,575.684,10.254,906.250
1741689431.509,999.512,-856.934,-19.531,999.512
1741689431.513,180.176,-1000.000,-32.227,160.156
1741689431.517,-1000.000,-894.043,-64.941,-1000.000
1741689431.521,-982.910,-1000.000,-78.125,-980.469
1741689431.525,-973.633,-134.277,-12.695,-975.098
1741689431.526,-1000.000,999.512,6.836,-1000.000
1741689431.530,-1000.000,116.699,7.812,-1000.000
1741689431.534,-1000.000,-1000.000,-63.477,-1000.000
1741689431.538,-1000.000,-927.246,-105.469,-1000.000
1741689431.542,-1000.000,239.258,-38.574,-1000.000
1741689431.546,-1000.000,999.512,1.465,-1000.000
1741689431.550,-1000.000,517.578,4.395,-1000.000
1741689431.553,-1000.000,-842.773,-62.988,-1000.000
1741689431.557,-933.105,-1000.000,-123.047,-986.816
1741689431.561,-1000.000,-1000.000,-70.801,-955.566
1741689431.565,-358.887,-148.926,-59.082,-1000.000
1741689431.569,999.512,999.512,-11.230,120.605
1741689431.526,-1000.000,999.512,6.836,-1000.000
1741689431.530,-1000.000,116.699,7.812,-1000.000
1741689431.534,-1000.000,-1000.000,-63.477,-1000.000
1741689431.538,-1000.000,-927.246,-105.469,-1000.000
1741689431.542,-1000.000,239.258,-38.574,-1000.000
1741689431.546,-1000.000,999.512,1.465,-1000.000
1741689431.550,-1000.000,517.578,4.395,-1000.000
1741689431.553,-1000.000,-842.773,-62.988,-1000.000
1741689431.557,-933.105,-1000.000,-123.047,-986.816
1741689431.561,-1000.000,-1000.000,-70.801,-955.566
1741689431.565,-358.887,-148.926,-59.082,-1000.000
1741689431.569,999.512,999.512,-11.230,120.605
1741689431.571,733.398,730.957,30.273,488.281
1741689431.575,-724.609,-684.570,-41.016,-1000.000
1741689431.579,-1000.000,-1000.000,-58.594,-1000.000
1741689431.583,-935.547,-994.629,-41.016,-952.148
1741689431.587,-1000.000,-770.020,-21.973,-1000.000
1741689431.591,-1000.000,736.816,-2.441,-1000.000
1741689431.595,-1000.000,756.348,-56.152,-1000.000
1741689431.598,-1000.000,-781.250,-55.664,-1000.000
1741689431.602,-1000.000,-1000.000,-38.086,-1000.000
1741689431.606,-1000.000,-895.020,-42.969,-1000.000
1741689431.610,-1000.000,-1000.000,-25.879,-1000.000
1741689431.614,-1000.000,-53.711,-80.566,-1000.000
1741689431.571,733.398,730.957,30.273,488.281
1741689431.575,-724.609,-684.570,-41.016,-1000.000
1741689431.579,-1000.000,-1000.000,-58.594,-1000.000
1741689431.583,-935.547,-994.629,-41.016,-952.148
1741689431.587,-1000.000,-770.020,-21.973,-1000.000
1741689431.591,-1000.000,736.816,-2.441,-1000.000
1741689431.595,-1000.000,756.348,-56.152,-1000.000
1741689431.598,-1000.000,-781.250,-55.664,-1000.000
1741689431.602,-1000.000,-1000.000,-38.086,-1000.000
1741689431.606,-1000.000,-895.020,-42.969,-1000.000
1741689431.610,-1000.000,-1000.000,-25.879,-1000.000
1741689431.614,-1000.000,-53.711,-80.566,-1000.000
1741689431.616,-1000.000,999.512,-99.121,-1000.000
1741689431.620,-1000.000,999.512,-55.664,-1000.000
1741689431.624,-1000.000,12.207,-10.742,-1000.000
1741689431.628,-931.152,-1000.000,-6.348,-1000.000
1741689431.632,-1000.000,-1000.000,-61.523,-1000.000
1741689431.636,-373.535,-27.344,-47.363,-1000.000
1741689431.640,970.215,999.512,-4.395,-1000.000
1741689431.643,999.512,787.109,-15.137,-1000.000
1741689431.647,-238.770,-536.133,-23.926,-1000.000
1741689431.651,-1000.000,-1000.000,-85.449,-1000.000
1741689431.655,-940.918,-883.789,-130.371,-1000.000
1741689431.659,-999.023,-1000.000,-100.586,-1000.000
1741689431.616,-1000.000,999.512,-99.121,-1000.000
1741689431.620,-1000.000,999.512,-55.664,-1000.000
1741689431.624,-1000.000,12.207,-10.742,-1000.000
1741689431.628,-931.152,-1000.000,-6.348,-1000.000
1741689431.632,-1000.000,-1000.000,-61.523,-1000.000
1741689431.636,-373.535,-27.344,-47.363,-1000.000
1741689431.640,970.215,999.512,-4.395,-1000.000
1741689431.643,999.512,787.109,-15.137,-1000.000
1741689431.647,-238.770,-536.133,-23.926,-1000.000
1741689431.651,-1000.000,-1000.000,-85.449,-1000.000
1741689431.655,-940.918,-883.789,-130.371,-1000.000
1741689431.659,-999.023,-1000.000,-100.586,-1000.000
1741689431.676,-1000.000,-144.531,-73.242,-1000.000
1741689431.680,-1000.000,999.512,-32.715,-1000.000
1741689431.684,-1000.000,942.383,-49.805,-1000.000
1741689431.688,-1000.000,946.777,-83.008,-1000.000
1741689431.692,-1000.000,908.691,-29.297,-1000.000
1741689431.696,-1000.000,999.512,12.207,-1000.000
1741689431.700,-1000.000,204.590,15.625,-1000.000
1741689431.703,-931.641,-996.582,-60.547,-952.637
1741689431.707,-1000.000,-1000.000,-97.168,-1000.000
1741689431.711,-657.715,-258.789,-52.246,-893.555
1741689431.715,712.891,944.336,-42.480,390.137
1741689431.719,999.512,999.512,32.227,999.512
1741689431.676,-1000.000,-144.531,-73.242,-1000.000
1741689431.680,-1000.000,999.512,-32.715,-1000.000
1741689431.684,-1000.000,942.383,-49.805,-1000.000
1741689431.688,-1000.000,946.777,-83.008,-1000.000
1741689431.692,-1000.000,908.691,-29.297,-1000.000
1741689431.696,-1000.000,999.512,12.207,-1000.000
1741689431.700,-1000.000,204.590,15.625,-1000.000
1741689431.703,-931.641,-996.582,-60.547,-952.637
1741689431.707,-1000.000,-1000.000,-97.168,-1000.000
1741689431.711,-657.715,-258.789,-52.246,-893.555
1741689431.715,712.891,944.336,-42.480,390.137
1741689431.719,999.512,999.512,32.227,999.512
1741689431.721,744.141,767.090,18.555,513.184
1741689431.725,-591.309,-600.098,-86.914,-824.707
1741689431.729,-1000.000,-1000.000,-105.957,-1000.000
1741689431.733,-933.594,-890.137,-72.754,-944.824
1741689431.737,-1000.000,-1000.000,-19.531,-1000.000
1741689431.741,-1000.000,-105.469,-2.441,-1000.000
1741689431.745,-1000.000,999.512,-49.316,-1000.000
1741689431.748,-1000.000,275.879,-45.898,-1000.000
1741689431.752,-1000.000,-1000.000,-10.254,-1000.000
1741689431.756,-951.172,-942.383,5.371,-982.910
1741689431.760,-1000.000,-1000.000,-3.906,-966.797
1741689431.764,-886.719,-218.750,-86.914,-1000.000
1741689431.721,744.141,767.090,18.555,513.184
1741689431.725,-591.309,-600.098,-86.914,-824.707
1741689431.729,-1000.000,-1000.000,-105.957,-1000.000
1741689431.733,-933.594,-890.137,-72.754,-944.824
1741689431.737,-1000.000,-1000.000,-19.531,-1000.000
1741689431.741,-1000.000,-105.469,-2.441,-1000.000
1741689431.745,-1000.000,999.512,-49.316,-1000.000
1741689431.748,-1000.000,275.879,-45.898,-1000.000
1741689431.752,-1000.000,-1000.000,-10.254,-1000.000
1741689431.756,-951.172,-942.383,5.371,-982.910
1741689431.760,-1000.000,-1000.000,-3.906,-966.797
1741689431.764,-886.719,-218.750,-86.914,-1000.000
1741689431.766,489.258,999.512,-117.676,62.500
1741689431.770,999.512,878.906,-51.758,999.512
1741689431.774,905.762,999.512,13.672,937.500
1741689431.778,988.281,467.773,-23.438,917.480
1741689431.782,-327.148,-938.477,-139.160,-402.832
1741689431.786,-1000.000,-1000.000,-123.047,-1000.000
1741689431.790,-935.547,-900.879,-89.844,-936.035
1741689431.793,-1000.000,-1000.000,-60.059,-1000.000
1741689431.797,-937.500,-110.840,-23.926,-937.988
1741689431.801,-1000.000,999.512,-75.195,-1000.000
1741689431.805,-221.191,937.500,-50.781,-216.309
1741689431.809,999.512,886.719,14.160,999.512
1741689431.811,950.195,999.512,-6.348,950.195
1741689431.815,938.965,230.469,-6.836,939.941
1741689431.819,973.145,-1000.000,-33.691,973.633
1741689431.823,966.309,-578.125,-39.551,966.797
1741689431.827,978.027,837.891,32.715,981.445
1741689431.831,892.578,949.707,85.449,895.996
1741689431.835,999.512,999.512,104.980,999.512
1741689431.838,418.457,235.840,30.273,582.031
1741689431.842,-897.949,-979.980,-43.945,-791.016
1741689431.846,-1000.000,-1000.000,-21.973,-1000.000
1741689431.850,-384.277,-492.188,4.395,-172.852
1741689431.854,939.453,907.715,48.828,999.512
1741689431.811,950.195,999.512,-6.348,950.195
1741689431.815,938.965,230.469,-6.836,939.941
1741689431.819,973.145,-1000.000,-33.691,973.633
1741689431.823,966.309,-578.125,-39.551,966.797
1741689431.827,978.027,837.891,32.715,981.445
1741689431.831,892.578,949.707,85.449,895.996
1741689431.835,999.512,999.512,104.980,999.512
1741689431.838,418.457,235.840,30.273,582.031
1741689431.842,-897.949,-979.980,-43.945,-791.016
1741689431.846,-1000.000,-1000.000,-21.973,-1000.000
1741689431.850,-384.277,-492.188,4.395,-172.852
1741689431.854,939.453,907.715,48.828,999.512
1741689431.856,986.328,945.801,48.828,952.637
1741689431.860,921.875,993.164,6.348,938.965
1741689431.864,979.004,708.984,27.344,974.121
1741689431.868,966.309,-645.996,60.059,966.797
1741689431.872,978.516,-1000.000,82.520,967.285
1741689431.876,914.551,-160.156,72.266,978.516
1741689431.880,999.512,999.512,24.414,914.551
1741689431.883,828.613,175.293,21.973,999.512
1741689431.887,-552.246,-1000.000,30.273,792.480
1741689431.891,-1000.000,-910.645,17.578,-578.125
1741689431.895,-935.547,-1000.000,-18.555,-1000.000
1741689431.899,-1000.000,-416.504,-65.430,-938.477
1741689431.901,-1000.000,999.512,-60.059,-1000.000
1741689431.905,-1000.000,54.199,-37.109,-1000.000
1741689431.909,-1000.000,-1000.000,-6.836,-1000.000
1741689431.913,-1000.000,-974.121,-12.207,-1000.000
1741689431.917,-1000.000,-938.965,-88.379,-1000.000
1741689431.921,-1000.000,272.461,-73.730,-1000.000
1741689431.925,-1000.000,999.512,-33.691,-1000.000
1741689431.928,-989.746,363.281,-52.246,-997.070
1741689431.932,-954.590,-990.723,-35.156,-943.359
1741689431.936,-1000.000,-999.023,-96.191,-1000.000
1741689431.940,-39.062,370.605,-80.078,-158.203
1741689431.944,999.512,999.512,20.508,999.512
1741689431.901,-1000.000,999.512,-60.059,-1000.000
1741689431.905,-1000.000,54.199,-37.109,-1000.000
1741689431.909,-1000.000,-1000.000,-6.836,-1000.000
1741689431.913,-1000.000,-974.121,-12.207,-1000.000
1741689431.917,-1000.000,-938.965,-88.379,-1000.000
1741689431.921,-1000.000,272.461,-73.730,-1000.000
1741689431.925,-1000.000,999.512,-33.691,-1000.000
1741689431.928,-989.746,363.281,-52.246,-997.070
1741689431.932,-954.590,-990.723,-35.156,-943.359
1741689431.936,-1000.000,-999.023,-96.191,-1000.000
1741689431.940,-39.062,370.605,-80.078,-158.203
1741689431.944,999.512,999.512,20.508,999.512
1741689431.946,925.781,833.496,36.133,941.895
1741689431.950,952.637,999.512,22.949,944.336
1741689431.954,968.750,403.809,-15.625,972.168
1741689431.958,966.309,-1000.000,0.488,966.797
1741689431.962,966.309,-266.113,26.855,966.797
1741689431.966,966.309,999.512,52.734,966.797
1741689431.970,966.309,371.582,62.988,966.797
1741689431.973,966.309,-1000.000,-7.324,966.797
1741689431.977,966.309,-275.391,-21.973,966.797
1741689431.981,966.309,999.512,25.879,966.797
1741689431.985,966.309,948.242,45.410,966.797
1741689431.989,966.309,935.547,80.566,966.797
1741689431.946,925.781,833.496,36.133,941.895
1741689431.950,952.637,999.512,22.949,944.336
1741689431.954,968.750,403.809,-15.625,972.168
1741689431.958,966.309,-1000.000,0.488,966.797
1741689431.962,966.309,-266.113,26.855,966.797
1741689431.966,966.309,999.512,52.734,966.797
1741689431.970,966.309,371.582,62.988,966.797
1741689431.973,966.309,-1000.000,-7.324,966.797
1741689431.977,966.309,-275.391,-21.973,966.797
1741689431.981,966.309,999.512,25.879,966.797
1741689431.985,966.309,948.242,45.410,966.797
1741689431.989,966.309,935.547,80.566,966.797
1741689431.992,966.309,978.516,77.148,966.797
1741689431.996,966.309,901.855,51.758,966.797
1741689432.000,966.309,999.512,83.984,967.285
1741689432.004,966.309,273.926,109.375,966.797
1741689432.008,966.309,-1000.000,116.211,966.797
1741689432.012,966.309,-944.336,87.402,967.285
1741689432.016,966.309,284.180,32.227,966.797
1741689432.019,966.309,999.512,32.715,966.797
1741689432.023,966.309,334.473,75.684,966.797
1741689432.027,966.309,-986.328,111.328,967.285
1741689432.031,966.309,-985.352,76.172,966.797
1741689432.035,980.957,-959.473,26.367,980.469
1741689431.992,966.309,978.516,77.148,966.797
1741689431.996,966.309,901.855,51.758,966.797
1741689432.000,966.309,999.512,83.984,967.285
1741689432.004,966.309,273.926,109.375,966.797
1741689432.008,966.309,-1000.000,116.211,966.797
1741689432.012,966.309,-944.336,87.402,967.285
1741689432.016,966.309,284.180,32.227,966.797
1741689432.019,966.309,999.512,32.715,966.797
1741689432.023,966.309,334.473,75.684,966.797
1741689432.027,966.309,-986.328,111.328,967.285
1741689432.031,966.309,-985.352,76.172,966.797
1741689432.035,980.957,-959.473,26.367,980.469
1741689432.051,892.578,-1000.000,56.152,912.598
1741689432.055,999.512,437.012,68.359,999.512
1741689432.059,531.738,424.316,82.031,811.523
1741689432.063,-905.273,-1000.000,68.848,-585.938
1741689432.067,-1000.000,-1000.000,-11.230,-1000.000
1741689432.071,-945.312,-51.270,41.016,-935.059
1741689432.075,-1000.000,519.531,62.012,-1000.000
1741689432.078,-1000.000,-941.895,42.969,-1000.000
1741689432.082,-1000.000,-1000.000,28.320,-1000.000
1741689432.086,-1000.000,-1000.000,-52.734,-1000.000
1741689432.090,-1000.000,16.602,-39.062,-1000.000
1741689432.094,-1000.000,999.512,-5.859,-1000.000
1741689432.051,892.578,-1000.000,56.152,912.598
1741689432.055,999.512,437.012,68.359,999.512
1741689432.059,531.738,424.316,82.031,811.523
1741689432.063,-905.273,-1000.000,68.848,-585.938
1741689432.067,-1000.000,-1000.000,-11.230,-1000.000
1741689432.071,-945.312,-51.270,41.016,-935.059
1741689432.075,-1000.000,519.531,62.012,-1000.000
1741689432.078,-1000.000,-941.895,42.969,-1000.000
1741689432.082,-1000.000,-1000.000,28.320,-1000.000
1741689432.086,-1000.000,-1000.000,-52.734,-1000.000
1741689432.090,-1000.000,16.602,-39.062,-1000.000
1741689432.094,-1000.000,999.512,-5.859,-1000.000
1741689432.096,-1000.000,130.859,-32.715,-1000.000
1741689432.100,-1000.000,-1000.000,-87.891,-1000.000
1741689432.104,-938.965,-975.586,-150.391,-933.105
1741689432.108,-1000.000,-991.211,-135.254,-1000.000
1741689432.112,-216.309,194.336,-100.098,-346.191
1741689432.116,999.512,999.512,-51.270,999.512
1741689432.120,999.512,999.512,-53.711,881.348
1741689432.123,-68.848,6.348,-132.812,-484.863
1741689432.127,-1000.000,-1000.000,-174.805,-1000.000
1741689432.131,-964.844,-957.520,-145.020,-937.988
1741689432.135,-946.777,-928.711,-129.395,-1000.000
1741689432.139,-1000.000,-1000.000,-131.836,-929.688
1741689432.096,-1000.000,130.859,-32.715,-1000.000
1741689432.100,-1000.000,-1000.000,-87.891,-1000.000
1741689432.104,-938.965,-975.586,-150.391,-933.105
1741689432.108,-1000.000,-991.211,-135.254,-1000.000
1741689432.112,-216.309,194.336,-100.098,-346.191
1741689432.116,999.512,999.512,-51.270,999.512
1741689432.120,999.512,999.512,-53.711,881.348
1741689432.123,-68.848,6.348,-132.812,-484.863
1741689432.127,-1000.000,-1000.000,-174.805,-1000.000
1741689432.131,-964.844,-957.520,-145.020,-937.988
1741689432.135,-946.777,-928.711,-129.395,-1000.000
1741689432.139,-1000.000,-1000.000,-131.836,-929.688
1741689432.141,-936.523,-171.875,-160.156,-1000.000
1741689432.145,407.227,999.512,-182.129,-408.203
1741689432.149,999.512,889.160,-149.414,910.645
1741689432.153,880.371,999.512,-90.332,999.512
1741689432.157,999.512,757.324,-79.590,878.418
1741689432.161,-181.152,-624.512,-117.676,-394.043
1741689432.165,-1000.000,-1000.000,-151.367,-1000.000
1741689432.168,-940.918,-1000.000,-141.113,-936.523
1741689432.172,-1000.000,-67.871,-113.281,-1000.000
1741689432.176,-929.199,791.016,-86.914,-994.141
1741689432.180,-1000.000,-928.223,-106.445,-949.219
1741689432.184,-557.617,-290.527,-137.207,-1000.000
1741689432.141,-936.523,-171.875,-160.156,-1000.000
1741689432.145,407.227,999.512,-182.129,-408.203
1741689432.149,999.512,889.160,-149.414,910.645
1741689432.153,880.371,999.512,-90.332,999.512
1741689432.157,999.512,757.324,-79.590,878.418
1741689432.161,-181.152,-624.512,-117.676,-394.043
1741689432.165,-1000.000,-1000.000,-151.367,-1000.000
1741689432.168,-940.918,-1000.000,-141.113,-936.523
1741689432.172,-1000.000,-67.871,-113.281,-1000.000
1741689432.176,-929.199,791.016,-86.914,-994.141
1741689432.180,-1000.000,-928.223,-106.445,-949.219
1741689432.184,-557.617,-290.527,-137.207,-1000.000
1741689432.186,800.293,999.512,-102.051,-175.293
1741689432.190,999.512,999.512,-73.242,999.512
1741689432.194,786.621,396.484,-66.406,673.340
1741689432.198,-538.574,-889.648,-124.023,-744.629
1741689432.202,-1000.000,-1000.000,-200.195,-1000.000
1741689432.206,-863.770,-298.340,-171.875,-865.234
1741689432.210,-1000.000,976.562,-192.871,-1000.000
1741689432.213,-349.121,972.168,-229.980,-514.648
1741689432.217,989.258,929.688,-227.539,895.996
1741689432.221,971.680,988.770,-171.875,999.512
1741689432.225,928.711,918.945,-56.641,916.504
1741689432.229,976.562,999.512,-30.273,980.957
1741689432.186,800.293,999.512,-102.051,-175.293
1741689432.190,999.512,999.512,-73.242,999.512
1741689432.194,786.621,396.484,-66.406,673.340
1741689432.198,-538.574,-889.648,-124.023,-744.629
1741689432.202,-1000.000,-1000.000,-200.195,-1000.000
1741689432.206,-863.770,-298.340,-171.875,-865.234
1741689432.210,-1000.000,976.562,-192.871,-1000.000
1741689432.213,-349.121,972.168,-229.980,-514.648
1741689432.217,989.258,929.688,-227.539,895.996
1741689432.221,971.680,988.770,-171.875,999.512
1741689432.225,928.711,918.945,-56.641,916.504
1741689432.229,976.562,999.512,-30.273,980.957
1741689432.231,966.309,851.074,15.625,966.797
1741689432.235,966.309,-509.277,16.602,967.285
1741689432.239,966.309,-1000.000,-79.102,967.773
1741689432.243,966.797,-870.605,-117.188,963.867
1741689432.247,903.320,-1000.000,-129.883,909.668
1741689432.251,999.512,-131.836,-118.164,999.512
1741689432.255,187.012,240.234,-121.094,130.859
1741689432.258,-1000.000,-1000.000,-229.492,-1000.000
1741689432.262,-983.887,-1000.000,-263.672,-976.562
1741689432.266,-973.145,-896.484,-204.590,-977.051
1741689432.270,-1000.000,-1000.000,-169.434,-1000.000
1741689432.274,-1000.000,-397.461,-131.836,-1000.000
1741689432.277,-1000.000,999.512,-178.711,-1000.000
1741689432.281,-1000.000,302.734,-200.684,-1000.000
1741689432.285,-1000.000,-1000.000,-176.758,-1000.000
1741689432.289,-1000.000,-948.730,-183.105,-1000.000
1741689432.293,-1000.000,-983.887,-186.035,-1000.000
1741689432.297,-1000.000,-985.352,-209.473,-1000.000
1741689432.301,-1000.000,541.016,-220.703,-1000.000
1741689432.304,-1000.000,646.973,-191.406,-1000.000
1741689432.308,-1000.000,-923.340,-150.879,-1000.000
1741689432.312,-1000.000,-990.723,-141.113,-1000.000
1741689432.316,-1000.000,-1000.000,-184.082,-1000.000
1741689432.320,-1000.000,-120.117,-184.082,-1000.000
1741689432.277,-1000.000,999.512,-178.711,-1000.000
1741689432.281,-1000.000,302.734,-200.684,-1000.000
1741689432.285,-1000.000,-1000.000,-176.758,-1000.000
1741689432.289,-1000.000,-948.730,-183.105,-1000.000
1741689432.293,-1000.000,-983.887,-186.035,-1000.000
1741689432.297,-1000.000,-985.352,-209.473,-1000.000
1741689432.301,-1000.000,541.016,-220.703,-1000.000
1741689432.304,-1000.000,646.973,-191.406,-1000.000
1741689432.308,-1000.000,-923.340,-150.879,-1000.000
1741689432.312,-1000.000,-990.723,-141.113,-1000.000
1741689432.316,-1000.000,-1000.000,-184.082,-1000.000
1741689432.320,-1000.000,-120.117,-184.082,-1000.000
1741689432.321,-1000.000,999.512,-112.305,-1000.000
1741689432.325,-1000.000,974.121,-56.641,-1000.000
1741689432.329,-990.234,811.523,-6.836,-1000.000
1741689432.333,-953.613,-510.254,-42.969,-935.547
1741689432.337,-1000.000,-1000.000,-115.234,-1000.000
1741689432.341,-51.758,309.082,-7.324,-253.906
1741689432.345,999.512,999.512,79.102,999.512
1741689432.348,927.246,905.273,41.504,956.055
1741689432.352,951.660,968.750,-20.508,937.012
1741689432.356,969.238,968.750,-76.660,974.609
1741689432.360,966.309,961.426,-46.875,966.797
1741689432.364,966.309,915.039,2.441,966.797
1741689432.321,-1000.000,999.512,-112.305,-1000.000
1741689432.325,-1000.000,974.121,-56.641,-1000.000
1741689432.329,-990.234,811.523,-6.836,-1000.000
1741689432.333,-953.613,-510.254,-42.969,-935.547
1741689432.337,-1000.000,-1000.000,-115.234,-1000.000
1741689432.341,-51.758,309.082,-7.324,-253.906
1741689432.345,999.512,999.512,79.102,999.512
1741689432.348,927.246,905.273,41.504,956.055
1741689432.352,951.660,968.750,-20.508,937.012
1741689432.356,969.238,968.750,-76.660,974.609
1741689432.360,966.309,961.426,-46.875,966.797
1741689432.364,966.309,915.039,2.441,966.797
1741689432.366,966.309,999.512,17.090,966.797
1741689432.370,966.309,150.879,4.395,966.797
1741689432.374,966.309,-1000.000,-9.277,966.797
1741689432.378,966.309,-141.113,4.395,967.285
1741689432.382,966.309,999.512,10.254,966.797
1741689432.386,966.309,937.988,94.238,966.797
1741689432.390,966.309,943.848,110.840,966.797
1741689432.393,966.309,973.633,-21.973,966.797
1741689432.397,966.309,962.402,10.742,966.797
1741689432.401,966.309,912.109,119.629,966.797
1741689432.405,966.309,999.512,135.742,966.797
1741689432.409,966.309,139.160,105.469,967.285
1741689432.366,966.309,999.512,17.090,966.797
1741689432.370,966.309,150.879,4.395,966.797
1741689432.374,966.309,-1000.000,-9.277,966.797
1741689432.378,966.309,-141.113,4.395,967.285
1741689432.382,966.309,999.512,10.254,966.797
1741689432.386,966.309,937.988,94.238,966.797
1741689432.390,966.309,943.848,110.840,966.797
1741689432.393,966.309,973.633,-21.973,966.797
1741689432.397,966.309,962.402,10.742,966.797
1741689432.401,966.309,912.109,119.629,966.797
1741689432.405,966.309,999.512,135.742,966.797
1741689432.409,966.309,139.160,105.469,967.285
1741689432.426,966.309,-1000.000,29.785,967.285
1741689432.430,966.309,-1000.000,11.230,966.797
1741689432.434,966.309,186.035,30.273,966.797
1741689432.438,966.309,999.512,61.523,966.797
1741689432.442,966.309,153.809,78.613,966.797
1741689432.446,966.309,-1000.000,0.488,967.285
1741689432.450,966.309,-193.359,-49.805,966.797
1741689432.453,966.309,999.512,-17.090,966.797
1741689432.457,966.309,999.512,18.555,966.797
1741689432.461,966.309,-40.527,29.297,966.797
1741689432.465,966.309,-1000.000,-40.527,967.285
1741689432.469,980.469,-217.285,-59.570,967.285
1741689432.426,966.309,-1000.000,29.785,967.285
1741689432.430,966.309,-1000.000,11.230,966.797
1741689432.434,966.309,186.035,30.273,966.797
1741689432.438,966.309,999.512,61.523,966.797
1741689432.442,966.309,153.809,78.613,966.797
1741689432.446,966.309,-1000.000,0.488,967.285
1741689432.450,966.309,-193.359,-49.805,966.797
1741689432.453,966.309,999.512,-17.090,966.797
1741689432.457,966.309,999.512,18.555,966.797
1741689432.461,966.309,-40.527,29.297,966.797
1741689432.465,966.309,-1000.000,-40.527,967.285
1741689432.469,980.469,-217.285,-59.570,967.285
1741689432.471,898.926,999.512,-13.672,966.797
1741689432.475,999.512,61.035,17.578,966.797
1741689432.479,621.582,-1000.000,9.277,967.285
1741689432.483,-757.812,-920.410,-23.438,966.797
1741689432.487,-1000.000,-1000.000,5.859,976.562
1741689432.491,-198.730,-187.988,13.184,927.734
1741689432.495,999.512,999.512,8.789,980.957
1741689432.498,615.234,152.832,39.551,941.895
1741689432.502,-835.938,-1000.000,-23.926,-367.676
1741689432.506,-997.559,-1000.000,-111.816,-1000.000
1741689432.510,-1000.000,-809.570,-66.406,-1000.000
1741689432.514,-283.203,434.570,-33.691,-171.387
1741689432.471,898.926,999.512,-13.672,966.797
1741689432.475,999.512,61.035,17.578,966.797
1741689432.479,621.582,-1000.000,9.277,967.285
1741689432.483,-757.812,-920.410,-23.438,966.797
1741689432.487,-1000.000,-1000.000,5.859,976.562
1741689432.491,-198.730,-187.988,13.184,927.734
1741689432.495,999.512,999.512,8.789,980.957
1741689432.498,615.234,152.832,39.551,941.895
1741689432.502,-835.938,-1000.000,-23.926,-367.676
1741689432.506,-997.559,-1000.000,-111.816,-1000.000
1741689432.510,-1000.000,-809.570,-66.406,-1000.000
1741689432.514,-283.203,434.570,-33.691,-171.387
1741689432.516,999.512,999.512,-1.465,999.512
1741689432.520,461.426,353.027,35.156,344.238
1741689432.524,-967.773,-966.797,-60.059,-1000.000
1741689432.528,-1000.000,-961.426,-106.445,-1000.000
1741689432.532,-949.219,-1000.000,-77.637,-957.520
1741689432.536,-1000.000,-283.203,-54.688,-1000.000
1741689432.540,-1000.000,999.512,-71.777,-1000.000
1741689432.543,-1000.000,96.680,-129.395,-1000.000
1741689432.547,-1000.000,-1000.000,-112.305,-1000.000
1741689432.551,-936.035,-919.434,-89.844,-1000.000
1741689432.555,-1000.000,-1000.000,-53.711,-1000.000
1741689432.559,-240.723,-84.961,-32.227,-1000.000
1741689432.516,999.512,999.512,-1.465,999.512
1741689432.520,461.426,353.027,35.156,344.238
1741689432.524,-967.773,-966.797,-60.059,-1000.000
1741689432.528,-1000.000,-961.426,-106.445,-1000.000
1741689432.532,-949.219,-1000.000,-77.637,-957.520
1741689432.536,-1000.000,-283.203,-54.688,-1000.000
1741689432.540,-1000.000,999.512,-71.777,-1000.000
1741689432.543,-1000.000,96.680,-129.395,-1000.000
1741689432.547,-1000.000,-1000.000,-112.305,-1000.000
1741689432.551,-936.035,-919.434,-89.844,-1000.000
1741689432.555,-1000.000,-1000.000,-53.711,-1000.000
1741689432.559,-240.723,-84.961,-32.227,-1000.000
1741689432.562,961.426,999.512,-101.562,-1000.000
1741689432.566,999.512,999.512,-97.656,-1000.000
1741689432.570,240.234,119.141,-47.852,-1000.000
1741689432.574,-1000.000,-1000.000,-6.348,-1000.000
1741689432.578,-936.035,-1000.000,-32.227,-960.449
1741689432.582,-1000.000,-137.207,-78.125,-1000.000
1741689432.586,-219.238,999.512,-38.086,-933.594
1741689432.589,977.051,883.789,0.977,305.664
1741689432.593,999.512,999.512,21.973,999.512
1741689432.597,160.156,152.832,32.227,124.512
1741689432.601,-1000.000,-1000.000,-53.223,-1000.000
1741689432.605,-983.887,-929.199,-76.172,-983.398
1741689432.562,961.426,999.512,-101.562,-1000.000
1741689432.566,999.512,999.512,-97.656,-1000.000
1741689432.570,240.234,119.141,-47.852,-1000.000
1741689432.574,-1000.000,-1000.000,-6.348,-1000.000
1741689432.578,-936.035,-1000.000,-32.227,-960.449
1741689432.582,-1000.000,-137.207,-78.125,-1000.000
1741689432.586,-219.238,999.512,-38.086,-933.594
1741689432.589,977.051,883.789,0.977,305.664
1741689432.593,999.512,999.512,21.973,999.512
1741689432.597,160.156,152.832,32.227,124.512
1741689432.601,-1000.000,-1000.000,-53.223,-1000.000
1741689432.605,-983.887,-929.199,-76.172,-983.398
1741689432.606,-973.145,-1000.000,-18.066,-973.145
1741689432.610,-1000.000,-108.887,-30.762,-1000.000
1741689432.614,-1000.000,999.512,-22.461,-1000.000
1741689432.618,-986.816,987.793,-27.832,-984.375
1741689432.622,-958.984,835.449,-40.039,-966.797
1741689432.626,-1000.000,-612.793,-0.488,-1000.000
1741689432.630,-0.977,-170.410,1.465,33.203
1741689432.633,999.512,999.512,28.320,999.512
1741689432.637,921.387,860.352,-0.488,922.852
1741689432.641,955.078,999.512,-50.293,956.543
1741689432.645,968.262,298.828,-4.395,969.238
1741689432.649,966.309,-1000.000,37.598,966.797
1741689432.606,-973.145,-1000.000,-18.066,-973.145
1741689432.610,-1000.000,-108.887,-30.762,-1000.000
1741689432.614,-1000.000,999.512,-22.461,-1000.000
1741689432.618,-986.816,987.793,-27.832,-984.375
1741689432.622,-958.984,835.449,-40.039,-966.797
1741689432.626,-1000.000,-612.793,-0.488,-1000.000
1741689432.630,-0.977,-170.410,1.465,33.203
1741689432.633,999.512,999.512,28.320,999.512
1741689432.637,921.387,860.352,-0.488,922.852
1741689432.641,955.078,999.512,-50.293,956.543
1741689432.645,968.262,298.828,-4.395,969.238
1741689432.649,966.309,-1000.000,37.598,966.797
1741689432.651,966.309,-946.289,15.137,966.797
1741689432.655,966.309,-1000.000,-42.480,966.797
1741689432.659,966.309,-179.688,-50.781,966.797
1741689432.663,980.957,999.512,-8.789,975.586
1741689432.667,901.855,872.070,29.785,931.152
1741689432.671,999.512,999.512,77.637,969.238
1741689432.675,698.730,497.559,40.039,982.910
1741689432.678,-670.410,-861.816,-11.230,-301.758
1741689432.682,-1000.000,-1000.000,-13.184,-1000.000
1741689432.686,-157.715,-162.598,-20.508,118.164
1741689432.690,999.512,999.512,47.852,999.512
1741689432.694,950.195,958.984,56.641,919.922
1741689432.651,966.309,-946.289,15.137,966.797
1741689432.655,966.309,-1000.000,-42.480,966.797
1741689432.659,966.309,-179.688,-50.781,966.797
1741689432.663,980.957,999.512,-8.789,975.586
1741689432.667,901.855,872.070,29.785,931.152
1741689432.671,999.512,999.512,77.637,969.238
1741689432.675,698.730,497.559,40.039,982.910
1741689432.678,-670.410,-861.816,-11.230,-301.758
1741689432.682,-1000.000,-1000.000,-13.184,-1000.000
1741689432.686,-157.715,-162.598,-20.508,118.164
1741689432.690,999.512,999.512,47.852,999.512
1741689432.694,950.195,958.984,56.641,919.922
1741689432.696,938.965,869.141,19.531,958.008
1741689432.700,973.145,999.512,56.641,969.238
1741689432.704,966.309,379.883,92.773,966.797
1741689432.708,966.309,-932.129,143.555,967.285
1741689432.712,966.309,-1000.000,115.234,967.285
1741689432.716,966.309,-59.082,85.938,966.797
1741689432.720,966.309,999.512,125.488,966.797
1741689432.723,966.309,-490.723,113.281,966.797
1741689432.727,966.309,-906.250,141.602,966.797
1741689432.731,977.539,670.898,127.441,967.285
1741689432.735,920.410,980.957,50.293,967.285
1741689432.739,999.023,999.512,64.941,967.285
1741689432.696,938.965,869.141,19.531,958.008
1741689432.700,973.145,999.512,56.641,969.238
1741689432.704,966.309,379.883,92.773,966.797
1741689432.708,966.309,-932.129,143.555,967.285
1741689432.712,966.309,-1000.000,115.234,967.285
1741689432.716,966.309,-59.082,85.938,966.797
1741689432.720,966.309,999.512,125.488,966.797
1741689432.723,966.309,-490.723,113.281,966.797
1741689432.727,966.309,-906.250,141.602,966.797
1741689432.731,977.539,670.898,127.441,967.285
1741689432.735,920.410,980.957,50.293,967.285
1741689432.739,999.023,999.512,64.941,967.285
1741689432.696,938.965,869.141,19.531,958.008
1741689432.700,973.145,999.512,56.641,969.238
1741689432.704,966.309,379.883,92.773,966.797
1741689432.708,966.309,-932.129,143.555,967.285
1741689432.712,966.309,-1000.000,115.234,967.285
1741689432.716,966.309,-59.082,85.938,966.797
1741689432.720,966.309,999.512,125.488,966.797
1741689432.723,966.309,-490.723,113.281,966.797
1741689432.727,966.309,-906.250,141.602,966.797
1741689432.731,977.539,670.898,127.441,967.285
1741689432.735,920.410,980.957,50.293,967.285
1741689432.739,999.023,999.512,64.941,967.285
1741689432.741,882.812,323.730,100.586,969.727
1741689432.745,-472.168,-1000.000,103.516,954.102
1741689432.749,-1000.000,-1000.000,63.477,933.105
1741689432.753,-935.547,-962.891,45.410,999.512
1741689432.757,-1000.000,-1000.000,77.148,-17.090
1741689432.761,-1000.000,-1000.000,99.609,-1000.000
1741689432.765,-1000.000,-1000.000,65.918,-969.238
1741689432.768,-1000.000,-979.980,2.441,-983.887
1741689432.772,-1000.000,-976.562,-38.086,-1000.000
1741689432.776,-1000.000,-1000.000,-19.531,-1000.000
1741689432.780,-1000.000,20.996,-0.488,-1000.000
1741689432.784,-1000.000,999.512,48.828,-1000.000
1741689432.741,882.812,323.730,100.586,969.727
1741689432.745,-472.168,-1000.000,103.516,954.102
1741689432.749,-1000.000,-1000.000,63.477,933.105
1741689432.753,-935.547,-962.891,45.410,999.512
1741689432.757,-1000.000,-1000.000,77.148,-17.090
1741689432.761,-1000.000,-1000.000,99.609,-1000.000
1741689432.765,-1000.000,-1000.000,65.918,-969.238
1741689432.768,-1000.000,-979.980,2.441,-983.887
1741689432.772,-1000.000,-976.562,-38.086,-1000.000
1741689432.776,-1000.000,-1000.000,-19.531,-1000.000
1741689432.780,-1000.000,20.996,-0.488,-1000.000
1741689432.784,-1000.000,999.512,48.828,-1000.000
1741689432.801,-1000.000,398.926,69.824,-1000.000
1741689432.805,-937.500,-900.391,1.953,-937.500
1741689432.809,-1000.000,-1000.000,-6.836,-1000.000
1741689432.813,-221.191,-80.566,23.926,-220.703
1741689432.817,999.512,999.512,85.938,999.512
1741689432.821,949.707,938.477,174.316,950.684
1741689432.825,938.965,946.289,133.789,939.453
1741689432.828,973.145,975.098,71.777,973.633
1741689432.832,966.309,946.777,114.746,966.797
1741689432.836,966.309,999.512,146.484,966.797
1741689432.840,966.309,756.836,178.223,967.285
1741689432.844,966.309,670.898,212.402,966.797
1741689432.801,-1000.000,398.926,69.824,-1000.000
1741689432.805,-937.500,-900.391,1.953,-937.500
1741689432.809,-1000.000,-1000.000,-6.836,-1000.000
1741689432.813,-221.191,-80.566,23.926,-220.703
1741689432.817,999.512,999.512,85.938,999.512
1741689432.821,949.707,938.477,174.316,950.684
1741689432.825,938.965,946.289,133.789,939.453
1741689432.828,973.145,975.098,71.777,973.633
1741689432.832,966.309,946.777,114.746,966.797
1741689432.836,966.309,999.512,146.484,966.797
1741689432.840,966.309,756.836,178.223,967.285
1741689432.844,966.309,670.898,212.402,966.797
1741689432.846,966.309,924.316,210.449,966.797
1741689432.850,966.309,999.512,262.695,966.797
1741689432.854,966.309,496.094,271.484,966.797
1741689432.858,966.309,-831.543,232.910,966.797
1741689432.862,975.586,-1000.000,154.785,966.797
1741689432.866,927.734,-352.539,79.102,966.797
1741689432.870,980.957,999.512,100.098,973.633
1741689432.873,934.082,29.297,88.379,937.988
1741689432.877,-373.535,-1000.000,42.969,961.426
1741689432.881,-1000.000,-953.125,2.441,983.398
1741689432.885,-937.988,-984.863,-5.371,-245.605
1741689432.889,-1000.000,-1000.000,35.156,-1000.000
1741689432.846,966.309,924.316,210.449,966.797
1741689432.850,966.309,999.512,262.695,966.797
1741689432.854,966.309,496.094,271.484,966.797
1741689432.858,966.309,-831.543,232.910,966.797
1741689432.862,975.586,-1000.000,154.785,966.797
1741689432.866,927.734,-352.539,79.102,966.797
1741689432.870,980.957,999.512,100.098,973.633
1741689432.873,934.082,29.297,88.379,937.988
1741689432.877,-373.535,-1000.000,42.969,961.426
1741689432.881,-1000.000,-953.125,2.441,983.398
1741689432.885,-937.988,-984.863,-5.371,-245.605
1741689432.889,-1000.000,-1000.000,35.156,-1000.000
1741689432.892,-1000.000,-1000.000,59.082,-945.801
1741689432.896,-1000.000,-941.895,73.730,-998.535
1741689432.900,-1000.000,-1000.000,69.336,-1000.000
1741689432.904,-1000.000,-788.086,21.973,-1000.000
1741689432.908,-1000.000,544.434,48.828,-1000.000
1741689432.912,-1000.000,999.512,83.984,-1000.000
1741689432.916,-1000.000,225.586,73.730,-1000.000
1741689432.919,-1000.000,-1000.000,47.363,-1000.000
1741689432.923,-1000.000,-998.047,-17.578,-1000.000
1741689432.927,-1000.000,-897.461,-42.480,-1000.000
1741689432.931,-1000.000,-1000.000,-27.832,-1000.000
1741689432.935,-1000.000,-31.250,25.391,-1000.000
1741689432.892,-1000.000,-1000.000,59.082,-945.801
1741689432.896,-1000.000,-941.895,73.730,-998.535
1741689432.900,-1000.000,-1000.000,69.336,-1000.000
1741689432.904,-1000.000,-788.086,21.973,-1000.000
1741689432.908,-1000.000,544.434,48.828,-1000.000
1741689432.912,-1000.000,999.512,83.984,-1000.000
1741689432.916,-1000.000,225.586,73.730,-1000.000
1741689432.919,-1000.000,-1000.000,47.363,-1000.000
1741689432.923,-1000.000,-998.047,-17.578,-1000.000
1741689432.927,-1000.000,-897.461,-42.480,-1000.000
1741689432.931,-1000.000,-1000.000,-27.832,-1000.000
1741689432.935,-1000.000,-31.250,25.391,-1000.000
1741689432.936,-1000.000,484.863,11.230,-1000.000
1741689432.940,-1000.000,-1000.000,-56.152,-1000.000
1741689432.944,-1000.000,-1000.000,-42.480,-1000.000
1741689432.948,-1000.000,-896.973,-25.391,-1000.000
1741689432.952,-1000.000,-1000.000,-28.809,-1000.000
1741689432.956,-1000.000,-191.895,-13.184,-1000.000
1741689432.960,-1000.000,999.512,-48.828,-1000.000
1741689432.963,-1000.000,251.465,-70.801,-1000.000
1741689432.967,-1000.000,-1000.000,-95.215,-1000.000
1741689432.971,-1000.000,-994.629,-104.980,-1000.000
1741689432.975,-1000.000,-965.820,-89.355,-1000.000
1741689432.979,-1000.000,-1000.000,-140.137,-1000.000
1741689432.981,-1000.000,-1000.000,-140.625,-1000.000
1741689432.985,-1000.000,-1000.000,-84.473,-1000.000
1741689432.989,-1000.000,-977.051,-85.938,-1000.000
1741689432.993,-1000.000,-971.191,-68.359,-1000.000
1741689432.997,-1000.000,-1000.000,-91.797,-1000.000
1741689433.001,-1000.000,135.742,-96.680,-1000.000
1741689433.005,-1000.000,999.512,-63.477,-1000.000
1741689433.008,-1000.000,-364.746,-80.566,-1000.000
1741689433.012,-1000.000,-1000.000,-49.316,-1000.000
1741689433.016,-1000.000,-1000.000,-78.613,-1000.000
1741689433.020,-1000.000,-777.344,-122.559,-1000.000
1741689433.024,-1000.000,725.586,-39.062,-1000.000
1741689433.026,-1000.000,918.945,-20.996,-1000.000
1741689433.030,-1000.000,-501.465,-15.625,-1000.000
1741689433.034,-1000.000,-1000.000,-43.945,-1000.000
1741689433.038,-1000.000,-799.316,-87.891,-1000.000
1741689433.042,-1000.000,400.879,-38.574,-1000.000
1741689433.046,-1000.000,999.512,37.598,-1000.000
1741689433.050,-1000.000,490.723,57.617,-1000.000
1741689433.053,-939.941,-794.434,8.301,-1000.000
1741689433.057,-1000.000,-1000.000,-28.809,-1000.000
1741689433.061,-777.344,-247.559,14.648,-1000.000
1741689433.065,638.672,992.676,61.035,-1000.000
1741689433.069,999.512,977.539,151.855,-1000.000
1741689433.026,-1000.000,918.945,-20.996,-1000.000
1741689433.030,-1000.000,-501.465,-15.625,-1000.000
1741689433.034,-1000.000,-1000.000,-43.945,-1000.000
1741689433.038,-1000.000,-799.316,-87.891,-1000.000
