timestamps,TP9,AF7,AF8,TP10
1741691808.385,232.422,-145.020,-10.254,151.367
1741691808.389,-887.207,-139.160,1.465,-627.441
1741691808.393,919.434,-68.848,2.441,853.516
1741691808.397,390.137,-112.793,-5.371,543.945
1741691808.401,-1000.000,-147.461,8.301,-551.270
1741691808.405,168.945,-79.102,22.461,478.516
1741691808.409,682.129,-58.105,26.367,759.277
1741691808.412,-1000.000,-139.160,10.254,-473.145
1741691808.416,-221.191,-136.719,12.695,219.727
1741691808.420,999.512,-24.902,17.578,999.512
1741691808.424,-637.207,-1.465,17.090,-278.809
1741691808.428,-478.027,42.969,18.066,-101.074
1741691808.428,999.512,78.613,9.766,999.512
1741691808.432,-212.402,9.766,13.184,69.824
1741691808.436,-656.250,17.090,31.738,-130.371
1741691808.440,999.512,-65.918,17.090,921.875
1741691808.444,-370.605,-158.691,17.090,-111.816
1741691808.448,-448.242,-38.086,25.391,-50.781
1741691808.452,999.512,6.348,25.879,999.512
1741691808.455,-51.758,-86.426,11.719,41.016
1741691808.459,-1000.000,-224.609,-0.977,-570.801
1741691808.463,638.184,-73.242,16.113,719.238
1741691808.467,562.988,17.090,1.953,680.664
1741691808.471,-1000.000,-49.805,-1.465,-312.012
1741691808.428,999.512,78.613,9.766,999.512
1741691808.432,-212.402,9.766,13.184,69.824
1741691808.436,-656.250,17.090,31.738,-130.371
1741691808.440,999.512,-65.918,17.090,921.875
1741691808.444,-370.605,-158.691,17.090,-111.816
1741691808.448,-448.242,-38.086,25.391,-50.781
1741691808.452,999.512,6.348,25.879,999.512
1741691808.455,-51.758,-86.426,11.719,41.016
1741691808.459,-1000.000,-224.609,-0.977,-570.801
1741691808.463,638.184,-73.242,16.113,719.238
1741691808.467,562.988,17.090,1.953,680.664
1741691808.471,-1000.000,-49.805,-1.465,-312.012
1741691808.939,-362.793,15.625,-5.859,-358.398
1741691808.943,999.512,46.387,-1.953,882.812
1741691808.947,-254.395,-35.156,-11.230,-320.312
1741691808.951,-595.703,-6.836,-20.508,-470.703
1741691808.955,999.512,20.020,-15.625,760.254
1741691808.959,-157.715,-15.137,9.277,-320.312
1741691808.963,-567.383,122.070,5.859,-547.363
1741691808.966,999.512,98.145,-14.160,777.832
1741691808.970,-110.840,-30.762,-22.949,-255.371
1741691808.974,-674.805,-6.836,-37.598,-646.484
1741691808.978,999.512,43.945,-41.504,649.414
1741691808.982,-197.266,-1.465,-43.457,-404.297
1741691808.476,128.418,5.859,4.883,532.715
1741691808.480,686.035,6.348,-12.695,737.305
1741691808.484,-1000.000,-47.852,-9.277,-399.902
1741691808.488,-309.570,-257.324,9.277,238.770
1741691808.492,999.512,-157.715,9.277,999.512
1741691808.496,150.879,17.578,-0.977,278.809
1741691808.500,-1000.000,-20.508,-16.602,-330.078
1741691808.503,400.391,24.902,-29.297,583.496
1741691808.507,542.480,-21.484,-15.625,534.668
1741691808.511,-1000.000,-44.434,1.953,-317.383
1741691808.515,400.879,15.625,1.465,631.836
1741691808.519,591.797,-12.207,-12.207,619.141
1741691808.476,128.418,5.859,4.883,532.715
1741691808.480,686.035,6.348,-12.695,737.305
1741691808.484,-1000.000,-47.852,-9.277,-399.902
1741691808.488,-309.570,-257.324,9.277,238.770
1741691808.492,999.512,-157.715,9.277,999.512
1741691808.496,150.879,17.578,-0.977,278.809
1741691808.500,-1000.000,-20.508,-16.602,-330.078
1741691808.503,400.391,24.902,-29.297,583.496
1741691808.507,542.480,-21.484,-15.625,534.668
1741691808.511,-1000.000,-44.434,1.953,-317.383
1741691808.515,400.879,15.625,1.465,631.836
1741691808.519,591.797,-12.207,-12.207,619.141
1741691808.518,-1000.000,-52.246,-21.484,-671.387
1741691808.522,-90.332,10.742,-3.418,201.660
1741691808.526,999.512,-2.441,15.137,999.512
1741691808.530,-246.582,-66.895,-8.789,-117.676
1741691808.534,-545.410,-14.648,-13.184,-184.082
1741691808.538,999.512,29.297,-4.883,999.512
1741691808.542,33.691,-11.230,-25.391,129.395
1741691808.545,-648.438,0.000,-28.809,-295.410
1741691808.549,999.512,-2.441,-13.184,976.562
1741691808.553,142.578,-59.570,-11.230,144.043
1741691808.557,-1000.000,-83.008,-25.391,-621.094
1741691808.561,795.898,-0.488,-32.227,729.492
1741691808.518,-1000.000,-52.246,-21.484,-671.387
1741691808.522,-90.332,10.742,-3.418,201.660
1741691808.526,999.512,-2.441,15.137,999.512
1741691808.530,-246.582,-66.895,-8.789,-117.676
1741691808.534,-545.410,-14.648,-13.184,-184.082
1741691808.538,999.512,29.297,-4.883,999.512
1741691808.542,33.691,-11.230,-25.391,129.395
1741691808.545,-648.438,0.000,-28.809,-295.410
1741691808.549,999.512,-2.441,-13.184,976.562
1741691808.553,142.578,-59.570,-11.230,144.043
1741691808.557,-1000.000,-83.008,-25.391,-621.094
1741691808.561,795.898,-0.488,-32.227,729.492
1741691808.564,518.555,1.953,-23.438,526.855
1741691808.568,-1000.000,-28.320,-12.207,-646.973
1741691808.572,340.820,30.273,-8.789,448.242
1741691808.576,414.062,-6.836,-38.574,322.266
1741691808.580,-1000.000,-52.734,-61.523,-1000.000
1741691808.584,277.344,43.945,-29.785,269.043
1741691808.588,577.637,-69.824,-23.438,565.430
1741691808.591,-1000.000,-153.809,-47.852,-1000.000
1741691808.595,-61.035,30.273,-43.457,-156.738
1741691808.599,762.695,-77.637,-28.809,366.699
1741691808.603,-1000.000,-213.867,-39.551,-875.977
1741691808.607,-138.184,-24.414,-49.316,-51.758
1741691808.564,518.555,1.953,-23.438,526.855
1741691808.568,-1000.000,-28.320,-12.207,-646.973
1741691808.572,340.820,30.273,-8.789,448.242
1741691808.576,414.062,-6.836,-38.574,322.266
1741691808.580,-1000.000,-52.734,-61.523,-1000.000
1741691808.584,277.344,43.945,-29.785,269.043
1741691808.588,577.637,-69.824,-23.438,565.430
1741691808.591,-1000.000,-153.809,-47.852,-1000.000
1741691808.595,-61.035,30.273,-43.457,-156.738
1741691808.599,762.695,-77.637,-28.809,366.699
1741691808.603,-1000.000,-213.867,-39.551,-875.977
1741691808.607,-138.184,-24.414,-49.316,-51.758
1741691808.609,808.105,18.555,-31.738,594.727
1741691808.613,-1000.000,-43.457,-36.133,-860.840
1741691808.617,-623.535,0.488,-63.965,-688.965
1741691808.621,999.512,26.855,-61.035,555.176
1741691808.625,65.918,12.207,-50.293,-272.949
1741691808.629,-1000.000,-228.516,-58.594,-885.742
1741691808.633,737.305,-237.793,-60.547,438.477
1741691808.636,275.879,-15.137,-62.988,-85.449
1741691808.640,-1000.000,-38.574,-65.918,-1000.000
1741691808.644,325.684,-48.828,-64.941,214.355
1741691808.648,660.645,59.082,-55.664,437.988
1741691808.652,-1000.000,22.949,-44.434,-989.258
1741691808.609,808.105,18.555,-31.738,594.727
1741691808.613,-1000.000,-43.457,-36.133,-860.840
1741691808.617,-623.535,0.488,-63.965,-688.965
1741691808.621,999.512,26.855,-61.035,555.176
1741691808.625,65.918,12.207,-50.293,-272.949
1741691808.629,-1000.000,-228.516,-58.594,-885.742
1741691808.633,737.305,-237.793,-60.547,438.477
1741691808.636,275.879,-15.137,-62.988,-85.449
1741691808.640,-1000.000,-38.574,-65.918,-1000.000
1741691808.644,325.684,-48.828,-64.941,214.355
1741691808.648,660.645,59.082,-55.664,437.988
1741691808.652,-1000.000,22.949,-44.434,-989.258
1741691808.669,-568.848,-27.344,-58.594,-606.934
1741691808.673,999.512,66.406,-76.172,553.711
1741691808.677,-17.578,-30.762,-65.430,-327.148
1741691808.681,-868.164,-67.383,-51.758,-782.715
1741691808.685,937.500,0.977,-75.684,465.332
1741691808.689,77.148,-36.621,-96.191,-262.207
1741691808.693,-1000.000,-43.945,-103.516,-1000.000
1741691808.696,485.352,60.547,-129.395,239.258
1741691808.700,378.906,-98.633,-137.207,11.230
1741691808.704,-1000.000,-318.848,-138.672,-1000.000
1741691808.708,147.461,-7.812,-141.113,-22.949
1741691808.712,424.316,28.809,-116.699,38.086
1741691808.669,-568.848,-27.344,-58.594,-606.934
1741691808.673,999.512,66.406,-76.172,553.711
1741691808.677,-17.578,-30.762,-65.430,-327.148
1741691808.681,-868.164,-67.383,-51.758,-782.715
1741691808.685,937.500,0.977,-75.684,465.332
1741691808.689,77.148,-36.621,-96.191,-262.207
1741691808.693,-1000.000,-43.945,-103.516,-1000.000
1741691808.696,485.352,60.547,-129.395,239.258
1741691808.700,378.906,-98.633,-137.207,11.230
1741691808.704,-1000.000,-318.848,-138.672,-1000.000
1741691808.708,147.461,-7.812,-141.113,-22.949
1741691808.712,424.316,28.809,-116.699,38.086
1741691808.713,-1000.000,162.598,-104.980,-1000.000
1741691808.717,314.453,341.797,-105.957,79.102
1741691808.721,424.805,71.777,-95.703,65.918
1741691808.725,-1000.000,-1.953,-96.680,-1000.000
1741691808.729,-241.211,50.293,-99.609,-355.957
1741691808.733,999.512,70.312,-100.098,522.461
1741691808.737,-276.855,14.160,-90.332,-487.305
1741691808.740,-739.746,-7.324,-82.031,-708.496
1741691808.744,999.512,144.531,-87.891,355.469
1741691808.748,-286.621,-25.391,-90.820,-553.223
1741691808.752,-524.414,-96.680,-85.449,-541.992
1741691808.756,999.512,47.852,-75.684,811.035
1741691808.713,-1000.000,162.598,-104.980,-1000.000
1741691808.717,314.453,341.797,-105.957,79.102
1741691808.721,424.805,71.777,-95.703,65.918
1741691808.725,-1000.000,-1.953,-96.680,-1000.000
1741691808.729,-241.211,50.293,-99.609,-355.957
1741691808.733,999.512,70.312,-100.098,522.461
1741691808.737,-276.855,14.160,-90.332,-487.305
1741691808.740,-739.746,-7.324,-82.031,-708.496
1741691808.744,999.512,144.531,-87.891,355.469
1741691808.748,-286.621,-25.391,-90.820,-553.223
1741691808.752,-524.414,-96.680,-85.449,-541.992
1741691808.756,999.512,47.852,-75.684,811.035
1741691808.760,-244.141,-57.129,-89.355,-384.766
1741691808.764,-720.215,-24.902,-107.910,-736.816
1741691808.768,999.512,55.664,-93.262,633.789
1741691808.772,134.766,1.953,-83.008,-134.766
1741691808.776,-1000.000,-24.414,-83.984,-831.543
1741691808.780,785.645,41.504,-81.055,607.422
1741691808.784,331.543,-30.273,-104.004,155.273
1741691808.787,-1000.000,-60.059,-106.934,-1000.000
1741691808.791,304.199,179.199,-79.102,282.715
1741691808.795,645.996,86.426,-63.965,619.141
1741691808.799,-1000.000,-77.148,-79.102,-923.340
1741691808.803,-34.668,-32.227,-76.660,-38.086
1741691808.760,-244.141,-57.129,-89.355,-384.766
1741691808.764,-720.215,-24.902,-107.910,-736.816
1741691808.768,999.512,55.664,-93.262,633.789
1741691808.772,134.766,1.953,-83.008,-134.766
1741691808.776,-1000.000,-24.414,-83.984,-831.543
1741691808.780,785.645,41.504,-81.055,607.422
1741691808.784,331.543,-30.273,-104.004,155.273
1741691808.787,-1000.000,-60.059,-106.934,-1000.000
1741691808.791,304.199,179.199,-79.102,282.715
1741691808.795,645.996,86.426,-63.965,619.141
1741691808.799,-1000.000,-77.148,-79.102,-923.340
1741691808.803,-34.668,-32.227,-76.660,-38.086
1741691808.804,547.852,-78.125,-80.078,358.398
1741691808.808,-1000.000,-71.289,-96.191,-977.539
1741691808.812,179.199,1.465,-73.242,225.098
1741691808.816,637.207,-41.016,-59.570,570.312
1741691808.820,-1000.000,-84.473,-53.711,-1000.000
1741691808.824,-126.465,-41.016,-51.270,-83.496
1741691808.828,913.574,55.176,-51.758,663.574
1741691808.831,-869.141,-317.383,-48.340,-695.801
1741691808.835,-627.441,-723.145,-40.527,-506.348
1741691808.839,999.512,-197.266,-35.156,850.586
1741691808.843,20.508,41.016,-43.945,-162.109
1741691808.847,-894.043,-0.977,-54.688,-875.977
1741691808.804,547.852,-78.125,-80.078,358.398
1741691808.808,-1000.000,-71.289,-96.191,-977.539
1741691808.812,179.199,1.465,-73.242,225.098
1741691808.816,637.207,-41.016,-59.570,570.312
1741691808.820,-1000.000,-84.473,-53.711,-1000.000
1741691808.824,-126.465,-41.016,-51.270,-83.496
1741691808.828,913.574,55.176,-51.758,663.574
1741691808.831,-869.141,-317.383,-48.340,-695.801
1741691808.835,-627.441,-723.145,-40.527,-506.348
1741691808.839,999.512,-197.266,-35.156,850.586
1741691808.843,20.508,41.016,-43.945,-162.109
1741691808.847,-894.043,-0.977,-54.688,-875.977
1741691808.849,953.125,55.176,-65.430,693.848
1741691808.853,269.043,7.324,-59.570,187.500
1741691808.857,-1000.000,-7.324,-53.223,-903.809
1741691808.861,545.410,41.016,-51.758,422.363
1741691808.865,207.520,-13.672,-44.922,36.621
1741691808.869,-765.625,20.020,-36.621,-667.480
1741691808.873,999.512,46.875,-28.320,801.270
1741691808.876,2.441,-297.363,-30.762,-79.590
1741691808.880,-1000.000,-203.613,-34.668,-909.180
1741691808.884,833.008,83.008,-37.109,508.301
1741691808.888,332.031,-43.945,-39.062,162.598
1741691808.892,-1000.000,-109.863,-45.410,-790.039
1741691808.849,953.125,55.176,-65.430,693.848
1741691808.853,269.043,7.324,-59.570,187.500
1741691808.857,-1000.000,-7.324,-53.223,-903.809
1741691808.861,545.410,41.016,-51.758,422.363
1741691808.865,207.520,-13.672,-44.922,36.621
1741691808.869,-765.625,20.020,-36.621,-667.480
1741691808.873,999.512,46.875,-28.320,801.270
1741691808.876,2.441,-297.363,-30.762,-79.590
1741691808.880,-1000.000,-203.613,-34.668,-909.180
1741691808.884,833.008,83.008,-37.109,508.301
1741691808.888,332.031,-43.945,-39.062,162.598
1741691808.892,-1000.000,-109.863,-45.410,-790.039
1741691808.895,575.195,44.434,-36.133,487.793
1741691808.899,357.422,33.691,-24.902,206.543
1741691808.903,-1000.000,-16.602,-10.254,-999.023
1741691808.907,379.883,37.109,-6.836,405.273
1741691808.911,561.035,11.719,-17.578,558.105
1741691808.915,-1000.000,25.879,-1.953,-752.441
1741691808.919,176.758,-101.074,-13.672,215.332
1741691808.922,597.168,-145.508,-18.066,346.680
1741691808.926,-1000.000,16.113,-1.953,-923.828
1741691808.930,124.023,20.020,-6.348,213.867
1741691808.934,842.773,84.961,1.465,800.293
1741691808.938,-1000.000,24.414,-9.766,-817.383
1741691808.895,575.195,44.434,-36.133,487.793
1741691808.899,357.422,33.691,-24.902,206.543
1741691808.903,-1000.000,-16.602,-10.254,-999.023
1741691808.907,379.883,37.109,-6.836,405.273
1741691808.911,561.035,11.719,-17.578,558.105
1741691808.915,-1000.000,25.879,-1.953,-752.441
1741691808.919,176.758,-101.074,-13.672,215.332
1741691808.922,597.168,-145.508,-18.066,346.680
1741691808.926,-1000.000,16.113,-1.953,-923.828
1741691808.930,124.023,20.020,-6.348,213.867
1741691808.934,842.773,84.961,1.465,800.293
1741691808.938,-1000.000,24.414,-9.766,-817.383
1741691808.985,-406.250,69.336,-39.551,-408.691
1741691808.989,999.512,0.977,-32.715,892.090
1741691808.993,-570.312,-142.090,-54.688,-522.949
1741691808.997,-530.762,55.176,-56.152,-603.516
1741691809.001,999.512,100.098,-43.457,664.551
1741691809.005,-179.199,132.324,-58.105,-327.148
1741691809.009,-536.621,180.664,-62.988,-409.180
1741691809.012,999.512,103.027,-55.176,699.219
1741691809.016,-312.500,15.137,-60.547,-460.449
1741691809.020,-705.566,93.750,-52.246,-757.324
1741691809.024,999.512,158.203,-40.039,726.074
1741691809.028,176.270,29.785,-38.574,1.465
1741691808.985,-406.250,69.336,-39.551,-408.691
1741691808.989,999.512,0.977,-32.715,892.090
1741691808.993,-570.312,-142.090,-54.688,-522.949
1741691808.997,-530.762,55.176,-56.152,-603.516
1741691809.001,999.512,100.098,-43.457,664.551
1741691809.005,-179.199,132.324,-58.105,-327.148
1741691809.009,-536.621,180.664,-62.988,-409.180
1741691809.012,999.512,103.027,-55.176,699.219
1741691809.016,-312.500,15.137,-60.547,-460.449
1741691809.020,-705.566,93.750,-52.246,-757.324
1741691809.024,999.512,158.203,-40.039,726.074
1741691809.028,176.270,29.785,-38.574,1.465
1741691809.044,-1000.000,1.953,-34.668,-864.746
1741691809.048,608.398,67.383,-39.551,423.340
1741691809.052,221.191,28.809,-63.965,-65.430
1741691809.056,-790.039,4.883,-74.707,-787.598
1741691809.060,977.051,32.715,-60.059,571.777
1741691809.064,708.984,327.637,-66.406,378.906
1741691809.068,-1000.000,247.070,-67.871,-907.227
1741691809.071,-332.031,-14.160,-58.105,-341.309
1741691809.075,999.512,-32.227,-42.480,721.191
1741691809.079,-340.820,-167.480,-35.645,-432.617
1741691809.083,-443.848,-44.922,-53.223,-379.883
1741691809.087,999.512,15.625,-45.898,780.273
1741691809.044,-1000.000,1.953,-34.668,-864.746
1741691809.048,608.398,67.383,-39.551,423.340
1741691809.052,221.191,28.809,-63.965,-65.430
1741691809.056,-790.039,4.883,-74.707,-787.598
1741691809.060,977.051,32.715,-60.059,571.777
1741691809.064,708.984,327.637,-66.406,378.906
1741691809.068,-1000.000,247.070,-67.871,-907.227
1741691809.071,-332.031,-14.160,-58.105,-341.309
1741691809.075,999.512,-32.227,-42.480,721.191
1741691809.079,-340.820,-167.480,-35.645,-432.617
1741691809.083,-443.848,-44.922,-53.223,-379.883
1741691809.087,999.512,15.625,-45.898,780.273
1741691809.088,-484.375,-65.430,-40.527,-532.227
1741691809.092,-519.043,-20.508,-40.039,-543.945
1741691809.096,999.512,24.902,-40.527,883.301
1741691809.100,-213.867,-36.621,-45.410,-327.148
1741691809.104,-654.785,-7.324,-40.527,-659.180
1741691809.108,999.512,41.016,-37.598,666.016
1741691809.112,-194.336,-46.875,-41.016,-356.934
1741691809.115,-449.707,-12.695,-31.738,-441.406
1741691809.119,965.820,0.488,-21.484,703.613
1741691809.123,-726.074,-574.219,-38.086,-651.367
1741691809.127,-458.496,-473.633,-43.457,-539.062
1741691809.131,999.512,60.059,-41.504,727.539
1741691809.088,-484.375,-65.430,-40.527,-532.227
1741691809.092,-519.043,-20.508,-40.039,-543.945
1741691809.096,999.512,24.902,-40.527,883.301
1741691809.100,-213.867,-36.621,-45.410,-327.148
1741691809.104,-654.785,-7.324,-40.527,-659.180
1741691809.108,999.512,41.016,-37.598,666.016
1741691809.112,-194.336,-46.875,-41.016,-356.934
1741691809.115,-449.707,-12.695,-31.738,-441.406
1741691809.119,965.820,0.488,-21.484,703.613
1741691809.123,-726.074,-574.219,-38.086,-651.367
1741691809.127,-458.496,-473.633,-43.457,-539.062
1741691809.131,999.512,60.059,-41.504,727.539
1741691809.134,-378.906,9.766,-45.410,-491.211
1741691809.138,-520.996,40.039,-51.270,-522.461
1741691809.142,999.512,67.871,-62.500,715.820
1741691809.146,-342.285,5.371,-57.129,-439.453
1741691809.150,-785.156,36.621,-47.852,-784.180
1741691809.154,999.512,87.891,-43.945,737.793
1741691809.158,248.535,12.695,-35.645,101.562
1741691809.161,-1000.000,-32.227,-41.504,-1000.000
1741691809.165,352.051,368.652,-49.805,216.797
1741691809.169,300.781,323.242,-41.016,57.617
1741691809.173,-1000.000,-48.340,-31.250,-961.426
1741691809.177,632.324,30.762,-35.156,475.586
1741691809.134,-378.906,9.766,-45.410,-491.211
1741691809.138,-520.996,40.039,-51.270,-522.461
1741691809.142,999.512,67.871,-62.500,715.820
1741691809.146,-342.285,5.371,-57.129,-439.453
1741691809.150,-785.156,36.621,-47.852,-784.180
1741691809.154,999.512,87.891,-43.945,737.793
1741691809.158,248.535,12.695,-35.645,101.562
1741691809.161,-1000.000,-32.227,-41.504,-1000.000
1741691809.165,352.051,368.652,-49.805,216.797
1741691809.169,300.781,323.242,-41.016,57.617
1741691809.173,-1000.000,-48.340,-31.250,-961.426
1741691809.177,632.324,30.762,-35.156,475.586
1741691809.179,372.070,-7.324,-40.039,161.133
1741691809.183,-1000.000,-67.871,-49.805,-1000.000
1741691809.187,148.926,-1.465,-43.945,127.930
1741691809.191,707.520,-35.156,-26.855,475.586
1741691809.195,-1000.000,-83.496,-24.902,-804.199
1741691809.199,-38.574,1.953,-20.020,109.863
1741691809.203,671.387,-20.508,-13.672,588.379
1741691809.206,-1000.000,-59.570,-19.043,-971.680
1741691809.210,-218.262,175.781,-38.574,-216.797
1741691809.214,999.512,130.859,-34.668,752.930
1741691809.218,-693.848,-92.773,-23.438,-575.684
1741691809.222,-271.484,108.398,-25.391,-286.621
1741691809.179,372.070,-7.324,-40.039,161.133
1741691809.183,-1000.000,-67.871,-49.805,-1000.000
1741691809.187,148.926,-1.465,-43.945,127.930
1741691809.191,707.520,-35.156,-26.855,475.586
1741691809.195,-1000.000,-83.496,-24.902,-804.199
1741691809.199,-38.574,1.953,-20.020,109.863
1741691809.203,671.387,-20.508,-13.672,588.379
1741691809.206,-1000.000,-59.570,-19.043,-971.680
1741691809.210,-218.262,175.781,-38.574,-216.797
1741691809.214,999.512,130.859,-34.668,752.930
1741691809.218,-693.848,-92.773,-23.438,-575.684
1741691809.222,-271.484,108.398,-25.391,-286.621
1741691809.223,814.453,104.004,-24.414,440.430
1741691809.227,-1000.000,-95.703,-30.762,-806.152
1741691809.231,-104.980,-35.156,-22.461,40.039
1741691809.235,773.438,-65.918,-20.020,743.652
1741691809.239,-1000.000,-127.441,-42.480,-905.762
1741691809.243,-262.695,-22.461,-41.504,-258.789
1741691809.247,999.512,-43.457,-41.504,867.188
1741691809.250,-652.832,-273.926,-49.316,-602.051
1741691809.254,-295.898,-137.207,-44.922,-205.566
1741691809.258,999.512,-11.230,-49.805,833.008
1741691809.262,-804.688,-78.125,-53.223,-701.660
1741691809.266,-353.516,-15.625,-41.016,-315.430
1741691809.270,999.512,0.000,-49.316,888.184
1741691809.274,-491.699,-83.496,-61.523,-432.617
1741691809.278,-518.066,54.199,-66.895,-441.406
1741691809.282,999.512,109.375,-68.848,662.109
1741691809.286,-521.973,-79.102,-62.500,-564.453
1741691809.290,-392.578,-30.273,-50.293,-269.531
1741691809.294,999.512,49.316,-52.246,993.652
1741691809.297,-349.609,-20.020,-62.500,-402.344
1741691809.301,-1000.000,-60.059,-61.523,-886.230
1741691809.305,754.395,-27.344,-67.383,491.211
1741691809.309,241.211,-76.172,-72.754,101.074
1741691809.313,-1000.000,-88.867,-64.453,-691.406
1741691809.270,999.512,0.000,-49.316,888.184
1741691809.274,-491.699,-83.496,-61.523,-432.617
1741691809.278,-518.066,54.199,-66.895,-441.406
1741691809.282,999.512,109.375,-68.848,662.109
1741691809.286,-521.973,-79.102,-62.500,-564.453
1741691809.290,-392.578,-30.273,-50.293,-269.531
1741691809.294,999.512,49.316,-52.246,993.652
1741691809.297,-349.609,-20.020,-62.500,-402.344
1741691809.301,-1000.000,-60.059,-61.523,-886.230
1741691809.305,754.395,-27.344,-67.383,491.211
1741691809.309,241.211,-76.172,-72.754,101.074
1741691809.313,-1000.000,-88.867,-64.453,-691.406
1741691809.328,778.809,-13.184,-56.152,511.230
1741691809.332,297.363,-49.316,-50.293,33.691
1741691809.336,-1000.000,-76.172,-45.898,-980.469
1741691809.340,526.367,-8.789,-47.852,495.605
1741691809.344,420.898,-56.152,-53.711,406.250
1741691809.348,-1000.000,-53.711,-46.387,-859.375
1741691809.352,430.176,-82.520,-51.270,355.469
1741691809.355,207.520,-229.004,-74.219,-27.344
1741691809.359,-826.172,-90.332,-71.289,-826.172
1741691809.363,999.512,0.000,-50.781,756.836
1741691809.367,224.609,-66.406,-58.105,95.215
1741691809.371,-1000.000,-61.035,-72.266,-953.613
1741691809.328,778.809,-13.184,-56.152,511.230
1741691809.332,297.363,-49.316,-50.293,33.691
1741691809.336,-1000.000,-76.172,-45.898,-980.469
1741691809.340,526.367,-8.789,-47.852,495.605
1741691809.344,420.898,-56.152,-53.711,406.250
1741691809.348,-1000.000,-53.711,-46.387,-859.375
1741691809.352,430.176,-82.520,-51.270,355.469
1741691809.355,207.520,-229.004,-74.219,-27.344
1741691809.359,-826.172,-90.332,-71.289,-826.172
1741691809.363,999.512,0.000,-50.781,756.836
1741691809.367,224.609,-66.406,-58.105,95.215
1741691809.371,-1000.000,-61.035,-72.266,-953.613
1741691809.373,654.785,0.977,-66.406,402.832
1741691809.377,291.016,-57.129,-57.129,86.426
1741691809.381,-964.355,-75.684,-55.664,-713.867
1741691809.385,839.844,-1.953,-54.688,655.273
1741691809.389,288.086,-54.199,-43.457,134.277
1741691809.393,-1000.000,-51.270,-48.340,-1000.000
1741691809.397,521.973,22.949,-55.176,445.801
1741691809.400,485.352,-36.133,-59.082,430.176
1741691809.404,-1000.000,-49.316,-75.684,-944.336
1741691809.408,179.199,-113.770,-70.312,219.238
1741691809.412,255.371,-536.621,-63.965,144.043
1741691809.416,-923.828,-381.348,-58.594,-876.953
1741691809.373,654.785,0.977,-66.406,402.832
1741691809.377,291.016,-57.129,-57.129,86.426
1741691809.381,-964.355,-75.684,-55.664,-713.867
1741691809.385,839.844,-1.953,-54.688,655.273
1741691809.389,288.086,-54.199,-43.457,134.277
1741691809.393,-1000.000,-51.270,-48.340,-1000.000
1741691809.397,521.973,22.949,-55.176,445.801
1741691809.400,485.352,-36.133,-59.082,430.176
1741691809.404,-1000.000,-49.316,-75.684,-944.336
1741691809.408,179.199,-113.770,-70.312,219.238
1741691809.412,255.371,-536.621,-63.965,144.043
1741691809.416,-923.828,-381.348,-58.594,-876.953
1741691809.420,867.676,55.664,-51.270,631.836
1741691809.424,290.039,-9.277,-53.711,228.027
1741691809.428,-1000.000,-19.531,-47.852,-923.828
1741691809.432,543.945,53.223,-48.828,358.398
1741691809.436,286.133,6.836,-61.523,106.445
1741691809.440,-1000.000,-24.414,-62.988,-759.277
1741691809.444,755.859,39.062,-60.547,583.008
1741691809.447,320.801,-4.883,-63.477,78.613
1741691809.451,-1000.000,-7.812,-63.477,-1000.000
1741691809.455,217.773,-327.148,-72.266,183.594
1741691809.459,999.512,-371.094,-65.918,503.906
1741691809.463,-830.078,2.441,-54.688,-600.098
1741691809.420,867.676,55.664,-51.270,631.836
1741691809.424,290.039,-9.277,-53.711,228.027
1741691809.428,-1000.000,-19.531,-47.852,-923.828
1741691809.432,543.945,53.223,-48.828,358.398
1741691809.436,286.133,6.836,-61.523,106.445
1741691809.440,-1000.000,-24.414,-62.988,-759.277
1741691809.444,755.859,39.062,-60.547,583.008
1741691809.447,320.801,-4.883,-63.477,78.613
1741691809.451,-1000.000,-7.812,-63.477,-1000.000
1741691809.455,217.773,-327.148,-72.266,183.594
1741691809.459,999.512,-371.094,-65.918,503.906
1741691809.463,-830.078,2.441,-54.688,-600.098
1741691809.464,-185.547,21.484,-42.969,4.883
1741691809.468,806.152,-3.418,-45.410,568.848
1741691809.472,-1000.000,-2.930,-56.641,-865.234
1741691809.476,-250.488,64.453,-60.547,-152.832
1741691809.480,999.512,46.387,-64.453,871.094
1741691809.484,-701.660,-20.508,-71.777,-529.785
1741691809.488,-489.258,0.488,-67.871,-430.664
1741691809.491,999.512,121.094,-68.848,638.672
1741691809.495,-371.582,-236.328,-82.031,-527.344
1741691809.499,-618.164,-643.066,-69.336,-581.055
1741691809.503,999.512,-148.926,-66.895,958.984
1741691809.507,145.996,60.547,-78.613,-58.594
1741691809.509,-1000.000,6.836,-63.477,-1000.000
1741691809.513,482.910,97.656,-60.547,427.734
1741691809.517,571.289,62.500,-69.336,487.305
1741691809.521,-1000.000,10.742,-56.152,-820.312
1741691809.525,111.816,77.148,-51.758,199.219
1741691809.529,559.570,57.617,-67.383,440.430
1741691809.533,-1000.000,3.906,-71.289,-889.648
1741691809.536,146.973,62.500,-57.129,250.000
1741691809.540,522.461,-66.895,-59.570,489.746
1741691809.544,-1000.000,-91.309,-63.965,-969.727
1741691809.548,60.547,74.707,-56.641,71.289
1741691809.552,731.934,47.852,-54.688,520.996
1741691809.509,-1000.000,6.836,-63.477,-1000.000
1741691809.513,482.910,97.656,-60.547,427.734
1741691809.517,571.289,62.500,-69.336,487.305
1741691809.521,-1000.000,10.742,-56.152,-820.312
1741691809.525,111.816,77.148,-51.758,199.219
1741691809.529,559.570,57.617,-67.383,440.430
1741691809.533,-1000.000,3.906,-71.289,-889.648
1741691809.536,146.973,62.500,-57.129,250.000
1741691809.540,522.461,-66.895,-59.570,489.746
1741691809.544,-1000.000,-91.309,-63.965,-969.727
1741691809.548,60.547,74.707,-56.641,71.289
1741691809.552,731.934,47.852,-54.688,520.996
1741691809.555,-1000.000,-3.906,-60.059,-751.953
1741691809.559,-22.461,56.641,-60.547,188.965
1741691809.563,650.391,41.504,-51.758,605.957
1741691809.567,-1000.000,-41.016,-63.965,-986.816
1741691809.571,-289.062,6.836,-64.941,-244.629
1741691809.575,999.512,43.945,-45.898,937.012
1741691809.579,-335.449,28.320,-52.734,-347.168
1741691809.582,-669.434,-134.277,-73.730,-579.102
1741691809.586,999.512,-325.684,-75.684,458.496
1741691809.590,-312.500,-151.855,-64.453,-525.391
1741691809.594,-410.156,39.551,-55.664,-338.379
1741691809.598,999.512,43.945,-50.781,874.023
1741691809.555,-1000.000,-3.906,-60.059,-751.953
1741691809.559,-22.461,56.641,-60.547,188.965
1741691809.563,650.391,41.504,-51.758,605.957
1741691809.567,-1000.000,-41.016,-63.965,-986.816
1741691809.571,-289.062,6.836,-64.941,-244.629
1741691809.575,999.512,43.945,-45.898,937.012
1741691809.579,-335.449,28.320,-52.734,-347.168
1741691809.582,-669.434,-134.277,-73.730,-579.102
1741691809.586,999.512,-325.684,-75.684,458.496
1741691809.590,-312.500,-151.855,-64.453,-525.391
1741691809.594,-410.156,39.551,-55.664,-338.379
1741691809.598,999.512,43.945,-50.781,874.023
1741691809.555,-1000.000,-3.906,-60.059,-751.953
1741691809.559,-22.461,56.641,-60.547,188.965
1741691809.563,650.391,41.504,-51.758,605.957
1741691809.567,-1000.000,-41.016,-63.965,-986.816
1741691809.571,-289.062,6.836,-64.941,-244.629
1741691809.575,999.512,43.945,-45.898,937.012
1741691809.579,-335.449,28.320,-52.734,-347.168
1741691809.582,-669.434,-134.277,-73.730,-579.102
1741691809.586,999.512,-325.684,-75.684,458.496
1741691809.590,-312.500,-151.855,-64.453,-525.391
1741691809.594,-410.156,39.551,-55.664,-338.379
1741691809.598,999.512,43.945,-50.781,874.023
1741691809.598,-413.574,-11.230,-58.105,-461.914
1741691809.602,-593.262,25.879,-64.453,-614.258
1741691809.606,999.512,56.152,-61.035,615.723
1741691809.610,-36.621,0.977,-56.152,-216.797
1741691809.614,-823.730,3.906,-61.035,-534.180
1741691809.618,999.512,56.152,-67.383,718.262
1741691809.622,215.332,-10.742,-72.754,-35.156
1741691809.625,-1000.000,-89.844,-79.102,-1000.000
1741691809.629,448.242,-17.090,-69.824,420.898
1741691809.633,637.207,8.301,-51.270,582.520
1741691809.637,-1000.000,-51.758,-47.363,-781.250
1741691809.641,32.227,0.000,-55.664,142.090
1741691809.598,-413.574,-11.230,-58.105,-461.914
1741691809.602,-593.262,25.879,-64.453,-614.258
1741691809.606,999.512,56.152,-61.035,615.723
1741691809.610,-36.621,0.977,-56.152,-216.797
1741691809.614,-823.730,3.906,-61.035,-534.180
1741691809.618,999.512,56.152,-67.383,718.262
1741691809.622,215.332,-10.742,-72.754,-35.156
1741691809.625,-1000.000,-89.844,-79.102,-1000.000
1741691809.629,448.242,-17.090,-69.824,420.898
1741691809.633,637.207,8.301,-51.270,582.520
1741691809.637,-1000.000,-51.758,-47.363,-781.250
1741691809.641,32.227,0.000,-55.664,142.090
1741691809.643,446.777,1.953,-60.059,318.848
1741691809.647,-1000.000,-30.273,-58.594,-858.398
1741691809.651,475.586,24.414,-51.270,454.590
1741691809.655,527.832,-13.672,-53.711,513.672
1741691809.659,-1000.000,-27.832,-61.035,-946.777
1741691809.663,-38.086,-0.977,-56.152,88.379
1741691809.667,952.637,114.746,-58.594,704.102
1741691809.670,-879.395,99.609,-64.941,-632.324
1741691809.674,-259.277,-21.973,-68.359,-110.352
1741691809.678,999.512,-7.324,-66.406,687.012
1741691809.682,-789.062,-23.438,-57.617,-700.684
1741691809.686,-368.652,29.785,-58.594,-284.180
1741691809.643,446.777,1.953,-60.059,318.848
1741691809.647,-1000.000,-30.273,-58.594,-858.398
1741691809.651,475.586,24.414,-51.270,454.590
1741691809.655,527.832,-13.672,-53.711,513.672
1741691809.659,-1000.000,-27.832,-61.035,-946.777
1741691809.663,-38.086,-0.977,-56.152,88.379
1741691809.667,952.637,114.746,-58.594,704.102
1741691809.670,-879.395,99.609,-64.941,-632.324
1741691809.674,-259.277,-21.973,-68.359,-110.352
1741691809.678,999.512,-7.324,-66.406,687.012
1741691809.682,-789.062,-23.438,-57.617,-700.684
1741691809.686,-368.652,29.785,-58.594,-284.180
1741691809.703,999.512,24.414,-57.617,883.789
1741691809.707,-396.484,-25.879,-54.199,-412.109
1741691809.711,-538.086,9.277,-52.246,-458.008
1741691809.715,999.512,28.320,-53.711,702.148
1741691809.719,-429.199,-41.016,-61.035,-514.160
1741691809.723,-323.242,15.625,-47.363,-278.809
1741691809.727,982.910,-113.770,-59.570,855.957
1741691809.730,-806.641,-173.340,-75.195,-662.109
1741691809.734,-368.164,26.855,-62.012,-360.352
1741691809.738,999.512,58.594,-47.363,830.078
1741691809.742,-393.066,4.395,-39.062,-423.340
1741691809.746,-402.832,62.012,-38.574,-296.387
1741691809.703,999.512,24.414,-57.617,883.789
1741691809.707,-396.484,-25.879,-54.199,-412.109
1741691809.711,-538.086,9.277,-52.246,-458.008
1741691809.715,999.512,28.320,-53.711,702.148
1741691809.719,-429.199,-41.016,-61.035,-514.160
1741691809.723,-323.242,15.625,-47.363,-278.809
1741691809.727,982.910,-113.770,-59.570,855.957
1741691809.730,-806.641,-173.340,-75.195,-662.109
1741691809.734,-368.164,26.855,-62.012,-360.352
1741691809.738,999.512,58.594,-47.363,830.078
1741691809.742,-393.066,4.395,-39.062,-423.340
1741691809.746,-402.832,62.012,-38.574,-296.387
1741691809.733,999.512,54.688,-37.109,771.973
1741691809.737,-560.547,65.918,-34.180,-554.688
1741691809.741,-595.703,142.090,-45.410,-571.777
1741691809.745,999.512,77.148,-45.410,724.609
1741691809.749,-202.148,-13.184,-26.855,-265.137
1741691809.753,-663.574,109.863,-18.066,-547.363
1741691809.757,999.512,204.590,-31.250,637.695
1741691809.760,-247.559,-0.488,-37.598,-383.301
1741691809.764,-712.402,-62.988,-21.484,-695.801
1741691809.768,999.512,141.602,-0.488,918.457
1741691809.772,125.000,145.508,-19.531,16.113
1741691809.776,-1000.000,-62.988,-27.832,-890.625
1741691809.733,999.512,54.688,-37.109,771.973
1741691809.737,-560.547,65.918,-34.180,-554.688
1741691809.741,-595.703,142.090,-45.410,-571.777
1741691809.745,999.512,77.148,-45.410,724.609
1741691809.749,-202.148,-13.184,-26.855,-265.137
1741691809.753,-663.574,109.863,-18.066,-547.363
1741691809.757,999.512,204.590,-31.250,637.695
1741691809.760,-247.559,-0.488,-37.598,-383.301
1741691809.764,-712.402,-62.988,-21.484,-695.801
1741691809.768,999.512,141.602,-0.488,918.457
1741691809.772,125.000,145.508,-19.531,16.113
1741691809.776,-1000.000,-62.988,-27.832,-890.625
1741691809.794,707.031,-64.941,5.371,434.570
1741691809.798,345.215,-104.980,19.043,189.941
1741691809.802,-1000.000,-107.910,17.578,-599.609
1741691809.806,502.930,-37.109,4.883,586.914
1741691809.810,413.574,-86.426,14.160,375.000
1741691809.814,-1000.000,-176.758,11.230,-860.352
1741691809.818,180.664,-100.586,-20.020,362.793
1741691809.821,677.246,-125.000,-14.160,697.754
1741691809.825,-1000.000,-138.184,1.465,-577.148
1741691809.829,100.586,-9.766,28.320,376.465
1741691809.833,507.812,-102.051,25.879,591.797
1741691809.837,-1000.000,-177.734,-22.949,-701.660
1741691809.794,707.031,-64.941,5.371,434.570
1741691809.798,345.215,-104.980,19.043,189.941
1741691809.802,-1000.000,-107.910,17.578,-599.609
1741691809.806,502.930,-37.109,4.883,586.914
1741691809.810,413.574,-86.426,14.160,375.000
1741691809.814,-1000.000,-176.758,11.230,-860.352
1741691809.818,180.664,-100.586,-20.020,362.793
1741691809.821,677.246,-125.000,-14.160,697.754
1741691809.825,-1000.000,-138.184,1.465,-577.148
1741691809.829,100.586,-9.766,28.320,376.465
1741691809.833,507.812,-102.051,25.879,591.797
1741691809.837,-1000.000,-177.734,-22.949,-701.660
1741691809.839,168.945,-79.590,-20.996,338.379
1741691809.843,999.512,-75.195,9.766,979.004
1741691809.847,-599.609,-159.668,13.672,-292.969
1741691809.851,-658.691,-123.535,-9.766,-266.602
1741691809.855,999.512,-193.848,-29.297,760.742
1741691809.859,231.934,-273.438,-13.184,240.723
1741691809.863,-1000.000,-173.828,0.488,-288.086
1741691809.866,564.453,-131.836,-13.672,710.938
1741691809.870,238.770,-146.973,-34.180,130.859
1741691809.874,-931.641,-226.074,-19.531,-727.539
1741691809.878,887.695,-175.293,-7.812,793.457
1741691809.882,487.793,-140.137,-17.090,598.633
1741691809.839,168.945,-79.590,-20.996,338.379
1741691809.843,999.512,-75.195,9.766,979.004
1741691809.847,-599.609,-159.668,13.672,-292.969
1741691809.851,-658.691,-123.535,-9.766,-266.602
1741691809.855,999.512,-193.848,-29.297,760.742
1741691809.859,231.934,-273.438,-13.184,240.723
1741691809.863,-1000.000,-173.828,0.488,-288.086
1741691809.866,564.453,-131.836,-13.672,710.938
1741691809.870,238.770,-146.973,-34.180,130.859
1741691809.874,-931.641,-226.074,-19.531,-727.539
1741691809.878,887.695,-175.293,-7.812,793.457
1741691809.882,487.793,-140.137,-17.090,598.633
1741691809.884,-1000.000,-164.551,-18.555,-578.125
1741691809.888,196.289,-76.660,-2.930,443.359
1741691809.892,465.332,-98.145,-8.789,513.184
1741691809.896,-1000.000,-148.926,-23.438,-577.148
1741691809.900,494.629,-42.969,-25.879,584.961
1741691809.904,611.816,-51.758,-45.898,604.980
1741691809.908,-1000.000,-132.324,-35.645,-723.633
1741691809.911,-196.777,-69.824,-16.602,107.910
1741691809.915,999.512,-14.648,-23.438,868.164
1741691809.919,-535.156,-73.242,-5.371,-338.379
1741691809.923,-328.613,-55.176,7.812,-0.977
1741691809.927,999.512,-41.016,1.953,919.922
1741691809.884,-1000.000,-164.551,-18.555,-578.125
1741691809.888,196.289,-76.660,-2.930,443.359
1741691809.892,465.332,-98.145,-8.789,513.184
1741691809.896,-1000.000,-148.926,-23.438,-577.148
1741691809.900,494.629,-42.969,-25.879,584.961
1741691809.904,611.816,-51.758,-45.898,604.980
1741691809.908,-1000.000,-132.324,-35.645,-723.633
1741691809.911,-196.777,-69.824,-16.602,107.910
1741691809.915,999.512,-14.648,-23.438,868.164
1741691809.919,-535.156,-73.242,-5.371,-338.379
1741691809.923,-328.613,-55.176,7.812,-0.977
1741691809.927,999.512,-41.016,1.953,919.922
1741691809.929,-664.551,-95.215,-5.371,-516.602
1741691809.933,-399.414,-12.207,-19.531,-210.938
1741691809.937,999.512,26.367,-44.434,999.512
1741691809.941,-210.938,16.602,-17.090,-127.441
1741691809.945,-842.773,21.484,-7.324,-434.570
1741691809.949,999.512,24.414,-12.695,765.137
1741691809.953,110.352,-35.645,10.742,69.824
1741691809.956,-767.578,-3.418,24.414,-444.824
1741691809.960,999.512,82.520,12.695,849.121
1741691809.964,-4.395,-68.359,-8.789,-69.824
1741691809.968,-916.504,-55.176,-9.277,-728.516
1741691809.972,991.699,14.160,-19.043,765.137
1741691809.929,-664.551,-95.215,-5.371,-516.602
1741691809.933,-399.414,-12.207,-19.531,-210.938
1741691809.937,999.512,26.367,-44.434,999.512
1741691809.941,-210.938,16.602,-17.090,-127.441
1741691809.945,-842.773,21.484,-7.324,-434.570
1741691809.949,999.512,24.414,-12.695,765.137
1741691809.953,110.352,-35.645,10.742,69.824
1741691809.956,-767.578,-3.418,24.414,-444.824
1741691809.960,999.512,82.520,12.695,849.121
1741691809.964,-4.395,-68.359,-8.789,-69.824
1741691809.968,-916.504,-55.176,-9.277,-728.516
1741691809.972,991.699,14.160,-19.043,765.137
1741691809.974,285.645,-35.645,-20.996,275.879
1741691809.978,-1000.000,-31.738,-17.090,-755.371
1741691809.982,687.988,40.039,-6.836,603.516
1741691809.986,311.523,-13.672,-4.395,291.016
1741691809.990,-1000.000,-54.199,-10.742,-846.680
1741691809.994,610.840,56.641,4.883,581.543
1741691809.998,716.797,20.020,-0.977,702.637
1741691810.001,-1000.000,17.578,-3.418,-713.379
1741691810.005,-141.602,126.953,-11.719,65.918
1741691810.009,978.516,35.156,-50.293,750.977
1741691810.013,-853.516,29.297,-11.230,-475.098
1741691810.017,-165.039,111.328,10.254,154.785
1741691810.019,809.570,23.438,-9.766,761.719
1741691810.023,-1000.000,-51.270,11.230,-634.766
1741691810.027,-311.523,42.480,13.672,-51.758
1741691810.031,999.512,90.820,7.812,934.570
1741691810.035,-408.691,-0.488,4.395,-404.297
1741691810.039,-407.715,24.902,-8.301,-292.969
1741691810.043,999.512,152.832,-17.578,876.953
1741691810.046,-492.188,75.195,-17.090,-453.613
1741691810.050,-559.570,-18.066,-15.137,-512.695
1741691810.054,999.512,45.898,-6.836,999.512
1741691810.058,85.938,20.508,7.812,16.602
1741691810.062,-1000.000,-36.621,-8.301,-805.664
1741691810.019,809.570,23.438,-9.766,761.719
1741691810.023,-1000.000,-51.270,11.230,-634.766
1741691810.027,-311.523,42.480,13.672,-51.758
1741691810.031,999.512,90.820,7.812,934.570
1741691810.035,-408.691,-0.488,4.395,-404.297
1741691810.039,-407.715,24.902,-8.301,-292.969
1741691810.043,999.512,152.832,-17.578,876.953
1741691810.046,-492.188,75.195,-17.090,-453.613
1741691810.050,-559.570,-18.066,-15.137,-512.695
1741691810.054,999.512,45.898,-6.836,999.512
1741691810.058,85.938,20.508,7.812,16.602
1741691810.062,-1000.000,-36.621,-8.301,-805.664
1741691810.064,791.992,6.836,-21.484,535.156
1741691810.068,212.891,-41.504,-9.766,130.859
1741691810.072,-899.902,36.621,-0.977,-552.246
1741691810.076,955.566,116.211,-10.254,708.984
1741691810.080,150.879,-38.086,-1.953,-15.137
1741691810.084,-964.355,-40.039,8.301,-787.109
1741691810.088,898.438,167.480,-13.672,732.910
1741691810.091,213.867,68.359,-20.996,96.191
1741691810.095,-1000.000,-76.172,-30.273,-837.402
1741691810.099,746.582,28.809,-22.461,645.020
1741691810.103,251.465,-11.230,-4.395,120.605
1741691810.107,-1000.000,-56.152,-17.578,-931.152
1741691810.064,791.992,6.836,-21.484,535.156
1741691810.068,212.891,-41.504,-9.766,130.859
1741691810.072,-899.902,36.621,-0.977,-552.246
1741691810.076,955.566,116.211,-10.254,708.984
1741691810.080,150.879,-38.086,-1.953,-15.137
1741691810.084,-964.355,-40.039,8.301,-787.109
1741691810.088,898.438,167.480,-13.672,732.910
1741691810.091,213.867,68.359,-20.996,96.191
1741691810.095,-1000.000,-76.172,-30.273,-837.402
1741691810.099,746.582,28.809,-22.461,645.020
1741691810.103,251.465,-11.230,-4.395,120.605
1741691810.107,-1000.000,-56.152,-17.578,-931.152
1741691810.110,696.777,-15.137,-5.859,565.918
1741691810.114,507.812,47.852,25.879,527.832
1741691810.118,-1000.000,34.668,-7.812,-799.316
1741691810.122,-238.770,-25.391,-63.965,-111.328
1741691810.126,999.512,-28.320,-42.480,610.352
1741691810.130,-461.426,-18.066,-12.207,-363.281
1741691810.134,-300.293,77.148,-17.090,-53.711
1741691810.137,999.512,12.695,-19.043,684.082
1741691810.141,-754.395,-77.148,-18.066,-687.988
1741691810.145,-416.992,-68.848,-4.395,-390.625
1741691810.149,999.512,-19.531,0.000,987.793
1741691810.153,-263.672,-46.875,-12.695,-285.645
1741691810.110,696.777,-15.137,-5.859,565.918
1741691810.114,507.812,47.852,25.879,527.832
1741691810.118,-1000.000,34.668,-7.812,-799.316
1741691810.122,-238.770,-25.391,-63.965,-111.328
1741691810.126,999.512,-28.320,-42.480,610.352
1741691810.130,-461.426,-18.066,-12.207,-363.281
1741691810.134,-300.293,77.148,-17.090,-53.711
1741691810.137,999.512,12.695,-19.043,684.082
1741691810.141,-754.395,-77.148,-18.066,-687.988
1741691810.145,-416.992,-68.848,-4.395,-390.625
1741691810.149,999.512,-19.531,0.000,987.793
1741691810.153,-263.672,-46.875,-12.695,-285.645
1741691810.169,-507.812,-24.414,-13.184,-480.957
1741691810.173,999.512,14.648,-30.762,652.832
1741691810.177,-525.391,-54.688,-33.691,-538.086
1741691810.181,-378.906,-43.945,-27.832,-277.832
1741691810.185,999.512,-30.273,-36.621,874.023
1741691810.189,-418.457,142.578,-29.785,-390.137
1741691810.193,-1000.000,113.770,-28.809,-749.512
1741691810.196,657.227,-50.781,-42.969,357.422
1741691810.200,368.652,-69.336,-29.297,62.500
1741691810.204,-1000.000,-72.754,-18.066,-700.684
1741691810.208,450.195,-31.738,-14.648,451.172
1741691810.212,400.391,-34.668,-23.438,169.922
1741691810.169,-507.812,-24.414,-13.184,-480.957
1741691810.173,999.512,14.648,-30.762,652.832
1741691810.177,-525.391,-54.688,-33.691,-538.086
1741691810.181,-378.906,-43.945,-27.832,-277.832
1741691810.185,999.512,-30.273,-36.621,874.023
1741691810.189,-418.457,142.578,-29.785,-390.137
1741691810.193,-1000.000,113.770,-28.809,-749.512
1741691810.196,657.227,-50.781,-42.969,357.422
1741691810.200,368.652,-69.336,-29.297,62.500
1741691810.204,-1000.000,-72.754,-18.066,-700.684
1741691810.208,450.195,-31.738,-14.648,451.172
1741691810.212,400.391,-34.668,-23.438,169.922
1741691810.214,-1000.000,-147.949,-56.152,-1000.000
1741691810.218,57.129,-168.457,-45.898,205.078
1741691810.222,861.328,-44.434,-5.371,796.875
1741691810.226,-1000.000,-66.406,-8.301,-730.957
1741691810.230,-285.645,-45.898,-19.043,-294.922
1741691810.234,999.512,-23.438,-30.762,666.992
1741691810.238,-734.863,-36.133,-28.320,-567.871
1741691810.241,-350.098,-39.062,-22.461,-234.863
1741691810.245,999.512,110.840,-54.199,764.160
1741691810.249,-645.020,279.297,-50.293,-565.918
1741691810.253,-916.992,131.836,-26.367,-739.258
1741691810.257,973.633,-11.230,-31.250,617.188
1741691810.214,-1000.000,-147.949,-56.152,-1000.000
1741691810.218,57.129,-168.457,-45.898,205.078
1741691810.222,861.328,-44.434,-5.371,796.875
1741691810.226,-1000.000,-66.406,-8.301,-730.957
1741691810.230,-285.645,-45.898,-19.043,-294.922
1741691810.234,999.512,-23.438,-30.762,666.992
1741691810.238,-734.863,-36.133,-28.320,-567.871
1741691810.241,-350.098,-39.062,-22.461,-234.863
1741691810.245,999.512,110.840,-54.199,764.160
1741691810.249,-645.020,279.297,-50.293,-565.918
1741691810.253,-916.992,131.836,-26.367,-739.258
1741691810.257,973.633,-11.230,-31.250,617.188
1741691810.259,168.457,-55.176,-35.156,-39.551
1741691810.263,-985.352,-52.734,-23.926,-761.719
1741691810.267,825.684,-8.789,-12.207,539.062
1741691810.271,90.332,-75.195,-15.137,-141.602
1741691810.275,-1000.000,-56.641,-27.832,-920.898
1741691810.279,827.637,13.672,-33.203,665.527
1741691810.283,386.230,-38.574,-22.949,327.148
1741691810.286,-1000.000,-93.750,-33.691,-1000.000
1741691810.290,-97.656,8.301,-58.105,-14.648
1741691810.294,979.492,38.086,-25.879,637.695
1741691810.298,-831.055,-90.332,11.719,-575.195
1741691810.302,-207.031,0.000,-8.789,-2.930
1741691810.259,168.457,-55.176,-35.156,-39.551
1741691810.263,-985.352,-52.734,-23.926,-761.719
1741691810.267,825.684,-8.789,-12.207,539.062
1741691810.271,90.332,-75.195,-15.137,-141.602
1741691810.275,-1000.000,-56.641,-27.832,-920.898
1741691810.279,827.637,13.672,-33.203,665.527
1741691810.283,386.230,-38.574,-22.949,327.148
1741691810.286,-1000.000,-93.750,-33.691,-1000.000
1741691810.290,-97.656,8.301,-58.105,-14.648
1741691810.294,979.492,38.086,-25.879,637.695
1741691810.298,-831.055,-90.332,11.719,-575.195
1741691810.302,-207.031,0.000,-8.789,-2.930
1741691810.303,725.098,59.082,-38.086,570.312
1741691810.307,-1000.000,-69.824,-43.945,-890.137
1741691810.311,-264.160,-22.949,-32.227,-108.398
1741691810.315,999.512,0.488,-20.020,944.824
1741691810.319,-543.457,-80.078,-18.555,-484.863
1741691810.323,-348.633,-25.879,-42.480,-253.906
1741691810.327,999.512,-1.953,-49.805,816.895
1741691810.330,-620.117,-21.484,-20.996,-502.930
1741691810.334,-425.293,55.176,-17.090,-334.473
1741691810.338,999.512,8.301,-20.508,961.426
1741691810.342,-203.613,-82.031,-26.855,-271.484
1741691810.346,-650.391,-45.898,-38.086,-599.609
1741691810.303,725.098,59.082,-38.086,570.312
1741691810.307,-1000.000,-69.824,-43.945,-890.137
1741691810.311,-264.160,-22.949,-32.227,-108.398
1741691810.315,999.512,0.488,-20.020,944.824
1741691810.319,-543.457,-80.078,-18.555,-484.863
1741691810.323,-348.633,-25.879,-42.480,-253.906
1741691810.327,999.512,-1.953,-49.805,816.895
1741691810.330,-620.117,-21.484,-20.996,-502.930
1741691810.334,-425.293,55.176,-17.090,-334.473
1741691810.338,999.512,8.301,-20.508,961.426
1741691810.342,-203.613,-82.031,-26.855,-271.484
1741691810.346,-650.391,-45.898,-38.086,-599.609
1741691810.350,999.512,-9.277,-45.898,693.359
1741691810.354,-71.289,-73.242,-36.133,-202.148
1741691810.358,-519.531,-48.340,-17.578,-352.051
1741691810.362,999.512,19.531,-36.133,860.840
1741691810.366,-238.281,-23.438,-47.852,-334.961
1741691810.370,-687.500,-22.949,-25.879,-695.312
1741691810.374,999.512,-4.883,-14.160,861.816
1741691810.377,237.305,173.828,-8.789,155.273
1741691810.381,-1000.000,121.094,-22.949,-963.379
1741691810.385,296.875,-52.734,-23.926,386.230
1741691810.389,415.527,-58.594,-24.902,367.676
1741691810.393,-1000.000,-109.375,-20.996,-933.105
1741691810.350,999.512,-9.277,-45.898,693.359
1741691810.354,-71.289,-73.242,-36.133,-202.148
1741691810.358,-519.531,-48.340,-17.578,-352.051
1741691810.362,999.512,19.531,-36.133,860.840
1741691810.366,-238.281,-23.438,-47.852,-334.961
1741691810.370,-687.500,-22.949,-25.879,-695.312
1741691810.374,999.512,-4.883,-14.160,861.816
1741691810.377,237.305,173.828,-8.789,155.273
1741691810.381,-1000.000,121.094,-22.949,-963.379
1741691810.385,296.875,-52.734,-23.926,386.230
1741691810.389,415.527,-58.594,-24.902,367.676
1741691810.393,-1000.000,-109.375,-20.996,-933.105
1741691810.350,999.512,-9.277,-45.898,693.359
1741691810.354,-71.289,-73.242,-36.133,-202.148
1741691810.358,-519.531,-48.340,-17.578,-352.051
1741691810.362,999.512,19.531,-36.133,860.840
1741691810.366,-238.281,-23.438,-47.852,-334.961
1741691810.370,-687.500,-22.949,-25.879,-695.312
1741691810.374,999.512,-4.883,-14.160,861.816
1741691810.377,237.305,173.828,-8.789,155.273
1741691810.381,-1000.000,121.094,-22.949,-963.379
1741691810.385,296.875,-52.734,-23.926,386.230
1741691810.389,415.527,-58.594,-24.902,367.676
1741691810.393,-1000.000,-109.375,-20.996,-933.105
1741691810.395,395.508,-46.875,-30.762,387.695
1741691810.399,630.371,-82.031,-37.109,572.266
1741691810.403,-1000.000,-59.082,-14.160,-785.645
1741691810.407,-203.613,42.969,-47.852,-65.918
1741691810.411,999.512,-41.992,-60.059,521.973
1741691810.415,-674.316,-20.996,-39.062,-486.328
1741691810.419,-202.637,-173.340,-33.203,9.766
1741691810.422,690.918,-516.602,-32.227,448.730
1741691810.426,-1000.000,-283.203,-53.711,-862.305
1741691810.430,-202.148,1.953,-61.523,-75.684
1741691810.434,999.512,-1.465,-62.988,762.207
1741691810.438,-784.668,-50.293,-69.336,-629.395
1741691810.395,395.508,-46.875,-30.762,387.695
1741691810.399,630.371,-82.031,-37.109,572.266
1741691810.403,-1000.000,-59.082,-14.160,-785.645
1741691810.407,-203.613,42.969,-47.852,-65.918
1741691810.411,999.512,-41.992,-60.059,521.973
1741691810.415,-674.316,-20.996,-39.062,-486.328
1741691810.419,-202.637,-173.340,-33.203,9.766
1741691810.422,690.918,-516.602,-32.227,448.730
1741691810.426,-1000.000,-283.203,-53.711,-862.305
1741691810.430,-202.148,1.953,-61.523,-75.684
1741691810.434,999.512,-1.465,-62.988,762.207
1741691810.438,-784.668,-50.293,-69.336,-629.395
1741691810.453,-299.316,-14.648,-53.711,-217.773
1741691810.457,999.512,-0.977,-25.391,731.934
1741691810.461,-741.699,-35.645,-22.949,-657.227
1741691810.465,-422.363,0.977,-44.922,-439.453
1741691810.469,999.512,18.066,-32.715,920.410
1741691810.473,62.988,-13.672,-24.414,-139.160
1741691810.477,-1000.000,-207.520,-37.109,-846.191
1741691810.480,349.121,-165.527,-22.461,402.344
1741691810.484,510.742,-5.859,-15.137,295.898
1741691810.488,-1000.000,-38.086,-29.297,-793.945
1741691810.492,301.758,31.738,-28.809,333.984
1741691810.496,423.828,11.719,-35.156,272.949
1741691810.453,-299.316,-14.648,-53.711,-217.773
1741691810.457,999.512,-0.977,-25.391,731.934
1741691810.461,-741.699,-35.645,-22.949,-657.227
1741691810.465,-422.363,0.977,-44.922,-439.453
1741691810.469,999.512,18.066,-32.715,920.410
1741691810.473,62.988,-13.672,-24.414,-139.160
1741691810.477,-1000.000,-207.520,-37.109,-846.191
1741691810.480,349.121,-165.527,-22.461,402.344
1741691810.484,510.742,-5.859,-15.137,295.898
1741691810.488,-1000.000,-38.086,-29.297,-793.945
1741691810.492,301.758,31.738,-28.809,333.984
1741691810.496,423.828,11.719,-35.156,272.949
1741691810.484,-1000.000,-31.738,-19.531,-1000.000
1741691810.488,238.770,14.160,-13.672,298.340
1741691810.492,666.016,-3.906,-32.227,627.441
1741691810.496,-1000.000,-55.176,-33.203,-843.262
1741691810.500,-110.352,1.465,-32.715,-56.641
1741691810.504,825.684,-44.434,-21.484,576.660
1741691810.508,-1000.000,-109.863,3.906,-670.410
1741691810.511,-117.676,21.973,2.441,104.004
1741691810.515,672.363,4.883,-32.715,589.355
1741691810.519,-1000.000,-37.598,-48.828,-970.215
1741691810.523,-139.160,354.004,-34.180,-74.219
1741691810.527,838.867,276.855,-32.227,754.395
1741691810.484,-1000.000,-31.738,-19.531,-1000.000
1741691810.488,238.770,14.160,-13.672,298.340
1741691810.492,666.016,-3.906,-32.227,627.441
1741691810.496,-1000.000,-55.176,-33.203,-843.262
1741691810.500,-110.352,1.465,-32.715,-56.641
1741691810.504,825.684,-44.434,-21.484,576.660
1741691810.508,-1000.000,-109.863,3.906,-670.410
1741691810.511,-117.676,21.973,2.441,104.004
1741691810.515,672.363,4.883,-32.715,589.355
1741691810.519,-1000.000,-37.598,-48.828,-970.215
1741691810.523,-139.160,354.004,-34.180,-74.219
1741691810.527,838.867,276.855,-32.227,754.395
1741691810.558,-1000.000,-103.027,-35.645,-720.215
1741691810.562,-180.664,-45.410,-24.902,-19.531
1741691810.566,853.516,-33.691,-23.926,809.570
1741691810.570,-959.961,-85.938,-38.574,-783.691
1741691810.574,-399.902,-43.945,-33.203,-408.203
1741691810.578,999.512,-0.488,-40.039,998.535
1741691810.582,34.668,-56.152,-44.434,-128.906
1741691810.585,-1000.000,-70.801,-32.227,-846.680
1741691810.589,749.512,-15.625,-23.438,487.793
1741691810.593,202.637,-86.426,-13.672,2.441
1741691810.597,-948.242,-80.078,-17.578,-721.191
1741691810.601,874.023,8.789,-25.391,625.488
1741691810.558,-1000.000,-103.027,-35.645,-720.215
1741691810.562,-180.664,-45.410,-24.902,-19.531
1741691810.566,853.516,-33.691,-23.926,809.570
1741691810.570,-959.961,-85.938,-38.574,-783.691
1741691810.574,-399.902,-43.945,-33.203,-408.203
1741691810.578,999.512,-0.488,-40.039,998.535
1741691810.582,34.668,-56.152,-44.434,-128.906
1741691810.585,-1000.000,-70.801,-32.227,-846.680
1741691810.589,749.512,-15.625,-23.438,487.793
1741691810.593,202.637,-86.426,-13.672,2.441
1741691810.597,-948.242,-80.078,-17.578,-721.191
1741691810.601,874.023,8.789,-25.391,625.488
1741691810.588,315.918,-66.895,-26.367,62.988
1741691810.592,-1000.000,-92.285,-31.738,-1000.000
1741691810.596,304.199,4.883,-34.180,276.367
1741691810.600,679.199,-9.277,-25.879,474.121
1741691810.604,-1000.000,-77.637,-31.250,-803.711
1741691810.608,88.867,-8.301,-19.043,244.141
1741691810.612,583.008,-3.906,6.348,582.520
1741691810.615,-1000.000,-62.500,-13.672,-999.023
1741691810.619,-103.027,-11.719,-31.250,6.836
1741691810.623,934.570,-15.137,-31.738,798.340
1741691810.627,-920.898,-75.195,-14.648,-685.059
1741691810.631,-221.680,9.766,-21.484,-173.340
1741691810.588,315.918,-66.895,-26.367,62.988
1741691810.592,-1000.000,-92.285,-31.738,-1000.000
1741691810.596,304.199,4.883,-34.180,276.367
1741691810.600,679.199,-9.277,-25.879,474.121
1741691810.604,-1000.000,-77.637,-31.250,-803.711
1741691810.608,88.867,-8.301,-19.043,244.141
1741691810.612,583.008,-3.906,6.348,582.520
1741691810.615,-1000.000,-62.500,-13.672,-999.023
1741691810.619,-103.027,-11.719,-31.250,6.836
1741691810.623,934.570,-15.137,-31.738,798.340
1741691810.627,-920.898,-75.195,-14.648,-685.059
1741691810.631,-221.680,9.766,-21.484,-173.340
1741691810.588,315.918,-66.895,-26.367,62.988
1741691810.592,-1000.000,-92.285,-31.738,-1000.000
1741691810.596,304.199,4.883,-34.180,276.367
1741691810.600,679.199,-9.277,-25.879,474.121
1741691810.604,-1000.000,-77.637,-31.250,-803.711
1741691810.608,88.867,-8.301,-19.043,244.141
1741691810.612,583.008,-3.906,6.348,582.520
1741691810.615,-1000.000,-62.500,-13.672,-999.023
1741691810.619,-103.027,-11.719,-31.250,6.836
1741691810.623,934.570,-15.137,-31.738,798.340
1741691810.627,-920.898,-75.195,-14.648,-685.059
1741691810.631,-221.680,9.766,-21.484,-173.340
1741691810.635,842.773,-85.449,-26.367,609.863
1741691810.639,-1000.000,-268.555,4.395,-678.711
1741691810.643,-111.816,-68.359,17.578,94.727
1741691810.647,829.102,40.527,1.465,804.199
1741691810.651,-1000.000,-14.160,-16.602,-816.406
1741691810.655,-267.090,54.199,-15.625,-200.195
1741691810.659,999.512,100.586,-28.809,891.602
1741691810.662,-666.992,-1.953,-24.902,-571.777
1741691810.666,-393.066,-124.023,-27.832,-325.195
1741691810.670,999.512,-3.906,-27.832,819.336
1741691810.674,-504.883,60.059,-36.133,-548.828
1741691810.678,-500.977,54.199,-53.223,-509.766
1741691810.635,842.773,-85.449,-26.367,609.863
1741691810.639,-1000.000,-268.555,4.395,-678.711
1741691810.643,-111.816,-68.359,17.578,94.727
1741691810.647,829.102,40.527,1.465,804.199
1741691810.651,-1000.000,-14.160,-16.602,-816.406
1741691810.655,-267.090,54.199,-15.625,-200.195
1741691810.659,999.512,100.586,-28.809,891.602
1741691810.662,-666.992,-1.953,-24.902,-571.777
1741691810.666,-393.066,-124.023,-27.832,-325.195
1741691810.670,999.512,-3.906,-27.832,819.336
1741691810.674,-504.883,60.059,-36.133,-548.828
1741691810.678,-500.977,54.199,-53.223,-509.766
1741691810.680,999.512,95.215,-39.551,908.203
1741691810.684,-214.844,31.250,-40.527,-328.125
1741691810.688,-511.719,36.133,-43.457,-530.273
1741691810.692,999.512,79.102,-31.250,663.574
1741691810.696,-490.723,10.742,-13.672,-530.762
1741691810.700,-325.684,16.602,-7.324,-170.410
1741691810.704,999.512,24.902,-22.461,872.559
1741691810.707,-680.176,-98.633,-24.414,-586.914
1741691810.711,-916.016,-179.688,-23.926,-724.121
1741691810.715,950.684,-25.879,-33.691,604.980
1741691810.719,236.328,26.367,-36.133,53.711
1741691810.723,-1000.000,-31.250,-39.062,-799.316
1741691810.680,999.512,95.215,-39.551,908.203
1741691810.684,-214.844,31.250,-40.527,-328.125
1741691810.688,-511.719,36.133,-43.457,-530.273
1741691810.692,999.512,79.102,-31.250,663.574
1741691810.696,-490.723,10.742,-13.672,-530.762
1741691810.700,-325.684,16.602,-7.324,-170.410
1741691810.704,999.512,24.902,-22.461,872.559
1741691810.707,-680.176,-98.633,-24.414,-586.914
1741691810.711,-916.016,-179.688,-23.926,-724.121
1741691810.715,950.684,-25.879,-33.691,604.980
1741691810.719,236.328,26.367,-36.133,53.711
1741691810.723,-1000.000,-31.250,-39.062,-799.316
1741691810.724,587.402,17.090,-37.598,405.273
1741691810.728,294.922,-10.742,-36.621,17.578
1741691810.732,-1000.000,-28.320,-41.016,-985.352
1741691810.736,630.371,39.551,-41.016,510.742
1741691810.740,430.664,-1.953,-36.133,376.465
1741691810.744,-1000.000,-18.066,-34.668,-910.645
1741691810.748,382.812,42.969,-36.133,337.891
1741691810.751,339.355,30.273,-34.668,203.613
1741691810.755,-1000.000,24.414,-27.344,-975.586
1741691810.759,518.555,42.480,-27.344,475.586
1741691810.763,487.305,8.789,-28.320,464.844
1741691810.767,-1000.000,-33.203,-20.508,-1000.000
1741691810.724,587.402,17.090,-37.598,405.273
1741691810.728,294.922,-10.742,-36.621,17.578
1741691810.732,-1000.000,-28.320,-41.016,-985.352
1741691810.736,630.371,39.551,-41.016,510.742
1741691810.740,430.664,-1.953,-36.133,376.465
1741691810.744,-1000.000,-18.066,-34.668,-910.645
1741691810.748,382.812,42.969,-36.133,337.891
1741691810.751,339.355,30.273,-34.668,203.613
1741691810.755,-1000.000,24.414,-27.344,-975.586
1741691810.759,518.555,42.480,-27.344,475.586
1741691810.763,487.305,8.789,-28.320,464.844
1741691810.767,-1000.000,-33.203,-20.508,-1000.000
1741691810.769,-32.227,19.531,-22.461,87.402
1741691810.773,860.352,11.230,-26.367,688.477
1741691810.777,-989.258,-43.457,-34.668,-660.156
1741691810.781,-112.793,6.348,-30.762,85.449
1741691810.785,566.895,10.254,-36.133,453.613
1741691810.789,-1000.000,19.531,-41.992,-937.500
1741691810.793,83.984,50.293,-27.344,189.453
1741691810.796,817.871,38.574,-41.504,736.328
1741691810.800,-1000.000,-2.930,-50.781,-831.055
1741691810.804,-186.035,-2.930,-34.180,-168.457
1741691810.808,856.445,-6.836,-29.785,642.090
1741691810.812,-985.352,-63.477,-39.551,-716.797
1741691810.769,-32.227,19.531,-22.461,87.402
1741691810.773,860.352,11.230,-26.367,688.477
1741691810.777,-989.258,-43.457,-34.668,-660.156
1741691810.781,-112.793,6.348,-30.762,85.449
1741691810.785,566.895,10.254,-36.133,453.613
1741691810.789,-1000.000,19.531,-41.992,-937.500
1741691810.793,83.984,50.293,-27.344,189.453
1741691810.796,817.871,38.574,-41.504,736.328
1741691810.800,-1000.000,-2.930,-50.781,-831.055
1741691810.804,-186.035,-2.930,-34.180,-168.457
1741691810.808,856.445,-6.836,-29.785,642.090
1741691810.812,-985.352,-63.477,-39.551,-716.797
1741691810.814,-205.078,5.859,-34.180,-18.066
1741691810.818,999.512,18.555,-30.273,884.766
1741691810.822,-763.184,-33.691,-38.574,-632.812
1741691810.826,-602.539,11.719,-50.293,-586.914
1741691810.830,999.512,41.504,-57.129,601.562
1741691810.834,267.090,-20.996,-38.086,17.090
1741691810.838,-1000.000,-45.898,-36.621,-677.246
1741691810.841,116.211,-12.207,-40.039,262.695
1741691810.845,431.641,-41.992,-25.879,226.562
1741691810.849,-1000.000,-26.367,-32.227,-840.820
1741691810.853,488.770,56.641,-39.551,405.762
1741691810.857,460.938,3.906,-25.879,380.859
1741691811.339,-542.480,-10.254,-41.016,-567.871
1741691811.343,999.512,54.688,-24.414,884.766
1741691811.347,62.988,-44.434,-12.207,-58.105
1741691811.351,-983.887,-42.480,-24.414,-740.234
1741691811.355,855.469,41.992,-23.926,563.477
1741691811.359,158.203,-3.906,-16.113,-41.504
1741691811.363,-733.398,-37.109,-10.254,-595.215
1741691811.366,999.512,44.434,-11.719,899.414
1741691811.370,203.613,-118.164,-20.020,80.078
1741691811.374,-1000.000,-3.418,-30.273,-951.172
1741691811.378,631.348,197.266,-27.344,471.680
1741691811.382,405.273,-35.645,-28.320,295.898
1741691810.814,-205.078,5.859,-34.180,-18.066
1741691810.818,999.512,18.555,-30.273,884.766
1741691810.822,-763.184,-33.691,-38.574,-632.812
1741691810.826,-602.539,11.719,-50.293,-586.914
1741691810.830,999.512,41.504,-57.129,601.562
1741691810.834,267.090,-20.996,-38.086,17.090
1741691810.838,-1000.000,-45.898,-36.621,-677.246
1741691810.841,116.211,-12.207,-40.039,262.695
1741691810.845,431.641,-41.992,-25.879,226.562
1741691810.849,-1000.000,-26.367,-32.227,-840.820
1741691810.853,488.770,56.641,-39.551,405.762
1741691810.857,460.938,3.906,-25.879,380.859
1741691810.874,-1000.000,-58.594,-37.109,-1000.000
1741691810.878,112.793,97.656,-46.875,144.531
1741691810.882,605.957,114.746,-32.715,497.070
1741691810.886,-1000.000,-39.062,-35.156,-766.602
1741691810.890,125.977,-3.418,-32.227,219.727
1741691810.894,691.406,32.715,-41.016,551.758
1741691810.898,-1000.000,-2.930,-46.875,-879.395
1741691810.901,-266.113,9.277,-46.387,-194.824
1741691810.905,999.512,18.066,-48.340,744.629
1741691810.909,-457.031,-44.434,-41.504,-466.797
1741691810.913,-395.020,-0.488,-34.180,-286.621
1741691810.917,999.512,29.297,-32.227,732.910
1741691810.874,-1000.000,-58.594,-37.109,-1000.000
1741691810.878,112.793,97.656,-46.875,144.531
1741691810.882,605.957,114.746,-32.715,497.070
1741691810.886,-1000.000,-39.062,-35.156,-766.602
1741691810.890,125.977,-3.418,-32.227,219.727
1741691810.894,691.406,32.715,-41.016,551.758
1741691810.898,-1000.000,-2.930,-46.875,-879.395
1741691810.901,-266.113,9.277,-46.387,-194.824
1741691810.905,999.512,18.066,-48.340,744.629
1741691810.909,-457.031,-44.434,-41.504,-466.797
1741691810.913,-395.020,-0.488,-34.180,-286.621
1741691810.917,999.512,29.297,-32.227,732.910
1741691810.920,-627.930,-27.832,-38.574,-595.703
1741691810.924,-408.203,-31.738,-51.758,-338.379
1741691810.928,999.512,-51.758,-38.086,954.590
1741691810.932,-247.070,-62.500,-37.598,-329.102
1741691810.936,-875.000,-23.438,-49.316,-721.680
1741691810.940,999.512,6.836,-23.926,660.645
1741691810.944,172.852,-51.758,-18.555,22.949
1741691810.947,-998.047,-71.289,-39.062,-778.809
1741691810.951,833.008,22.461,-49.805,633.301
1741691810.955,255.371,19.043,-60.547,73.730
1741691810.959,-1000.000,-50.781,-31.250,-961.426
1741691810.963,657.227,-18.555,-6.836,585.938
1741691810.920,-627.930,-27.832,-38.574,-595.703
1741691810.924,-408.203,-31.738,-51.758,-338.379
1741691810.928,999.512,-51.758,-38.086,954.590
1741691810.932,-247.070,-62.500,-37.598,-329.102
1741691810.936,-875.000,-23.438,-49.316,-721.680
1741691810.940,999.512,6.836,-23.926,660.645
1741691810.944,172.852,-51.758,-18.555,22.949
1741691810.947,-998.047,-71.289,-39.062,-778.809
1741691810.951,833.008,22.461,-49.805,633.301
1741691810.955,255.371,19.043,-60.547,73.730
1741691810.959,-1000.000,-50.781,-31.250,-961.426
1741691810.963,657.227,-18.555,-6.836,585.938
1741691810.964,342.773,-62.988,-20.996,297.363
1741691810.968,-1000.000,-92.285,-37.598,-945.312
1741691810.972,521.484,-10.254,-45.898,426.270
1741691810.976,327.637,-20.996,-39.551,223.633
1741691810.980,-1000.000,-108.398,-24.902,-954.590
1741691810.984,563.477,-67.871,-24.902,501.465
1741691810.988,536.133,-2.441,-44.434,505.859
1741691810.991,-1000.000,-51.758,-49.805,-966.797
1741691810.995,-173.828,90.820,-45.410,-101.562
1741691810.999,999.512,336.426,-29.297,708.008
1741691811.003,-610.840,126.465,-24.902,-564.453
1741691811.007,-335.938,-16.602,-44.922,-254.883
1741691810.964,342.773,-62.988,-20.996,297.363
1741691810.968,-1000.000,-92.285,-37.598,-945.312
1741691810.972,521.484,-10.254,-45.898,426.270
1741691810.976,327.637,-20.996,-39.551,223.633
1741691810.980,-1000.000,-108.398,-24.902,-954.590
1741691810.984,563.477,-67.871,-24.902,501.465
1741691810.988,536.133,-2.441,-44.434,505.859
1741691810.991,-1000.000,-51.758,-49.805,-966.797
1741691810.995,-173.828,90.820,-45.410,-101.562
1741691810.999,999.512,336.426,-29.297,708.008
1741691811.003,-610.840,126.465,-24.902,-564.453
1741691811.007,-335.938,-16.602,-44.922,-254.883
1741691811.009,999.512,12.207,-41.504,714.844
1741691811.013,-710.938,-62.012,-38.086,-658.691
1741691811.017,-429.199,-20.996,-39.551,-415.039
1741691811.021,999.512,2.441,-16.602,957.031
1741691811.025,-246.094,-67.871,-26.367,-348.633
1741691811.029,-530.762,-37.109,-48.340,-545.410
1741691811.033,999.512,17.090,-37.109,797.363
1741691811.036,-346.191,-82.520,-34.180,-437.500
1741691811.040,-504.395,85.449,-32.227,-553.711
1741691811.044,999.512,156.738,-22.949,871.582
1741691811.048,-256.836,-72.754,-43.945,-330.078
1741691811.052,-766.602,-72.266,-46.875,-732.422
1741691811.009,999.512,12.207,-41.504,714.844
1741691811.013,-710.938,-62.012,-38.086,-658.691
1741691811.017,-429.199,-20.996,-39.551,-415.039
1741691811.021,999.512,2.441,-16.602,957.031
1741691811.025,-246.094,-67.871,-26.367,-348.633
1741691811.029,-530.762,-37.109,-48.340,-545.410
1741691811.033,999.512,17.090,-37.109,797.363
1741691811.036,-346.191,-82.520,-34.180,-437.500
1741691811.040,-504.395,85.449,-32.227,-553.711
1741691811.044,999.512,156.738,-22.949,871.582
1741691811.048,-256.836,-72.754,-43.945,-330.078
1741691811.052,-766.602,-72.266,-46.875,-732.422
1741691811.053,999.512,-27.832,-31.250,670.898
1741691811.057,57.129,-78.125,-23.926,-146.973
1741691811.061,-772.461,-75.684,-40.527,-662.109
1741691811.065,999.512,10.254,-51.270,711.914
1741691811.069,76.660,-51.758,-29.297,-153.809
1741691811.073,-788.574,-65.918,0.000,-768.555
1741691811.077,999.512,30.762,3.906,812.500
1741691811.080,178.711,-100.098,-37.109,22.949
1741691811.084,-1000.000,3.418,-66.895,-925.781
1741691811.088,783.203,164.551,-53.711,487.305
1741691811.092,145.020,-65.430,-39.551,-106.445
1741691811.096,-782.227,-73.730,-36.133,-784.668
1741691811.053,999.512,-27.832,-31.250,670.898
1741691811.057,57.129,-78.125,-23.926,-146.973
1741691811.061,-772.461,-75.684,-40.527,-662.109
1741691811.065,999.512,10.254,-51.270,711.914
1741691811.069,76.660,-51.758,-29.297,-153.809
1741691811.073,-788.574,-65.918,0.000,-768.555
1741691811.077,999.512,30.762,3.906,812.500
1741691811.080,178.711,-100.098,-37.109,22.949
1741691811.084,-1000.000,3.418,-66.895,-925.781
1741691811.088,783.203,164.551,-53.711,487.305
1741691811.092,145.020,-65.430,-39.551,-106.445
1741691811.096,-782.227,-73.730,-36.133,-784.668
1741691811.098,999.512,8.301,-40.039,774.414
1741691811.102,229.492,-56.641,-35.156,87.891
1741691811.106,-1000.000,-55.176,-33.203,-982.910
1741691811.110,562.500,38.086,-34.180,380.371
1741691811.114,281.250,7.324,-45.410,82.520
1741691811.118,-992.188,4.395,-44.922,-823.730
1741691811.122,841.797,62.500,-40.527,530.762
1741691811.125,166.016,-136.719,-30.762,-63.965
1741691811.129,-931.152,-111.328,-1.465,-828.125
1741691811.133,953.125,109.863,2.930,709.961
1741691811.137,381.836,-2.441,-1.465,275.879
1741691811.141,-1000.000,-113.770,-7.324,-893.066
1741691811.143,394.531,25.391,-2.441,309.570
1741691811.147,354.004,20.996,9.766,175.293
1741691811.151,-1000.000,-41.992,17.090,-935.547
1741691811.155,527.344,38.086,2.930,479.492
1741691811.159,452.637,6.348,-11.230,413.574
1741691811.163,-1000.000,-15.137,-4.395,-845.215
1741691811.167,367.188,0.488,-20.020,287.598
1741691811.170,355.957,-132.324,-20.508,180.664
1741691811.174,-1000.000,-96.680,-9.766,-862.793
1741691811.178,543.457,11.719,2.441,488.281
1741691811.182,416.016,3.418,-2.930,307.129
1741691811.186,-1000.000,-23.926,-36.621,-1000.000
1741691811.143,394.531,25.391,-2.441,309.570
1741691811.147,354.004,20.996,9.766,175.293
1741691811.151,-1000.000,-41.992,17.090,-935.547
1741691811.155,527.344,38.086,2.930,479.492
1741691811.159,452.637,6.348,-11.230,413.574
1741691811.163,-1000.000,-15.137,-4.395,-845.215
1741691811.167,367.188,0.488,-20.020,287.598
1741691811.170,355.957,-132.324,-20.508,180.664
1741691811.174,-1000.000,-96.680,-9.766,-862.793
1741691811.178,543.457,11.719,2.441,488.281
1741691811.182,416.016,3.418,-2.930,307.129
1741691811.186,-1000.000,-23.926,-36.621,-1000.000
1741691811.190,-4.395,14.648,-33.203,122.070
1741691811.194,941.895,-1.465,-10.742,813.477
1741691811.198,-915.527,9.277,-9.277,-648.438
1741691811.202,-189.453,68.848,-11.230,-23.926
1741691811.206,740.723,-22.461,-3.906,650.879
1741691811.210,-1000.000,-88.379,0.000,-768.066
1741691811.214,2.441,351.074,-9.766,178.223
1741691811.217,538.574,289.551,-22.949,559.082
1741691811.221,-1000.000,-130.859,-17.578,-885.742
1741691811.225,144.043,-18.555,-11.719,202.637
1741691811.229,377.930,-42.969,-17.090,289.551
1741691811.233,-1000.000,-124.023,-15.625,-865.234
1741691811.190,-4.395,14.648,-33.203,122.070
1741691811.194,941.895,-1.465,-10.742,813.477
1741691811.198,-915.527,9.277,-9.277,-648.438
1741691811.202,-189.453,68.848,-11.230,-23.926
1741691811.206,740.723,-22.461,-3.906,650.879
1741691811.210,-1000.000,-88.379,0.000,-768.066
1741691811.214,2.441,351.074,-9.766,178.223
1741691811.217,538.574,289.551,-22.949,559.082
1741691811.221,-1000.000,-130.859,-17.578,-885.742
1741691811.225,144.043,-18.555,-11.719,202.637
1741691811.229,377.930,-42.969,-17.090,289.551
1741691811.233,-1000.000,-124.023,-15.625,-865.234
1741691811.248,492.676,-67.383,-14.648,456.055
1741691811.252,476.562,-55.176,-27.344,427.246
1741691811.256,-1000.000,-70.801,-31.250,-903.809
1741691811.260,224.121,-35.156,-22.949,278.809
1741691811.264,474.121,-46.387,-9.766,386.230
1741691811.268,-1000.000,-168.457,-5.859,-812.012
1741691811.272,339.355,-69.336,-10.254,448.242
1741691811.275,447.266,-1.465,-18.066,389.648
1741691811.279,-1000.000,-107.910,-24.902,-1000.000
1741691811.283,-69.336,-57.129,-18.066,53.223
1741691811.287,999.512,-39.062,-28.809,861.816
1741691811.291,-741.211,-43.457,-19.531,-587.891
1741691811.248,492.676,-67.383,-14.648,456.055
1741691811.252,476.562,-55.176,-27.344,427.246
1741691811.256,-1000.000,-70.801,-31.250,-903.809
1741691811.260,224.121,-35.156,-22.949,278.809
1741691811.264,474.121,-46.387,-9.766,386.230
1741691811.268,-1000.000,-168.457,-5.859,-812.012
1741691811.272,339.355,-69.336,-10.254,448.242
1741691811.275,447.266,-1.465,-18.066,389.648
1741691811.279,-1000.000,-107.910,-24.902,-1000.000
1741691811.283,-69.336,-57.129,-18.066,53.223
1741691811.287,999.512,-39.062,-28.809,861.816
1741691811.291,-741.211,-43.457,-19.531,-587.891
1741691811.293,-295.410,-6.836,-10.254,-210.449
1741691811.297,981.445,10.742,-21.973,658.691
1741691811.301,-834.473,-33.691,-22.461,-654.785
1741691811.305,-273.926,4.883,-20.020,-100.586
1741691811.309,999.512,23.926,-30.273,816.895
1741691811.313,-725.098,-25.391,-30.273,-607.422
1741691811.317,-448.242,11.230,-37.598,-395.020
1741691811.320,999.512,10.742,-34.668,674.805
1741691811.324,-427.734,-61.523,-41.504,-529.297
1741691811.328,-321.777,308.594,-31.738,-262.695
1741691811.332,996.094,326.172,-7.324,851.074
1741691811.336,-762.207,-74.707,-23.926,-635.742
1741691811.293,-295.410,-6.836,-10.254,-210.449
1741691811.297,981.445,10.742,-21.973,658.691
1741691811.301,-834.473,-33.691,-22.461,-654.785
1741691811.305,-273.926,4.883,-20.020,-100.586
1741691811.309,999.512,23.926,-30.273,816.895
1741691811.313,-725.098,-25.391,-30.273,-607.422
1741691811.317,-448.242,11.230,-37.598,-395.020
1741691811.320,999.512,10.742,-34.668,674.805
1741691811.324,-427.734,-61.523,-41.504,-529.297
1741691811.328,-321.777,308.594,-31.738,-262.695
1741691811.332,996.094,326.172,-7.324,851.074
1741691811.336,-762.207,-74.707,-23.926,-635.742
1741691811.383,-1000.000,-92.285,-37.109,-855.469
1741691811.387,389.648,-31.738,-34.668,433.594
1741691811.391,482.422,-64.453,-33.203,467.773
1741691811.395,-1000.000,-100.586,-40.039,-964.844
1741691811.399,63.477,-24.414,-36.621,187.012
1741691811.403,999.512,-11.719,-34.668,837.891
1741691811.407,-866.211,-88.867,-35.156,-538.574
1741691811.410,-292.969,-31.738,-28.320,-152.832
1741691811.414,897.461,37.109,-40.039,603.516
1741691811.418,-922.852,-80.078,-53.223,-666.504
1741691811.422,-162.598,-34.180,-37.598,25.391
1741691811.426,859.375,-15.625,-31.738,810.059
1741691811.383,-1000.000,-92.285,-37.109,-855.469
1741691811.387,389.648,-31.738,-34.668,433.594
1741691811.391,482.422,-64.453,-33.203,467.773
1741691811.395,-1000.000,-100.586,-40.039,-964.844
1741691811.399,63.477,-24.414,-36.621,187.012
1741691811.403,999.512,-11.719,-34.668,837.891
1741691811.407,-866.211,-88.867,-35.156,-538.574
1741691811.410,-292.969,-31.738,-28.320,-152.832
1741691811.414,897.461,37.109,-40.039,603.516
1741691811.418,-922.852,-80.078,-53.223,-666.504
1741691811.422,-162.598,-34.180,-37.598,25.391
1741691811.426,859.375,-15.625,-31.738,810.059
1741691811.383,-1000.000,-92.285,-37.109,-855.469
1741691811.387,389.648,-31.738,-34.668,433.594
1741691811.391,482.422,-64.453,-33.203,467.773
1741691811.395,-1000.000,-100.586,-40.039,-964.844
1741691811.399,63.477,-24.414,-36.621,187.012
1741691811.403,999.512,-11.719,-34.668,837.891
1741691811.407,-866.211,-88.867,-35.156,-538.574
1741691811.410,-292.969,-31.738,-28.320,-152.832
1741691811.414,897.461,37.109,-40.039,603.516
1741691811.418,-922.852,-80.078,-53.223,-666.504
1741691811.422,-162.598,-34.180,-37.598,25.391
1741691811.426,859.375,-15.625,-31.738,810.059
1741691811.428,-1000.000,-110.352,-34.668,-754.883
1741691811.432,-224.121,-68.359,-21.973,-132.812
1741691811.436,958.496,-62.500,-24.902,723.633
1741691811.440,-879.395,-104.004,-28.809,-646.973
1741691811.444,-220.703,-56.152,-11.719,-19.531
1741691811.448,963.867,-32.227,-5.859,850.098
1741691811.452,-862.793,-99.609,-9.277,-663.574
1741691811.455,-419.922,21.484,-26.855,-391.113
1741691811.459,999.512,256.836,-36.133,848.145
1741691811.463,-333.496,49.316,-20.508,-373.535
1741691811.467,-614.258,-89.355,-3.906,-577.148
1741691811.471,999.512,-18.555,1.953,724.609
1741691811.428,-1000.000,-110.352,-34.668,-754.883
1741691811.432,-224.121,-68.359,-21.973,-132.812
1741691811.436,958.496,-62.500,-24.902,723.633
1741691811.440,-879.395,-104.004,-28.809,-646.973
1741691811.444,-220.703,-56.152,-11.719,-19.531
1741691811.448,963.867,-32.227,-5.859,850.098
1741691811.452,-862.793,-99.609,-9.277,-663.574
1741691811.455,-419.922,21.484,-26.855,-391.113
1741691811.459,999.512,256.836,-36.133,848.145
1741691811.463,-333.496,49.316,-20.508,-373.535
1741691811.467,-614.258,-89.355,-3.906,-577.148
1741691811.471,999.512,-18.555,1.953,724.609
1741691811.475,-307.129,-111.328,1.953,-407.715
1741691811.479,-461.426,-98.633,10.254,-433.594
1741691811.483,999.512,-35.645,9.277,987.793
1741691811.487,-230.957,-65.918,-11.230,-290.527
1741691811.491,-946.289,-54.199,-15.137,-833.984
1741691811.495,955.566,-1.465,-9.277,585.938
1741691811.499,172.363,-34.668,-14.648,-12.207
1741691811.502,-946.289,166.992,-17.578,-769.043
1741691811.506,863.281,192.383,-26.367,413.574
1741691811.510,167.480,-58.105,-25.879,-195.312
1741691811.514,-1000.000,2.930,-23.438,-1000.000
1741691811.518,619.629,115.234,-21.973,413.086
1741691811.475,-307.129,-111.328,1.953,-407.715
1741691811.479,-461.426,-98.633,10.254,-433.594
1741691811.483,999.512,-35.645,9.277,987.793
1741691811.487,-230.957,-65.918,-11.230,-290.527
1741691811.491,-946.289,-54.199,-15.137,-833.984
1741691811.495,955.566,-1.465,-9.277,585.938
1741691811.499,172.363,-34.668,-14.648,-12.207
1741691811.502,-946.289,166.992,-17.578,-769.043
1741691811.506,863.281,192.383,-26.367,413.574
1741691811.510,167.480,-58.105,-25.879,-195.312
1741691811.514,-1000.000,2.930,-23.438,-1000.000
1741691811.518,619.629,115.234,-21.973,413.086
1741691811.519,415.039,47.363,8.301,202.637
1741691811.523,-1000.000,-17.578,2.441,-1000.000
1741691811.527,121.582,65.430,-36.133,54.688
1741691811.531,480.469,89.844,-27.344,199.219
1741691811.535,-1000.000,49.805,-25.879,-1000.000
1741691811.539,84.961,62.012,-11.719,89.355
1741691811.543,714.844,123.047,17.578,594.238
1741691811.546,-928.223,479.492,1.953,-833.984
1741691811.550,-1000.000,424.316,-57.617,-818.359
1741691811.554,446.289,103.516,-62.500,273.438
1741691811.558,520.020,58.105,-21.973,138.672
1741691811.562,-1000.000,25.391,-17.578,-874.512
1741691811.519,415.039,47.363,8.301,202.637
1741691811.523,-1000.000,-17.578,2.441,-1000.000
1741691811.527,121.582,65.430,-36.133,54.688
1741691811.531,480.469,89.844,-27.344,199.219
1741691811.535,-1000.000,49.805,-25.879,-1000.000
1741691811.539,84.961,62.012,-11.719,89.355
1741691811.543,714.844,123.047,17.578,594.238
1741691811.546,-928.223,479.492,1.953,-833.984
1741691811.550,-1000.000,424.316,-57.617,-818.359
1741691811.554,446.289,103.516,-62.500,273.438
1741691811.558,520.020,58.105,-21.973,138.672
1741691811.562,-1000.000,25.391,-17.578,-874.512
1741691811.578,196.777,74.707,-34.180,115.723
1741691811.582,383.789,35.645,-79.590,74.707
1741691811.586,-1000.000,-11.719,-115.723,-1000.000
1741691811.590,395.996,94.727,-48.340,375.977
1741691811.594,447.754,55.664,-61.035,401.855
1741691811.598,-1000.000,-9.277,-85.449,-1000.000
1741691811.602,316.406,-77.148,-24.414,186.523
1741691811.605,425.781,-141.113,-38.086,197.754
1741691811.609,-1000.000,-50.293,-91.797,-1000.000
1741691811.613,181.152,-68.359,-134.766,199.219
1741691811.617,656.738,-192.383,-115.723,591.309
1741691811.621,-1000.000,-134.277,-156.250,-975.098
1741691811.578,196.777,74.707,-34.180,115.723
1741691811.582,383.789,35.645,-79.590,74.707
1741691811.586,-1000.000,-11.719,-115.723,-1000.000
1741691811.590,395.996,94.727,-48.340,375.977
1741691811.594,447.754,55.664,-61.035,401.855
1741691811.598,-1000.000,-9.277,-85.449,-1000.000
1741691811.602,316.406,-77.148,-24.414,186.523
1741691811.605,425.781,-141.113,-38.086,197.754
1741691811.609,-1000.000,-50.293,-91.797,-1000.000
1741691811.613,181.152,-68.359,-134.766,199.219
1741691811.617,656.738,-192.383,-115.723,591.309
1741691811.621,-1000.000,-134.277,-156.250,-975.098
1741691811.608,-279.297,-39.062,-132.324,-230.957
1741691811.612,999.512,-40.039,-73.242,931.641
1741691811.616,-327.148,-78.613,-87.891,-353.516
1741691811.620,-497.070,-42.969,-84.961,-355.957
1741691811.624,999.512,22.461,-63.965,842.285
1741691811.628,-294.922,-100.098,-51.758,-313.965
1741691811.632,-469.238,-137.695,-53.223,-316.406
1741691811.635,999.512,-12.207,-45.410,999.512
1741691811.639,-86.914,-67.871,-36.621,-155.762
1741691811.643,-839.355,-62.500,-40.039,-683.105
1741691811.647,999.512,4.883,-37.598,729.004
1741691811.651,127.930,-52.734,-21.973,60.059
1741691811.608,-279.297,-39.062,-132.324,-230.957
1741691811.612,999.512,-40.039,-73.242,931.641
1741691811.616,-327.148,-78.613,-87.891,-353.516
1741691811.620,-497.070,-42.969,-84.961,-355.957
1741691811.624,999.512,22.461,-63.965,842.285
1741691811.628,-294.922,-100.098,-51.758,-313.965
1741691811.632,-469.238,-137.695,-53.223,-316.406
1741691811.635,999.512,-12.207,-45.410,999.512
1741691811.639,-86.914,-67.871,-36.621,-155.762
1741691811.643,-839.355,-62.500,-40.039,-683.105
1741691811.647,999.512,4.883,-37.598,729.004
1741691811.651,127.930,-52.734,-21.973,60.059
1741691811.669,-863.281,-70.312,-30.273,-570.801
1741691811.673,991.699,-20.996,-32.715,835.449
1741691811.677,235.840,-64.453,-23.926,130.859
1741691811.681,-1000.000,-89.355,-26.367,-905.273
1741691811.685,591.309,-40.527,-19.043,503.906
1741691811.689,628.906,-75.684,-12.695,571.777
1741691811.693,-1000.000,-119.629,-16.602,-663.574
1741691811.696,-71.777,-58.594,-23.926,89.844
1741691811.700,663.086,-95.703,-35.156,452.148
1741691811.704,-1000.000,-204.102,-41.016,-784.180
1741691811.708,115.723,-73.242,-29.785,217.773
1741691811.712,757.812,-26.855,-19.043,736.328
1741691811.669,-863.281,-70.312,-30.273,-570.801
1741691811.673,991.699,-20.996,-32.715,835.449
1741691811.677,235.840,-64.453,-23.926,130.859
1741691811.681,-1000.000,-89.355,-26.367,-905.273
1741691811.685,591.309,-40.527,-19.043,503.906
1741691811.689,628.906,-75.684,-12.695,571.777
1741691811.693,-1000.000,-119.629,-16.602,-663.574
1741691811.696,-71.777,-58.594,-23.926,89.844
1741691811.700,663.086,-95.703,-35.156,452.148
1741691811.704,-1000.000,-204.102,-41.016,-784.180
1741691811.708,115.723,-73.242,-29.785,217.773
1741691811.712,757.812,-26.855,-19.043,736.328
1741691811.713,-1000.000,-133.789,-16.113,-870.605
1741691811.717,-220.703,-99.609,-18.066,-212.402
1741691811.721,999.512,-51.270,-29.297,699.707
1741691811.725,-754.395,-117.188,-48.828,-614.746
1741691811.729,-333.496,-102.539,-68.359,-258.789
1741691811.733,999.512,-70.801,-79.590,733.398
1741691811.737,-605.469,-125.000,-75.684,-621.582
1741691811.740,-542.969,-93.262,-62.988,-605.957
1741691811.744,999.512,-79.102,-64.453,666.504
1741691811.748,-292.480,-207.520,-65.918,-453.125
1741691811.752,-535.156,-132.812,-55.664,-601.074
1741691811.756,999.512,-13.672,-49.316,598.633
1741691811.713,-1000.000,-133.789,-16.113,-870.605
1741691811.717,-220.703,-99.609,-18.066,-212.402
1741691811.721,999.512,-51.270,-29.297,699.707
1741691811.725,-754.395,-117.188,-48.828,-614.746
1741691811.729,-333.496,-102.539,-68.359,-258.789
1741691811.733,999.512,-70.801,-79.590,733.398
1741691811.737,-605.469,-125.000,-75.684,-621.582
1741691811.740,-542.969,-93.262,-62.988,-605.957
1741691811.744,999.512,-79.102,-64.453,666.504
1741691811.748,-292.480,-207.520,-65.918,-453.125
1741691811.752,-535.156,-132.812,-55.664,-601.074
1741691811.756,999.512,-13.672,-49.316,598.633
1741691811.759,-410.156,-110.840,-43.457,-573.242
1741691811.763,-384.766,-83.984,-43.945,-397.461
1741691811.767,999.512,-15.137,-45.898,838.867
1741691811.771,-512.695,-84.961,-42.480,-528.320
1741691811.775,-760.742,-95.703,-59.082,-733.398
1741691811.779,999.512,-30.762,-75.195,635.742
1741691811.783,140.625,-53.223,-42.969,-46.875
1741691811.786,-1000.000,-78.613,-25.391,-749.512
1741691811.790,781.738,67.383,-51.758,488.281
1741691811.794,253.906,46.875,-57.129,-73.242
1741691811.798,-1000.000,-20.996,-58.105,-993.652
1741691811.802,638.184,3.418,-70.312,416.504
1741691811.759,-410.156,-110.840,-43.457,-573.242
1741691811.763,-384.766,-83.984,-43.945,-397.461
1741691811.767,999.512,-15.137,-45.898,838.867
1741691811.771,-512.695,-84.961,-42.480,-528.320
1741691811.775,-760.742,-95.703,-59.082,-733.398
1741691811.779,999.512,-30.762,-75.195,635.742
1741691811.783,140.625,-53.223,-42.969,-46.875
1741691811.786,-1000.000,-78.613,-25.391,-749.512
1741691811.790,781.738,67.383,-51.758,488.281
1741691811.794,253.906,46.875,-57.129,-73.242
1741691811.798,-1000.000,-20.996,-58.105,-993.652
1741691811.802,638.184,3.418,-70.312,416.504
1741691811.803,263.184,-84.473,-72.754,24.902
1741691811.807,-1000.000,-39.062,-64.453,-917.480
1741691811.811,789.062,33.203,-69.824,421.875
1741691811.815,214.355,0.488,-76.172,-83.008
1741691811.819,-1000.000,-5.371,-73.242,-1000.000
1741691811.823,663.574,20.020,-69.824,472.656
1741691811.827,450.195,42.969,-69.824,347.656
1741691811.830,-1000.000,-283.203,-74.219,-1000.000
1741691811.834,-210.938,-370.605,-45.898,-277.832
1741691811.838,999.512,-21.484,-37.598,632.324
1741691811.842,-431.152,-15.137,-56.152,-558.594
1741691811.846,-302.734,27.344,-45.898,-276.855
1741691811.803,263.184,-84.473,-72.754,24.902
1741691811.807,-1000.000,-39.062,-64.453,-917.480
1741691811.811,789.062,33.203,-69.824,421.875
1741691811.815,214.355,0.488,-76.172,-83.008
1741691811.819,-1000.000,-5.371,-73.242,-1000.000
1741691811.823,663.574,20.020,-69.824,472.656
1741691811.827,450.195,42.969,-69.824,347.656
1741691811.830,-1000.000,-283.203,-74.219,-1000.000
1741691811.834,-210.938,-370.605,-45.898,-277.832
1741691811.838,999.512,-21.484,-37.598,632.324
1741691811.842,-431.152,-15.137,-56.152,-558.594
1741691811.846,-302.734,27.344,-45.898,-276.855
1741691811.850,926.270,41.504,-42.480,602.539
1741691811.854,-880.859,-49.805,-59.570,-815.918
1741691811.858,-312.012,10.254,-59.082,-340.820
1741691811.862,999.512,20.996,-57.617,825.195
1741691811.866,-471.191,-59.570,-66.406,-504.883
1741691811.870,-161.133,-1.465,-54.688,-273.926
1741691811.874,999.512,58.105,-53.223,678.223
1741691811.877,-722.656,-194.824,-57.617,-699.219
1741691811.881,-397.949,-207.520,-65.430,-414.551
1741691811.885,999.512,33.203,-66.406,935.547
1741691811.889,-199.707,-25.391,-47.363,-324.219
1741691811.893,-856.445,-37.598,-36.621,-742.188
1741691811.894,999.512,24.414,-41.504,524.414
1741691811.898,142.090,-10.254,-50.293,-64.453
1741691811.902,-838.379,-3.906,-13.672,-517.578
1741691811.906,874.512,31.738,-1.465,538.086
1741691811.910,-65.430,-11.719,-51.758,-295.410
1741691811.914,-824.219,-41.016,-51.270,-827.148
1741691811.918,999.512,95.215,-21.973,760.254
1741691811.921,300.293,192.383,-30.762,218.262
1741691811.925,-1000.000,24.414,-63.965,-1000.000
1741691811.929,413.086,27.344,-64.941,287.598
1741691811.933,305.176,-58.105,-1.953,125.000
1741691811.937,-1000.000,-108.887,-14.160,-888.184
1741691811.894,999.512,24.414,-41.504,524.414
1741691811.898,142.090,-10.254,-50.293,-64.453
1741691811.902,-838.379,-3.906,-13.672,-517.578
1741691811.906,874.512,31.738,-1.465,538.086
1741691811.910,-65.430,-11.719,-51.758,-295.410
1741691811.914,-824.219,-41.016,-51.270,-827.148
1741691811.918,999.512,95.215,-21.973,760.254
1741691811.921,300.293,192.383,-30.762,218.262
1741691811.925,-1000.000,24.414,-63.965,-1000.000
1741691811.929,413.086,27.344,-64.941,287.598
1741691811.933,305.176,-58.105,-1.953,125.000
1741691811.937,-1000.000,-108.887,-14.160,-888.184
1741691811.938,729.980,16.602,-34.180,578.613
1741691811.942,417.480,-18.555,-20.996,382.324
1741691811.946,-1000.000,-44.922,-53.711,-1000.000
1741691811.950,-37.109,20.020,-50.781,88.867
1741691811.954,999.512,10.742,12.695,702.148
1741691811.958,-806.152,-40.527,33.203,-506.836
1741691811.962,-232.910,100.098,-10.742,-31.738
1741691811.965,866.211,98.145,-27.344,556.641
1741691811.969,-957.520,-58.594,1.953,-824.707
1741691811.973,-351.562,-20.508,-2.930,-316.406
1741691811.977,999.512,-4.883,-27.832,901.367
1741691811.981,-330.078,-52.734,-40.039,-402.832
1741691811.938,729.980,16.602,-34.180,578.613
1741691811.942,417.480,-18.555,-20.996,382.324
1741691811.946,-1000.000,-44.922,-53.711,-1000.000
1741691811.950,-37.109,20.020,-50.781,88.867
1741691811.954,999.512,10.742,12.695,702.148
1741691811.958,-806.152,-40.527,33.203,-506.836
1741691811.962,-232.910,100.098,-10.742,-31.738
1741691811.965,866.211,98.145,-27.344,556.641
1741691811.969,-957.520,-58.594,1.953,-824.707
1741691811.973,-351.562,-20.508,-2.930,-316.406
1741691811.977,999.512,-4.883,-27.832,901.367
1741691811.981,-330.078,-52.734,-40.039,-402.832
1741691811.985,-667.480,-22.949,-11.719,-654.785
1741691811.989,999.512,4.395,7.812,648.926
1741691811.993,-56.641,-68.359,-17.090,-273.438
1741691811.997,-608.398,-46.387,-20.020,-558.105
1741691812.001,999.512,33.691,0.488,762.207
1741691812.005,23.438,-135.254,18.555,-194.336
1741691812.009,-936.523,-191.895,21.973,-786.621
1741691812.012,940.430,16.602,19.043,624.023
1741691812.016,179.199,-41.504,20.020,-12.207
1741691812.020,-905.273,-21.484,7.812,-828.613
1741691812.024,960.449,64.941,5.859,604.004
1741691812.028,132.324,-26.367,6.348,-90.820
1741691811.985,-667.480,-22.949,-11.719,-654.785
1741691811.989,999.512,4.395,7.812,648.926
1741691811.993,-56.641,-68.359,-17.090,-273.438
1741691811.997,-608.398,-46.387,-20.020,-558.105
1741691812.001,999.512,33.691,0.488,762.207
1741691812.005,23.438,-135.254,18.555,-194.336
1741691812.009,-936.523,-191.895,21.973,-786.621
1741691812.012,940.430,16.602,19.043,624.023
1741691812.016,179.199,-41.504,20.020,-12.207
1741691812.020,-905.273,-21.484,7.812,-828.613
1741691812.024,960.449,64.941,5.859,604.004
1741691812.028,132.324,-26.367,6.348,-90.820
1741691812.043,-899.902,-41.992,20.996,-883.301
1741691812.047,957.520,28.320,19.043,695.312
1741691812.051,278.809,-22.949,30.273,169.434
1741691812.055,-1000.000,-61.523,10.742,-972.168
1741691812.059,466.309,11.230,-6.348,336.914
1741691812.063,396.484,-80.078,5.371,186.523
1741691812.067,-1000.000,-120.117,-7.324,-879.883
1741691812.070,460.449,9.277,11.719,418.945
1741691812.074,512.695,-12.207,15.625,405.273
1741691812.078,-1000.000,-54.199,13.672,-947.266
1741691812.082,-27.344,13.672,28.320,111.816
1741691812.086,907.227,15.137,29.297,687.500
1741691812.043,-899.902,-41.992,20.996,-883.301
1741691812.047,957.520,28.320,19.043,695.312
1741691812.051,278.809,-22.949,30.273,169.434
1741691812.055,-1000.000,-61.523,10.742,-972.168
1741691812.059,466.309,11.230,-6.348,336.914
1741691812.063,396.484,-80.078,5.371,186.523
1741691812.067,-1000.000,-120.117,-7.324,-879.883
1741691812.070,460.449,9.277,11.719,418.945
1741691812.074,512.695,-12.207,15.625,405.273
1741691812.078,-1000.000,-54.199,13.672,-947.266
1741691812.082,-27.344,13.672,28.320,111.816
1741691812.086,907.227,15.137,29.297,687.500
1741691812.088,-955.566,-53.711,17.090,-752.441
1741691812.092,-162.109,1.465,5.371,-8.789
1741691812.096,720.215,0.488,-2.930,628.906
1741691812.100,-1000.000,-43.457,-1.953,-939.453
1741691812.104,-139.160,-18.555,3.418,-24.902
1741691812.108,999.512,-53.223,5.859,873.535
1741691812.112,-876.465,-62.988,2.441,-666.992
1741691812.115,-200.684,-4.883,-4.395,-203.613
1741691812.119,691.406,14.160,-3.418,474.121
1741691812.123,-1000.000,-20.020,-22.949,-861.816
1741691812.127,62.012,24.902,-20.996,127.441
1741691812.131,721.680,13.672,-6.836,682.129
1741691812.088,-955.566,-53.711,17.090,-752.441
1741691812.092,-162.109,1.465,5.371,-8.789
1741691812.096,720.215,0.488,-2.930,628.906
1741691812.100,-1000.000,-43.457,-1.953,-939.453
1741691812.104,-139.160,-18.555,3.418,-24.902
1741691812.108,999.512,-53.223,5.859,873.535
1741691812.112,-876.465,-62.988,2.441,-666.992
1741691812.115,-200.684,-4.883,-4.395,-203.613
1741691812.119,691.406,14.160,-3.418,474.121
1741691812.123,-1000.000,-20.020,-22.949,-861.816
1741691812.127,62.012,24.902,-20.996,127.441
1741691812.131,721.680,13.672,-6.836,682.129
1741691812.134,-1000.000,-54.688,-15.625,-884.277
1741691812.138,-261.719,-6.348,-24.414,-218.262
1741691812.142,999.512,18.555,-19.043,738.281
1741691812.146,-506.836,-48.340,-16.602,-478.516
1741691812.150,-450.195,-49.316,-14.648,-289.551
1741691812.154,999.512,-3.906,-9.277,846.191
1741691812.158,-305.176,-32.227,-9.766,-399.414
1741691812.161,-713.867,-25.879,-16.602,-694.336
1741691812.165,999.512,-100.586,-27.344,676.270
1741691812.169,90.332,-119.629,-24.902,-80.078
1741691812.173,-943.359,-14.160,-19.043,-646.484
1741691812.177,901.367,23.438,-32.227,536.133
1741691812.134,-1000.000,-54.688,-15.625,-884.277
1741691812.138,-261.719,-6.348,-24.414,-218.262
1741691812.142,999.512,18.555,-19.043,738.281
1741691812.146,-506.836,-48.340,-16.602,-478.516
1741691812.150,-450.195,-49.316,-14.648,-289.551
1741691812.154,999.512,-3.906,-9.277,846.191
1741691812.158,-305.176,-32.227,-9.766,-399.414
1741691812.161,-713.867,-25.879,-16.602,-694.336
1741691812.165,999.512,-100.586,-27.344,676.270
1741691812.169,90.332,-119.629,-24.902,-80.078
1741691812.173,-943.359,-14.160,-19.043,-646.484
1741691812.177,901.367,23.438,-32.227,536.133
1741691812.179,82.031,-35.156,-37.598,-193.848
1741691812.183,-580.566,-19.531,-14.648,-497.559
1741691812.187,999.512,26.855,-8.789,935.547
1741691812.191,-0.977,-41.504,-17.578,-133.301
1741691812.195,-1000.000,-42.969,-21.484,-882.812
1741691812.199,746.094,-21.484,-24.902,543.945
1741691812.203,448.242,39.062,-18.066,308.594
1741691812.206,-1000.000,-285.645,-20.508,-780.762
1741691812.210,-205.566,-697.754,-28.320,33.691
1741691812.214,999.512,-238.770,-29.785,709.961
1741691812.218,-631.836,16.113,-29.297,-595.703
1741691812.222,-357.422,-6.836,-24.414,-250.488
1741691812.179,82.031,-35.156,-37.598,-193.848
1741691812.183,-580.566,-19.531,-14.648,-497.559
1741691812.187,999.512,26.855,-8.789,935.547
1741691812.191,-0.977,-41.504,-17.578,-133.301
1741691812.195,-1000.000,-42.969,-21.484,-882.812
1741691812.199,746.094,-21.484,-24.902,543.945
1741691812.203,448.242,39.062,-18.066,308.594
1741691812.206,-1000.000,-285.645,-20.508,-780.762
1741691812.210,-205.566,-697.754,-28.320,33.691
1741691812.214,999.512,-238.770,-29.785,709.961
1741691812.218,-631.836,16.113,-29.297,-595.703
1741691812.222,-357.422,-6.836,-24.414,-250.488
1741691812.224,999.512,31.250,-13.184,901.855
1741691812.228,-549.805,3.418,-6.836,-459.473
1741691812.232,-511.719,35.645,-39.062,-389.648
1741691812.236,999.512,24.902,-36.133,744.629
1741691812.240,-388.184,-22.461,-16.113,-364.746
1741691812.244,-355.957,45.410,-17.090,-152.344
1741691812.248,999.512,56.641,-22.949,904.297
1741691812.251,-637.207,-11.719,-46.875,-547.363
1741691812.255,-644.531,8.789,-44.434,-635.742
1741691812.259,999.512,50.293,-22.949,898.926
1741691812.263,73.730,-5.371,-21.484,29.297
1741691812.267,-883.301,-13.672,-47.363,-646.973
1741691812.268,956.543,26.855,-60.059,654.297
1741691812.272,51.758,-55.664,-28.320,-165.039
1741691812.276,-741.211,53.711,-26.855,-678.223
1741691812.280,999.512,170.410,-34.180,894.531
1741691812.284,57.617,-12.695,-36.621,-59.082
1741691812.288,-696.777,-49.316,-34.180,-678.223
1741691812.292,999.512,142.578,-38.086,790.039
1741691812.295,-44.434,155.762,-50.781,-203.125
1741691812.299,-805.176,-32.715,-45.410,-771.973
1741691812.303,999.512,-16.113,-43.457,826.660
1741691812.307,223.145,-61.523,-56.152,89.844
1741691812.311,-1000.000,-87.891,-42.480,-980.469
1741691812.268,956.543,26.855,-60.059,654.297
1741691812.272,51.758,-55.664,-28.320,-165.039
1741691812.276,-741.211,53.711,-26.855,-678.223
1741691812.280,999.512,170.410,-34.180,894.531
1741691812.284,57.617,-12.695,-36.621,-59.082
1741691812.288,-696.777,-49.316,-34.180,-678.223
1741691812.292,999.512,142.578,-38.086,790.039
1741691812.295,-44.434,155.762,-50.781,-203.125
1741691812.299,-805.176,-32.715,-45.410,-771.973
1741691812.303,999.512,-16.113,-43.457,826.660
1741691812.307,223.145,-61.523,-56.152,89.844
1741691812.311,-1000.000,-87.891,-42.480,-980.469
1741691812.314,514.648,-8.789,-28.809,455.566
1741691812.318,506.348,-25.879,-37.598,430.176
1741691812.322,-1000.000,-114.746,-34.668,-781.250
1741691812.326,104.492,-73.730,-44.434,292.969
1741691812.330,472.168,-39.551,-42.969,387.695
1741691812.334,-1000.000,-64.941,-31.738,-879.883
1741691812.338,286.133,-21.973,-36.621,367.188
1741691812.341,523.438,-65.430,-30.762,492.188
1741691812.345,-1000.000,-91.309,-35.156,-923.340
1741691812.349,93.750,-18.555,-46.387,186.523
1741691812.353,527.344,-35.156,-28.320,459.961
1741691812.357,-1000.000,-75.684,-6.348,-792.480
1741691812.314,514.648,-8.789,-28.809,455.566
1741691812.318,506.348,-25.879,-37.598,430.176
1741691812.322,-1000.000,-114.746,-34.668,-781.250
1741691812.326,104.492,-73.730,-44.434,292.969
1741691812.330,472.168,-39.551,-42.969,387.695
1741691812.334,-1000.000,-64.941,-31.738,-879.883
1741691812.338,286.133,-21.973,-36.621,367.188
1741691812.341,523.438,-65.430,-30.762,492.188
1741691812.345,-1000.000,-91.309,-35.156,-923.340
1741691812.349,93.750,-18.555,-46.387,186.523
1741691812.353,527.344,-35.156,-28.320,459.961
1741691812.357,-1000.000,-75.684,-6.348,-792.480
1741691812.359,257.324,-21.484,-16.113,362.793
1741691812.363,523.438,-36.133,-39.062,490.234
1741691812.367,-1000.000,-57.617,-29.297,-897.949
1741691812.371,-51.758,-21.973,-19.531,104.492
1741691812.375,909.668,22.949,-34.180,683.594
1741691812.379,-949.219,-192.383,-24.414,-602.051
1741691812.383,-208.496,-245.117,-9.766,26.367
1741691812.386,771.973,-20.508,-37.109,658.691
1741691812.390,-1000.000,-41.992,-61.523,-872.559
1741691812.394,-259.766,-80.566,-30.273,-131.348
1741691812.398,999.512,-95.215,-3.418,918.945
1741691812.402,-583.008,-50.781,-3.418,-502.930
1741691812.359,257.324,-21.484,-16.113,362.793
1741691812.363,523.438,-36.133,-39.062,490.234
1741691812.367,-1000.000,-57.617,-29.297,-897.949
1741691812.371,-51.758,-21.973,-19.531,104.492
1741691812.375,909.668,22.949,-34.180,683.594
1741691812.379,-949.219,-192.383,-24.414,-602.051
1741691812.383,-208.496,-245.117,-9.766,26.367
1741691812.386,771.973,-20.508,-37.109,658.691
1741691812.390,-1000.000,-41.992,-61.523,-872.559
1741691812.394,-259.766,-80.566,-30.273,-131.348
1741691812.398,999.512,-95.215,-3.418,918.945
1741691812.402,-583.008,-50.781,-3.418,-502.930
1741691812.419,-479.980,-9.766,-13.672,-389.648
1741691812.423,999.512,31.738,-16.602,706.543
1741691812.427,-335.938,-22.949,-8.301,-426.758
1741691812.431,-464.844,-11.719,-25.879,-332.520
1741691812.435,999.512,20.508,-34.668,956.055
1741691812.439,-177.246,-49.316,-15.625,-247.559
1741691812.443,-874.512,-30.273,-18.555,-712.891
1741691812.446,999.512,36.133,-29.785,662.598
1741691812.450,140.137,-31.738,-30.273,4.395
1741691812.454,-911.133,-45.898,-22.949,-647.949
1741691812.458,927.734,18.555,-29.297,661.133
1741691812.462,179.688,-34.668,-39.062,-63.477
1741691812.419,-479.980,-9.766,-13.672,-389.648
1741691812.423,999.512,31.738,-16.602,706.543
1741691812.427,-335.938,-22.949,-8.301,-426.758
1741691812.431,-464.844,-11.719,-25.879,-332.520
1741691812.435,999.512,20.508,-34.668,956.055
1741691812.439,-177.246,-49.316,-15.625,-247.559
1741691812.443,-874.512,-30.273,-18.555,-712.891
1741691812.446,999.512,36.133,-29.785,662.598
1741691812.450,140.137,-31.738,-30.273,4.395
1741691812.454,-911.133,-45.898,-22.949,-647.949
1741691812.458,927.734,18.555,-29.297,661.133
1741691812.462,179.688,-34.668,-39.062,-63.477
1741691812.464,-1000.000,-74.219,-53.711,-979.980
1741691812.468,648.926,-15.625,-40.527,568.848
1741691812.472,579.590,-15.137,-10.742,565.918
1741691812.476,-1000.000,-54.688,-15.625,-798.340
1741691812.480,-106.934,-40.039,-28.320,44.922
1741691812.484,999.512,-26.855,-19.531,640.625
1741691812.488,-790.039,-36.621,-2.930,-493.164
1741691812.491,-151.855,19.043,1.465,214.355
1741691812.495,551.758,-38.086,-2.930,524.414
1741691812.499,-1000.000,-315.918,-5.859,-912.598
1741691812.503,-122.070,-182.129,-1.953,112.793
1741691812.507,999.512,43.457,-8.301,866.211
1741691812.464,-1000.000,-74.219,-53.711,-979.980
1741691812.468,648.926,-15.625,-40.527,568.848
1741691812.472,579.590,-15.137,-10.742,565.918
1741691812.476,-1000.000,-54.688,-15.625,-798.340
1741691812.480,-106.934,-40.039,-28.320,44.922
1741691812.484,999.512,-26.855,-19.531,640.625
1741691812.488,-790.039,-36.621,-2.930,-493.164
1741691812.491,-151.855,19.043,1.465,214.355
1741691812.495,551.758,-38.086,-2.930,524.414
1741691812.499,-1000.000,-315.918,-5.859,-912.598
1741691812.503,-122.070,-182.129,-1.953,112.793
1741691812.507,999.512,43.457,-8.301,866.211
1741691812.510,-810.059,-33.691,-5.371,-564.453
1741691812.514,-243.164,16.113,12.695,-61.035
1741691812.518,869.141,41.992,-0.488,746.094
1741691812.522,-966.797,-25.879,-16.602,-717.773
1741691812.526,-305.176,18.066,-2.441,-111.816
1741691812.530,999.512,42.969,17.578,999.512
1741691812.534,-500.977,-11.230,19.043,-375.000
1741691812.537,-690.918,25.879,-10.742,-480.469
1741691812.541,999.512,-85.938,-10.742,651.855
1741691812.545,-123.535,-131.348,5.859,-230.469
1741691812.549,-525.879,36.621,-3.418,-285.645
1741691812.553,999.512,79.102,3.906,937.012
1741691812.510,-810.059,-33.691,-5.371,-564.453
1741691812.514,-243.164,16.113,12.695,-61.035
1741691812.518,869.141,41.992,-0.488,746.094
1741691812.522,-966.797,-25.879,-16.602,-717.773
1741691812.526,-305.176,18.066,-2.441,-111.816
1741691812.530,999.512,42.969,17.578,999.512
1741691812.534,-500.977,-11.230,19.043,-375.000
1741691812.537,-690.918,25.879,-10.742,-480.469
1741691812.541,999.512,-85.938,-10.742,651.855
1741691812.545,-123.535,-131.348,5.859,-230.469
1741691812.549,-525.879,36.621,-3.418,-285.645
1741691812.553,999.512,79.102,3.906,937.012
1741691812.554,-73.242,18.555,0.000,-208.984
1741691812.558,-933.594,1.953,-14.160,-836.426
1741691812.562,935.059,76.660,-9.277,702.148
1741691812.566,287.598,-25.879,2.930,270.508
1741691812.570,-1000.000,-65.918,3.906,-757.812
1741691812.574,520.020,29.785,-1.465,550.293
1741691812.578,391.113,86.914,-3.906,194.336
1741691812.581,-1000.000,-280.273,-4.883,-1000.000
1741691812.585,-96.680,-722.656,-6.348,211.426
1741691812.589,999.512,-230.957,-10.742,844.238
1741691812.593,-541.016,62.500,-15.625,-499.512
1741691812.597,-509.766,38.574,-15.137,-373.535
1741691812.554,-73.242,18.555,0.000,-208.984
1741691812.558,-933.594,1.953,-14.160,-836.426
1741691812.562,935.059,76.660,-9.277,702.148
1741691812.566,287.598,-25.879,2.930,270.508
1741691812.570,-1000.000,-65.918,3.906,-757.812
1741691812.574,520.020,29.785,-1.465,550.293
1741691812.578,391.113,86.914,-3.906,194.336
1741691812.581,-1000.000,-280.273,-4.883,-1000.000
1741691812.585,-96.680,-722.656,-6.348,211.426
1741691812.589,999.512,-230.957,-10.742,844.238
1741691812.593,-541.016,62.500,-15.625,-499.512
1741691812.597,-509.766,38.574,-15.137,-373.535
1741691812.600,999.512,72.266,-18.555,762.695
1741691812.604,-345.215,33.691,-14.648,-349.609
1741691812.608,-261.230,106.445,-12.695,-146.973
1741691812.612,629.395,-210.449,-8.301,587.402
1741691812.616,-1000.000,-271.973,-26.367,-838.379
1741691812.620,-90.332,128.418,-32.715,0.977
1741691812.624,939.941,127.441,-19.043,883.789
1741691812.627,-941.895,-318.848,-14.648,-750.977
1741691812.631,-209.961,-209.473,-10.254,-130.371
1741691812.635,906.738,146.484,-16.602,834.473
1741691812.639,-947.266,57.617,-13.672,-743.652
1741691812.643,-257.324,103.516,-5.371,-123.535
1741691812.600,999.512,72.266,-18.555,762.695
1741691812.604,-345.215,33.691,-14.648,-349.609
1741691812.608,-261.230,106.445,-12.695,-146.973
1741691812.612,629.395,-210.449,-8.301,587.402
1741691812.616,-1000.000,-271.973,-26.367,-838.379
1741691812.620,-90.332,128.418,-32.715,0.977
1741691812.624,939.941,127.441,-19.043,883.789
1741691812.627,-941.895,-318.848,-14.648,-750.977
1741691812.631,-209.961,-209.473,-10.254,-130.371
1741691812.635,906.738,146.484,-16.602,834.473
1741691812.639,-947.266,57.617,-13.672,-743.652
1741691812.643,-257.324,103.516,-5.371,-123.535
1741691812.644,999.512,144.531,-12.207,928.223
1741691812.648,-708.008,79.102,-12.695,-558.105
1741691812.652,-417.480,97.656,-21.973,-342.285
1741691812.656,999.512,121.094,-23.926,774.414
1741691812.660,-418.457,59.082,-20.996,-400.879
1741691812.664,-346.680,115.234,-20.996,-161.133
1741691812.668,999.512,37.109,2.441,864.258
1741691812.671,-649.414,-33.691,-13.184,-534.180
1741691812.675,-723.633,155.762,-41.504,-649.414
1741691812.679,999.512,119.629,-29.785,709.473
1741691812.683,139.160,32.715,-18.555,-1.953
1741691812.687,-1000.000,43.945,-29.297,-728.027
1741691812.644,999.512,144.531,-12.207,928.223
1741691812.648,-708.008,79.102,-12.695,-558.105
1741691812.652,-417.480,97.656,-21.973,-342.285
1741691812.656,999.512,121.094,-23.926,774.414
1741691812.660,-418.457,59.082,-20.996,-400.879
1741691812.664,-346.680,115.234,-20.996,-161.133
1741691812.668,999.512,37.109,2.441,864.258
1741691812.671,-649.414,-33.691,-13.184,-534.180
1741691812.675,-723.633,155.762,-41.504,-649.414
1741691812.679,999.512,119.629,-29.785,709.473
1741691812.683,139.160,32.715,-18.555,-1.953
1741691812.687,-1000.000,43.945,-29.297,-728.027
1741691812.688,796.875,89.355,-31.738,572.754
1741691812.692,191.406,30.762,-30.273,-20.996
1741691812.696,-916.016,30.762,-34.180,-849.121
1741691812.700,951.660,89.355,-29.785,714.355
1741691812.704,240.234,28.809,-39.062,157.227
1741691812.708,-1000.000,19.531,-29.297,-860.352
1741691812.712,719.238,94.727,-20.996,515.625
1741691812.715,221.680,20.996,-26.855,27.344
1741691812.719,-927.246,5.371,-19.043,-780.762
1741691812.723,909.180,17.090,-21.973,731.934
1741691812.727,261.719,-119.629,-31.738,146.973
1741691812.731,-1000.000,-45.410,-31.250,-940.918
1741691812.688,796.875,89.355,-31.738,572.754
1741691812.692,191.406,30.762,-30.273,-20.996
1741691812.696,-916.016,30.762,-34.180,-849.121
1741691812.700,951.660,89.355,-29.785,714.355
1741691812.704,240.234,28.809,-39.062,157.227
1741691812.708,-1000.000,19.531,-29.297,-860.352
1741691812.712,719.238,94.727,-20.996,515.625
1741691812.715,221.680,20.996,-26.855,27.344
1741691812.719,-927.246,5.371,-19.043,-780.762
1741691812.723,909.180,17.090,-21.973,731.934
1741691812.727,261.719,-119.629,-31.738,146.973
1741691812.731,-1000.000,-45.410,-31.250,-940.918
1741691812.734,488.281,49.805,-16.113,424.805
1741691812.738,593.262,14.160,-18.066,479.004
1741691812.742,-1000.000,-17.090,-40.039,-736.328
1741691812.746,108.887,30.273,-47.363,278.809
1741691812.750,435.059,6.836,-42.969,343.750
1741691812.754,-1000.000,-63.965,-32.715,-916.504
1741691812.758,358.887,-45.898,-32.715,390.625
1741691812.761,680.664,-43.457,-29.785,687.500
1741691812.765,-1000.000,-10.742,-41.992,-890.625
1741691812.769,-83.984,-117.676,-53.223,-69.336
1741691812.773,639.160,-407.227,-39.062,541.016
1741691812.777,-1000.000,-173.828,-34.668,-641.113
1741691812.734,488.281,49.805,-16.113,424.805
1741691812.738,593.262,14.160,-18.066,479.004
1741691812.742,-1000.000,-17.090,-40.039,-736.328
1741691812.746,108.887,30.273,-47.363,278.809
1741691812.750,435.059,6.836,-42.969,343.750
1741691812.754,-1000.000,-63.965,-32.715,-916.504
1741691812.758,358.887,-45.898,-32.715,390.625
1741691812.761,680.664,-43.457,-29.785,687.500
1741691812.765,-1000.000,-10.742,-41.992,-890.625
1741691812.769,-83.984,-117.676,-53.223,-69.336
1741691812.773,639.160,-407.227,-39.062,541.016
1741691812.777,-1000.000,-173.828,-34.668,-641.113
1741691812.795,122.559,64.453,-38.086,311.035
1741691812.799,638.184,9.766,-44.434,581.055
1741691812.803,-1000.000,-21.973,-41.504,-860.352
1741691812.807,-124.512,43.945,-38.086,4.883
1741691812.811,908.691,32.227,-39.062,659.180
1741691812.815,-933.594,-5.859,-40.039,-536.621
1741691812.819,-139.648,35.645,-45.410,165.527
1741691812.822,617.188,14.160,-46.387,524.902
1741691812.826,-1000.000,-42.480,-36.621,-953.125
1741691812.830,-113.770,-2.930,-36.621,11.230
1741691812.834,970.703,31.250,-37.109,866.211
1741691812.838,-897.949,-19.043,-34.180,-626.953
1741691812.795,122.559,64.453,-38.086,311.035
1741691812.799,638.184,9.766,-44.434,581.055
1741691812.803,-1000.000,-21.973,-41.504,-860.352
1741691812.807,-124.512,43.945,-38.086,4.883
1741691812.811,908.691,32.227,-39.062,659.180
1741691812.815,-933.594,-5.859,-40.039,-536.621
1741691812.819,-139.648,35.645,-45.410,165.527
1741691812.822,617.188,14.160,-46.387,524.902
1741691812.826,-1000.000,-42.480,-36.621,-953.125
1741691812.830,-113.770,-2.930,-36.621,11.230
1741691812.834,970.703,31.250,-37.109,866.211
1741691812.838,-897.949,-19.043,-34.180,-626.953
1741691812.839,-244.629,54.199,-45.898,-212.891
1741691812.843,918.945,100.098,-54.688,544.922
1741691812.847,-919.922,-3.906,-48.828,-646.973
1741691812.851,-89.844,34.180,-25.391,130.859
1741691812.855,766.602,53.223,-26.367,715.820
1741691812.859,-1000.000,-14.160,-40.527,-750.488
1741691812.863,-264.160,-5.859,-45.898,-144.043
1741691812.866,999.512,86.426,-47.363,759.277
1741691812.870,-527.832,-215.820,-52.246,-598.633
1741691812.874,-545.410,-437.012,-55.176,-510.742
1741691812.878,999.512,-51.270,-41.504,962.402
1741691812.882,-101.562,22.461,-33.691,-208.496
1741691812.839,-244.629,54.199,-45.898,-212.891
1741691812.843,918.945,100.098,-54.688,544.922
1741691812.847,-919.922,-3.906,-48.828,-646.973
1741691812.851,-89.844,34.180,-25.391,130.859
1741691812.855,766.602,53.223,-26.367,715.820
1741691812.859,-1000.000,-14.160,-40.527,-750.488
1741691812.863,-264.160,-5.859,-45.898,-144.043
1741691812.866,999.512,86.426,-47.363,759.277
1741691812.870,-527.832,-215.820,-52.246,-598.633
1741691812.874,-545.410,-437.012,-55.176,-510.742
1741691812.878,999.512,-51.270,-41.504,962.402
1741691812.882,-101.562,22.461,-33.691,-208.496
1741691812.885,-886.719,5.859,-52.246,-869.629
1741691812.889,955.078,70.801,-54.199,717.285
1741691812.893,379.395,12.695,-35.645,342.773
1741691812.897,-1000.000,-25.879,-37.109,-929.688
1741691812.901,89.844,-10.742,-46.387,136.230
1741691812.905,826.172,0.000,-41.016,583.984
1741691812.909,-1000.000,-18.555,-48.340,-686.523
1741691812.912,-158.203,40.039,-56.152,24.414
1741691812.916,686.523,-98.633,-45.410,614.746
1741691812.920,-1000.000,-150.879,-37.598,-796.875
1741691812.924,-284.668,44.434,-44.434,-157.715
1741691812.928,999.512,51.758,-35.645,860.352
1741691812.885,-886.719,5.859,-52.246,-869.629
1741691812.889,955.078,70.801,-54.199,717.285
1741691812.893,379.395,12.695,-35.645,342.773
1741691812.897,-1000.000,-25.879,-37.109,-929.688
1741691812.901,89.844,-10.742,-46.387,136.230
1741691812.905,826.172,0.000,-41.016,583.984
1741691812.909,-1000.000,-18.555,-48.340,-686.523
1741691812.912,-158.203,40.039,-56.152,24.414
1741691812.916,686.523,-98.633,-45.410,614.746
1741691812.920,-1000.000,-150.879,-37.598,-796.875
1741691812.924,-284.668,44.434,-44.434,-157.715
1741691812.928,999.512,51.758,-35.645,860.352
1741691812.928,-455.566,-8.301,-35.645,-453.125
1741691812.932,-441.895,22.461,-38.574,-362.305
1741691812.936,999.512,47.363,-36.133,760.254
1741691812.940,-541.992,-11.230,-38.086,-537.598
1741691812.944,-441.895,11.719,-34.180,-385.254
1741691812.948,999.512,52.246,-37.109,999.512
1741691812.952,-100.098,11.230,-26.367,-166.016
1741691812.955,-944.336,10.254,-26.367,-699.707
1741691812.959,897.461,-67.871,-44.922,438.477
1741691812.963,23.926,-141.113,-49.805,-204.102
1741691812.967,-621.094,-10.254,-45.898,-386.719
1741691812.971,999.512,56.641,-49.316,805.176
1741691812.928,-455.566,-8.301,-35.645,-453.125
1741691812.932,-441.895,22.461,-38.574,-362.305
1741691812.936,999.512,47.363,-36.133,760.254
1741691812.940,-541.992,-11.230,-38.086,-537.598
1741691812.944,-441.895,11.719,-34.180,-385.254
1741691812.948,999.512,52.246,-37.109,999.512
1741691812.952,-100.098,11.230,-26.367,-166.016
1741691812.955,-944.336,10.254,-26.367,-699.707
1741691812.959,897.461,-67.871,-44.922,438.477
1741691812.963,23.926,-141.113,-49.805,-204.102
1741691812.967,-621.094,-10.254,-45.898,-386.719
1741691812.971,999.512,56.641,-49.316,805.176
1741691812.975,-169.922,-11.230,-53.711,-292.969
1741691812.979,-854.492,2.441,-52.734,-809.570
1741691812.983,999.512,68.359,-56.152,685.059
1741691812.987,282.227,-2.930,-44.922,202.637
1741691812.991,-1000.000,-38.574,-45.410,-818.848
1741691812.995,345.703,26.367,-59.082,432.617
1741691812.999,416.016,63.965,-54.688,280.762
1741691813.002,-1000.000,-296.875,-54.688,-1000.000
1741691813.006,82.520,-345.215,-67.871,216.309
1741691813.010,863.281,27.344,-59.570,790.039
1741691813.014,-988.281,-8.789,-45.898,-706.543
1741691813.018,-357.422,-0.977,-52.246,-283.203
1741691813.018,999.512,59.082,-54.688,706.543
1741691813.022,-431.641,17.090,-47.852,-415.039
1741691813.026,-349.609,66.895,-42.480,-178.223
1741691813.030,999.512,99.609,-40.527,776.855
1741691813.034,-712.891,-0.488,-46.387,-655.762
1741691813.038,-386.719,70.312,-40.527,-400.391
1741691813.042,999.512,-69.336,-34.180,948.730
1741691813.045,-500.000,-385.742,-54.199,-427.246
1741691813.049,-448.730,-125.000,-64.941,-438.965
1741691813.053,999.512,104.980,-44.434,831.543
1741691813.057,-412.109,-31.250,-33.203,-484.863
1741691813.061,-465.332,-22.461,-33.691,-421.875
1741691813.018,999.512,59.082,-54.688,706.543
1741691813.022,-431.641,17.090,-47.852,-415.039
1741691813.026,-349.609,66.895,-42.480,-178.223
1741691813.030,999.512,99.609,-40.527,776.855
1741691813.034,-712.891,-0.488,-46.387,-655.762
1741691813.038,-386.719,70.312,-40.527,-400.391
1741691813.042,999.512,-69.336,-34.180,948.730
1741691813.045,-500.000,-385.742,-54.199,-427.246
1741691813.049,-448.730,-125.000,-64.941,-438.965
1741691813.053,999.512,104.980,-44.434,831.543
1741691813.057,-412.109,-31.250,-33.203,-484.863
1741691813.061,-465.332,-22.461,-33.691,-421.875
1741691813.078,999.512,74.219,-38.086,930.176
1741691813.082,-228.027,12.695,-33.691,-267.578
1741691813.086,-796.875,2.441,-20.996,-628.418
1741691813.090,999.512,39.062,-26.367,670.410
1741691813.094,29.785,11.719,-36.621,-174.316
1741691813.098,-548.340,86.426,-34.180,-459.473
1741691813.102,999.512,-190.918,-25.879,812.988
1741691813.105,-425.781,-279.785,-37.598,-409.668
1741691813.109,-646.973,63.477,-48.340,-649.902
1741691813.113,999.512,84.961,-46.387,899.414
1741691813.117,-9.766,9.277,-39.551,-58.105
1741691813.121,-726.562,34.668,-25.391,-600.586
1741691813.078,999.512,74.219,-38.086,930.176
1741691813.082,-228.027,12.695,-33.691,-267.578
1741691813.086,-796.875,2.441,-20.996,-628.418
1741691813.090,999.512,39.062,-26.367,670.410
1741691813.094,29.785,11.719,-36.621,-174.316
1741691813.098,-548.340,86.426,-34.180,-459.473
1741691813.102,999.512,-190.918,-25.879,812.988
1741691813.105,-425.781,-279.785,-37.598,-409.668
1741691813.109,-646.973,63.477,-48.340,-649.902
1741691813.113,999.512,84.961,-46.387,899.414
1741691813.117,-9.766,9.277,-39.551,-58.105
1741691813.121,-726.562,34.668,-25.391,-600.586
1741691813.110,999.512,113.770,-36.133,748.535
1741691813.114,-93.750,19.043,-44.434,-244.629
1741691813.118,-714.355,-5.371,-39.062,-723.633
1741691813.122,999.512,71.777,-37.109,886.719
1741691813.126,76.172,-10.742,-37.598,19.043
1741691813.130,-823.730,91.309,-40.039,-698.730
1741691813.134,999.512,193.848,-32.227,664.551
1741691813.137,36.133,31.738,-19.043,-131.836
1741691813.141,-870.605,-7.812,-29.785,-716.797
1741691813.145,998.047,127.441,-25.879,808.594
1741691813.149,265.625,124.023,-18.066,115.723
1741691813.153,-1000.000,17.090,-37.598,-1000.000
1741691813.110,999.512,113.770,-36.133,748.535
1741691813.114,-93.750,19.043,-44.434,-244.629
1741691813.118,-714.355,-5.371,-39.062,-723.633
1741691813.122,999.512,71.777,-37.109,886.719
1741691813.126,76.172,-10.742,-37.598,19.043
1741691813.130,-823.730,91.309,-40.039,-698.730
1741691813.134,999.512,193.848,-32.227,664.551
1741691813.137,36.133,31.738,-19.043,-131.836
1741691813.141,-870.605,-7.812,-29.785,-716.797
1741691813.145,998.047,127.441,-25.879,808.594
1741691813.149,265.625,124.023,-18.066,115.723
1741691813.153,-1000.000,17.090,-37.598,-1000.000
1741691813.169,394.531,63.965,-44.922,412.109
1741691813.173,612.793,40.527,-43.945,527.832
1741691813.177,-1000.000,-6.348,-35.645,-677.246
1741691813.181,130.859,38.574,-31.250,277.344
1741691813.185,401.367,5.371,-25.879,295.410
1741691813.189,-1000.000,-34.180,-25.391,-792.969
1741691813.193,413.574,28.809,-38.086,455.078
1741691813.196,448.730,3.906,-36.621,391.113
1741691813.200,-1000.000,-38.574,-36.133,-852.539
1741691813.204,245.117,9.277,-32.715,274.902
1741691813.208,457.031,2.441,-26.855,325.195
1741691813.212,-1000.000,-11.719,-31.738,-790.039
1741691813.169,394.531,63.965,-44.922,412.109
1741691813.173,612.793,40.527,-43.945,527.832
1741691813.177,-1000.000,-6.348,-35.645,-677.246
1741691813.181,130.859,38.574,-31.250,277.344
1741691813.185,401.367,5.371,-25.879,295.410
1741691813.189,-1000.000,-34.180,-25.391,-792.969
1741691813.193,413.574,28.809,-38.086,455.078
1741691813.196,448.730,3.906,-36.621,391.113
1741691813.200,-1000.000,-38.574,-36.133,-852.539
1741691813.204,245.117,9.277,-32.715,274.902
1741691813.208,457.031,2.441,-26.855,325.195
1741691813.212,-1000.000,-11.719,-31.738,-790.039
1741691813.214,376.465,28.809,-41.992,443.359
1741691813.218,506.836,-4.395,-43.457,452.148
1741691813.222,-1000.000,-15.625,-62.500,-1000.000
1741691813.226,-0.977,45.410,-46.387,121.582
1741691813.230,749.512,1.953,-28.809,675.781
1741691813.234,-1000.000,-40.039,-27.832,-610.840
1741691813.238,83.008,22.949,-28.320,302.734
1741691813.241,543.457,-19.531,-37.598,459.473
1741691813.245,-1000.000,-10.254,-27.344,-975.098
1741691813.249,-156.738,-433.105,-18.066,17.090
1741691813.253,999.512,-485.840,-29.785,878.906
1741691813.257,-505.371,-8.789,-47.363,-465.332
1741691813.214,376.465,28.809,-41.992,443.359
1741691813.218,506.836,-4.395,-43.457,452.148
1741691813.222,-1000.000,-15.625,-62.500,-1000.000
1741691813.226,-0.977,45.410,-46.387,121.582
1741691813.230,749.512,1.953,-28.809,675.781
1741691813.234,-1000.000,-40.039,-27.832,-610.840
1741691813.238,83.008,22.949,-28.320,302.734
1741691813.241,543.457,-19.531,-37.598,459.473
1741691813.245,-1000.000,-10.254,-27.344,-975.098
1741691813.249,-156.738,-433.105,-18.066,17.090
1741691813.253,999.512,-485.840,-29.785,878.906
1741691813.257,-505.371,-8.789,-47.363,-465.332
1741691813.258,-435.547,84.473,-36.621,-331.055
1741691813.262,999.512,111.816,-28.809,717.773
1741691813.266,-528.320,42.969,-40.527,-483.887
1741691813.270,-335.938,76.172,-41.992,-186.035
1741691813.274,999.512,87.891,-48.340,843.262
1741691813.278,-707.031,26.367,-43.945,-481.934
1741691813.282,-577.148,38.574,-37.598,-433.105
1741691813.285,999.512,112.793,-42.480,768.066
1741691813.289,0.488,-177.734,-36.621,-226.562
1741691813.293,-729.492,-287.598,-32.715,-636.230
1741691813.297,999.512,47.363,-33.691,787.109
1741691813.301,-22.461,-6.836,-38.086,-174.805
1741691813.258,-435.547,84.473,-36.621,-331.055
1741691813.262,999.512,111.816,-28.809,717.773
1741691813.266,-528.320,42.969,-40.527,-483.887
1741691813.270,-335.938,76.172,-41.992,-186.035
1741691813.274,999.512,87.891,-48.340,843.262
1741691813.278,-707.031,26.367,-43.945,-481.934
1741691813.282,-577.148,38.574,-37.598,-433.105
1741691813.285,999.512,112.793,-42.480,768.066
1741691813.289,0.488,-177.734,-36.621,-226.562
1741691813.293,-729.492,-287.598,-32.715,-636.230
1741691813.297,999.512,47.363,-33.691,787.109
1741691813.301,-22.461,-6.836,-38.086,-174.805
1741691813.303,-786.621,-34.180,-37.598,-782.715
1741691813.307,999.512,71.289,-37.109,840.820
1741691813.311,226.562,3.906,-39.062,154.785
1741691813.315,-1000.000,10.742,-42.480,-879.883
1741691813.319,547.363,79.102,-42.969,355.957
1741691813.323,448.730,3.418,-38.574,233.887
1741691813.327,-1000.000,-32.715,-34.180,-709.473
1741691813.330,374.023,103.516,-46.387,446.777
1741691813.334,352.539,-64.941,-54.199,193.359
1741691813.338,-1000.000,-166.504,-35.156,-990.234
1741691813.342,444.336,39.551,-25.879,427.246
1741691813.346,446.289,5.859,-29.785,388.184
1741691813.303,-786.621,-34.180,-37.598,-782.715
1741691813.307,999.512,71.289,-37.109,840.820
1741691813.311,226.562,3.906,-39.062,154.785
1741691813.315,-1000.000,10.742,-42.480,-879.883
1741691813.319,547.363,79.102,-42.969,355.957
1741691813.323,448.730,3.418,-38.574,233.887
1741691813.327,-1000.000,-32.715,-34.180,-709.473
1741691813.330,374.023,103.516,-46.387,446.777
1741691813.334,352.539,-64.941,-54.199,193.359
1741691813.338,-1000.000,-166.504,-35.156,-990.234
1741691813.342,444.336,39.551,-25.879,427.246
1741691813.346,446.289,5.859,-29.785,388.184
1741691813.348,-1000.000,-21.973,-37.598,-864.746
1741691813.352,363.281,80.566,-31.250,429.199
1741691813.356,464.355,74.707,-28.809,432.617
1741691813.360,-1000.000,16.602,-31.250,-987.305
1741691813.364,167.480,69.824,-32.227,229.004
1741691813.368,911.621,87.402,-41.016,805.176
1741691813.372,-975.098,19.531,-37.598,-630.371
1741691813.375,-337.402,58.105,-34.180,-256.836
1741691813.379,999.512,83.984,-37.109,631.348
1741691813.383,-595.215,-4.883,-33.691,-494.629
1741691813.387,-354.492,25.391,-28.809,-135.254
1741691813.391,999.512,44.434,-28.809,901.855
1741691813.395,-586.914,-32.227,-43.945,-549.805
1741691813.399,-581.055,27.344,-46.875,-586.426
1741691813.403,999.512,-8.301,-34.180,866.699
1741691813.407,-143.066,-166.016,-42.969,-174.805
1741691813.411,-667.480,-48.340,-49.805,-542.969
1741691813.415,999.512,22.949,-34.668,849.121
1741691813.419,-20.996,-65.918,-49.316,-181.152
1741691813.422,-756.836,-68.848,-65.918,-741.699
1741691813.426,999.512,-26.367,-30.762,767.090
1741691813.430,130.371,-87.402,-19.531,4.395
1741691813.434,-1000.000,-88.379,-42.969,-761.719
1741691813.438,843.262,-19.043,-31.250,604.980
1741691813.438,147.461,-67.383,-24.902,-63.965
1741691813.442,-725.586,-65.430,-45.898,-683.594
1741691813.446,999.512,1.465,-45.898,854.980
1741691813.450,210.938,-67.383,-41.016,56.152
1741691813.454,-1000.000,-90.332,-37.598,-1000.000
1741691813.458,523.438,67.871,-34.180,511.230
1741691813.462,387.207,-293.457,-37.598,376.953
1741691813.465,-1000.000,-500.977,-54.199,-952.148
1741691813.469,427.734,-42.480,-52.246,387.695
1741691813.473,404.785,6.836,-35.156,340.820
1741691813.477,-1000.000,-21.973,-37.109,-972.168
1741691813.481,401.855,27.832,-41.992,409.668
1741691813.438,147.461,-67.383,-24.902,-63.965
1741691813.442,-725.586,-65.430,-45.898,-683.594
1741691813.446,999.512,1.465,-45.898,854.980
1741691813.450,210.938,-67.383,-41.016,56.152
1741691813.454,-1000.000,-90.332,-37.598,-1000.000
1741691813.458,523.438,67.871,-34.180,511.230
1741691813.462,387.207,-293.457,-37.598,376.953
1741691813.465,-1000.000,-500.977,-54.199,-952.148
1741691813.469,427.734,-42.480,-52.246,387.695
1741691813.473,404.785,6.836,-35.156,340.820
1741691813.477,-1000.000,-21.973,-37.109,-972.168
1741691813.481,401.855,27.832,-41.992,409.668
1741691813.484,560.059,-15.625,-41.016,574.219
1741691813.488,-1000.000,-69.336,-52.734,-892.578
1741691813.492,42.480,-23.438,-53.223,114.746
1741691813.496,578.613,-33.691,-34.668,467.773
1741691813.500,-1000.000,-49.805,-41.992,-791.504
1741691813.504,218.262,-20.996,-49.805,306.641
