timestamps,TP9,AF7,AF8,TP10
1741692159.540,-230.469,401.855,-81.543,-158.203
1741692159.544,999.512,679.199,78.125,999.512
1741692159.548,-406.250,-711.426,-83.496,-469.238
1741692159.552,-1000.000,-889.160,-190.430,-1000.000
1741692159.556,643.555,713.379,43.945,659.668
1741692159.560,999.512,999.512,99.609,999.512
1741692159.564,-451.172,-593.262,-77.637,-489.746
1741692159.567,-1000.000,-1000.000,-177.734,-1000.000
1741692159.571,-105.957,278.809,-117.676,6.348
1741692159.575,999.512,604.492,-10.742,999.512
1741692159.579,630.371,-526.367,-40.527,342.773
1741692159.583,-981.934,-799.316,-106.445,-1000.000
1741692159.585,-130.371,646.484,13.672,-41.504
1741692159.589,999.512,503.906,28.809,999.512
1741692159.593,-181.641,-920.410,-104.492,-230.957
1741692159.597,-1000.000,-650.391,-95.215,-1000.000
1741692159.601,652.832,840.820,140.625,677.246
1741692159.605,999.512,579.590,132.812,923.340
1741692159.609,-812.012,-936.523,-100.586,-897.461
1741692159.612,-814.941,-232.910,-36.133,-540.527
1741692159.616,997.559,971.191,117.676,999.512
1741692159.620,-78.613,-565.918,-24.902,-140.137
1741692159.624,-1000.000,-919.922,-62.988,-1000.000
1741692159.628,449.707,851.562,137.695,467.285
1741692159.585,-130.371,646.484,13.672,-41.504
1741692159.589,999.512,503.906,28.809,999.512
1741692159.593,-181.641,-920.410,-104.492,-230.957
1741692159.597,-1000.000,-650.391,-95.215,-1000.000
1741692159.601,652.832,840.820,140.625,677.246
1741692159.605,999.512,579.590,132.812,923.340
1741692159.609,-812.012,-936.523,-100.586,-897.461
1741692159.612,-814.941,-232.910,-36.133,-540.527
1741692159.616,997.559,971.191,117.676,999.512
1741692159.620,-78.613,-565.918,-24.902,-140.137
1741692159.624,-1000.000,-919.922,-62.988,-1000.000
1741692159.628,449.707,851.562,137.695,467.285
1741692159.631,999.512,815.918,150.879,999.512
1741692159.635,-487.305,-875.977,-66.406,-478.516
1741692159.639,-1000.000,-124.023,-36.621,-964.844
1741692159.643,733.887,932.617,160.645,772.949
1741692159.647,-306.641,-770.020,-82.031,-312.500
1741692159.651,-1000.000,-275.391,-132.324,-969.727
1741692159.655,821.777,971.680,104.980,854.492
1741692159.658,32.715,-596.680,-19.043,-16.113
1741692159.662,-1000.000,-1000.000,-107.422,-1000.000
1741692159.666,-169.434,467.285,21.973,-8.301
1741692159.670,999.512,999.512,125.488,999.512
1741692159.674,594.727,-204.590,5.371,443.359
1741692159.631,999.512,815.918,150.879,999.512
1741692159.635,-487.305,-875.977,-66.406,-478.516
1741692159.639,-1000.000,-124.023,-36.621,-964.844
1741692159.643,733.887,932.617,160.645,772.949
1741692159.647,-306.641,-770.020,-82.031,-312.500
1741692159.651,-1000.000,-275.391,-132.324,-969.727
1741692159.655,821.777,971.680,104.980,854.492
1741692159.658,32.715,-596.680,-19.043,-16.113
1741692159.662,-1000.000,-1000.000,-107.422,-1000.000
1741692159.666,-169.434,467.285,21.973,-8.301
1741692159.670,999.512,999.512,125.488,999.512
1741692159.674,594.727,-204.590,5.371,443.359
1741692159.676,-948.242,-958.008,-104.492,-984.375
1741692159.680,-1000.000,66.406,10.742,-799.805
1741692159.684,720.703,999.512,144.531,850.098
1741692159.688,958.496,157.227,29.785,844.727
1741692159.692,-798.340,-862.305,-194.824,-830.078
1741692159.696,203.125,669.922,63.965,247.070
1741692159.700,999.512,764.160,207.520,999.512
1741692159.703,-767.578,-979.004,-140.625,-827.637
1741692159.707,-901.855,-293.457,-129.395,-739.746
1741692159.711,947.266,999.512,113.281,987.793
1741692159.715,593.262,-302.246,-13.672,374.023
1741692159.719,-1000.000,-1000.000,-140.137,-1000.000
1741692159.676,-948.242,-958.008,-104.492,-984.375
1741692159.680,-1000.000,66.406,10.742,-799.805
1741692159.684,720.703,999.512,144.531,850.098
1741692159.688,958.496,157.227,29.785,844.727
1741692159.692,-798.340,-862.305,-194.824,-830.078
1741692159.696,203.125,669.922,63.965,247.070
1741692159.700,999.512,764.160,207.520,999.512
1741692159.703,-767.578,-979.004,-140.625,-827.637
1741692159.707,-901.855,-293.457,-129.395,-739.746
1741692159.711,947.266,999.512,113.281,987.793
1741692159.715,593.262,-302.246,-13.672,374.023
1741692159.719,-1000.000,-1000.000,-140.137,-1000.000
1741692159.721,-493.164,428.711,27.832,-333.008
1741692159.725,999.512,999.512,149.414,999.512
1741692159.729,825.195,228.027,16.602,758.301
1741692159.733,-796.875,-956.543,-176.270,-823.730
1741692159.737,-1000.000,-338.867,-62.012,-947.266
1741692159.741,671.875,974.121,150.391,741.211
1741692159.745,999.512,759.277,65.918,995.117
1741692159.748,-709.961,-870.605,-127.441,-732.422
1741692159.752,-1000.000,-811.035,-105.957,-1000.000
1741692159.756,773.926,886.230,135.254,807.129
1741692159.760,741.211,109.863,72.266,575.684
1741692159.764,-1000.000,-904.297,-171.387,-1000.000
1741692159.721,-493.164,428.711,27.832,-333.008
1741692159.725,999.512,999.512,149.414,999.512
1741692159.729,825.195,228.027,16.602,758.301
1741692159.733,-796.875,-956.543,-176.270,-823.730
1741692159.737,-1000.000,-338.867,-62.012,-947.266
1741692159.741,671.875,974.121,150.391,741.211
1741692159.745,999.512,759.277,65.918,995.117
1741692159.748,-709.961,-870.605,-127.441,-732.422
1741692159.752,-1000.000,-811.035,-105.957,-1000.000
1741692159.756,773.926,886.230,135.254,807.129
1741692159.760,741.211,109.863,72.266,575.684
1741692159.764,-1000.000,-904.297,-171.387,-1000.000
1741692159.767,76.172,550.293,-44.434,164.551
1741692159.771,999.512,632.812,48.340,999.512
1741692159.775,-220.215,-762.695,-62.012,-312.500
1741692159.779,-1000.000,-789.551,-56.641,-1000.000
1741692159.783,426.270,724.609,74.707,444.824
1741692159.787,999.512,999.512,115.723,999.512
1741692159.791,38.086,-341.309,-77.637,0.488
1741692159.794,-1000.000,-1000.000,-205.078,-1000.000
1741692159.798,-881.836,-168.945,-57.617,-779.785
1741692159.802,774.414,994.629,73.242,826.660
1741692159.806,798.340,-187.012,-49.316,674.316
1741692159.810,-998.535,-1000.000,-196.777,-995.605
1741692159.767,76.172,550.293,-44.434,164.551
1741692159.771,999.512,632.812,48.340,999.512
1741692159.775,-220.215,-762.695,-62.012,-312.500
1741692159.779,-1000.000,-789.551,-56.641,-1000.000
1741692159.783,426.270,724.609,74.707,444.824
1741692159.787,999.512,999.512,115.723,999.512
1741692159.791,38.086,-341.309,-77.637,0.488
1741692159.794,-1000.000,-1000.000,-205.078,-1000.000
1741692159.798,-881.836,-168.945,-57.617,-779.785
1741692159.802,774.414,994.629,73.242,826.660
1741692159.806,798.340,-187.012,-49.316,674.316
1741692159.810,-998.535,-1000.000,-196.777,-995.605
1741692159.825,-55.664,419.922,-37.109,-29.785
1741692159.829,999.512,870.605,129.883,999.512
1741692159.833,-248.535,-547.363,-79.590,-289.551
1741692159.837,-1000.000,-899.902,-209.473,-1000.000
1741692159.841,645.996,758.301,5.371,646.484
1741692159.845,999.512,569.824,59.570,987.305
1741692159.849,-711.914,-1000.000,-98.633,-766.113
1741692159.852,-1000.000,-769.043,-144.043,-1000.000
1741692159.856,675.781,747.559,48.340,686.035
1741692159.860,999.512,54.199,-2.441,933.105
1741692159.864,-712.402,-1000.000,-219.727,-809.082
1741692159.868,-1000.000,4.883,-118.652,-996.582
1741692159.825,-55.664,419.922,-37.109,-29.785
1741692159.829,999.512,870.605,129.883,999.512
1741692159.833,-248.535,-547.363,-79.590,-289.551
1741692159.837,-1000.000,-899.902,-209.473,-1000.000
1741692159.841,645.996,758.301,5.371,646.484
1741692159.845,999.512,569.824,59.570,987.305
1741692159.849,-711.914,-1000.000,-98.633,-766.113
1741692159.852,-1000.000,-769.043,-144.043,-1000.000
1741692159.856,675.781,747.559,48.340,686.035
1741692159.860,999.512,54.199,-2.441,933.105
1741692159.864,-712.402,-1000.000,-219.727,-809.082
1741692159.868,-1000.000,4.883,-118.652,-996.582
1741692159.873,792.480,963.379,94.238,815.430
1741692159.877,652.832,-544.922,-48.340,485.840
1741692159.881,-1000.000,-1000.000,-197.754,-1000.000
1741692159.885,415.527,816.406,7.324,457.031
1741692159.889,980.469,293.945,13.184,851.074
1741692159.893,-935.547,-887.207,-181.152,-957.520
1741692159.897,112.305,645.020,-56.152,153.809
1741692159.900,999.512,335.449,29.785,999.512
1741692159.904,-674.316,-1000.000,-152.832,-650.879
1741692159.908,-1000.000,-833.984,-128.418,-1000.000
1741692159.912,508.301,717.773,80.078,491.699
1741692159.916,999.512,793.457,28.809,999.512
1741692159.873,792.480,963.379,94.238,815.430
1741692159.877,652.832,-544.922,-48.340,485.840
1741692159.881,-1000.000,-1000.000,-197.754,-1000.000
1741692159.885,415.527,816.406,7.324,457.031
1741692159.889,980.469,293.945,13.184,851.074
1741692159.893,-935.547,-887.207,-181.152,-957.520
1741692159.897,112.305,645.020,-56.152,153.809
1741692159.900,999.512,335.449,29.785,999.512
1741692159.904,-674.316,-1000.000,-152.832,-650.879
1741692159.908,-1000.000,-833.984,-128.418,-1000.000
1741692159.912,508.301,717.773,80.078,491.699
1741692159.916,999.512,793.457,28.809,999.512
1741692159.916,-432.617,-853.027,-172.852,-467.773
1741692159.920,-898.926,-601.562,-181.641,-867.188
1741692159.924,829.590,981.934,64.453,846.191
1741692159.928,782.715,144.531,61.523,648.438
1741692159.932,-1000.000,-1000.000,-200.684,-1000.000
1741692159.936,44.434,466.309,-36.133,129.395
1741692159.940,999.512,902.344,86.914,999.512
1741692159.943,-674.805,-859.375,-154.785,-671.387
1741692159.947,-1000.000,-735.840,-139.160,-1000.000
1741692159.951,476.562,839.355,12.207,499.512
1741692159.955,999.512,829.102,56.641,999.512
1741692159.959,-407.715,-794.922,-102.539,-418.945
1741692159.916,-432.617,-853.027,-172.852,-467.773
1741692159.920,-898.926,-601.562,-181.641,-867.188
1741692159.924,829.590,981.934,64.453,846.191
1741692159.928,782.715,144.531,61.523,648.438
1741692159.932,-1000.000,-1000.000,-200.684,-1000.000
1741692159.936,44.434,466.309,-36.133,129.395
1741692159.940,999.512,902.344,86.914,999.512
1741692159.943,-674.805,-859.375,-154.785,-671.387
1741692159.947,-1000.000,-735.840,-139.160,-1000.000
1741692159.951,476.562,839.355,12.207,499.512
1741692159.955,999.512,829.102,56.641,999.512
1741692159.959,-407.715,-794.922,-102.539,-418.945
1741692159.960,-1000.000,-724.609,-145.996,-1000.000
1741692159.964,416.504,869.629,68.848,412.598
1741692159.968,999.512,665.039,26.367,999.512
1741692159.972,-720.703,-896.973,-252.930,-714.355
1741692159.976,-986.816,-454.102,-163.086,-900.879
1741692159.980,842.285,999.512,101.562,880.859
1741692159.984,777.344,457.031,76.172,600.586
1741692159.987,-999.512,-1000.000,-168.457,-1000.000
1741692159.991,-841.797,-400.391,-177.246,-658.203
1741692159.995,919.922,999.023,9.277,959.961
1741692159.999,673.828,-161.133,-35.645,462.891
1741692160.003,-1000.000,-1000.000,-123.535,-1000.000
1741692160.005,-707.520,218.262,-39.551,-536.133
1741692160.009,947.754,999.512,70.312,979.492
1741692160.013,897.461,386.230,-5.371,826.172
1741692160.017,-769.531,-966.309,-221.191,-804.199
1741692160.021,-1000.000,-483.887,-110.352,-1000.000
1741692160.025,673.828,918.457,138.672,715.332
1741692160.029,999.512,495.605,2.441,977.051
1741692160.032,-709.473,-951.172,-215.820,-756.836
1741692160.036,-1000.000,-701.172,-160.645,-1000.000
1741692160.040,786.133,860.352,60.059,781.738
1741692160.044,731.934,-1.953,23.438,570.312
1741692160.048,-978.516,-1000.000,-195.801,-1000.000
1741692160.005,-707.520,218.262,-39.551,-536.133
1741692160.009,947.754,999.512,70.312,979.492
1741692160.013,897.461,386.230,-5.371,826.172
1741692160.017,-769.531,-966.309,-221.191,-804.199
1741692160.021,-1000.000,-483.887,-110.352,-1000.000
1741692160.025,673.828,918.457,138.672,715.332
1741692160.029,999.512,495.605,2.441,977.051
1741692160.032,-709.473,-951.172,-215.820,-756.836
1741692160.036,-1000.000,-701.172,-160.645,-1000.000
1741692160.040,786.133,860.352,60.059,781.738
1741692160.044,731.934,-1.953,23.438,570.312
1741692160.048,-978.516,-1000.000,-195.801,-1000.000
1741692160.050,300.293,580.078,-32.227,365.723
1741692160.054,999.512,436.523,27.344,999.512
1741692160.058,-550.781,-988.281,-146.973,-596.680
1741692160.062,-1000.000,-729.004,-166.504,-1000.000
1741692160.066,326.660,584.473,-33.203,332.031
1741692160.070,999.512,604.492,24.902,999.512
1741692160.074,821.289,617.188,1.465,800.781
1741692160.077,-572.266,-558.105,-170.898,-608.887
1741692160.081,-1000.000,-1000.000,-217.773,-1000.000
1741692160.085,372.559,747.559,-40.039,382.812
1741692160.089,999.512,833.008,-4.395,999.512
1741692160.093,-667.480,-851.074,-190.918,-642.090
1741692160.050,300.293,580.078,-32.227,365.723
1741692160.054,999.512,436.523,27.344,999.512
1741692160.058,-550.781,-988.281,-146.973,-596.680
1741692160.062,-1000.000,-729.004,-166.504,-1000.000
1741692160.066,326.660,584.473,-33.203,332.031
1741692160.070,999.512,604.492,24.902,999.512
1741692160.074,821.289,617.188,1.465,800.781
1741692160.077,-572.266,-558.105,-170.898,-608.887
1741692160.081,-1000.000,-1000.000,-217.773,-1000.000
1741692160.085,372.559,747.559,-40.039,382.812
1741692160.089,999.512,833.008,-4.395,999.512
1741692160.093,-667.480,-851.074,-190.918,-642.090
1741692160.095,-1000.000,-531.738,-116.699,-1000.000
1741692160.099,682.129,999.512,122.070,669.922
1741692160.103,999.512,548.828,23.926,958.984
1741692160.107,-809.082,-959.961,-221.191,-863.770
1741692160.111,-645.996,-4.395,-111.816,-483.398
1741692160.115,999.512,999.512,155.273,999.512
1741692160.119,56.152,-285.645,52.734,-93.262
1741692160.122,-1000.000,-1000.000,-183.594,-1000.000
1741692160.126,237.793,514.648,-28.320,271.973
1741692160.130,999.512,996.582,80.078,999.512
1741692160.134,-357.910,-743.652,-135.254,-394.043
1741692160.138,-1000.000,-1000.000,-169.434,-1000.000
1741692160.095,-1000.000,-531.738,-116.699,-1000.000
1741692160.099,682.129,999.512,122.070,669.922
1741692160.103,999.512,548.828,23.926,958.984
1741692160.107,-809.082,-959.961,-221.191,-863.770
1741692160.111,-645.996,-4.395,-111.816,-483.398
1741692160.115,999.512,999.512,155.273,999.512
1741692160.119,56.152,-285.645,52.734,-93.262
1741692160.122,-1000.000,-1000.000,-183.594,-1000.000
1741692160.126,237.793,514.648,-28.320,271.973
1741692160.130,999.512,996.582,80.078,999.512
1741692160.134,-357.910,-743.652,-135.254,-394.043
1741692160.138,-1000.000,-1000.000,-169.434,-1000.000
1741692160.143,213.867,621.582,43.945,232.422
1741692160.147,999.512,402.344,62.500,999.512
1741692160.151,-243.652,-992.676,-125.000,-271.973
1741692160.155,-1000.000,-640.625,-151.367,-1000.000
1741692160.159,615.234,822.754,63.477,582.031
1741692160.163,999.512,997.559,88.867,999.512
1741692160.167,-590.820,-682.129,-172.852,-606.934
1741692160.170,-1000.000,-1000.000,-200.195,-1000.000
1741692160.174,720.703,681.152,88.867,692.871
1741692160.178,625.488,-272.949,40.039,437.012
1741692160.182,-1000.000,-1000.000,-170.410,-1000.000
1741692160.186,339.355,789.551,-13.184,362.305
1741692160.143,213.867,621.582,43.945,232.422
1741692160.147,999.512,402.344,62.500,999.512
1741692160.151,-243.652,-992.676,-125.000,-271.973
1741692160.155,-1000.000,-640.625,-151.367,-1000.000
1741692160.159,615.234,822.754,63.477,582.031
1741692160.163,999.512,997.559,88.867,999.512
1741692160.167,-590.820,-682.129,-172.852,-606.934
1741692160.170,-1000.000,-1000.000,-200.195,-1000.000
1741692160.174,720.703,681.152,88.867,692.871
1741692160.178,625.488,-272.949,40.039,437.012
1741692160.182,-1000.000,-1000.000,-170.410,-1000.000
1741692160.186,339.355,789.551,-13.184,362.305
1741692160.200,999.512,551.758,16.602,999.512
1741692160.204,-653.809,-904.297,-173.340,-644.043
1741692160.208,-1000.000,-38.086,-87.891,-1000.000
1741692160.212,620.605,999.512,100.098,665.039
1741692160.216,945.312,-216.797,-25.391,828.613
1741692160.220,-767.578,-833.496,-177.246,-812.012
1741692160.224,383.789,755.859,31.738,420.898
1741692160.227,876.465,0.000,16.602,742.188
1741692160.231,-1000.000,-1000.000,-203.613,-1000.000
1741692160.235,-767.090,-129.883,-108.887,-607.910
1741692160.239,979.492,995.605,72.266,994.141
1741692160.243,649.414,-155.762,-34.180,475.586
1741692160.200,999.512,551.758,16.602,999.512
1741692160.204,-653.809,-904.297,-173.340,-644.043
1741692160.208,-1000.000,-38.086,-87.891,-1000.000
1741692160.212,620.605,999.512,100.098,665.039
1741692160.216,945.312,-216.797,-25.391,828.613
1741692160.220,-767.578,-833.496,-177.246,-812.012
1741692160.224,383.789,755.859,31.738,420.898
1741692160.227,876.465,0.000,16.602,742.188
1741692160.231,-1000.000,-1000.000,-203.613,-1000.000
1741692160.235,-767.090,-129.883,-108.887,-607.910
1741692160.239,979.492,995.605,72.266,994.141
1741692160.243,649.414,-155.762,-34.180,475.586
1741692160.245,-991.699,-1000.000,-155.273,-1000.000
1741692160.249,-983.398,-322.266,-62.988,-917.969
1741692160.253,676.270,943.359,63.965,736.328
1741692160.257,999.512,228.027,-19.043,941.895
1741692160.261,-844.238,-1000.000,-208.984,-888.672
1741692160.265,-371.582,413.086,-46.387,-321.289
1741692160.269,999.512,999.512,131.836,999.512
1741692160.272,-557.617,-793.945,-145.020,-549.316
1741692160.276,-1000.000,-978.027,-241.699,-1000.000
1741692160.280,693.359,774.902,21.973,711.914
1741692160.284,999.512,433.105,20.508,919.434
1741692160.288,-767.090,-1000.000,-164.551,-846.680
1741692160.245,-991.699,-1000.000,-155.273,-1000.000
1741692160.249,-983.398,-322.266,-62.988,-917.969
1741692160.253,676.270,943.359,63.965,736.328
1741692160.257,999.512,228.027,-19.043,941.895
1741692160.261,-844.238,-1000.000,-208.984,-888.672
1741692160.265,-371.582,413.086,-46.387,-321.289
1741692160.269,999.512,999.512,131.836,999.512
1741692160.272,-557.617,-793.945,-145.020,-549.316
1741692160.276,-1000.000,-978.027,-241.699,-1000.000
1741692160.280,693.359,774.902,21.973,711.914
1741692160.284,999.512,433.105,20.508,919.434
1741692160.288,-767.090,-1000.000,-164.551,-846.680
1741692160.290,-794.434,-6.348,-91.309,-677.734
1741692160.294,915.039,999.512,82.520,949.707
1741692160.298,888.184,148.926,7.812,796.875
1741692160.302,-791.016,-1000.000,-147.461,-831.055
1741692160.306,-1000.000,-472.656,-72.266,-999.512
1741692160.310,686.523,951.660,102.539,705.566
1741692160.314,964.844,720.703,45.898,971.680
1741692160.317,-613.770,-681.641,-156.738,-657.227
1741692160.321,-1000.000,-636.719,-141.602,-1000.000
1741692160.325,-105.957,317.383,10.742,124.023
1741692160.329,999.512,811.035,87.402,999.512
1741692160.333,-386.719,-692.871,-117.188,-428.711
1741692160.290,-794.434,-6.348,-91.309,-677.734
1741692160.294,915.039,999.512,82.520,949.707
1741692160.298,888.184,148.926,7.812,796.875
1741692160.302,-791.016,-1000.000,-147.461,-831.055
1741692160.306,-1000.000,-472.656,-72.266,-999.512
1741692160.310,686.523,951.660,102.539,705.566
1741692160.314,964.844,720.703,45.898,971.680
1741692160.317,-613.770,-681.641,-156.738,-657.227
1741692160.321,-1000.000,-636.719,-141.602,-1000.000
1741692160.325,-105.957,317.383,10.742,124.023
1741692160.329,999.512,811.035,87.402,999.512
1741692160.333,-386.719,-692.871,-117.188,-428.711
1741692160.336,-1000.000,-824.219,-178.223,-1000.000
1741692160.340,759.766,892.090,72.266,754.883
1741692160.344,798.340,118.164,48.340,635.254
1741692160.348,-1000.000,-1000.000,-195.312,-1000.000
1741692160.352,-89.355,415.039,-72.754,-34.180
1741692160.356,999.512,999.512,89.355,999.512
1741692160.360,255.371,-274.902,-57.617,153.320
1741692160.363,-1000.000,-1000.000,-200.195,-1000.000
1741692160.367,-939.453,-568.848,-111.816,-870.117
1741692160.371,641.113,835.938,41.992,689.941
1741692160.375,999.512,890.625,35.156,996.094
1741692160.379,-517.578,-655.273,-156.738,-505.371
1741692160.381,-1000.000,-1000.000,-213.379,-1000.000
1741692160.385,-701.172,-13.672,-62.988,-631.348
1741692160.389,912.598,934.570,84.473,898.926
1741692160.393,611.816,-437.012,-68.848,432.617
1741692160.397,-1000.000,-1000.000,-244.629,-1000.000
1741692160.401,250.000,634.277,13.184,219.238
1741692160.405,999.512,779.297,132.812,999.512
1741692160.408,-725.586,-942.871,-206.055,-769.531
1741692160.412,-1000.000,-593.750,-246.582,-959.473
1741692160.416,780.762,912.109,0.977,834.473
1741692160.420,721.191,-138.184,-46.387,466.309
1741692160.424,-1000.000,-1000.000,-170.898,-1000.000
1741692160.381,-1000.000,-1000.000,-213.379,-1000.000
1741692160.385,-701.172,-13.672,-62.988,-631.348
1741692160.389,912.598,934.570,84.473,898.926
1741692160.393,611.816,-437.012,-68.848,432.617
1741692160.397,-1000.000,-1000.000,-244.629,-1000.000
1741692160.401,250.000,634.277,13.184,219.238
1741692160.405,999.512,779.297,132.812,999.512
1741692160.408,-725.586,-942.871,-206.055,-769.531
1741692160.412,-1000.000,-593.750,-246.582,-959.473
1741692160.416,780.762,912.109,0.977,834.473
1741692160.420,721.191,-138.184,-46.387,466.309
1741692160.424,-1000.000,-1000.000,-170.898,-1000.000
1741692160.441,-541.504,327.637,-48.828,-400.391
1741692160.445,999.512,896.973,45.410,999.512
1741692160.449,161.133,-718.262,-106.934,21.484
1741692160.453,-1000.000,-949.707,-160.156,-1000.000
1741692160.457,-165.039,521.484,-3.418,-170.898
1741692160.461,999.512,999.512,72.754,999.512
1741692160.465,797.852,276.367,-16.602,681.152
1741692160.468,-790.527,-995.605,-195.312,-870.605
1741692160.472,-1000.000,-381.836,-171.387,-887.695
1741692160.476,853.516,999.512,101.562,878.906
1741692160.480,615.234,-80.078,27.832,402.344
1741692160.484,-995.117,-955.078,-185.547,-1000.000
1741692160.441,-541.504,327.637,-48.828,-400.391
1741692160.445,999.512,896.973,45.410,999.512
1741692160.449,161.133,-718.262,-106.934,21.484
1741692160.453,-1000.000,-949.707,-160.156,-1000.000
1741692160.457,-165.039,521.484,-3.418,-170.898
1741692160.461,999.512,999.512,72.754,999.512
1741692160.465,797.852,276.367,-16.602,681.152
1741692160.468,-790.527,-995.605,-195.312,-870.605
1741692160.472,-1000.000,-381.836,-171.387,-887.695
1741692160.476,853.516,999.512,101.562,878.906
1741692160.480,615.234,-80.078,27.832,402.344
1741692160.484,-995.117,-955.078,-185.547,-1000.000
1741692160.470,219.727,496.094,-25.879,305.176
1741692160.474,999.512,803.711,78.613,999.512
1741692160.478,270.508,-100.586,23.926,54.199
1741692160.482,-1000.000,-1000.000,-164.551,-1000.000
1741692160.486,-430.176,31.250,-134.277,-276.855
1741692160.490,999.512,999.512,85.449,999.512
1741692160.494,689.453,49.805,-7.812,525.879
1741692160.497,-916.992,-1000.000,-168.945,-971.680
1741692160.501,-1000.000,-412.109,-88.379,-912.598
1741692160.505,672.363,934.082,20.996,733.398
1741692160.509,999.512,535.645,-15.625,977.539
1741692160.513,-706.055,-898.926,-164.551,-727.539
1741692160.470,219.727,496.094,-25.879,305.176
1741692160.474,999.512,803.711,78.613,999.512
1741692160.478,270.508,-100.586,23.926,54.199
1741692160.482,-1000.000,-1000.000,-164.551,-1000.000
1741692160.486,-430.176,31.250,-134.277,-276.855
1741692160.490,999.512,999.512,85.449,999.512
1741692160.494,689.453,49.805,-7.812,525.879
1741692160.497,-916.992,-1000.000,-168.945,-971.680
1741692160.501,-1000.000,-412.109,-88.379,-912.598
1741692160.505,672.363,934.082,20.996,733.398
1741692160.509,999.512,535.645,-15.625,977.539
1741692160.513,-706.055,-898.926,-164.551,-727.539
1741692160.517,-1000.000,-462.402,-80.078,-1000.000
1741692160.521,629.395,935.547,115.234,616.699
1741692160.525,999.512,611.816,46.387,999.512
1741692160.529,-619.141,-839.844,-138.184,-626.953
1741692160.533,-1000.000,-393.555,-127.930,-994.141
1741692160.537,680.176,986.328,63.477,762.695
1741692160.541,999.512,773.926,100.098,879.883
1741692160.544,-716.797,-814.453,-147.949,-827.148
1741692160.548,-1000.000,-896.484,-187.500,-975.586
1741692160.552,687.012,826.172,43.457,759.766
1741692160.556,988.281,465.820,36.621,870.117
1741692160.560,-811.035,-976.562,-134.277,-882.324
1741692160.517,-1000.000,-462.402,-80.078,-1000.000
1741692160.521,629.395,935.547,115.234,616.699
1741692160.525,999.512,611.816,46.387,999.512
1741692160.529,-619.141,-839.844,-138.184,-626.953
1741692160.533,-1000.000,-393.555,-127.930,-994.141
1741692160.537,680.176,986.328,63.477,762.695
1741692160.541,999.512,773.926,100.098,879.883
1741692160.544,-716.797,-814.453,-147.949,-827.148
1741692160.548,-1000.000,-896.484,-187.500,-975.586
1741692160.552,687.012,826.172,43.457,759.766
1741692160.556,988.281,465.820,36.621,870.117
1741692160.560,-811.035,-976.562,-134.277,-882.324
1741692160.575,-860.840,-15.625,-93.262,-696.777
1741692160.579,924.805,999.512,74.707,967.773
1741692160.583,826.660,219.238,-8.789,738.770
1741692160.587,-871.094,-1000.000,-215.820,-899.902
1741692160.591,-1000.000,-391.602,-89.355,-940.430
1741692160.595,670.898,999.512,106.934,748.535
1741692160.599,999.512,638.672,19.531,995.605
1741692160.602,-843.262,-869.629,-236.328,-853.027
1741692160.606,-676.270,266.602,-91.309,-536.133
1741692160.610,864.746,521.484,85.938,879.395
1741692160.614,-704.102,-985.352,-151.367,-693.848
1741692160.618,-509.277,318.359,-93.750,-404.297
1741692160.575,-860.840,-15.625,-93.262,-696.777
1741692160.579,924.805,999.512,74.707,967.773
1741692160.583,826.660,219.238,-8.789,738.770
1741692160.587,-871.094,-1000.000,-215.820,-899.902
1741692160.591,-1000.000,-391.602,-89.355,-940.430
1741692160.595,670.898,999.512,106.934,748.535
1741692160.599,999.512,638.672,19.531,995.605
1741692160.602,-843.262,-869.629,-236.328,-853.027
1741692160.606,-676.270,266.602,-91.309,-536.133
1741692160.610,864.746,521.484,85.938,879.395
1741692160.614,-704.102,-985.352,-151.367,-693.848
1741692160.618,-509.277,318.359,-93.750,-404.297
1741692160.620,999.512,968.262,59.570,999.512
1741692160.624,-223.145,-728.027,-103.027,-268.555
1741692160.628,-1000.000,-1000.000,-126.465,-1000.000
1741692160.632,-362.793,367.676,-2.441,-245.117
1741692160.636,999.512,999.512,32.715,999.512
1741692160.640,616.211,-257.812,-88.867,489.746
1741692160.644,-901.855,-951.172,-154.785,-922.363
1741692160.647,-1000.000,-562.988,-78.125,-1000.000
1741692160.651,261.719,501.953,19.531,262.695
1741692160.655,999.512,630.859,-20.508,999.512
1741692160.659,-190.918,-834.473,-169.922,-241.699
1741692160.663,-1000.000,-746.094,-191.895,-1000.000
1741692160.620,999.512,968.262,59.570,999.512
1741692160.624,-223.145,-728.027,-103.027,-268.555
1741692160.628,-1000.000,-1000.000,-126.465,-1000.000
1741692160.632,-362.793,367.676,-2.441,-245.117
1741692160.636,999.512,999.512,32.715,999.512
1741692160.640,616.211,-257.812,-88.867,489.746
1741692160.644,-901.855,-951.172,-154.785,-922.363
1741692160.647,-1000.000,-562.988,-78.125,-1000.000
1741692160.651,261.719,501.953,19.531,262.695
1741692160.655,999.512,630.859,-20.508,999.512
1741692160.659,-190.918,-834.473,-169.922,-241.699
1741692160.663,-1000.000,-746.094,-191.895,-1000.000
1741692160.667,211.426,404.785,-9.277,195.801
1741692160.671,999.512,503.418,72.266,999.512
1741692160.675,832.031,456.543,-36.621,733.398
1741692160.679,-719.727,-756.348,-251.465,-789.551
1741692160.683,-938.477,-348.145,-200.195,-788.086
1741692160.687,941.406,999.512,47.852,953.125
1741692160.691,355.957,-165.527,-19.043,179.199
1741692160.694,-1000.000,-1000.000,-199.219,-1000.000
1741692160.698,284.180,529.297,-40.039,339.355
1741692160.702,999.512,805.176,33.691,999.512
1741692160.706,-651.855,-927.734,-162.109,-636.230
1741692160.710,-1000.000,-639.160,-142.578,-1000.000
1741692160.667,211.426,404.785,-9.277,195.801
1741692160.671,999.512,503.418,72.266,999.512
1741692160.675,832.031,456.543,-36.621,733.398
1741692160.679,-719.727,-756.348,-251.465,-789.551
1741692160.683,-938.477,-348.145,-200.195,-788.086
1741692160.687,941.406,999.512,47.852,953.125
1741692160.691,355.957,-165.527,-19.043,179.199
1741692160.694,-1000.000,-1000.000,-199.219,-1000.000
1741692160.698,284.180,529.297,-40.039,339.355
1741692160.702,999.512,805.176,33.691,999.512
1741692160.706,-651.855,-927.734,-162.109,-636.230
1741692160.710,-1000.000,-639.160,-142.578,-1000.000
1741692160.711,632.324,882.812,16.113,623.047
1741692160.715,999.512,256.348,-52.734,999.512
1741692160.719,-722.656,-1000.000,-222.168,-763.672
1741692160.723,-1000.000,-227.539,-87.402,-922.363
1741692160.727,828.613,999.512,141.602,869.141
1741692160.731,763.184,39.551,-6.836,505.859
1741692160.735,-1000.000,-955.078,-186.523,-1000.000
1741692160.738,160.645,562.988,-29.785,272.949
1741692160.742,999.512,683.105,50.781,999.512
1741692160.746,-739.746,-961.426,-153.809,-778.320
1741692160.750,-975.098,-169.922,-120.117,-877.930
1741692160.754,870.117,999.512,90.332,915.527
1741692160.711,632.324,882.812,16.113,623.047
1741692160.715,999.512,256.348,-52.734,999.512
1741692160.719,-722.656,-1000.000,-222.168,-763.672
1741692160.723,-1000.000,-227.539,-87.402,-922.363
1741692160.727,828.613,999.512,141.602,869.141
1741692160.731,763.184,39.551,-6.836,505.859
1741692160.735,-1000.000,-955.078,-186.523,-1000.000
1741692160.738,160.645,562.988,-29.785,272.949
1741692160.742,999.512,683.105,50.781,999.512
1741692160.746,-739.746,-961.426,-153.809,-778.320
1741692160.750,-975.098,-169.922,-120.117,-877.930
1741692160.754,870.117,999.512,90.332,915.527
1741692160.755,862.305,-106.934,-24.414,713.379
1741692160.759,-942.871,-843.262,-163.086,-948.242
1741692160.763,-75.195,763.672,45.898,-28.809
1741692160.767,999.512,842.773,106.445,999.512
1741692160.771,-587.402,-850.586,-179.688,-582.031
1741692160.775,-883.301,-132.812,-127.930,-800.293
1741692160.779,814.453,962.891,84.473,849.609
1741692160.782,-374.023,-694.824,-91.309,-400.391
1741692160.786,-1000.000,-1000.000,-195.312,-1000.000
1741692160.790,419.434,636.230,-33.203,482.422
1741692160.794,999.512,834.473,24.414,999.512
1741692160.798,-397.461,-766.602,-135.254,-443.359
1741692160.755,862.305,-106.934,-24.414,713.379
1741692160.759,-942.871,-843.262,-163.086,-948.242
1741692160.763,-75.195,763.672,45.898,-28.809
1741692160.767,999.512,842.773,106.445,999.512
1741692160.771,-587.402,-850.586,-179.688,-582.031
1741692160.775,-883.301,-132.812,-127.930,-800.293
1741692160.779,814.453,962.891,84.473,849.609
1741692160.782,-374.023,-694.824,-91.309,-400.391
1741692160.786,-1000.000,-1000.000,-195.312,-1000.000
1741692160.790,419.434,636.230,-33.203,482.422
1741692160.794,999.512,834.473,24.414,999.512
1741692160.798,-397.461,-766.602,-135.254,-443.359
1741692160.800,-1000.000,-943.848,-165.527,-1000.000
1741692160.804,-463.379,321.777,-20.508,-252.930
1741692160.808,999.512,999.512,78.613,999.512
1741692160.812,561.523,-292.969,-69.336,390.625
1741692160.816,-1000.000,-1000.000,-192.871,-1000.000
1741692160.820,67.871,600.098,23.926,50.781
1741692160.824,999.512,930.664,122.070,999.512
1741692160.827,-639.648,-801.758,-151.367,-617.676
1741692160.831,-1000.000,-1000.000,-226.562,-1000.000
1741692160.835,641.113,713.867,20.996,662.598
1741692160.839,999.512,576.172,94.727,950.195
1741692160.843,-769.531,-941.895,-120.605,-838.379
1741692160.800,-1000.000,-943.848,-165.527,-1000.000
1741692160.804,-463.379,321.777,-20.508,-252.930
1741692160.808,999.512,999.512,78.613,999.512
1741692160.812,561.523,-292.969,-69.336,390.625
1741692160.816,-1000.000,-1000.000,-192.871,-1000.000
1741692160.820,67.871,600.098,23.926,50.781
1741692160.824,999.512,930.664,122.070,999.512
1741692160.827,-639.648,-801.758,-151.367,-617.676
1741692160.831,-1000.000,-1000.000,-226.562,-1000.000
1741692160.835,641.113,713.867,20.996,662.598
1741692160.839,999.512,576.172,94.727,950.195
1741692160.843,-769.531,-941.895,-120.605,-838.379
1741692160.845,-842.285,-56.641,-113.281,-718.750
1741692160.849,916.504,999.512,100.586,958.008
1741692160.853,929.199,582.520,31.250,845.703
1741692160.857,-750.488,-887.207,-153.320,-806.641
1741692160.861,-1000.000,-467.285,-45.410,-1000.000
1741692160.865,677.246,999.512,159.668,728.027
1741692160.869,999.512,460.938,59.570,989.258
1741692160.872,-849.121,-990.234,-204.590,-879.395
1741692160.876,-639.160,196.777,-28.320,-512.695
1741692160.880,899.902,461.914,139.160,896.973
1741692160.884,-669.434,-1000.000,-128.418,-694.336
1741692160.888,-871.582,-34.180,-116.699,-694.824
1741692160.845,-842.285,-56.641,-113.281,-718.750
1741692160.849,916.504,999.512,100.586,958.008
1741692160.853,929.199,582.520,31.250,845.703
1741692160.857,-750.488,-887.207,-153.320,-806.641
1741692160.861,-1000.000,-467.285,-45.410,-1000.000
1741692160.865,677.246,999.512,159.668,728.027
1741692160.869,999.512,460.938,59.570,989.258
1741692160.872,-849.121,-990.234,-204.590,-879.395
1741692160.876,-639.160,196.777,-28.320,-512.695
1741692160.880,899.902,461.914,139.160,896.973
1741692160.884,-669.434,-1000.000,-128.418,-694.336
1741692160.888,-871.582,-34.180,-116.699,-694.824
1741692160.891,999.512,999.512,102.051,999.512
1741692160.895,444.336,-384.766,-3.418,255.371
1741692160.899,-1000.000,-1000.000,-145.996,-1000.000
1741692160.903,-352.539,435.059,-32.227,-236.328
1741692160.907,999.512,964.355,65.430,999.512
1741692160.911,910.156,374.512,56.152,897.949
1741692160.915,-449.219,-628.418,-79.102,-467.773
1741692160.918,-1000.000,-1000.000,-158.691,-1000.000
1741692160.922,-455.078,225.586,-45.410,-300.293
1741692160.926,999.512,905.273,18.555,999.512
1741692160.930,614.258,-413.086,-72.754,382.812
1741692160.934,-995.117,-1000.000,-160.645,-1000.000
1741692160.891,999.512,999.512,102.051,999.512
1741692160.895,444.336,-384.766,-3.418,255.371
1741692160.899,-1000.000,-1000.000,-145.996,-1000.000
1741692160.903,-352.539,435.059,-32.227,-236.328
1741692160.907,999.512,964.355,65.430,999.512
1741692160.911,910.156,374.512,56.152,897.949
1741692160.915,-449.219,-628.418,-79.102,-467.773
1741692160.918,-1000.000,-1000.000,-158.691,-1000.000
1741692160.922,-455.078,225.586,-45.410,-300.293
1741692160.926,999.512,905.273,18.555,999.512
1741692160.930,614.258,-413.086,-72.754,382.812
1741692160.934,-995.117,-1000.000,-160.645,-1000.000
1741692160.950,-949.219,-175.293,-65.918,-802.246
1741692160.954,725.098,999.512,106.445,802.246
1741692160.958,967.285,338.867,-0.488,871.094
1741692160.962,-854.980,-1000.000,-214.844,-890.137
1741692160.966,-704.102,-40.039,-85.449,-538.574
1741692160.970,999.512,999.512,154.785,999.512
1741692160.974,401.855,-101.562,56.641,144.043
1741692160.977,-1000.000,-1000.000,-169.922,-1000.000
1741692160.981,276.855,521.973,-22.461,362.793
1741692160.985,999.512,607.910,69.824,999.512
1741692160.989,-657.227,-969.238,-93.262,-657.227
1741692160.993,-1000.000,-612.793,-96.191,-1000.000
1741692160.950,-949.219,-175.293,-65.918,-802.246
1741692160.954,725.098,999.512,106.445,802.246
1741692160.958,967.285,338.867,-0.488,871.094
1741692160.962,-854.980,-1000.000,-214.844,-890.137
1741692160.966,-704.102,-40.039,-85.449,-538.574
1741692160.970,999.512,999.512,154.785,999.512
1741692160.974,401.855,-101.562,56.641,144.043
1741692160.977,-1000.000,-1000.000,-169.922,-1000.000
1741692160.981,276.855,521.973,-22.461,362.793
1741692160.985,999.512,607.910,69.824,999.512
1741692160.989,-657.227,-969.238,-93.262,-657.227
1741692160.993,-1000.000,-612.793,-96.191,-1000.000
1741692160.950,-949.219,-175.293,-65.918,-802.246
1741692160.954,725.098,999.512,106.445,802.246
1741692160.958,967.285,338.867,-0.488,871.094
1741692160.962,-854.980,-1000.000,-214.844,-890.137
1741692160.966,-704.102,-40.039,-85.449,-538.574
1741692160.970,999.512,999.512,154.785,999.512
1741692160.974,401.855,-101.562,56.641,144.043
1741692160.977,-1000.000,-1000.000,-169.922,-1000.000
1741692160.981,276.855,521.973,-22.461,362.793
1741692160.985,999.512,607.910,69.824,999.512
1741692160.989,-657.227,-969.238,-93.262,-657.227
1741692160.993,-1000.000,-612.793,-96.191,-1000.000
1741692160.995,680.176,907.715,71.289,681.152
1741692160.999,999.512,869.629,53.223,999.512
1741692161.003,-678.711,-791.504,-182.617,-656.738
1741692161.007,-1000.000,-720.703,-120.605,-1000.000
1741692161.011,459.473,827.637,115.234,486.328
1741692161.015,999.512,612.305,62.012,999.512
1741692161.019,-488.770,-856.445,-139.160,-506.836
1741692161.022,-1000.000,-947.266,-183.594,-1000.000
1741692161.026,636.719,765.137,65.430,638.184
1741692161.030,937.500,379.883,89.844,829.590
1741692161.034,-898.438,-1000.000,-153.320,-921.875
1741692161.038,45.898,546.387,-34.180,107.910
1741692160.995,680.176,907.715,71.289,681.152
1741692160.999,999.512,869.629,53.223,999.512
1741692161.003,-678.711,-791.504,-182.617,-656.738
1741692161.007,-1000.000,-720.703,-120.605,-1000.000
1741692161.011,459.473,827.637,115.234,486.328
1741692161.015,999.512,612.305,62.012,999.512
1741692161.019,-488.770,-856.445,-139.160,-506.836
1741692161.022,-1000.000,-947.266,-183.594,-1000.000
1741692161.026,636.719,765.137,65.430,638.184
1741692161.030,937.500,379.883,89.844,829.590
1741692161.034,-898.438,-1000.000,-153.320,-921.875
1741692161.038,45.898,546.387,-34.180,107.910
1741692161.041,999.512,692.871,45.898,999.512
1741692161.045,-483.398,-762.207,-109.863,-492.676
1741692161.049,-1000.000,-372.070,-68.359,-1000.000
1741692161.053,-660.156,89.355,-10.254,-444.824
1741692161.057,829.102,703.613,59.570,893.555
1741692161.061,947.754,388.672,39.062,920.898
1741692161.065,-627.441,-862.793,-145.020,-614.746
1741692161.068,-1000.000,-976.074,-160.156,-1000.000
1741692161.072,51.758,386.719,-12.695,85.938
1741692161.076,999.512,459.473,12.695,999.512
1741692161.080,836.914,-20.508,-50.293,763.672
1741692161.084,-583.008,-722.168,-166.016,-664.551
1741692161.041,999.512,692.871,45.898,999.512
1741692161.045,-483.398,-762.207,-109.863,-492.676
1741692161.049,-1000.000,-372.070,-68.359,-1000.000
1741692161.053,-660.156,89.355,-10.254,-444.824
1741692161.057,829.102,703.613,59.570,893.555
1741692161.061,947.754,388.672,39.062,920.898
1741692161.065,-627.441,-862.793,-145.020,-614.746
1741692161.068,-1000.000,-976.074,-160.156,-1000.000
1741692161.072,51.758,386.719,-12.695,85.938
1741692161.076,999.512,459.473,12.695,999.512
1741692161.080,836.914,-20.508,-50.293,763.672
1741692161.084,-583.008,-722.168,-166.016,-664.551
1741692161.085,-1000.000,-656.250,-135.254,-1000.000
1741692161.089,145.508,694.336,-11.719,217.773
1741692161.093,999.512,973.145,13.184,999.512
1741692161.097,19.531,-543.457,-129.883,-80.078
1741692161.101,-1000.000,-1000.000,-214.844,-1000.000
1741692161.105,332.031,685.547,7.324,321.289
1741692161.109,999.512,799.805,50.293,999.512
1741692161.112,-707.031,-901.855,-212.891,-714.844
1741692161.116,-1000.000,-933.105,-234.375,-1000.000
1741692161.120,747.070,797.363,21.484,778.809
1741692161.124,820.312,157.227,4.395,647.461
1741692161.128,-967.285,-1000.000,-228.516,-1000.000
1741692161.085,-1000.000,-656.250,-135.254,-1000.000
1741692161.089,145.508,694.336,-11.719,217.773
1741692161.093,999.512,973.145,13.184,999.512
1741692161.097,19.531,-543.457,-129.883,-80.078
1741692161.101,-1000.000,-1000.000,-214.844,-1000.000
1741692161.105,332.031,685.547,7.324,321.289
1741692161.109,999.512,799.805,50.293,999.512
1741692161.112,-707.031,-901.855,-212.891,-714.844
1741692161.116,-1000.000,-933.105,-234.375,-1000.000
1741692161.120,747.070,797.363,21.484,778.809
1741692161.124,820.312,157.227,4.395,647.461
1741692161.128,-967.285,-1000.000,-228.516,-1000.000
1741692161.131,-229.492,313.477,-143.066,-153.320
1741692161.135,999.512,954.102,4.395,999.512
1741692161.139,862.793,495.117,-39.062,800.781
1741692161.143,-674.805,-770.020,-208.496,-735.352
1741692161.147,-1000.000,-596.191,-201.172,-1000.000
1741692161.151,628.906,900.391,-3.906,628.418
1741692161.155,999.512,965.820,61.523,999.512
1741692161.158,-468.750,-708.984,-163.574,-464.355
1741692161.162,-1000.000,-818.359,-188.477,-1000.000
1741692161.166,654.297,869.141,20.020,604.492
1741692161.170,999.512,458.984,-25.879,999.512
1741692161.174,-747.070,-1000.000,-258.301,-781.250
1741692161.131,-229.492,313.477,-143.066,-153.320
1741692161.135,999.512,954.102,4.395,999.512
1741692161.139,862.793,495.117,-39.062,800.781
1741692161.143,-674.805,-770.020,-208.496,-735.352
1741692161.147,-1000.000,-596.191,-201.172,-1000.000
1741692161.151,628.906,900.391,-3.906,628.418
1741692161.155,999.512,965.820,61.523,999.512
1741692161.158,-468.750,-708.984,-163.574,-464.355
1741692161.162,-1000.000,-818.359,-188.477,-1000.000
1741692161.166,654.297,869.141,20.020,604.492
1741692161.170,999.512,458.984,-25.879,999.512
1741692161.174,-747.070,-1000.000,-258.301,-781.250
1741692161.175,-1000.000,-442.871,-207.031,-915.527
1741692161.179,814.941,909.180,47.852,855.469
1741692161.183,22.949,-453.125,-89.844,-97.168
1741692161.187,-1000.000,-911.133,-213.867,-1000.000
1741692161.191,652.832,852.539,6.836,666.992
1741692161.195,999.512,902.344,38.086,999.512
1741692161.199,-525.879,-698.242,-157.715,-535.156
1741692161.202,-1000.000,-1000.000,-210.449,-1000.000
1741692161.206,-276.367,263.672,-71.777,-168.457
1741692161.210,999.512,791.016,30.273,999.512
1741692161.214,629.395,-444.336,-65.918,424.805
1741692161.218,-946.289,-769.043,-153.809,-982.910
1741692161.175,-1000.000,-442.871,-207.031,-915.527
1741692161.179,814.941,909.180,47.852,855.469
1741692161.183,22.949,-453.125,-89.844,-97.168
1741692161.187,-1000.000,-911.133,-213.867,-1000.000
1741692161.191,652.832,852.539,6.836,666.992
1741692161.195,999.512,902.344,38.086,999.512
1741692161.199,-525.879,-698.242,-157.715,-535.156
1741692161.202,-1000.000,-1000.000,-210.449,-1000.000
1741692161.206,-276.367,263.672,-71.777,-168.457
1741692161.210,999.512,791.016,30.273,999.512
1741692161.214,629.395,-444.336,-65.918,424.805
1741692161.218,-946.289,-769.043,-153.809,-982.910
1741692161.221,-996.582,-277.344,-92.285,-982.422
1741692161.225,658.203,824.707,104.980,637.207
1741692161.229,999.512,547.852,64.941,998.047
1741692161.233,-744.141,-992.188,-207.520,-791.504
1741692161.237,-946.289,-239.746,-130.371,-833.984
1741692161.241,895.508,999.512,167.480,918.945
1741692161.245,684.570,133.301,63.965,454.102
1741692161.248,-1000.000,-1000.000,-240.723,-1000.000
1741692161.252,-395.020,67.383,-127.930,-221.680
1741692161.256,999.512,873.047,79.590,999.512
1741692161.260,-203.125,-728.516,-33.691,-282.227
1741692161.264,-1000.000,-797.852,-120.605,-1000.000
1741692161.221,-996.582,-277.344,-92.285,-982.422
1741692161.225,658.203,824.707,104.980,637.207
1741692161.229,999.512,547.852,64.941,998.047
1741692161.233,-744.141,-992.188,-207.520,-791.504
1741692161.237,-946.289,-239.746,-130.371,-833.984
1741692161.241,895.508,999.512,167.480,918.945
1741692161.245,684.570,133.301,63.965,454.102
1741692161.248,-1000.000,-1000.000,-240.723,-1000.000
1741692161.252,-395.020,67.383,-127.930,-221.680
1741692161.256,999.512,873.047,79.590,999.512
1741692161.260,-203.125,-728.516,-33.691,-282.227
1741692161.264,-1000.000,-797.852,-120.605,-1000.000
1741692161.269,525.391,762.207,48.340,519.043
1741692161.273,999.512,830.566,100.098,999.512
1741692161.277,98.145,-415.039,-52.734,26.367
1741692161.281,-1000.000,-1000.000,-175.781,-1000.000
1741692161.285,-622.559,243.652,-25.879,-456.055
1741692161.289,958.496,999.512,156.738,994.629
1741692161.293,820.312,-15.625,30.273,684.082
1741692161.296,-921.387,-1000.000,-172.852,-936.035
1741692161.300,-861.816,-1.465,-60.547,-689.453
1741692161.304,986.328,999.512,117.676,987.793
1741692161.308,376.465,-420.410,-25.391,245.605
1741692161.312,-1000.000,-973.145,-162.598,-1000.000
1741692161.269,525.391,762.207,48.340,519.043
1741692161.273,999.512,830.566,100.098,999.512
1741692161.277,98.145,-415.039,-52.734,26.367
1741692161.281,-1000.000,-1000.000,-175.781,-1000.000
1741692161.285,-622.559,243.652,-25.879,-456.055
1741692161.289,958.496,999.512,156.738,994.629
1741692161.293,820.312,-15.625,30.273,684.082
1741692161.296,-921.387,-1000.000,-172.852,-936.035
1741692161.300,-861.816,-1.465,-60.547,-689.453
1741692161.304,986.328,999.512,117.676,987.793
1741692161.308,376.465,-420.410,-25.391,245.605
1741692161.312,-1000.000,-973.145,-162.598,-1000.000
1741692161.325,375.977,581.543,17.578,432.617
1741692161.329,999.512,533.203,112.793,999.512
1741692161.333,-521.973,-818.359,-48.828,-585.938
1741692161.337,-1000.000,-849.609,-138.184,-1000.000
1741692161.341,677.246,732.910,75.195,712.891
1741692161.345,999.512,327.637,56.152,923.828
1741692161.349,-696.289,-1000.000,-144.043,-770.996
1741692161.352,-1000.000,-840.332,-110.352,-1000.000
1741692161.356,464.844,620.605,66.895,481.934
1741692161.360,999.512,418.945,75.684,999.512
1741692161.364,-193.848,-930.176,-100.586,-240.723
1741692161.368,-1000.000,-654.785,-122.070,-1000.000
1741692161.325,375.977,581.543,17.578,432.617
1741692161.329,999.512,533.203,112.793,999.512
1741692161.333,-521.973,-818.359,-48.828,-585.938
1741692161.337,-1000.000,-849.609,-138.184,-1000.000
1741692161.341,677.246,732.910,75.195,712.891
1741692161.345,999.512,327.637,56.152,923.828
1741692161.349,-696.289,-1000.000,-144.043,-770.996
1741692161.352,-1000.000,-840.332,-110.352,-1000.000
1741692161.356,464.844,620.605,66.895,481.934
1741692161.360,999.512,418.945,75.684,999.512
1741692161.364,-193.848,-930.176,-100.586,-240.723
1741692161.368,-1000.000,-654.785,-122.070,-1000.000
1741692161.371,472.656,826.172,65.918,485.840
1741692161.375,999.512,46.875,1.465,846.680
1741692161.379,-826.172,-1000.000,-145.508,-899.902
1741692161.383,-50.293,492.676,16.113,42.480
1741692161.387,999.512,994.141,127.930,999.512
1741692161.391,-511.230,-815.918,-30.762,-577.637
1741692161.395,-1000.000,-635.254,-48.828,-1000.000
1741692161.398,782.227,867.188,149.902,800.293
1741692161.402,706.543,-465.820,11.230,574.219
1741692161.406,-1000.000,-1000.000,-175.293,-1000.000
1741692161.410,217.285,737.793,63.477,193.848
1741692161.414,999.512,742.676,128.418,999.512
1741692161.371,472.656,826.172,65.918,485.840
1741692161.375,999.512,46.875,1.465,846.680
1741692161.379,-826.172,-1000.000,-145.508,-899.902
1741692161.383,-50.293,492.676,16.113,42.480
1741692161.387,999.512,994.141,127.930,999.512
1741692161.391,-511.230,-815.918,-30.762,-577.637
1741692161.395,-1000.000,-635.254,-48.828,-1000.000
1741692161.398,782.227,867.188,149.902,800.293
1741692161.402,706.543,-465.820,11.230,574.219
1741692161.406,-1000.000,-1000.000,-175.293,-1000.000
1741692161.410,217.285,737.793,63.477,193.848
1741692161.414,999.512,742.676,128.418,999.512
1741692161.416,-728.516,-998.535,-130.859,-721.191
1741692161.420,-1000.000,-587.402,-105.469,-956.055
1741692161.424,823.730,868.652,109.863,838.867
1741692161.428,36.621,-541.504,-15.625,-53.223
1741692161.432,-1000.000,-1000.000,-116.211,-1000.000
1741692161.436,480.957,746.582,76.660,493.164
1741692161.440,999.512,650.879,80.566,999.512
1741692161.443,-582.031,-917.969,-158.691,-568.359
1741692161.447,-1000.000,-829.102,-141.113,-1000.000
1741692161.451,115.723,612.305,41.504,166.992
1741692161.455,999.512,930.176,95.215,999.512
1741692161.459,482.422,-326.172,-22.949,288.086
1741692161.416,-728.516,-998.535,-130.859,-721.191
1741692161.420,-1000.000,-587.402,-105.469,-956.055
1741692161.424,823.730,868.652,109.863,838.867
1741692161.428,36.621,-541.504,-15.625,-53.223
1741692161.432,-1000.000,-1000.000,-116.211,-1000.000
1741692161.436,480.957,746.582,76.660,493.164
1741692161.440,999.512,650.879,80.566,999.512
1741692161.443,-582.031,-917.969,-158.691,-568.359
1741692161.447,-1000.000,-829.102,-141.113,-1000.000
1741692161.451,115.723,612.305,41.504,166.992
1741692161.455,999.512,930.176,95.215,999.512
1741692161.459,482.422,-326.172,-22.949,288.086
1741692161.461,-1000.000,-1000.000,-169.922,-1000.000
1741692161.465,-456.543,286.133,-38.574,-230.957
1741692161.469,999.512,905.762,120.605,999.512
1741692161.473,-492.676,-755.859,-117.188,-529.785
1741692161.477,-1000.000,-552.734,-169.922,-1000.000
1741692161.481,731.934,999.512,85.449,818.848
1741692161.485,965.332,542.969,77.148,856.934
1741692161.488,-812.012,-968.262,-141.602,-877.441
1741692161.492,-938.477,-348.145,-116.699,-817.871
1741692161.496,813.477,999.512,74.219,877.441
1741692161.500,949.707,264.160,31.250,850.098
1741692161.504,-672.363,-960.449,-111.816,-747.559
1741692161.461,-1000.000,-1000.000,-169.922,-1000.000
1741692161.465,-456.543,286.133,-38.574,-230.957
1741692161.469,999.512,905.762,120.605,999.512
1741692161.473,-492.676,-755.859,-117.188,-529.785
1741692161.477,-1000.000,-552.734,-169.922,-1000.000
1741692161.481,731.934,999.512,85.449,818.848
1741692161.485,965.332,542.969,77.148,856.934
1741692161.488,-812.012,-968.262,-141.602,-877.441
1741692161.492,-938.477,-348.145,-116.699,-817.871
1741692161.496,813.477,999.512,74.219,877.441
1741692161.500,949.707,264.160,31.250,850.098
1741692161.504,-672.363,-960.449,-111.816,-747.559
1741692161.505,-1000.000,-668.457,-98.633,-1000.000
1741692161.509,403.809,716.797,55.664,429.199
1741692161.513,999.512,754.395,92.285,999.512
1741692161.517,-581.543,-886.230,-159.180,-562.988
1741692161.521,-1000.000,-682.617,-162.598,-1000.000
1741692161.525,674.316,895.996,166.016,688.965
1741692161.529,999.512,579.102,116.699,982.422
1741692161.532,-771.484,-992.188,-197.754,-835.449
1741692161.536,-909.668,-353.027,-114.258,-746.582
1741692161.540,949.219,999.512,110.840,972.656
1741692161.544,133.301,-401.855,22.461,-17.090
1741692161.548,-1000.000,-989.746,-152.832,-1000.000
1741692161.505,-1000.000,-668.457,-98.633,-1000.000
1741692161.509,403.809,716.797,55.664,429.199
1741692161.513,999.512,754.395,92.285,999.512
1741692161.517,-581.543,-886.230,-159.180,-562.988
1741692161.521,-1000.000,-682.617,-162.598,-1000.000
1741692161.525,674.316,895.996,166.016,688.965
1741692161.529,999.512,579.102,116.699,982.422
1741692161.532,-771.484,-992.188,-197.754,-835.449
1741692161.536,-909.668,-353.027,-114.258,-746.582
1741692161.540,949.219,999.512,110.840,972.656
1741692161.544,133.301,-401.855,22.461,-17.090
1741692161.548,-1000.000,-989.746,-152.832,-1000.000
1741692161.551,323.242,642.090,-38.574,381.836
1741692161.555,999.512,946.777,86.426,999.512
1741692161.559,639.648,29.297,-7.812,473.633
1741692161.563,-888.184,-936.035,-166.016,-939.453
1741692161.567,-883.789,-15.625,-102.051,-746.094
1741692161.571,831.055,999.512,91.309,878.906
1741692161.575,971.191,278.320,23.438,876.953
1741692161.578,-723.633,-981.934,-218.262,-787.598
1741692161.582,-1000.000,-484.863,-130.371,-1000.000
1741692161.586,674.316,918.945,85.449,700.684
1741692161.590,999.512,415.527,-3.906,999.512
1741692161.594,-750.488,-952.637,-224.121,-777.344
1741692161.595,-932.617,-192.871,-159.180,-819.336
1741692161.599,954.102,999.512,88.379,971.191
1741692161.603,574.219,166.016,8.301,374.512
1741692161.607,-1000.000,-1000.000,-248.047,-1000.000
1741692161.611,192.871,505.371,-60.547,258.301
1741692161.615,999.512,774.414,67.383,999.512
1741692161.619,-271.973,-745.117,-113.770,-381.348
1741692161.622,-1000.000,-1000.000,-190.918,-1000.000
1741692161.626,285.156,612.305,-25.391,293.457
1741692161.630,999.512,851.074,48.828,999.512
1741692161.634,-479.004,-881.348,-141.113,-484.375
1741692161.638,-1000.000,-574.219,-136.719,-1000.000
1741692161.595,-932.617,-192.871,-159.180,-819.336
1741692161.599,954.102,999.512,88.379,971.191
1741692161.603,574.219,166.016,8.301,374.512
1741692161.607,-1000.000,-1000.000,-248.047,-1000.000
1741692161.611,192.871,505.371,-60.547,258.301
1741692161.615,999.512,774.414,67.383,999.512
1741692161.619,-271.973,-745.117,-113.770,-381.348
1741692161.622,-1000.000,-1000.000,-190.918,-1000.000
1741692161.626,285.156,612.305,-25.391,293.457
1741692161.630,999.512,851.074,48.828,999.512
1741692161.634,-479.004,-881.348,-141.113,-484.375
1741692161.638,-1000.000,-574.219,-136.719,-1000.000
1741692161.642,643.555,912.109,90.332,625.488
1741692161.646,999.512,33.203,42.480,882.324
1741692161.650,-846.680,-1000.000,-161.621,-929.199
1741692161.654,-360.840,361.816,-60.059,-238.281
1741692161.658,999.512,999.512,83.496,999.512
1741692161.662,-541.504,-771.973,-87.891,-587.402
1741692161.666,-1000.000,-452.637,-127.930,-1000.000
1741692161.669,745.117,918.457,74.707,774.902
1741692161.673,719.727,-327.148,-43.457,577.637
1741692161.677,-998.535,-1000.000,-195.312,-1000.000
1741692161.681,-984.863,-141.113,-69.336,-900.391
1741692161.685,696.777,967.285,72.754,764.648
1741692161.642,643.555,912.109,90.332,625.488
1741692161.646,999.512,33.203,42.480,882.324
1741692161.650,-846.680,-1000.000,-161.621,-929.199
1741692161.654,-360.840,361.816,-60.059,-238.281
1741692161.658,999.512,999.512,83.496,999.512
1741692161.662,-541.504,-771.973,-87.891,-587.402
1741692161.666,-1000.000,-452.637,-127.930,-1000.000
1741692161.669,745.117,918.457,74.707,774.902
1741692161.673,719.727,-327.148,-43.457,577.637
1741692161.677,-998.535,-1000.000,-195.312,-1000.000
1741692161.681,-984.863,-141.113,-69.336,-900.391
1741692161.685,696.777,967.285,72.754,764.648
1741692161.700,999.512,81.543,-1.953,917.969
1741692161.704,-840.820,-885.254,-157.227,-877.930
1741692161.708,-12.207,689.941,19.531,29.297
1741692161.712,969.238,250.488,66.895,845.215
1741692161.716,-863.281,-1000.000,-160.156,-898.438
1741692161.720,158.691,584.473,12.695,180.664
1741692161.724,999.512,872.559,97.168,999.512
1741692161.727,-680.664,-896.484,-172.852,-671.875
1741692161.731,-1000.000,-764.160,-149.414,-1000.000
1741692161.735,403.320,812.500,34.180,377.441
1741692161.739,999.512,720.215,43.457,999.512
1741692161.743,-457.520,-910.156,-111.328,-479.980
1741692161.700,999.512,81.543,-1.953,917.969
1741692161.704,-840.820,-885.254,-157.227,-877.930
1741692161.708,-12.207,689.941,19.531,29.297
1741692161.712,969.238,250.488,66.895,845.215
1741692161.716,-863.281,-1000.000,-160.156,-898.438
1741692161.720,158.691,584.473,12.695,180.664
1741692161.724,999.512,872.559,97.168,999.512
1741692161.727,-680.664,-896.484,-172.852,-671.875
1741692161.731,-1000.000,-764.160,-149.414,-1000.000
1741692161.735,403.320,812.500,34.180,377.441
1741692161.739,999.512,720.215,43.457,999.512
1741692161.743,-457.520,-910.156,-111.328,-479.980
1741692161.760,-1000.000,-516.113,-112.793,-1000.000
1741692161.764,793.945,927.734,92.285,790.527
1741692161.768,312.500,-328.125,-5.859,161.621
1741692161.772,-1000.000,-1000.000,-155.762,-1000.000
1741692161.776,430.176,666.016,15.137,472.168
1741692161.780,999.512,999.512,92.773,999.512
1741692161.784,-281.250,-482.910,-87.402,-327.148
1741692161.787,-1000.000,-1000.000,-203.125,-1000.000
1741692161.791,-528.809,8.301,-125.488,-344.727
1741692161.795,999.512,863.281,6.836,999.512
1741692161.799,557.129,-592.285,-60.547,337.891
1741692161.803,-1000.000,-847.656,-124.512,-1000.000
1741692161.760,-1000.000,-516.113,-112.793,-1000.000
1741692161.764,793.945,927.734,92.285,790.527
1741692161.768,312.500,-328.125,-5.859,161.621
1741692161.772,-1000.000,-1000.000,-155.762,-1000.000
1741692161.776,430.176,666.016,15.137,472.168
1741692161.780,999.512,999.512,92.773,999.512
1741692161.784,-281.250,-482.910,-87.402,-327.148
1741692161.787,-1000.000,-1000.000,-203.125,-1000.000
1741692161.791,-528.809,8.301,-125.488,-344.727
1741692161.795,999.512,863.281,6.836,999.512
1741692161.799,557.129,-592.285,-60.547,337.891
1741692161.803,-1000.000,-847.656,-124.512,-1000.000
1741692161.791,-67.383,627.930,11.230,-69.336
1741692161.795,999.512,584.473,52.246,999.512
1741692161.799,859.863,306.152,4.883,844.238
1741692161.803,-645.996,-721.191,-193.359,-706.055
1741692161.807,-1000.000,-515.625,-145.020,-983.398
1741692161.811,688.477,999.512,96.191,775.879
1741692161.815,992.676,547.852,1.465,915.039
1741692161.818,-868.164,-1000.000,-222.168,-901.367
1741692161.822,-799.316,-254.883,-109.375,-608.887
1741692161.826,976.074,985.352,78.613,989.258
1741692161.830,-246.582,-584.961,-71.289,-321.777
1741692161.834,-1000.000,-975.098,-150.391,-1000.000
1741692161.791,-67.383,627.930,11.230,-69.336
1741692161.795,999.512,584.473,52.246,999.512
1741692161.799,859.863,306.152,4.883,844.238
1741692161.803,-645.996,-721.191,-193.359,-706.055
1741692161.807,-1000.000,-515.625,-145.020,-983.398
1741692161.811,688.477,999.512,96.191,775.879
1741692161.815,992.676,547.852,1.465,915.039
1741692161.818,-868.164,-1000.000,-222.168,-901.367
1741692161.822,-799.316,-254.883,-109.375,-608.887
1741692161.826,976.074,985.352,78.613,989.258
1741692161.830,-246.582,-584.961,-71.289,-321.777
1741692161.834,-1000.000,-975.098,-150.391,-1000.000
1741692161.791,-67.383,627.930,11.230,-69.336
1741692161.795,999.512,584.473,52.246,999.512
1741692161.799,859.863,306.152,4.883,844.238
1741692161.803,-645.996,-721.191,-193.359,-706.055
1741692161.807,-1000.000,-515.625,-145.020,-983.398
1741692161.811,688.477,999.512,96.191,775.879
1741692161.815,992.676,547.852,1.465,915.039
1741692161.818,-868.164,-1000.000,-222.168,-901.367
1741692161.822,-799.316,-254.883,-109.375,-608.887
1741692161.826,976.074,985.352,78.613,989.258
1741692161.830,-246.582,-584.961,-71.289,-321.777
1741692161.834,-1000.000,-975.098,-150.391,-1000.000
1741692161.851,691.406,796.387,59.082,669.922
1741692161.855,992.676,566.895,39.062,984.863
1741692161.859,-643.555,-936.523,-155.762,-659.180
1741692161.863,-1000.000,-912.598,-163.086,-1000.000
1741692161.867,67.383,508.301,-37.598,71.777
1741692161.871,999.512,857.910,60.547,999.512
1741692161.875,749.023,-82.520,-7.812,593.750
1741692161.878,-752.930,-929.199,-169.922,-820.801
1741692161.882,-1000.000,-482.422,-116.699,-1000.000
1741692161.886,451.172,803.223,41.504,450.684
1741692161.890,999.512,750.488,38.086,999.512
1741692161.894,-197.266,-703.613,-102.539,-266.602
1741692161.851,691.406,796.387,59.082,669.922
1741692161.855,992.676,566.895,39.062,984.863
1741692161.859,-643.555,-936.523,-155.762,-659.180
1741692161.863,-1000.000,-912.598,-163.086,-1000.000
1741692161.867,67.383,508.301,-37.598,71.777
1741692161.871,999.512,857.910,60.547,999.512
1741692161.875,749.023,-82.520,-7.812,593.750
1741692161.878,-752.930,-929.199,-169.922,-820.801
1741692161.882,-1000.000,-482.422,-116.699,-1000.000
1741692161.886,451.172,803.223,41.504,450.684
1741692161.890,999.512,750.488,38.086,999.512
1741692161.894,-197.266,-703.613,-102.539,-266.602
1741692161.881,-1000.000,-958.008,-201.660,-1000.000
1741692161.885,406.250,756.836,39.062,420.410
1741692161.889,999.512,646.973,68.359,979.004
1741692161.893,-826.660,-999.512,-242.188,-874.512
1741692161.897,-457.520,139.160,-105.469,-366.699
1741692161.901,999.512,999.512,102.539,999.512
1741692161.905,-194.336,-517.578,-80.566,-251.465
1741692161.908,-1000.000,-1000.000,-223.145,-1000.000
1741692161.912,-265.137,192.383,-86.914,-122.559
1741692161.916,999.512,889.648,23.438,999.512
1741692161.920,300.293,-494.141,-100.586,162.109
1741692161.924,-1000.000,-1000.000,-204.590,-1000.000
1741692161.881,-1000.000,-958.008,-201.660,-1000.000
1741692161.885,406.250,756.836,39.062,420.410
1741692161.889,999.512,646.973,68.359,979.004
1741692161.893,-826.660,-999.512,-242.188,-874.512
1741692161.897,-457.520,139.160,-105.469,-366.699
1741692161.901,999.512,999.512,102.539,999.512
1741692161.905,-194.336,-517.578,-80.566,-251.465
1741692161.908,-1000.000,-1000.000,-223.145,-1000.000
1741692161.912,-265.137,192.383,-86.914,-122.559
1741692161.916,999.512,889.648,23.438,999.512
1741692161.920,300.293,-494.141,-100.586,162.109
1741692161.924,-1000.000,-1000.000,-204.590,-1000.000
1741692161.925,-882.324,-20.508,-116.211,-761.719
1741692161.929,704.590,979.492,18.555,780.762
1741692161.933,999.512,288.574,-33.203,922.363
1741692161.937,-712.891,-974.609,-238.281,-792.969
1741692161.941,-1000.000,-256.836,-174.316,-920.898
1741692161.945,731.445,999.512,86.914,806.152
1741692161.949,917.969,292.480,-5.859,783.203
1741692161.952,-885.742,-1000.000,-264.160,-948.242
1741692161.956,-969.238,-570.801,-187.500,-818.359
1741692161.960,825.684,816.406,38.574,851.562
1741692161.964,-90.332,-525.879,-115.234,-198.242
1741692161.968,-1000.000,-844.238,-214.355,-1000.000
1741692161.925,-882.324,-20.508,-116.211,-761.719
1741692161.929,704.590,979.492,18.555,780.762
1741692161.933,999.512,288.574,-33.203,922.363
1741692161.937,-712.891,-974.609,-238.281,-792.969
1741692161.941,-1000.000,-256.836,-174.316,-920.898
1741692161.945,731.445,999.512,86.914,806.152
1741692161.949,917.969,292.480,-5.859,783.203
1741692161.952,-885.742,-1000.000,-264.160,-948.242
1741692161.956,-969.238,-570.801,-187.500,-818.359
1741692161.960,825.684,816.406,38.574,851.562
1741692161.964,-90.332,-525.879,-115.234,-198.242
1741692161.968,-1000.000,-844.238,-214.355,-1000.000
1741692161.971,634.766,745.117,6.348,654.785
1741692161.975,999.512,325.684,3.906,981.445
1741692161.979,-382.324,-766.113,-165.039,-563.477
1741692161.983,-1000.000,-930.176,-207.031,-1000.000
1741692161.987,-90.332,396.973,-84.473,-37.109
1741692161.991,999.512,999.512,41.992,999.512
1741692161.995,714.355,113.770,-28.809,615.723
1741692161.998,-849.121,-1000.000,-228.516,-890.137
1741692162.002,-1000.000,-446.289,-178.711,-979.980
1741692162.006,666.504,944.824,40.527,710.938
1741692162.010,999.512,465.332,-15.137,978.516
1741692162.014,-796.387,-1000.000,-218.262,-846.680
1741692161.971,634.766,745.117,6.348,654.785
1741692161.975,999.512,325.684,3.906,981.445
1741692161.979,-382.324,-766.113,-165.039,-563.477
1741692161.983,-1000.000,-930.176,-207.031,-1000.000
1741692161.987,-90.332,396.973,-84.473,-37.109
1741692161.991,999.512,999.512,41.992,999.512
1741692161.995,714.355,113.770,-28.809,615.723
1741692161.998,-849.121,-1000.000,-228.516,-890.137
1741692162.002,-1000.000,-446.289,-178.711,-979.980
1741692162.006,666.504,944.824,40.527,710.938
1741692162.010,999.512,465.332,-15.137,978.516
1741692162.014,-796.387,-1000.000,-218.262,-846.680
1741692162.016,-842.285,-61.035,-109.863,-699.219
1741692162.020,983.398,999.512,91.309,972.168
1741692162.024,-132.812,-525.391,-68.359,-234.375
1741692162.028,-1000.000,-892.578,-198.730,-1000.000
1741692162.032,657.227,791.504,1.953,659.668
1741692162.036,999.512,769.043,60.059,999.512
1741692162.040,-562.012,-788.574,-123.535,-589.844
1741692162.043,-1000.000,-999.512,-214.355,-1000.000
1741692162.047,390.625,606.934,-41.504,434.570
1741692162.051,999.512,375.000,20.508,999.512
1741692162.055,-517.578,-1000.000,-164.551,-535.156
1741692162.059,-1000.000,-471.680,-134.766,-1000.000
1741692162.016,-842.285,-61.035,-109.863,-699.219
1741692162.020,983.398,999.512,91.309,972.168
1741692162.024,-132.812,-525.391,-68.359,-234.375
1741692162.028,-1000.000,-892.578,-198.730,-1000.000
1741692162.032,657.227,791.504,1.953,659.668
1741692162.036,999.512,769.043,60.059,999.512
1741692162.040,-562.012,-788.574,-123.535,-589.844
1741692162.043,-1000.000,-999.512,-214.355,-1000.000
1741692162.047,390.625,606.934,-41.504,434.570
1741692162.051,999.512,375.000,20.508,999.512
1741692162.055,-517.578,-1000.000,-164.551,-535.156
1741692162.059,-1000.000,-471.680,-134.766,-1000.000
1741692162.016,-842.285,-61.035,-109.863,-699.219
1741692162.020,983.398,999.512,91.309,972.168
1741692162.024,-132.812,-525.391,-68.359,-234.375
1741692162.028,-1000.000,-892.578,-198.730,-1000.000
1741692162.032,657.227,791.504,1.953,659.668
1741692162.036,999.512,769.043,60.059,999.512
1741692162.040,-562.012,-788.574,-123.535,-589.844
1741692162.043,-1000.000,-999.512,-214.355,-1000.000
1741692162.047,390.625,606.934,-41.504,434.570
1741692162.051,999.512,375.000,20.508,999.512
1741692162.055,-517.578,-1000.000,-164.551,-535.156
1741692162.059,-1000.000,-471.680,-134.766,-1000.000
1741692162.061,380.859,701.172,52.246,370.605
1741692162.065,999.512,440.918,14.648,999.512
1741692162.069,709.961,9.277,-78.613,617.676
1741692162.073,-798.340,-888.184,-241.211,-851.074
1741692162.077,-1000.000,-288.086,-137.695,-853.027
1741692162.081,790.527,997.559,123.535,854.492
1741692162.085,719.238,-48.340,-31.738,516.602
1741692162.088,-1000.000,-1000.000,-251.465,-1000.000
1741692162.092,-495.117,18.066,-125.488,-297.852
1741692162.096,999.512,928.223,39.551,999.512
1741692162.100,-426.270,-733.398,-123.047,-517.090
1741692162.104,-1000.000,-504.883,-156.738,-1000.000
1741692162.061,380.859,701.172,52.246,370.605
1741692162.065,999.512,440.918,14.648,999.512
1741692162.069,709.961,9.277,-78.613,617.676
1741692162.073,-798.340,-888.184,-241.211,-851.074
1741692162.077,-1000.000,-288.086,-137.695,-853.027
1741692162.081,790.527,997.559,123.535,854.492
1741692162.085,719.238,-48.340,-31.738,516.602
1741692162.088,-1000.000,-1000.000,-251.465,-1000.000
1741692162.092,-495.117,18.066,-125.488,-297.852
1741692162.096,999.512,928.223,39.551,999.512
1741692162.100,-426.270,-733.398,-123.047,-517.090
1741692162.104,-1000.000,-504.883,-156.738,-1000.000
1741692162.121,749.023,983.398,63.965,805.664
1741692162.125,785.156,-273.926,-25.391,617.676
1741692162.129,-955.566,-731.445,-153.809,-984.863
1741692162.133,-999.512,261.719,-77.148,-785.645
1741692162.137,663.086,850.098,34.180,750.977
1741692162.141,999.512,358.398,8.301,931.152
1741692162.145,-712.402,-1000.000,-168.457,-756.836
1741692162.148,-1000.000,-734.863,-179.199,-1000.000
1741692162.152,806.152,805.176,71.777,770.996
1741692162.156,617.188,-224.609,-10.742,432.617
1741692162.160,-968.750,-1000.000,-162.109,-1000.000
1741692162.164,488.770,802.246,41.504,520.508
1741692162.121,749.023,983.398,63.965,805.664
1741692162.125,785.156,-273.926,-25.391,617.676
1741692162.129,-955.566,-731.445,-153.809,-984.863
1741692162.133,-999.512,261.719,-77.148,-785.645
1741692162.137,663.086,850.098,34.180,750.977
1741692162.141,999.512,358.398,8.301,931.152
1741692162.145,-712.402,-1000.000,-168.457,-756.836
1741692162.148,-1000.000,-734.863,-179.199,-1000.000
1741692162.152,806.152,805.176,71.777,770.996
1741692162.156,617.188,-224.609,-10.742,432.617
1741692162.160,-968.750,-1000.000,-162.109,-1000.000
1741692162.164,488.770,802.246,41.504,520.508
1741692162.165,999.512,588.379,26.367,999.512
1741692162.169,-727.539,-801.270,-99.121,-776.367
1741692162.173,-1000.000,42.480,-65.430,-962.891
1741692162.177,656.738,999.512,30.273,716.309
1741692162.181,999.512,316.406,15.625,999.512
1741692162.185,-626.953,-893.555,-152.344,-664.551
1741692162.189,-1000.000,223.633,-77.148,-1000.000
1741692162.192,807.129,999.512,66.895,833.008
1741692162.196,431.641,-706.055,-104.980,326.172
1741692162.200,-1000.000,-1000.000,-233.887,-1000.000
1741692162.204,539.551,755.859,9.766,552.734
1741692162.208,989.258,347.168,46.387,868.652
1741692162.165,999.512,588.379,26.367,999.512
1741692162.169,-727.539,-801.270,-99.121,-776.367
1741692162.173,-1000.000,42.480,-65.430,-962.891
1741692162.177,656.738,999.512,30.273,716.309
1741692162.181,999.512,316.406,15.625,999.512
1741692162.185,-626.953,-893.555,-152.344,-664.551
1741692162.189,-1000.000,223.633,-77.148,-1000.000
1741692162.192,807.129,999.512,66.895,833.008
1741692162.196,431.641,-706.055,-104.980,326.172
1741692162.200,-1000.000,-1000.000,-233.887,-1000.000
1741692162.204,539.551,755.859,9.766,552.734
1741692162.208,989.258,347.168,46.387,868.652
1741692162.210,-901.367,-1000.000,-208.008,-964.355
1741692162.214,-839.844,-222.168,-187.500,-699.707
1741692162.218,952.637,999.512,40.039,985.840
1741692162.222,817.383,-68.848,8.301,652.832
1741692162.226,-948.730,-988.770,-145.508,-984.375
1741692162.230,-293.457,591.309,34.180,-254.883
1741692162.234,999.512,999.512,106.445,999.512
1741692162.237,148.438,-494.141,-105.957,61.035
1741692162.241,-1000.000,-1000.000,-201.172,-1000.000
1741692162.245,-227.051,281.250,-47.363,-129.395
1741692162.249,999.512,915.527,83.984,999.512
1741692162.253,-459.473,-756.836,-104.980,-511.230
1741692162.210,-901.367,-1000.000,-208.008,-964.355
1741692162.214,-839.844,-222.168,-187.500,-699.707
1741692162.218,952.637,999.512,40.039,985.840
1741692162.222,817.383,-68.848,8.301,652.832
1741692162.226,-948.730,-988.770,-145.508,-984.375
1741692162.230,-293.457,591.309,34.180,-254.883
1741692162.234,999.512,999.512,106.445,999.512
1741692162.237,148.438,-494.141,-105.957,61.035
1741692162.241,-1000.000,-1000.000,-201.172,-1000.000
1741692162.245,-227.051,281.250,-47.363,-129.395
1741692162.249,999.512,915.527,83.984,999.512
1741692162.253,-459.473,-756.836,-104.980,-511.230
1741692162.255,-1000.000,-606.445,-146.973,-1000.000
1741692162.259,720.215,999.512,95.215,801.270
1741692162.263,931.152,450.684,63.965,836.426
1741692162.267,-887.207,-1000.000,-182.129,-926.758
1741692162.271,-827.148,-178.223,-106.934,-683.105
1741692162.275,936.035,999.512,133.301,976.562
1741692162.279,832.031,136.719,30.273,694.824
1741692162.282,-827.148,-1000.000,-189.453,-865.234
1741692162.286,-1000.000,-648.438,-143.066,-1000.000
1741692162.290,557.129,811.523,71.289,538.574
1741692162.294,999.512,541.016,70.312,999.512
1741692162.298,-698.730,-1000.000,-162.109,-708.984
1741692162.255,-1000.000,-606.445,-146.973,-1000.000
1741692162.259,720.215,999.512,95.215,801.270
1741692162.263,931.152,450.684,63.965,836.426
1741692162.267,-887.207,-1000.000,-182.129,-926.758
1741692162.271,-827.148,-178.223,-106.934,-683.105
1741692162.275,936.035,999.512,133.301,976.562
1741692162.279,832.031,136.719,30.273,694.824
1741692162.282,-827.148,-1000.000,-189.453,-865.234
1741692162.286,-1000.000,-648.438,-143.066,-1000.000
1741692162.290,557.129,811.523,71.289,538.574
1741692162.294,999.512,541.016,70.312,999.512
1741692162.298,-698.730,-1000.000,-162.109,-708.984
1741692162.766,-311.523,505.371,-20.020,-208.984
1741692162.770,999.512,999.512,68.848,999.512
1741692162.774,226.074,-540.039,-63.477,144.531
1741692162.778,-1000.000,-981.445,-151.367,-1000.000
1741692162.782,-358.887,426.758,-5.371,-258.301
1741692162.786,999.512,999.512,134.277,999.512
1741692162.790,741.211,108.887,-14.160,647.949
1741692162.793,-951.172,-933.105,-195.801,-937.012
1741692162.797,92.773,563.965,-26.367,163.086
1741692162.801,999.512,322.754,38.574,943.359
1741692162.805,-843.750,-1000.000,-143.066,-892.578
1741692162.809,-256.348,399.414,-39.551,-139.648
1741692162.300,-1000.000,-643.066,-128.418,-1000.000
1741692162.304,752.441,921.875,113.281,797.363
1741692162.308,850.098,229.980,31.738,658.203
1741692162.312,-931.641,-1000.000,-170.410,-977.539
1741692162.316,46.387,437.988,-20.020,126.953
1741692162.320,999.512,999.512,119.629,999.512
1741692162.324,-249.023,-457.031,-54.688,-329.102
1741692162.327,-1000.000,-1000.000,-208.496,-1000.000
1741692162.331,125.488,411.133,-41.016,212.891
1741692162.335,999.512,759.766,81.055,999.512
1741692162.339,348.633,-495.117,-50.293,156.250
1741692162.343,-1000.000,-875.000,-154.297,-1000.000
1741692162.300,-1000.000,-643.066,-128.418,-1000.000
1741692162.304,752.441,921.875,113.281,797.363
1741692162.308,850.098,229.980,31.738,658.203
1741692162.312,-931.641,-1000.000,-170.410,-977.539
1741692162.316,46.387,437.988,-20.020,126.953
1741692162.320,999.512,999.512,119.629,999.512
1741692162.324,-249.023,-457.031,-54.688,-329.102
1741692162.327,-1000.000,-1000.000,-208.496,-1000.000
1741692162.331,125.488,411.133,-41.016,212.891
1741692162.335,999.512,759.766,81.055,999.512
1741692162.339,348.633,-495.117,-50.293,156.250
1741692162.343,-1000.000,-875.000,-154.297,-1000.000
1741692162.347,-89.355,493.164,-2.441,-74.707
1741692162.351,999.512,647.461,65.430,999.512
1741692162.355,770.020,-20.996,-38.086,708.008
1741692162.359,-767.090,-843.750,-198.242,-814.941
1741692162.363,-1000.000,-265.137,-98.145,-923.828
1741692162.367,702.637,999.512,140.137,790.039
1741692162.371,966.797,401.855,11.230,896.484
1741692162.374,-886.719,-1000.000,-208.008,-907.227
1741692162.378,-819.824,-141.113,-110.840,-648.438
1741692162.382,964.355,970.215,58.594,966.309
1741692162.386,-211.426,-609.863,-67.871,-309.082
1741692162.390,-1000.000,-866.699,-172.852,-1000.000
1741692162.347,-89.355,493.164,-2.441,-74.707
1741692162.351,999.512,647.461,65.430,999.512
1741692162.355,770.020,-20.996,-38.086,708.008
1741692162.359,-767.090,-843.750,-198.242,-814.941
1741692162.363,-1000.000,-265.137,-98.145,-923.828
1741692162.367,702.637,999.512,140.137,790.039
1741692162.371,966.797,401.855,11.230,896.484
1741692162.374,-886.719,-1000.000,-208.008,-907.227
1741692162.378,-819.824,-141.113,-110.840,-648.438
1741692162.382,964.355,970.215,58.594,966.309
1741692162.386,-211.426,-609.863,-67.871,-309.082
1741692162.390,-1000.000,-866.699,-172.852,-1000.000
1741692162.392,684.082,881.348,28.809,709.473
1741692162.396,999.512,128.418,-4.883,900.879
1741692162.400,-761.719,-917.969,-152.832,-846.191
1741692162.404,-926.758,505.859,-32.227,-717.285
1741692162.408,775.391,990.234,57.617,843.262
1741692162.412,999.512,417.969,13.672,989.258
1741692162.416,-387.695,-576.172,-136.719,-426.758
1741692162.419,-1000.000,-1000.000,-192.871,-1000.000
1741692162.423,-485.840,240.234,-17.090,-331.543
1741692162.427,999.512,979.004,47.363,999.512
1741692162.431,551.270,-380.859,-85.449,364.746
1741692162.435,-1000.000,-925.781,-179.199,-1000.000
1741692162.392,684.082,881.348,28.809,709.473
1741692162.396,999.512,128.418,-4.883,900.879
1741692162.400,-761.719,-917.969,-152.832,-846.191
1741692162.404,-926.758,505.859,-32.227,-717.285
1741692162.408,775.391,990.234,57.617,843.262
1741692162.412,999.512,417.969,13.672,989.258
1741692162.416,-387.695,-576.172,-136.719,-426.758
1741692162.419,-1000.000,-1000.000,-192.871,-1000.000
1741692162.423,-485.840,240.234,-17.090,-331.543
1741692162.427,999.512,979.004,47.363,999.512
1741692162.431,551.270,-380.859,-85.449,364.746
1741692162.435,-1000.000,-925.781,-179.199,-1000.000
1741692162.450,357.422,708.008,12.695,395.020
1741692162.454,999.512,999.512,113.281,999.512
1741692162.458,-704.102,-738.281,-118.652,-710.938
1741692162.462,-1000.000,-774.902,-143.066,-988.770
1741692162.466,684.570,887.695,77.148,756.348
1741692162.470,999.512,881.348,71.777,983.887
1741692162.474,-665.527,-760.254,-95.215,-677.246
1741692162.477,-1000.000,-945.312,-119.629,-1000.000
1741692162.481,440.918,635.254,9.766,495.605
1741692162.485,999.512,356.445,-7.324,999.512
1741692162.489,-650.391,-1000.000,-161.621,-642.090
1741692162.493,-1000.000,-500.488,-81.055,-1000.000
1741692162.450,357.422,708.008,12.695,395.020
1741692162.454,999.512,999.512,113.281,999.512
1741692162.458,-704.102,-738.281,-118.652,-710.938
1741692162.462,-1000.000,-774.902,-143.066,-988.770
1741692162.466,684.570,887.695,77.148,756.348
1741692162.470,999.512,881.348,71.777,983.887
1741692162.474,-665.527,-760.254,-95.215,-677.246
1741692162.477,-1000.000,-945.312,-119.629,-1000.000
1741692162.481,440.918,635.254,9.766,495.605
1741692162.485,999.512,356.445,-7.324,999.512
1741692162.489,-650.391,-1000.000,-161.621,-642.090
1741692162.493,-1000.000,-500.488,-81.055,-1000.000
1741692162.495,527.344,811.035,81.543,514.160
1741692162.499,999.512,251.465,41.504,999.512
1741692162.503,-479.980,-986.816,-128.906,-533.691
1741692162.507,-1000.000,-509.277,-142.090,-1000.000
1741692162.511,746.094,951.172,79.102,782.227
1741692162.515,823.730,181.152,32.715,627.930
1741692162.519,-1000.000,-909.180,-172.363,-1000.000
1741692162.522,-121.094,456.055,-52.246,84.961
1741692162.526,999.512,573.730,20.508,999.512
1741692162.530,-677.246,-987.793,-169.922,-699.707
1741692162.534,-1000.000,-519.531,-122.070,-1000.000
1741692162.538,687.012,962.402,42.969,724.121
1741692162.495,527.344,811.035,81.543,514.160
1741692162.499,999.512,251.465,41.504,999.512
1741692162.503,-479.980,-986.816,-128.906,-533.691
1741692162.507,-1000.000,-509.277,-142.090,-1000.000
1741692162.511,746.094,951.172,79.102,782.227
1741692162.515,823.730,181.152,32.715,627.930
1741692162.519,-1000.000,-909.180,-172.363,-1000.000
1741692162.522,-121.094,456.055,-52.246,84.961
1741692162.526,999.512,573.730,20.508,999.512
1741692162.530,-677.246,-987.793,-169.922,-699.707
1741692162.534,-1000.000,-519.531,-122.070,-1000.000
1741692162.538,687.012,962.402,42.969,724.121
1741692162.541,999.512,196.289,-35.156,982.910
1741692162.545,-851.562,-897.461,-190.430,-865.234
1741692162.549,-528.809,669.922,-55.176,-386.719
1741692162.553,935.547,660.645,42.969,915.527
1741692162.557,-743.164,-950.195,-181.641,-739.746
1741692162.561,-346.680,366.211,-74.707,-258.789
1741692162.565,999.512,964.844,92.285,999.512
1741692162.568,-521.484,-811.035,-136.230,-524.902
1741692162.572,-1000.000,-999.512,-174.316,-1000.000
1741692162.576,351.562,648.926,13.672,373.047
1741692162.580,999.512,982.910,60.059,999.512
1741692162.584,-289.062,-604.980,-132.812,-302.734
1741692162.541,999.512,196.289,-35.156,982.910
1741692162.545,-851.562,-897.461,-190.430,-865.234
1741692162.549,-528.809,669.922,-55.176,-386.719
1741692162.553,935.547,660.645,42.969,915.527
1741692162.557,-743.164,-950.195,-181.641,-739.746
1741692162.561,-346.680,366.211,-74.707,-258.789
1741692162.565,999.512,964.844,92.285,999.512
1741692162.568,-521.484,-811.035,-136.230,-524.902
1741692162.572,-1000.000,-999.512,-174.316,-1000.000
1741692162.576,351.562,648.926,13.672,373.047
1741692162.580,999.512,982.910,60.059,999.512
1741692162.584,-289.062,-604.980,-132.812,-302.734
1741692162.586,-1000.000,-1000.000,-224.609,-1000.000
1741692162.590,-775.879,-119.629,-62.500,-689.453
1741692162.594,775.391,940.918,85.449,818.359
1741692162.598,965.332,49.316,-3.906,824.219
1741692162.602,-863.281,-1000.000,-168.945,-928.223
1741692162.606,-42.480,552.734,1.953,-31.250
1741692162.610,999.512,845.215,103.516,999.512
1741692162.613,-712.891,-908.203,-177.734,-758.301
1741692162.617,-1000.000,-466.797,-175.293,-901.367
1741692162.621,830.078,999.512,42.969,891.602
1741692162.625,835.938,87.891,-30.762,666.504
1741692162.629,-961.426,-985.840,-176.758,-997.559
1741692162.586,-1000.000,-1000.000,-224.609,-1000.000
1741692162.590,-775.879,-119.629,-62.500,-689.453
1741692162.594,775.391,940.918,85.449,818.359
1741692162.598,965.332,49.316,-3.906,824.219
1741692162.602,-863.281,-1000.000,-168.945,-928.223
1741692162.606,-42.480,552.734,1.953,-31.250
1741692162.610,999.512,845.215,103.516,999.512
1741692162.613,-712.891,-908.203,-177.734,-758.301
1741692162.617,-1000.000,-466.797,-175.293,-901.367
1741692162.621,830.078,999.512,42.969,891.602
1741692162.625,835.938,87.891,-30.762,666.504
1741692162.629,-961.426,-985.840,-176.758,-997.559
1741692162.631,-448.242,349.121,-36.133,-405.273
1741692162.635,999.512,879.395,91.309,999.512
1741692162.639,806.641,64.941,-18.555,745.117
1741692162.643,-779.297,-875.000,-175.293,-803.223
1741692162.647,-1000.000,-326.172,-91.797,-1000.000
1741692162.651,609.375,916.992,59.570,582.520
1741692162.655,999.512,895.996,33.691,999.512
1741692162.658,-532.715,-673.828,-196.777,-527.832
1741692162.662,-1000.000,-1000.000,-246.094,-1000.000
1741692162.666,362.793,632.812,-1.465,393.555
1741692162.670,999.512,779.785,83.008,999.512
1741692162.674,-700.684,-903.320,-149.414,-711.914
1741692162.676,-1000.000,-457.031,-139.648,-912.109
1741692162.680,815.918,985.352,42.480,872.070
1741692162.684,729.980,20.508,9.766,516.602
1741692162.688,-1000.000,-993.164,-103.516,-1000.000
1741692162.692,-789.062,-155.762,-106.934,-587.402
1741692162.696,882.812,987.793,49.805,932.617
1741692162.700,951.660,870.117,81.543,937.988
1741692162.703,-659.668,-718.262,-137.207,-648.926
1741692162.707,-1000.000,-882.324,-166.504,-1000.000
1741692162.711,338.379,710.938,27.344,420.898
1741692162.715,999.512,817.383,61.035,999.512
1741692162.719,-49.316,-604.980,-87.402,-119.141
1741692162.676,-1000.000,-457.031,-139.648,-912.109
1741692162.680,815.918,985.352,42.480,872.070
1741692162.684,729.980,20.508,9.766,516.602
1741692162.688,-1000.000,-993.164,-103.516,-1000.000
1741692162.692,-789.062,-155.762,-106.934,-587.402
1741692162.696,882.812,987.793,49.805,932.617
1741692162.700,951.660,870.117,81.543,937.988
1741692162.703,-659.668,-718.262,-137.207,-648.926
1741692162.707,-1000.000,-882.324,-166.504,-1000.000
1741692162.711,338.379,710.938,27.344,420.898
1741692162.715,999.512,817.383,61.035,999.512
1741692162.719,-49.316,-604.980,-87.402,-119.141
1741692162.721,-1000.000,-1000.000,-156.738,-1000.000
1741692162.725,-742.676,85.938,-32.715,-614.746
1741692162.729,905.762,894.531,97.656,909.668
1741692162.733,73.730,-627.441,-96.191,38.574
1741692162.737,-1000.000,-923.340,-177.734,-1000.000
1741692162.741,655.762,814.453,98.633,643.066
1741692162.745,999.512,729.980,129.883,967.285
1741692162.748,-719.727,-932.617,-125.977,-820.801
1741692162.752,-1000.000,-617.188,-107.422,-882.812
1741692162.756,811.035,953.125,76.172,885.254
1741692162.760,777.344,20.508,-11.230,573.730
1741692162.764,-1000.000,-1000.000,-147.949,-1000.000
1741692162.721,-1000.000,-1000.000,-156.738,-1000.000
1741692162.725,-742.676,85.938,-32.715,-614.746
1741692162.729,905.762,894.531,97.656,909.668
1741692162.733,73.730,-627.441,-96.191,38.574
1741692162.737,-1000.000,-923.340,-177.734,-1000.000
1741692162.741,655.762,814.453,98.633,643.066
1741692162.745,999.512,729.980,129.883,967.285
1741692162.748,-719.727,-932.617,-125.977,-820.801
1741692162.752,-1000.000,-617.188,-107.422,-882.812
1741692162.756,811.035,953.125,76.172,885.254
1741692162.760,777.344,20.508,-11.230,573.730
1741692162.764,-1000.000,-1000.000,-147.949,-1000.000
1741692162.825,999.512,969.727,82.031,999.512
1741692162.829,-295.410,-651.855,-75.684,-297.852
1741692162.833,-1000.000,-825.195,-132.324,-1000.000
1741692162.837,-637.695,148.926,-22.461,-515.625
1741692162.841,824.707,823.730,58.105,864.746
1741692162.845,986.328,375.977,12.207,944.824
1741692162.849,-469.238,-728.516,-129.883,-503.906
1741692162.852,-1000.000,-1000.000,-167.969,-1000.000
1741692162.856,-488.770,189.941,-28.809,-364.746
1741692162.860,931.641,965.820,59.082,947.754
1741692162.864,894.531,225.098,3.418,850.098
1741692162.868,-554.688,-759.277,-148.438,-577.637
1741692162.825,999.512,969.727,82.031,999.512
1741692162.829,-295.410,-651.855,-75.684,-297.852
1741692162.833,-1000.000,-825.195,-132.324,-1000.000
1741692162.837,-637.695,148.926,-22.461,-515.625
1741692162.841,824.707,823.730,58.105,864.746
1741692162.845,986.328,375.977,12.207,944.824
1741692162.849,-469.238,-728.516,-129.883,-503.906
1741692162.852,-1000.000,-1000.000,-167.969,-1000.000
1741692162.856,-488.770,189.941,-28.809,-364.746
1741692162.860,931.641,965.820,59.082,947.754
1741692162.864,894.531,225.098,3.418,850.098
1741692162.868,-554.688,-759.277,-148.438,-577.637
1741692162.870,-1000.000,-830.078,-185.547,-1000.000
1741692162.874,-764.648,-46.875,-73.730,-574.707
1741692162.878,807.129,897.949,66.406,867.188
1741692162.882,859.375,-114.746,-37.598,690.430
1741692162.886,-951.172,-1000.000,-225.098,-959.961
1741692162.890,82.031,622.559,-20.508,124.512
1741692162.894,999.512,843.750,97.656,999.512
1741692162.897,-755.859,-940.918,-183.594,-795.410
1741692162.901,-919.922,-353.027,-168.945,-779.785
1741692162.905,949.219,999.512,28.809,977.051
1741692162.909,522.949,-287.109,-57.617,321.777
1741692162.913,-1000.000,-1000.000,-183.105,-1000.000
1741692162.870,-1000.000,-830.078,-185.547,-1000.000
1741692162.874,-764.648,-46.875,-73.730,-574.707
1741692162.878,807.129,897.949,66.406,867.188
1741692162.882,859.375,-114.746,-37.598,690.430
1741692162.886,-951.172,-1000.000,-225.098,-959.961
1741692162.890,82.031,622.559,-20.508,124.512
1741692162.894,999.512,843.750,97.656,999.512
1741692162.897,-755.859,-940.918,-183.594,-795.410
1741692162.901,-919.922,-353.027,-168.945,-779.785
1741692162.905,949.219,999.512,28.809,977.051
1741692162.909,522.949,-287.109,-57.617,321.777
1741692162.913,-1000.000,-1000.000,-183.105,-1000.000
1741692162.916,-288.086,405.273,-76.660,-224.609
1741692162.920,999.512,970.703,63.477,999.512
1741692162.924,860.352,433.105,7.812,802.246
1741692162.928,-700.195,-850.098,-194.824,-743.164
1741692162.932,-842.773,-606.934,-112.793,-852.051
1741692162.936,715.332,885.254,106.934,680.176
1741692162.940,999.512,728.027,64.453,999.512
1741692162.943,-359.375,-659.668,-149.902,-363.770
1741692162.947,-1000.000,-1000.000,-211.426,-1000.000
1741692162.951,-872.559,-487.305,-85.449,-764.648
1741692162.955,601.074,783.691,96.191,693.848
1741692162.959,999.512,448.242,27.344,972.168
1741692162.916,-288.086,405.273,-76.660,-224.609
1741692162.920,999.512,970.703,63.477,999.512
1741692162.924,860.352,433.105,7.812,802.246
1741692162.928,-700.195,-850.098,-194.824,-743.164
1741692162.932,-842.773,-606.934,-112.793,-852.051
1741692162.936,715.332,885.254,106.934,680.176
1741692162.940,999.512,728.027,64.453,999.512
1741692162.943,-359.375,-659.668,-149.902,-363.770
1741692162.947,-1000.000,-1000.000,-211.426,-1000.000
1741692162.951,-872.559,-487.305,-85.449,-764.648
1741692162.955,601.074,783.691,96.191,693.848
1741692162.959,999.512,448.242,27.344,972.168
1741692162.961,-716.309,-1000.000,-187.988,-779.785
1741692162.965,-1000.000,-512.695,-142.090,-947.754
1741692162.969,760.742,957.031,87.402,819.336
1741692162.973,908.691,426.270,34.668,647.461
1741692162.977,-966.797,-980.957,-213.867,-1000.000
1741692162.981,-267.578,279.297,-96.680,-143.066
1741692162.985,999.512,966.309,38.574,999.512
1741692162.988,-513.184,-803.711,-145.996,-531.250
1741692162.992,-1000.000,-950.195,-160.645,-1000.000
1741692162.996,479.980,732.910,40.527,506.836
1741692163.000,999.512,825.195,54.199,999.512
1741692163.004,-452.148,-796.387,-138.672,-477.539
1741692162.961,-716.309,-1000.000,-187.988,-779.785
1741692162.965,-1000.000,-512.695,-142.090,-947.754
1741692162.969,760.742,957.031,87.402,819.336
1741692162.973,908.691,426.270,34.668,647.461
1741692162.977,-966.797,-980.957,-213.867,-1000.000
1741692162.981,-267.578,279.297,-96.680,-143.066
1741692162.985,999.512,966.309,38.574,999.512
1741692162.988,-513.184,-803.711,-145.996,-531.250
1741692162.992,-1000.000,-950.195,-160.645,-1000.000
1741692162.996,479.980,732.910,40.527,506.836
1741692163.000,999.512,825.195,54.199,999.512
1741692163.004,-452.148,-796.387,-138.672,-477.539
1741692162.961,-716.309,-1000.000,-187.988,-779.785
1741692162.965,-1000.000,-512.695,-142.090,-947.754
1741692162.969,760.742,957.031,87.402,819.336
1741692162.973,908.691,426.270,34.668,647.461
1741692162.977,-966.797,-980.957,-213.867,-1000.000
1741692162.981,-267.578,279.297,-96.680,-143.066
1741692162.985,999.512,966.309,38.574,999.512
1741692162.988,-513.184,-803.711,-145.996,-531.250
1741692162.992,-1000.000,-950.195,-160.645,-1000.000
1741692162.996,479.980,732.910,40.527,506.836
1741692163.000,999.512,825.195,54.199,999.512
1741692163.004,-452.148,-796.387,-138.672,-477.539
1741692163.006,-1000.000,-779.785,-142.578,-1000.000
1741692163.010,173.828,734.863,27.344,196.289
1741692163.014,999.512,933.594,88.867,999.512
1741692163.018,-434.082,-767.090,-126.953,-426.270
1741692163.022,-1000.000,-811.035,-155.762,-1000.000
1741692163.026,728.027,865.723,125.977,748.535
1741692163.030,807.617,263.672,77.148,610.840
1741692163.033,-1000.000,-1000.000,-198.730,-1000.000
1741692163.037,-701.172,-256.836,-135.254,-449.707
1741692163.041,999.512,999.512,60.059,999.512
1741692163.045,592.773,-173.828,-22.949,369.629
1741692163.049,-1000.000,-1000.000,-134.277,-1000.000
1741692163.006,-1000.000,-779.785,-142.578,-1000.000
1741692163.010,173.828,734.863,27.344,196.289
1741692163.014,999.512,933.594,88.867,999.512
1741692163.018,-434.082,-767.090,-126.953,-426.270
1741692163.022,-1000.000,-811.035,-155.762,-1000.000
1741692163.026,728.027,865.723,125.977,748.535
1741692163.030,807.617,263.672,77.148,610.840
1741692163.033,-1000.000,-1000.000,-198.730,-1000.000
1741692163.037,-701.172,-256.836,-135.254,-449.707
1741692163.041,999.512,999.512,60.059,999.512
1741692163.045,592.773,-173.828,-22.949,369.629
1741692163.049,-1000.000,-1000.000,-134.277,-1000.000
1741692163.051,-389.160,380.859,-15.137,-257.812
1741692163.055,999.512,999.512,83.984,999.512
1741692163.059,416.016,-481.445,-33.203,273.438
1741692163.063,-1000.000,-989.258,-141.113,-1000.000
1741692163.067,-691.895,342.285,-28.809,-514.160
1741692163.071,958.496,999.512,124.023,984.375
1741692163.075,884.277,153.809,-7.324,771.484
1741692163.078,-936.035,-975.586,-218.262,-942.383
1741692163.082,-235.840,411.621,-36.621,-139.160
1741692163.086,999.512,474.121,83.008,964.355
1741692163.090,-730.469,-1000.000,-114.746,-790.527
1741692163.094,-760.742,38.086,-62.988,-545.898
1741692163.051,-389.160,380.859,-15.137,-257.812
1741692163.055,999.512,999.512,83.984,999.512
1741692163.059,416.016,-481.445,-33.203,273.438
1741692163.063,-1000.000,-989.258,-141.113,-1000.000
1741692163.067,-691.895,342.285,-28.809,-514.160
1741692163.071,958.496,999.512,124.023,984.375
1741692163.075,884.277,153.809,-7.324,771.484
1741692163.078,-936.035,-975.586,-218.262,-942.383
1741692163.082,-235.840,411.621,-36.621,-139.160
1741692163.086,999.512,474.121,83.008,964.355
1741692163.090,-730.469,-1000.000,-114.746,-790.527
1741692163.094,-760.742,38.086,-62.988,-545.898
1741692163.095,999.512,999.512,93.262,999.512
1741692163.099,714.844,-58.594,14.160,457.520
1741692163.103,-939.941,-1000.000,-120.605,-1000.000
1741692163.107,-954.590,-291.016,-88.867,-840.820
1741692163.111,671.387,929.688,33.691,728.027
1741692163.115,999.512,862.305,43.457,999.512
1741692163.119,-380.371,-587.402,-91.797,-406.738
1741692163.122,-1000.000,-1000.000,-176.758,-1000.000
1741692163.126,-405.762,353.027,-26.367,-278.809
1741692163.130,999.512,832.520,44.434,999.512
1741692163.134,655.762,-391.602,-50.293,388.672
1741692163.138,-1000.000,-1000.000,-152.344,-1000.000
1741692163.095,999.512,999.512,93.262,999.512
1741692163.099,714.844,-58.594,14.160,457.520
1741692163.103,-939.941,-1000.000,-120.605,-1000.000
1741692163.107,-954.590,-291.016,-88.867,-840.820
1741692163.111,671.387,929.688,33.691,728.027
1741692163.115,999.512,862.305,43.457,999.512
1741692163.119,-380.371,-587.402,-91.797,-406.738
1741692163.122,-1000.000,-1000.000,-176.758,-1000.000
1741692163.126,-405.762,353.027,-26.367,-278.809
1741692163.130,999.512,832.520,44.434,999.512
1741692163.134,655.762,-391.602,-50.293,388.672
1741692163.138,-1000.000,-1000.000,-152.344,-1000.000
1741692163.143,-811.035,-21.973,-83.984,-629.395
1741692163.147,965.820,999.512,58.105,968.262
1741692163.151,745.605,-60.547,-52.734,536.133
1741692163.155,-1000.000,-1000.000,-208.984,-1000.000
1741692163.159,38.574,474.609,-74.219,111.328
1741692163.163,999.512,999.512,120.605,999.512
1741692163.167,-460.938,-583.984,-86.914,-515.137
1741692163.170,-1000.000,-1000.000,-243.164,-1000.000
1741692163.174,603.027,739.746,-11.230,614.258
1741692163.178,999.512,630.371,2.930,999.512
1741692163.182,-718.262,-925.293,-199.219,-734.375
1741692163.186,-1000.000,-362.793,-131.348,-1000.000
1741692163.143,-811.035,-21.973,-83.984,-629.395
1741692163.147,965.820,999.512,58.105,968.262
1741692163.151,745.605,-60.547,-52.734,536.133
1741692163.155,-1000.000,-1000.000,-208.984,-1000.000
1741692163.159,38.574,474.609,-74.219,111.328
1741692163.163,999.512,999.512,120.605,999.512
1741692163.167,-460.938,-583.984,-86.914,-515.137
1741692163.170,-1000.000,-1000.000,-243.164,-1000.000
1741692163.174,603.027,739.746,-11.230,614.258
1741692163.178,999.512,630.371,2.930,999.512
1741692163.182,-718.262,-925.293,-199.219,-734.375
1741692163.186,-1000.000,-362.793,-131.348,-1000.000
1741692163.201,629.395,952.148,40.527,642.090
1741692163.205,999.512,962.402,65.430,999.512
1741692163.209,-268.555,-475.098,-113.770,-275.879
1741692163.213,-1000.000,-1000.000,-229.492,-1000.000
1741692163.217,-605.957,108.887,-59.082,-488.770
1741692163.221,875.488,999.512,98.633,912.598
1741692163.225,971.191,481.445,-14.160,903.809
1741692163.228,-780.762,-981.934,-241.699,-826.660
1741692163.232,-925.293,-345.215,-117.676,-813.477
1741692163.236,909.180,985.352,110.840,911.621
1741692163.240,-74.707,-538.574,-71.289,-149.902
1741692163.244,-1000.000,-895.020,-191.406,-1000.000
1741692163.201,629.395,952.148,40.527,642.090
1741692163.205,999.512,962.402,65.430,999.512
1741692163.209,-268.555,-475.098,-113.770,-275.879
1741692163.213,-1000.000,-1000.000,-229.492,-1000.000
1741692163.217,-605.957,108.887,-59.082,-488.770
1741692163.221,875.488,999.512,98.633,912.598
1741692163.225,971.191,481.445,-14.160,903.809
1741692163.228,-780.762,-981.934,-241.699,-826.660
1741692163.232,-925.293,-345.215,-117.676,-813.477
1741692163.236,909.180,985.352,110.840,911.621
1741692163.240,-74.707,-538.574,-71.289,-149.902
1741692163.244,-1000.000,-895.020,-191.406,-1000.000
1741692163.245,690.918,815.918,13.184,686.035
1741692163.249,964.844,-4.883,-18.066,818.848
1741692163.253,-886.230,-1000.000,-152.832,-934.570
1741692163.257,-756.348,183.594,-33.691,-655.273
1741692163.261,910.156,883.301,84.961,918.457
1741692163.265,999.512,279.785,37.598,969.238
1741692163.269,-381.348,-644.043,-90.820,-432.617
1741692163.272,-1000.000,-1000.000,-139.648,-1000.000
1741692163.276,-548.340,103.516,-9.766,-394.531
1741692163.280,945.312,902.344,65.430,977.539
1741692163.284,826.660,-252.930,-24.902,625.977
1741692163.288,-920.898,-967.773,-137.695,-934.570
1741692163.245,690.918,815.918,13.184,686.035
1741692163.249,964.844,-4.883,-18.066,818.848
1741692163.253,-886.230,-1000.000,-152.832,-934.570
1741692163.257,-756.348,183.594,-33.691,-655.273
1741692163.261,910.156,883.301,84.961,918.457
1741692163.265,999.512,279.785,37.598,969.238
1741692163.269,-381.348,-644.043,-90.820,-432.617
1741692163.272,-1000.000,-1000.000,-139.648,-1000.000
1741692163.276,-548.340,103.516,-9.766,-394.531
1741692163.280,945.312,902.344,65.430,977.539
1741692163.284,826.660,-252.930,-24.902,625.977
1741692163.288,-920.898,-967.773,-137.695,-934.570
1741692163.291,-600.586,261.719,-25.879,-446.289
1741692163.295,999.512,999.512,115.234,999.512
1741692163.299,896.973,451.172,10.742,832.520
1741692163.303,-793.945,-898.438,-181.641,-828.613
1741692163.307,-861.328,-230.469,-114.258,-673.828
1741692163.311,962.891,999.512,91.309,999.512
1741692163.315,584.961,149.414,61.523,311.523
1741692163.318,-1000.000,-1000.000,-140.625,-1000.000
1741692163.322,-520.508,13.672,-107.910,-197.754
1741692163.326,999.512,800.781,52.734,999.512
1741692163.330,368.164,-471.191,7.812,147.461
1741692163.334,-1000.000,-996.582,-108.887,-1000.000
1741692163.291,-600.586,261.719,-25.879,-446.289
1741692163.295,999.512,999.512,115.234,999.512
1741692163.299,896.973,451.172,10.742,832.520
1741692163.303,-793.945,-898.438,-181.641,-828.613
1741692163.307,-861.328,-230.469,-114.258,-673.828
1741692163.311,962.891,999.512,91.309,999.512
1741692163.315,584.961,149.414,61.523,311.523
1741692163.318,-1000.000,-1000.000,-140.625,-1000.000
1741692163.322,-520.508,13.672,-107.910,-197.754
1741692163.326,999.512,800.781,52.734,999.512
1741692163.330,368.164,-471.191,7.812,147.461
1741692163.334,-1000.000,-996.582,-108.887,-1000.000
1741692163.337,61.035,586.914,-3.906,129.395
1741692163.341,999.512,792.480,71.289,999.512
1741692163.345,65.430,-680.664,-89.844,-24.902
1741692163.349,-1000.000,-895.508,-181.152,-1000.000
1741692163.353,-357.910,478.027,0.000,-266.113
1741692163.357,999.512,999.512,149.414,999.512
1741692163.361,642.090,-119.141,-6.348,503.906
1741692163.364,-1000.000,-1000.000,-226.074,-1000.000
1741692163.368,-313.477,282.227,-63.477,-225.098
1741692163.372,997.070,410.645,71.289,920.410
1741692163.376,-750.488,-1000.000,-138.184,-791.016
1741692163.380,-664.062,115.234,-101.074,-472.168
1741692163.337,61.035,586.914,-3.906,129.395
1741692163.341,999.512,792.480,71.289,999.512
1741692163.345,65.430,-680.664,-89.844,-24.902
1741692163.349,-1000.000,-895.508,-181.152,-1000.000
1741692163.353,-357.910,478.027,0.000,-266.113
1741692163.357,999.512,999.512,149.414,999.512
1741692163.361,642.090,-119.141,-6.348,503.906
1741692163.364,-1000.000,-1000.000,-226.074,-1000.000
1741692163.368,-313.477,282.227,-63.477,-225.098
1741692163.372,997.070,410.645,71.289,920.410
1741692163.376,-750.488,-1000.000,-138.184,-791.016
1741692163.380,-664.062,115.234,-101.074,-472.168
1741692163.380,999.512,978.516,29.785,999.512
1741692163.384,-48.340,-573.730,-71.777,-132.812
1741692163.388,-1000.000,-1000.000,-132.812,-1000.000
1741692163.392,-699.219,-59.570,-90.332,-578.613
1741692163.396,796.875,902.832,22.461,837.402
1741692163.400,990.723,746.582,38.574,975.586
1741692163.404,-487.305,-644.531,-129.395,-490.723
1741692163.407,-1000.000,-1000.000,-174.805,-1000.000
1741692163.411,-458.008,163.086,-49.316,-311.523
1741692163.415,988.281,999.512,27.832,999.512
1741692163.419,749.023,-179.688,-50.781,577.148
1741692163.423,-853.027,-969.238,-154.297,-892.578
1741692163.380,999.512,978.516,29.785,999.512
1741692163.384,-48.340,-573.730,-71.777,-132.812
1741692163.388,-1000.000,-1000.000,-132.812,-1000.000
1741692163.392,-699.219,-59.570,-90.332,-578.613
1741692163.396,796.875,902.832,22.461,837.402
1741692163.400,990.723,746.582,38.574,975.586
1741692163.404,-487.305,-644.531,-129.395,-490.723
1741692163.407,-1000.000,-1000.000,-174.805,-1000.000
1741692163.411,-458.008,163.086,-49.316,-311.523
1741692163.415,988.281,999.512,27.832,999.512
1741692163.419,749.023,-179.688,-50.781,577.148
1741692163.423,-853.027,-969.238,-154.297,-892.578
1741692163.429,-1000.000,-313.965,-101.074,-1000.000
1741692163.433,468.262,795.898,22.949,466.797
1741692163.437,999.512,648.926,25.391,999.512
1741692163.441,-581.055,-877.930,-158.691,-594.727
1741692163.445,-1000.000,-553.711,-139.648,-1000.000
1741692163.449,723.145,985.840,132.324,772.949
1741692163.453,887.695,430.176,72.754,702.148
1741692163.456,-970.703,-1000.000,-208.496,-1000.000
1741692163.460,-499.023,105.469,-109.375,-304.199
1741692163.464,999.512,999.512,97.168,999.512
1741692163.468,35.156,-535.645,-26.367,-92.773
1741692163.472,-1000.000,-890.625,-117.676,-1000.000
1741692163.429,-1000.000,-313.965,-101.074,-1000.000
1741692163.433,468.262,795.898,22.949,466.797
1741692163.437,999.512,648.926,25.391,999.512
1741692163.441,-581.055,-877.930,-158.691,-594.727
1741692163.445,-1000.000,-553.711,-139.648,-1000.000
1741692163.449,723.145,985.840,132.324,772.949
1741692163.453,887.695,430.176,72.754,702.148
1741692163.456,-970.703,-1000.000,-208.496,-1000.000
1741692163.460,-499.023,105.469,-109.375,-304.199
1741692163.464,999.512,999.512,97.168,999.512
1741692163.468,35.156,-535.645,-26.367,-92.773
1741692163.472,-1000.000,-890.625,-117.676,-1000.000
1741692163.471,269.043,595.703,11.230,302.734
1741692163.475,999.512,626.953,65.430,999.512
1741692163.479,830.566,606.445,21.484,809.570
1741692163.483,-602.051,-595.215,-172.852,-634.277
1741692163.487,-1000.000,-892.578,-156.250,-1000.000
1741692163.491,539.551,844.727,77.148,544.434
1741692163.495,999.512,776.367,58.594,999.512
1741692163.498,-672.852,-867.676,-179.688,-634.277
1741692163.502,-1000.000,-637.207,-166.992,-1000.000
1741692163.506,563.477,891.602,69.824,563.965
1741692163.510,999.512,437.500,18.555,999.512
1741692163.514,-792.480,-1000.000,-203.125,-834.473
1741692163.517,-849.121,-156.250,-125.977,-680.664
1741692163.521,996.094,999.512,71.777,999.512
1741692163.525,-83.984,-479.492,-34.180,-191.406
1741692163.529,-1000.000,-853.027,-137.695,-1000.000
1741692163.533,622.070,822.754,50.781,640.137
1741692163.537,999.512,861.816,81.543,999.512
1741692163.541,-301.758,-593.750,-92.285,-332.520
1741692163.544,-1000.000,-1000.000,-156.250,-1000.000
1741692163.548,-332.520,275.879,-27.832,-233.398
1741692163.552,999.512,944.336,70.801,999.512
1741692163.556,790.039,-94.727,-11.719,654.297
1741692163.560,-830.078,-1000.000,-166.016,-880.859
1741692163.517,-849.121,-156.250,-125.977,-680.664
1741692163.521,996.094,999.512,71.777,999.512
1741692163.525,-83.984,-479.492,-34.180,-191.406
1741692163.529,-1000.000,-853.027,-137.695,-1000.000
1741692163.533,622.070,822.754,50.781,640.137
1741692163.537,999.512,861.816,81.543,999.512
1741692163.541,-301.758,-593.750,-92.285,-332.520
1741692163.544,-1000.000,-1000.000,-156.250,-1000.000
1741692163.548,-332.520,275.879,-27.832,-233.398
1741692163.552,999.512,944.336,70.801,999.512
1741692163.556,790.039,-94.727,-11.719,654.297
1741692163.560,-830.078,-1000.000,-166.016,-880.859
1741692163.575,-1000.000,-234.863,-84.961,-926.270
1741692163.579,700.684,999.512,91.309,778.809
1741692163.583,999.023,259.766,-37.598,918.457
1741692163.587,-867.188,-1000.000,-215.820,-888.184
1741692163.591,-493.652,156.738,-38.086,-342.285
1741692163.595,999.512,999.512,143.555,999.512
1741692163.599,-301.758,-548.828,-81.055,-382.812
1741692163.602,-1000.000,-1000.000,-213.867,-1000.000
1741692163.606,391.113,531.250,-34.180,467.285
1741692163.610,999.512,341.309,-1.953,999.512
1741692163.614,-633.789,-1000.000,-147.461,-654.297
1741692163.618,-1000.000,-532.715,-126.953,-1000.000
1741692163.575,-1000.000,-234.863,-84.961,-926.270
1741692163.579,700.684,999.512,91.309,778.809
1741692163.583,999.023,259.766,-37.598,918.457
1741692163.587,-867.188,-1000.000,-215.820,-888.184
1741692163.591,-493.652,156.738,-38.086,-342.285
1741692163.595,999.512,999.512,143.555,999.512
1741692163.599,-301.758,-548.828,-81.055,-382.812
1741692163.602,-1000.000,-1000.000,-213.867,-1000.000
1741692163.606,391.113,531.250,-34.180,467.285
1741692163.610,999.512,341.309,-1.953,999.512
1741692163.614,-633.789,-1000.000,-147.461,-654.297
1741692163.618,-1000.000,-532.715,-126.953,-1000.000
1741692163.620,675.293,871.094,31.738,696.777
1741692163.624,999.512,57.617,3.418,970.703
1741692163.628,-760.254,-1000.000,-170.898,-813.965
1741692163.632,-862.305,112.305,-56.641,-707.031
1741692163.636,958.984,999.512,119.141,979.004
1741692163.640,719.238,-59.570,-3.418,514.160
1741692163.644,-1000.000,-1000.000,-155.762,-1000.000
1741692163.647,-609.375,-4.395,-82.520,-352.539
1741692163.651,999.512,967.773,86.426,999.512
1741692163.655,-329.590,-593.262,-56.641,-389.160
1741692163.659,-1000.000,-858.398,-167.480,-1000.000
1741692163.663,701.660,928.711,30.273,713.867
1741692163.620,675.293,871.094,31.738,696.777
1741692163.624,999.512,57.617,3.418,970.703
1741692163.628,-760.254,-1000.000,-170.898,-813.965
1741692163.632,-862.305,112.305,-56.641,-707.031
1741692163.636,958.984,999.512,119.141,979.004
1741692163.640,719.238,-59.570,-3.418,514.160
1741692163.644,-1000.000,-1000.000,-155.762,-1000.000
1741692163.647,-609.375,-4.395,-82.520,-352.539
1741692163.651,999.512,967.773,86.426,999.512
1741692163.655,-329.590,-593.262,-56.641,-389.160
1741692163.659,-1000.000,-858.398,-167.480,-1000.000
1741692163.663,701.660,928.711,30.273,713.867
1741692163.665,954.102,262.207,-0.977,892.090
1741692163.669,-614.258,-729.492,-126.953,-672.852
1741692163.673,-1000.000,-76.660,-71.777,-1000.000
1741692163.677,-864.258,-525.879,-78.613,-814.941
1741692163.681,593.262,547.852,40.527,670.410
1741692163.685,918.457,405.273,-20.996,782.715
1741692163.689,-736.328,-1000.000,-199.707,-828.613
1741692163.692,-1000.000,-673.340,-125.000,-1000.000
1741692163.696,532.715,775.879,40.527,513.672
1741692163.700,999.512,148.926,47.363,999.512
1741692163.704,-666.016,-1000.000,-115.234,-712.402
1741692163.708,-739.258,312.012,-51.758,-652.832
1741692163.665,954.102,262.207,-0.977,892.090
1741692163.669,-614.258,-729.492,-126.953,-672.852
1741692163.673,-1000.000,-76.660,-71.777,-1000.000
1741692163.677,-864.258,-525.879,-78.613,-814.941
1741692163.681,593.262,547.852,40.527,670.410
1741692163.685,918.457,405.273,-20.996,782.715
1741692163.689,-736.328,-1000.000,-199.707,-828.613
1741692163.692,-1000.000,-673.340,-125.000,-1000.000
1741692163.696,532.715,775.879,40.527,513.672
1741692163.700,999.512,148.926,47.363,999.512
1741692163.704,-666.016,-1000.000,-115.234,-712.402
1741692163.708,-739.258,312.012,-51.758,-652.832
1741692163.710,845.703,871.582,95.215,853.516
1741692163.714,-589.844,-887.695,-109.375,-615.234
1741692163.718,-1000.000,-399.902,-133.301,-954.102
1741692163.722,844.727,999.512,70.801,890.137
1741692163.726,674.316,-219.727,-16.113,458.496
1741692163.730,-1000.000,-894.043,-127.441,-1000.000
1741692163.734,-865.234,435.059,-44.922,-700.195
1741692163.737,911.621,881.836,27.344,915.527
1741692163.741,469.238,-627.930,-61.035,329.590
1741692163.745,-1000.000,-1000.000,-154.785,-1000.000
1741692163.749,193.359,651.855,26.367,187.500
1741692163.753,999.512,845.215,121.094,999.512
1741692163.710,845.703,871.582,95.215,853.516
1741692163.714,-589.844,-887.695,-109.375,-615.234
1741692163.718,-1000.000,-399.902,-133.301,-954.102
1741692163.722,844.727,999.512,70.801,890.137
1741692163.726,674.316,-219.727,-16.113,458.496
1741692163.730,-1000.000,-894.043,-127.441,-1000.000
1741692163.734,-865.234,435.059,-44.922,-700.195
1741692163.737,911.621,881.836,27.344,915.527
1741692163.741,469.238,-627.930,-61.035,329.590
1741692163.745,-1000.000,-1000.000,-154.785,-1000.000
1741692163.749,193.359,651.855,26.367,187.500
1741692163.753,999.512,845.215,121.094,999.512
1741692163.757,-677.734,-911.621,-132.324,-673.340
1741692163.761,-1000.000,-750.977,-117.676,-999.023
1741692163.765,795.410,938.965,169.922,835.449
1741692163.769,670.898,69.824,55.664,506.836
1741692163.773,-1000.000,-1000.000,-158.203,-1000.000
1741692163.777,-630.859,-22.949,-53.223,-432.617
1741692163.781,999.512,999.512,131.348,999.512
1741692163.784,654.785,-21.484,4.395,518.555
1741692163.788,-982.422,-1000.000,-164.062,-1000.000
1741692163.792,-947.754,-101.074,-16.602,-830.566
1741692163.796,725.098,980.469,117.188,796.875
1741692163.800,975.098,110.840,17.090,869.629
1741692163.757,-677.734,-911.621,-132.324,-673.340
1741692163.761,-1000.000,-750.977,-117.676,-999.023
1741692163.765,795.410,938.965,169.922,835.449
1741692163.769,670.898,69.824,55.664,506.836
1741692163.773,-1000.000,-1000.000,-158.203,-1000.000
1741692163.777,-630.859,-22.949,-53.223,-432.617
1741692163.781,999.512,999.512,131.348,999.512
1741692163.784,654.785,-21.484,4.395,518.555
1741692163.788,-982.422,-1000.000,-164.062,-1000.000
1741692163.792,-947.754,-101.074,-16.602,-830.566
1741692163.796,725.098,980.469,117.188,796.875
1741692163.800,975.098,110.840,17.090,869.629
1741692163.801,-753.418,-1000.000,-152.832,-835.449
1741692163.805,-1000.000,-503.906,-88.867,-970.703
1741692163.809,811.035,922.852,141.113,851.074
1741692163.813,723.633,-58.594,22.461,535.645
1741692163.817,-841.797,-705.078,-125.488,-900.879
1741692163.821,559.570,927.246,78.125,581.055
1741692163.825,999.512,578.125,65.430,979.004
1741692163.828,-839.355,-1000.000,-192.871,-879.883
1741692163.832,-934.570,-255.371,-131.836,-821.777
1741692163.836,841.309,999.512,89.844,889.160
1741692163.840,868.164,-62.012,-10.742,752.930
1741692163.844,-853.027,-1000.000,-179.199,-896.484
1741692163.801,-753.418,-1000.000,-152.832,-835.449
1741692163.805,-1000.000,-503.906,-88.867,-970.703
1741692163.809,811.035,922.852,141.113,851.074
1741692163.813,723.633,-58.594,22.461,535.645
1741692163.817,-841.797,-705.078,-125.488,-900.879
1741692163.821,559.570,927.246,78.125,581.055
1741692163.825,999.512,578.125,65.430,979.004
1741692163.828,-839.355,-1000.000,-192.871,-879.883
1741692163.832,-934.570,-255.371,-131.836,-821.777
1741692163.836,841.309,999.512,89.844,889.160
1741692163.840,868.164,-62.012,-10.742,752.930
1741692163.844,-853.027,-1000.000,-179.199,-896.484
1741692163.860,-1000.000,-146.973,-73.242,-932.617
1741692163.864,676.758,999.512,84.473,741.211
1741692163.868,999.512,716.309,37.109,985.840
1741692163.872,-714.355,-881.348,-216.309,-761.719
1741692163.876,-1000.000,-593.750,-168.945,-971.191
1741692163.880,749.023,934.082,125.977,808.105
1741692163.884,729.004,146.973,9.766,519.043
1741692163.887,-1000.000,-1000.000,-215.332,-1000.000
1741692163.891,-745.117,-424.805,-130.859,-504.883
1741692163.895,999.512,997.070,42.969,999.512
1741692163.899,334.961,-249.512,-1.953,158.691
1741692163.903,-1000.000,-980.957,-118.164,-1000.000
1741692163.860,-1000.000,-146.973,-73.242,-932.617
1741692163.864,676.758,999.512,84.473,741.211
1741692163.868,999.512,716.309,37.109,985.840
1741692163.872,-714.355,-881.348,-216.309,-761.719
1741692163.876,-1000.000,-593.750,-168.945,-971.191
1741692163.880,749.023,934.082,125.977,808.105
1741692163.884,729.004,146.973,9.766,519.043
1741692163.887,-1000.000,-1000.000,-215.332,-1000.000
1741692163.891,-745.117,-424.805,-130.859,-504.883
1741692163.895,999.512,997.070,42.969,999.512
1741692163.899,334.961,-249.512,-1.953,158.691
1741692163.903,-1000.000,-980.957,-118.164,-1000.000
1741692163.892,357.422,703.613,23.438,412.109
1741692163.896,999.512,457.031,38.086,999.512
1741692163.900,-432.129,-932.129,-133.789,-468.262
1741692163.904,-1000.000,-611.328,-129.395,-1000.000
1741692163.908,64.453,647.949,11.230,84.473
1741692163.912,999.512,999.512,109.863,999.512
1741692163.916,708.496,206.543,21.484,629.883
1741692163.919,-849.609,-1000.000,-194.336,-891.113
1741692163.923,-1000.000,-258.301,-98.633,-857.422
1741692163.927,838.379,978.027,106.445,894.043
1741692163.931,417.969,-388.184,-69.824,303.711
1741692163.935,-1000.000,-1000.000,-187.988,-1000.000
1741692163.892,357.422,703.613,23.438,412.109
1741692163.896,999.512,457.031,38.086,999.512
1741692163.900,-432.129,-932.129,-133.789,-468.262
1741692163.904,-1000.000,-611.328,-129.395,-1000.000
1741692163.908,64.453,647.949,11.230,84.473
1741692163.912,999.512,999.512,109.863,999.512
1741692163.916,708.496,206.543,21.484,629.883
1741692163.919,-849.609,-1000.000,-194.336,-891.113
1741692163.923,-1000.000,-258.301,-98.633,-857.422
1741692163.927,838.379,978.027,106.445,894.043
1741692163.931,417.969,-388.184,-69.824,303.711
1741692163.935,-1000.000,-1000.000,-187.988,-1000.000
1741692163.950,462.402,681.641,32.227,500.977
1741692163.954,999.512,496.582,68.359,999.512
1741692163.958,-722.168,-985.840,-112.305,-804.199
1741692163.962,-1000.000,-762.207,-135.254,-974.609
1741692163.966,681.641,815.918,29.785,735.352
1741692163.970,999.512,904.297,58.594,999.512
1741692163.974,-571.777,-709.961,-119.629,-564.941
1741692163.977,-1000.000,-1000.000,-184.570,-1000.000
1741692163.981,-128.418,318.848,-52.734,-49.805
1741692163.985,999.512,863.281,32.715,999.512
1741692163.989,750.000,-344.238,-33.691,510.254
1741692163.993,-965.820,-851.562,-122.070,-989.258
1741692163.950,462.402,681.641,32.227,500.977
1741692163.954,999.512,496.582,68.359,999.512
1741692163.958,-722.168,-985.840,-112.305,-804.199
1741692163.962,-1000.000,-762.207,-135.254,-974.609
1741692163.966,681.641,815.918,29.785,735.352
1741692163.970,999.512,904.297,58.594,999.512
1741692163.974,-571.777,-709.961,-119.629,-564.941
1741692163.977,-1000.000,-1000.000,-184.570,-1000.000
1741692163.981,-128.418,318.848,-52.734,-49.805
1741692163.985,999.512,863.281,32.715,999.512
1741692163.989,750.000,-344.238,-33.691,510.254
1741692163.993,-965.820,-851.562,-122.070,-989.258
1741692163.983,-568.848,669.922,-26.367,-389.648
1741692163.987,999.512,808.594,44.922,999.512
1741692163.991,-414.062,-909.668,-140.625,-437.500
1741692163.995,-1000.000,-574.707,-162.109,-1000.000
1741692163.999,750.977,968.262,47.852,804.688
1741692164.003,751.465,178.223,7.324,525.391
1741692164.007,-1000.000,-1000.000,-157.227,-1000.000
1741692164.010,-600.586,23.926,-105.469,-348.633
1741692164.014,999.512,935.059,43.457,999.512
1741692164.018,-85.938,-624.023,-100.098,-148.438
1741692164.022,-1000.000,-940.430,-157.227,-1000.000
1741692164.026,244.629,785.156,28.320,212.891
1741692163.983,-568.848,669.922,-26.367,-389.648
1741692163.987,999.512,808.594,44.922,999.512
1741692163.991,-414.062,-909.668,-140.625,-437.500
1741692163.995,-1000.000,-574.707,-162.109,-1000.000
1741692163.999,750.977,968.262,47.852,804.688
1741692164.003,751.465,178.223,7.324,525.391
1741692164.007,-1000.000,-1000.000,-157.227,-1000.000
1741692164.010,-600.586,23.926,-105.469,-348.633
1741692164.014,999.512,935.059,43.457,999.512
1741692164.018,-85.938,-624.023,-100.098,-148.438
1741692164.022,-1000.000,-940.430,-157.227,-1000.000
1741692164.026,244.629,785.156,28.320,212.891
1741692164.042,999.512,829.590,59.570,999.512
1741692164.046,-288.086,-860.840,-87.402,-305.176
1741692164.050,-1000.000,-427.246,-104.492,-1000.000
1741692164.054,752.441,882.812,59.082,721.680
1741692164.058,-119.141,-670.898,-107.910,-193.848
1741692164.062,-1000.000,-500.488,-165.039,-1000.000
1741692164.066,758.301,873.047,50.293,795.898
1741692164.069,312.012,-553.711,-89.844,219.238
1741692164.073,-1000.000,-1000.000,-174.805,-1000.000
1741692164.077,-749.023,61.523,-61.035,-615.234
1741692164.081,858.398,917.480,26.367,883.789
1741692164.085,854.004,-146.484,-65.918,698.242
1741692164.042,999.512,829.590,59.570,999.512
1741692164.046,-288.086,-860.840,-87.402,-305.176
1741692164.050,-1000.000,-427.246,-104.492,-1000.000
1741692164.054,752.441,882.812,59.082,721.680
1741692164.058,-119.141,-670.898,-107.910,-193.848
1741692164.062,-1000.000,-500.488,-165.039,-1000.000
1741692164.066,758.301,873.047,50.293,795.898
1741692164.069,312.012,-553.711,-89.844,219.238
1741692164.073,-1000.000,-1000.000,-174.805,-1000.000
1741692164.077,-749.023,61.523,-61.035,-615.234
1741692164.081,858.398,917.480,26.367,883.789
1741692164.085,854.004,-146.484,-65.918,698.242
1741692164.086,-857.422,-1000.000,-245.117,-914.062
1741692164.090,-1000.000,-469.727,-141.113,-967.773
1741692164.094,743.164,904.785,84.961,792.480
1741692164.098,911.621,86.426,-30.762,761.230
1741692164.102,-806.152,-842.773,-189.941,-870.605
1741692164.106,304.688,757.324,-5.859,373.535
1741692164.110,999.512,411.133,26.367,991.211
1741692164.113,-800.781,-1000.000,-176.270,-887.207
1741692164.117,-931.152,-221.680,-127.930,-795.410
1741692164.121,884.277,992.188,56.152,918.457
1741692164.125,765.625,-207.031,-44.434,596.680
1741692164.129,-950.684,-1000.000,-180.176,-994.141
1741692164.086,-857.422,-1000.000,-245.117,-914.062
1741692164.090,-1000.000,-469.727,-141.113,-967.773
1741692164.094,743.164,904.785,84.961,792.480
1741692164.098,911.621,86.426,-30.762,761.230
1741692164.102,-806.152,-842.773,-189.941,-870.605
1741692164.106,304.688,757.324,-5.859,373.535
1741692164.110,999.512,411.133,26.367,991.211
1741692164.113,-800.781,-1000.000,-176.270,-887.207
1741692164.117,-931.152,-221.680,-127.930,-795.410
1741692164.121,884.277,992.188,56.152,918.457
1741692164.125,765.625,-207.031,-44.434,596.680
1741692164.129,-950.684,-1000.000,-180.176,-994.141
1741692164.130,-962.891,28.320,-75.195,-854.492
1741692164.134,712.402,999.512,55.664,764.160
1741692164.138,999.512,706.055,28.320,982.910
1741692164.142,-700.195,-830.078,-176.758,-697.266
1741692164.146,-1000.000,-751.953,-169.434,-1000.000
1741692164.150,638.672,843.750,90.332,632.812
1741692164.154,999.512,451.660,33.203,917.480
1741692164.157,-739.258,-1000.000,-191.895,-851.074
1741692164.161,-1000.000,-690.918,-147.949,-915.039
1741692164.165,815.918,883.301,31.738,870.117
1741692164.169,493.652,-100.586,-11.230,266.602
1741692164.173,-1000.000,-1000.000,-150.879,-1000.000
1741692164.130,-962.891,28.320,-75.195,-854.492
1741692164.134,712.402,999.512,55.664,764.160
1741692164.138,999.512,706.055,28.320,982.910
1741692164.142,-700.195,-830.078,-176.758,-697.266
1741692164.146,-1000.000,-751.953,-169.434,-1000.000
1741692164.150,638.672,843.750,90.332,632.812
1741692164.154,999.512,451.660,33.203,917.480
1741692164.157,-739.258,-1000.000,-191.895,-851.074
1741692164.161,-1000.000,-690.918,-147.949,-915.039
1741692164.165,815.918,883.301,31.738,870.117
1741692164.169,493.652,-100.586,-11.230,266.602
1741692164.173,-1000.000,-1000.000,-150.879,-1000.000
1741692164.176,264.648,638.184,-20.996,346.680
1741692164.180,999.512,568.359,60.547,999.512
1741692164.184,-308.594,-865.234,-92.285,-344.727
1741692164.188,-1000.000,-738.770,-130.371,-1000.000
1741692164.192,-107.422,589.844,-1.953,-65.430
1741692164.196,999.512,999.512,84.473,999.512
1741692164.200,869.629,515.625,-0.977,776.855
1741692164.203,-649.902,-842.285,-195.312,-723.145
1741692164.207,-1000.000,-736.816,-156.738,-1000.000
1741692164.211,516.602,828.125,40.039,493.652
1741692164.215,999.512,768.066,44.922,999.512
1741692164.219,-528.809,-832.031,-140.625,-521.973
1741692164.176,264.648,638.184,-20.996,346.680
1741692164.180,999.512,568.359,60.547,999.512
1741692164.184,-308.594,-865.234,-92.285,-344.727
1741692164.188,-1000.000,-738.770,-130.371,-1000.000
1741692164.192,-107.422,589.844,-1.953,-65.430
1741692164.196,999.512,999.512,84.473,999.512
1741692164.200,869.629,515.625,-0.977,776.855
1741692164.203,-649.902,-842.285,-195.312,-723.145
1741692164.207,-1000.000,-736.816,-156.738,-1000.000
1741692164.211,516.602,828.125,40.039,493.652
1741692164.215,999.512,768.066,44.922,999.512
1741692164.219,-528.809,-832.031,-140.625,-521.973
1741692164.221,-1000.000,-756.836,-187.012,-1000.000
1741692164.225,640.137,862.793,36.133,633.301
1741692164.229,999.512,853.516,84.473,991.699
1741692164.233,-734.375,-857.910,-187.012,-796.387
1741692164.237,-974.121,-555.664,-162.598,-854.980
1741692164.241,836.426,999.512,80.078,896.484
1741692164.245,813.965,243.652,2.930,662.598
1741692164.248,-958.984,-1000.000,-205.078,-1000.000
1741692164.252,-865.723,-219.238,-156.250,-704.102
1741692164.256,888.672,999.512,6.836,942.383
1741692164.260,831.055,-97.168,-36.621,668.945
1741692164.264,-980.957,-1000.000,-169.922,-990.234
1741692164.221,-1000.000,-756.836,-187.012,-1000.000
1741692164.225,640.137,862.793,36.133,633.301
1741692164.229,999.512,853.516,84.473,991.699
1741692164.233,-734.375,-857.910,-187.012,-796.387
1741692164.237,-974.121,-555.664,-162.598,-854.980
1741692164.241,836.426,999.512,80.078,896.484
1741692164.245,813.965,243.652,2.930,662.598
1741692164.248,-958.984,-1000.000,-205.078,-1000.000
1741692164.252,-865.723,-219.238,-156.250,-704.102
1741692164.256,888.672,999.512,6.836,942.383
1741692164.260,831.055,-97.168,-36.621,668.945
1741692164.264,-980.957,-1000.000,-169.922,-990.234
1741692164.268,-666.992,580.078,-36.133,-506.836
1741692164.272,999.512,791.992,40.527,999.512
1741692164.276,62.500,-817.871,-112.305,11.230
1741692164.280,-1000.000,-885.254,-167.480,-1000.000
1741692164.284,512.695,737.305,24.414,507.812
1741692164.288,999.512,986.816,95.215,999.512
1741692164.292,-713.379,-762.695,-157.227,-726.074
1741692164.295,-1000.000,-972.168,-214.355,-1000.000
1741692164.299,684.570,772.949,27.344,726.074
1741692164.303,992.676,327.148,2.930,889.648
1741692164.307,-792.480,-1000.000,-142.090,-870.117
1741692164.311,-902.344,-94.727,-66.895,-783.203
1741692164.268,-666.992,580.078,-36.133,-506.836
1741692164.272,999.512,791.992,40.527,999.512
1741692164.276,62.500,-817.871,-112.305,11.230
1741692164.280,-1000.000,-885.254,-167.480,-1000.000
1741692164.284,512.695,737.305,24.414,507.812
1741692164.288,999.512,986.816,95.215,999.512
1741692164.292,-713.379,-762.695,-157.227,-726.074
1741692164.295,-1000.000,-972.168,-214.355,-1000.000
1741692164.299,684.570,772.949,27.344,726.074
1741692164.303,992.676,327.148,2.930,889.648
1741692164.307,-792.480,-1000.000,-142.090,-870.117
1741692164.311,-902.344,-94.727,-66.895,-783.203
1741692164.326,791.504,962.891,59.570,833.984
1741692164.330,999.512,472.168,65.918,999.512
1741692164.334,-368.652,-614.258,-50.293,-378.418
1741692164.338,-1000.000,-1000.000,-129.395,-1000.000
1741692164.342,-750.000,-136.230,-54.199,-617.676
1741692164.346,778.320,999.512,112.793,833.984
1741692164.350,910.156,311.035,19.531,851.074
1741692164.353,-819.336,-1000.000,-220.215,-835.938
1741692164.357,-1000.000,-387.695,-109.375,-971.191
1741692164.361,674.805,948.242,104.492,723.145
1741692164.365,999.512,454.590,34.668,999.512
1741692164.369,-713.867,-962.891,-138.672,-730.469
1741692164.326,791.504,962.891,59.570,833.984
1741692164.330,999.512,472.168,65.918,999.512
1741692164.334,-368.652,-614.258,-50.293,-378.418
1741692164.338,-1000.000,-1000.000,-129.395,-1000.000
1741692164.342,-750.000,-136.230,-54.199,-617.676
1741692164.346,778.320,999.512,112.793,833.984
1741692164.350,910.156,311.035,19.531,851.074
1741692164.353,-819.336,-1000.000,-220.215,-835.938
1741692164.357,-1000.000,-387.695,-109.375,-971.191
1741692164.361,674.805,948.242,104.492,723.145
1741692164.365,999.512,454.590,34.668,999.512
1741692164.369,-713.867,-962.891,-138.672,-730.469
1741692164.370,-1000.000,-507.812,-97.168,-984.375
1741692164.374,807.129,999.512,113.281,858.398
1741692164.378,659.180,77.637,33.691,438.477
1741692164.382,-1000.000,-959.473,-162.109,-1000.000
1741692164.386,400.391,652.832,40.039,470.703
1741692164.390,999.512,559.082,65.430,999.512
1741692164.394,-687.500,-987.305,-115.234,-728.027
1741692164.397,-1000.000,-984.375,-137.695,-1000.000
1741692164.401,406.250,626.465,-5.371,435.547
1741692164.405,999.512,709.473,42.969,999.512
1741692164.409,-279.297,-775.391,-107.910,-322.754
1741692164.413,-1000.000,-533.203,-100.098,-1000.000
1741692164.370,-1000.000,-507.812,-97.168,-984.375
1741692164.374,807.129,999.512,113.281,858.398
1741692164.378,659.180,77.637,33.691,438.477
1741692164.382,-1000.000,-959.473,-162.109,-1000.000
1741692164.386,400.391,652.832,40.039,470.703
1741692164.390,999.512,559.082,65.430,999.512
1741692164.394,-687.500,-987.305,-115.234,-728.027
