timestamps,TP9,AF7,AF8,TP10
1741768756.134,887.207,903.809,-139.648,897.949
1741768756.138,999.512,999.512,-156.250,999.512
1741768756.142,192.871,195.801,-27.832,134.277
1741768756.146,-1000.000,-1000.000,-80.566,-1000.000
1741768756.150,-1000.000,-1000.000,-148.438,-1000.000
1741768756.154,-209.961,-203.613,-147.461,-185.547
1741768756.158,994.141,984.375,-104.004,999.512
1741768756.161,999.512,999.512,-51.758,918.457
1741768756.165,-103.516,-12.207,-90.332,-343.262
1741768756.169,-1000.000,-1000.000,-115.234,-1000.000
1741768756.173,-1000.000,-1000.000,-137.695,-1000.000
1741768756.177,-212.891,-206.055,-185.059,-118.164
1741768756.179,999.512,999.512,-201.172,999.512
1741768756.183,946.289,951.172,-196.777,927.734
1741768756.187,882.324,877.441,-209.473,906.738
1741768756.191,999.512,999.512,-188.477,999.512
1741768756.195,107.422,175.781,-140.137,-7.812
1741768756.199,-1000.000,-1000.000,-171.875,-1000.000
1741768756.203,-972.656,-951.660,-229.980,-1000.000
1741768756.206,-1000.000,-1000.000,-206.543,-778.320
1741768756.210,239.258,57.617,-241.699,507.324
1741768756.214,999.512,999.512,-174.805,999.512
1741768756.218,988.770,999.512,-140.625,842.773
1741768756.222,-131.348,-65.918,-138.672,-354.492
1741768756.179,999.512,999.512,-201.172,999.512
1741768756.183,946.289,951.172,-196.777,927.734
1741768756.187,882.324,877.441,-209.473,906.738
1741768756.191,999.512,999.512,-188.477,999.512
1741768756.195,107.422,175.781,-140.137,-7.812
1741768756.199,-1000.000,-1000.000,-171.875,-1000.000
1741768756.203,-972.656,-951.660,-229.980,-1000.000
1741768756.206,-1000.000,-1000.000,-206.543,-778.320
1741768756.210,239.258,57.617,-241.699,507.324
1741768756.214,999.512,999.512,-174.805,999.512
1741768756.218,988.770,999.512,-140.625,842.773
1741768756.222,-131.348,-65.918,-138.672,-354.492
1741768756.241,-1000.000,-1000.000,-179.688,-1000.000
1741768756.245,-1000.000,-1000.000,-201.172,-926.758
1741768756.249,14.648,-89.355,-199.219,213.379
1741768756.253,999.512,999.512,-144.043,999.512
1741768756.257,999.512,999.512,-133.789,830.566
1741768756.261,-41.016,151.855,-84.473,-372.559
1741768756.265,-1000.000,-1000.000,-30.273,-1000.000
1741768756.268,-946.777,-978.516,-136.719,-933.105
1741768756.272,-940.430,-916.992,-170.410,-964.844
1741768756.276,-1000.000,-1000.000,-182.129,-1000.000
1741768756.280,-63.965,-156.738,-200.684,11.230
1741768756.284,999.512,999.512,-66.895,999.512
1741768756.241,-1000.000,-1000.000,-179.688,-1000.000
1741768756.245,-1000.000,-1000.000,-201.172,-926.758
1741768756.249,14.648,-89.355,-199.219,213.379
1741768756.253,999.512,999.512,-144.043,999.512
1741768756.257,999.512,999.512,-133.789,830.566
1741768756.261,-41.016,151.855,-84.473,-372.559
1741768756.265,-1000.000,-1000.000,-30.273,-1000.000
1741768756.268,-946.777,-978.516,-136.719,-933.105
1741768756.272,-940.430,-916.992,-170.410,-964.844
1741768756.276,-1000.000,-1000.000,-182.129,-1000.000
1741768756.280,-63.965,-156.738,-200.684,11.230
1741768756.284,999.512,999.512,-66.895,999.512
1741768756.284,881.348,882.324,3.418,913.086
1741768756.288,999.512,999.512,-61.035,986.816
1741768756.292,30.273,162.109,-6.836,-169.922
1741768756.296,-1000.000,-1000.000,-50.293,-1000.000
1741768756.300,-1000.000,-1000.000,-107.422,-1000.000
1741768756.304,-106.445,-91.309,-96.191,34.668
1741768756.308,999.512,999.512,-46.875,999.512
1741768756.311,932.129,998.047,-17.090,723.633
1741768756.315,-344.238,-223.145,-50.293,-570.801
1741768756.319,-1000.000,-1000.000,-106.934,-1000.000
1741768756.323,-1000.000,-1000.000,-70.801,-940.430
1741768756.327,18.066,-76.172,-49.805,222.656
1741768756.284,881.348,882.324,3.418,913.086
1741768756.288,999.512,999.512,-61.035,986.816
1741768756.292,30.273,162.109,-6.836,-169.922
1741768756.296,-1000.000,-1000.000,-50.293,-1000.000
1741768756.300,-1000.000,-1000.000,-107.422,-1000.000
1741768756.304,-106.445,-91.309,-96.191,34.668
1741768756.308,999.512,999.512,-46.875,999.512
1741768756.311,932.129,998.047,-17.090,723.633
1741768756.315,-344.238,-223.145,-50.293,-570.801
1741768756.319,-1000.000,-1000.000,-106.934,-1000.000
1741768756.323,-1000.000,-1000.000,-70.801,-940.430
1741768756.327,18.066,-76.172,-49.805,222.656
1741768756.329,999.512,999.512,-44.434,999.512
1741768756.333,847.656,857.422,12.695,845.215
1741768756.337,999.512,999.512,8.301,999.512
1741768756.341,341.797,421.875,91.309,299.316
1741768756.345,-1000.000,-989.258,107.910,-1000.000
1741768756.349,-947.266,-975.586,-8.789,-937.500
1741768756.353,-1000.000,-992.676,10.254,-1000.000
1741768756.356,-768.066,-916.504,-50.293,-607.422
1741768756.360,640.137,453.613,-138.184,750.000
1741768756.364,999.512,999.512,-39.062,999.512
1741768756.368,965.820,999.512,28.809,795.898
1741768756.372,-179.688,-78.125,0.000,-426.270
1741768756.329,999.512,999.512,-44.434,999.512
1741768756.333,847.656,857.422,12.695,845.215
1741768756.337,999.512,999.512,8.301,999.512
1741768756.341,341.797,421.875,91.309,299.316
1741768756.345,-1000.000,-989.258,107.910,-1000.000
1741768756.349,-947.266,-975.586,-8.789,-937.500
1741768756.353,-1000.000,-992.676,10.254,-1000.000
1741768756.356,-768.066,-916.504,-50.293,-607.422
1741768756.360,640.137,453.613,-138.184,750.000
1741768756.364,999.512,999.512,-39.062,999.512
1741768756.368,965.820,999.512,28.809,795.898
1741768756.372,-179.688,-78.125,0.000,-426.270
1741768756.374,-1000.000,-1000.000,-34.180,-1000.000
1741768756.378,-1000.000,-1000.000,-43.457,-894.043
1741768756.382,27.344,-92.773,-91.797,268.066
1741768756.386,999.512,999.512,-37.598,999.512
1741768756.390,999.512,999.512,-17.090,868.652
1741768756.394,71.777,168.945,20.508,-265.137
1741768756.398,-1000.000,-1000.000,75.684,-1000.000
1741768756.401,-958.008,-980.469,13.672,-936.035
1741768756.405,-936.035,-916.504,-23.926,-968.750
1741768756.409,-1000.000,-1000.000,-68.848,-1000.000
1741768756.413,-26.855,-145.508,-69.824,83.008
1741768756.417,999.512,999.512,43.457,999.512
1741768756.374,-1000.000,-1000.000,-34.180,-1000.000
1741768756.378,-1000.000,-1000.000,-43.457,-894.043
1741768756.382,27.344,-92.773,-91.797,268.066
1741768756.386,999.512,999.512,-37.598,999.512
1741768756.390,999.512,999.512,-17.090,868.652
1741768756.394,71.777,168.945,20.508,-265.137
1741768756.398,-1000.000,-1000.000,75.684,-1000.000
1741768756.401,-958.008,-980.469,13.672,-936.035
1741768756.405,-936.035,-916.504,-23.926,-968.750
1741768756.409,-1000.000,-1000.000,-68.848,-1000.000
1741768756.413,-26.855,-145.508,-69.824,83.008
1741768756.417,999.512,999.512,43.457,999.512
1741768756.419,898.438,901.367,110.352,935.547
1741768756.423,999.512,999.512,61.523,916.016
1741768756.427,-146.484,-45.410,63.477,-353.516
1741768756.431,-1000.000,-1000.000,-2.441,-1000.000
1741768756.435,-1000.000,-1000.000,-28.320,-1000.000
1741768756.439,-211.426,-221.680,-23.438,-79.590
1741768756.443,999.512,999.512,40.527,999.512
1741768756.446,980.957,999.512,63.965,769.531
1741768756.450,-266.113,-164.062,7.812,-503.906
1741768756.454,-1000.000,-1000.000,-19.043,-1000.000
1741768756.458,-985.840,-1000.000,-21.484,-802.246
1741768756.462,218.750,86.914,-12.695,463.379
1741768756.464,999.512,999.512,23.926,999.512
1741768756.468,884.766,902.344,37.598,878.418
1741768756.472,936.035,915.527,34.668,968.262
1741768756.476,999.512,999.512,42.480,981.445
1741768756.480,-120.117,-0.977,85.938,-251.953
1741768756.484,-1000.000,-1000.000,60.547,-1000.000
1741768756.488,-977.051,-948.242,38.574,-1000.000
1741768756.491,-922.363,-1000.000,10.742,-697.266
1741768756.495,393.066,183.594,-69.336,620.117
1741768756.499,999.512,999.512,29.297,999.512
1741768756.503,933.105,991.211,73.730,741.211
1741768756.507,-262.695,-154.785,64.941,-509.277
1741768756.464,999.512,999.512,23.926,999.512
1741768756.468,884.766,902.344,37.598,878.418
1741768756.472,936.035,915.527,34.668,968.262
1741768756.476,999.512,999.512,42.480,981.445
1741768756.480,-120.117,-0.977,85.938,-251.953
1741768756.484,-1000.000,-1000.000,60.547,-1000.000
1741768756.488,-977.051,-948.242,38.574,-1000.000
1741768756.491,-922.363,-1000.000,10.742,-697.266
1741768756.495,393.066,183.594,-69.336,620.117
1741768756.499,999.512,999.512,29.297,999.512
1741768756.503,933.105,991.211,73.730,741.211
1741768756.507,-262.695,-154.785,64.941,-509.277
1741768756.511,-1000.000,-1000.000,12.695,-1000.000
1741768756.515,-1000.000,-1000.000,-10.742,-928.223
1741768756.519,4.395,-124.023,-21.484,205.078
1741768756.523,999.512,998.047,-18.555,999.512
1741768756.527,999.512,999.512,-18.555,880.371
1741768756.531,108.398,166.992,83.984,-242.676
1741768756.535,-1000.000,-1000.000,159.180,-1000.000
1741768756.538,-972.168,-984.375,-17.578,-948.242
1741768756.542,-920.410,-910.645,-87.402,-947.266
1741768756.546,-1000.000,-1000.000,-42.480,-1000.000
1741768756.550,-151.855,-203.125,-75.684,-68.848
1741768756.554,988.281,985.840,-6.836,993.164
1741768756.511,-1000.000,-1000.000,12.695,-1000.000
1741768756.515,-1000.000,-1000.000,-10.742,-928.223
1741768756.519,4.395,-124.023,-21.484,205.078
1741768756.523,999.512,998.047,-18.555,999.512
1741768756.527,999.512,999.512,-18.555,880.371
1741768756.531,108.398,166.992,83.984,-242.676
1741768756.535,-1000.000,-1000.000,159.180,-1000.000
1741768756.538,-972.168,-984.375,-17.578,-948.242
1741768756.542,-920.410,-910.645,-87.402,-947.266
1741768756.546,-1000.000,-1000.000,-42.480,-1000.000
1741768756.550,-151.855,-203.125,-75.684,-68.848
1741768756.554,988.281,985.840,-6.836,993.164
1741768756.555,999.512,999.512,63.965,999.512
1741768756.559,702.637,802.246,53.711,515.625
1741768756.563,-669.434,-538.086,60.547,-820.312
1741768756.567,-1000.000,-1000.000,-39.551,-1000.000
1741768756.571,-1000.000,-1000.000,-20.996,-872.070
1741768756.575,74.219,25.391,19.531,276.855
1741768756.579,999.512,999.512,81.055,999.512
1741768756.582,733.398,848.145,85.449,532.227
1741768756.586,-625.000,-469.238,38.574,-791.016
1741768756.590,-1000.000,-1000.000,-20.508,-1000.000
1741768756.594,-1000.000,-1000.000,-0.977,-1000.000
1741768756.598,-218.262,-229.492,-48.340,-35.645
1741768756.555,999.512,999.512,63.965,999.512
1741768756.559,702.637,802.246,53.711,515.625
1741768756.563,-669.434,-538.086,60.547,-820.312
1741768756.567,-1000.000,-1000.000,-39.551,-1000.000
1741768756.571,-1000.000,-1000.000,-20.996,-872.070
1741768756.575,74.219,25.391,19.531,276.855
1741768756.579,999.512,999.512,81.055,999.512
1741768756.582,733.398,848.145,85.449,532.227
1741768756.586,-625.000,-469.238,38.574,-791.016
1741768756.590,-1000.000,-1000.000,-20.508,-1000.000
1741768756.594,-1000.000,-1000.000,-0.977,-1000.000
1741768756.598,-218.262,-229.492,-48.340,-35.645
1741768756.614,999.512,999.512,-83.984,999.512
1741768756.618,892.090,903.809,-10.254,874.512
1741768756.622,997.559,973.145,17.578,999.512
1741768756.626,815.918,896.973,59.570,699.219
1741768756.630,-610.352,-488.770,100.098,-704.590
1741768756.634,-1000.000,-1000.000,35.645,-1000.000
1741768756.638,-983.398,-938.477,19.043,-1000.000
1741768756.641,-872.070,-1000.000,-17.578,-696.289
1741768756.645,483.887,272.949,-88.379,645.508
1741768756.649,999.512,999.512,-29.297,999.512
1741768756.653,872.559,963.867,1.465,673.340
1741768756.657,-376.953,-218.750,-8.789,-609.375
1741768756.614,999.512,999.512,-83.984,999.512
1741768756.618,892.090,903.809,-10.254,874.512
1741768756.622,997.559,973.145,17.578,999.512
1741768756.626,815.918,896.973,59.570,699.219
1741768756.630,-610.352,-488.770,100.098,-704.590
1741768756.634,-1000.000,-1000.000,35.645,-1000.000
1741768756.638,-983.398,-938.477,19.043,-1000.000
1741768756.641,-872.070,-1000.000,-17.578,-696.289
1741768756.645,483.887,272.949,-88.379,645.508
1741768756.649,999.512,999.512,-29.297,999.512
1741768756.653,872.559,963.867,1.465,673.340
1741768756.657,-376.953,-218.750,-8.789,-609.375
1741768756.659,-1000.000,-1000.000,-58.105,-1000.000
1741768756.663,-1000.000,-1000.000,-74.707,-987.793
1741768756.667,-103.027,-199.707,-97.168,99.121
1741768756.671,999.512,999.512,-74.219,999.512
1741768756.675,933.105,952.637,-15.625,921.875
1741768756.679,885.742,873.535,21.484,896.484
1741768756.683,999.512,999.512,51.758,999.512
1741768756.686,186.523,271.973,101.074,192.383
1741768756.690,-1000.000,-1000.000,10.742,-1000.000
1741768756.694,-921.875,-935.059,-177.246,-945.312
1741768756.698,-1000.000,-1000.000,-120.117,-1000.000
1741768756.702,-216.797,-222.656,-136.230,-42.480
1741768756.659,-1000.000,-1000.000,-58.105,-1000.000
1741768756.663,-1000.000,-1000.000,-74.707,-987.793
1741768756.667,-103.027,-199.707,-97.168,99.121
1741768756.671,999.512,999.512,-74.219,999.512
1741768756.675,933.105,952.637,-15.625,921.875
1741768756.679,885.742,873.535,21.484,896.484
1741768756.683,999.512,999.512,51.758,999.512
1741768756.686,186.523,271.973,101.074,192.383
1741768756.690,-1000.000,-1000.000,10.742,-1000.000
1741768756.694,-921.875,-935.059,-177.246,-945.312
1741768756.698,-1000.000,-1000.000,-120.117,-1000.000
1741768756.702,-216.797,-222.656,-136.230,-42.480
1741768756.704,975.098,968.262,-106.934,999.512
1741768756.708,999.512,999.512,-39.551,999.512
1741768756.712,189.941,284.668,10.742,159.180
1741768756.716,-991.699,-955.078,30.273,-1000.000
1741768756.720,-1000.000,-1000.000,-70.312,-1000.000
1741768756.724,-190.430,-195.312,-123.047,-172.852
1741768756.728,966.797,960.449,-53.223,983.887
1741768756.731,999.512,999.512,-19.043,999.512
1741768756.735,144.531,147.461,0.000,76.660
1741768756.739,-992.676,-1000.000,23.926,-1000.000
1741768756.743,-1000.000,-1000.000,-31.250,-1000.000
1741768756.747,-593.262,-783.203,-14.648,-454.102
1741768756.704,975.098,968.262,-106.934,999.512
1741768756.708,999.512,999.512,-39.551,999.512
1741768756.712,189.941,284.668,10.742,159.180
1741768756.716,-991.699,-955.078,30.273,-1000.000
1741768756.720,-1000.000,-1000.000,-70.312,-1000.000
1741768756.724,-190.430,-195.312,-123.047,-172.852
1741768756.728,966.797,960.449,-53.223,983.887
1741768756.731,999.512,999.512,-19.043,999.512
1741768756.735,144.531,147.461,0.000,76.660
1741768756.739,-992.676,-1000.000,23.926,-1000.000
1741768756.743,-1000.000,-1000.000,-31.250,-1000.000
1741768756.747,-593.262,-783.203,-14.648,-454.102
1741768756.749,816.406,602.539,-114.258,893.555
1741768756.753,999.512,999.512,-53.711,995.117
1741768756.757,845.215,838.379,12.695,864.258
1741768756.761,999.512,999.512,0.488,999.512
1741768756.765,178.223,183.105,75.195,112.305
1741768756.769,-1000.000,-1000.000,35.645,-1000.000
1741768756.773,-984.863,-953.613,-24.414,-1000.000
1741768756.776,-980.957,-1000.000,0.000,-770.996
1741768756.780,215.332,35.156,-79.590,484.375
1741768756.784,999.512,999.512,-2.441,999.512
1741768756.788,731.934,840.332,59.082,535.645
1741768756.792,-523.438,-404.297,29.297,-714.355
1741768756.749,816.406,602.539,-114.258,893.555
1741768756.753,999.512,999.512,-53.711,995.117
1741768756.757,845.215,838.379,12.695,864.258
1741768756.761,999.512,999.512,0.488,999.512
1741768756.765,178.223,183.105,75.195,112.305
1741768756.769,-1000.000,-1000.000,35.645,-1000.000
1741768756.773,-984.863,-953.613,-24.414,-1000.000
1741768756.776,-980.957,-1000.000,0.000,-770.996
1741768756.780,215.332,35.156,-79.590,484.375
1741768756.784,999.512,999.512,-2.441,999.512
1741768756.788,731.934,840.332,59.082,535.645
1741768756.792,-523.438,-404.297,29.297,-714.355
1741768756.794,-1000.000,-1000.000,-23.926,-1000.000
1741768756.798,-633.789,-770.996,-51.758,-491.699
1741768756.802,644.043,478.516,-20.996,758.301
1741768756.806,999.512,999.512,26.855,999.512
1741768756.810,571.289,660.156,29.785,425.781
1741768756.814,-796.875,-693.359,71.289,-901.855
1741768756.818,-1000.000,-1000.000,30.762,-1000.000
1741768756.821,-892.578,-902.344,-47.852,-901.855
1741768756.825,-1000.000,-1000.000,-74.707,-1000.000
1741768756.829,-923.828,-1000.000,-75.195,-861.816
1741768756.833,458.984,288.574,-96.680,505.859
1741768756.837,999.512,999.512,37.598,999.512
1741768756.839,999.512,999.512,77.148,999.512
1741768756.843,490.234,607.422,83.008,354.004
1741768756.847,-916.504,-825.195,95.703,-960.449
1741768756.851,-1000.000,-1000.000,-13.184,-1000.000
1741768756.855,-1000.000,-1000.000,-35.156,-872.070
1741768756.859,75.195,-8.301,-71.289,312.500
1741768756.863,999.512,999.512,-4.883,999.512
1741768756.866,898.926,983.398,-15.137,708.496
1741768756.870,-377.930,-239.746,-93.262,-604.492
1741768756.874,-1000.000,-1000.000,-141.602,-1000.000
1741768756.878,-1000.000,-1000.000,-76.172,-1000.000
1741768756.882,-371.094,-499.512,-109.863,-308.594
1741768756.839,999.512,999.512,77.148,999.512
1741768756.843,490.234,607.422,83.008,354.004
1741768756.847,-916.504,-825.195,95.703,-960.449
1741768756.851,-1000.000,-1000.000,-13.184,-1000.000
1741768756.855,-1000.000,-1000.000,-35.156,-872.070
1741768756.859,75.195,-8.301,-71.289,312.500
1741768756.863,999.512,999.512,-4.883,999.512
1741768756.866,898.926,983.398,-15.137,708.496
1741768756.870,-377.930,-239.746,-93.262,-604.492
1741768756.874,-1000.000,-1000.000,-141.602,-1000.000
1741768756.878,-1000.000,-1000.000,-76.172,-1000.000
1741768756.882,-371.094,-499.512,-109.863,-308.594
1741768756.885,985.352,918.457,-202.637,999.512
1741768756.889,961.914,995.117,-77.148,939.941
1741768756.893,884.766,863.281,30.273,920.410
1741768756.897,999.512,999.512,36.621,999.512
1741768756.901,-25.391,84.473,75.684,-201.660
1741768756.905,-1000.000,-1000.000,17.578,-1000.000
1741768756.909,-927.734,-924.805,-42.480,-963.379
1741768756.912,-1000.000,-1000.000,-22.949,-950.684
1741768756.916,86.426,-41.016,-107.422,291.016
1741768756.920,999.512,999.512,-40.527,999.512
1741768756.924,999.512,999.512,18.066,914.551
1741768756.928,28.809,137.695,45.410,-214.844
1741768756.885,985.352,918.457,-202.637,999.512
1741768756.889,961.914,995.117,-77.148,939.941
1741768756.893,884.766,863.281,30.273,920.410
1741768756.897,999.512,999.512,36.621,999.512
1741768756.901,-25.391,84.473,75.684,-201.660
1741768756.905,-1000.000,-1000.000,17.578,-1000.000
1741768756.909,-927.734,-924.805,-42.480,-963.379
1741768756.912,-1000.000,-1000.000,-22.949,-950.684
1741768756.916,86.426,-41.016,-107.422,291.016
1741768756.920,999.512,999.512,-40.527,999.512
1741768756.924,999.512,999.512,18.066,914.551
1741768756.928,28.809,137.695,45.410,-214.844
1741768756.929,-1000.000,-1000.000,35.645,-1000.000
1741768756.933,-1000.000,-1000.000,-16.113,-1000.000
1741768756.937,-195.312,-195.801,-34.668,-32.227
1741768756.941,999.512,999.512,-19.531,999.512
1741768756.945,949.219,951.172,15.137,930.176
1741768756.949,876.953,876.953,60.547,894.531
1741768756.953,999.512,999.512,90.820,999.512
1741768756.956,184.082,186.035,132.324,123.535
1741768756.960,-1000.000,-1000.000,41.504,-1000.000
1741768756.964,-944.336,-930.176,-137.207,-977.539
1741768756.968,-1000.000,-1000.000,-76.172,-970.215
1741768756.972,-7.812,-138.184,-57.129,206.543
1741768756.929,-1000.000,-1000.000,35.645,-1000.000
1741768756.933,-1000.000,-1000.000,-16.113,-1000.000
1741768756.937,-195.312,-195.801,-34.668,-32.227
1741768756.941,999.512,999.512,-19.531,999.512
1741768756.945,949.219,951.172,15.137,930.176
1741768756.949,876.953,876.953,60.547,894.531
1741768756.953,999.512,999.512,90.820,999.512
1741768756.956,184.082,186.035,132.324,123.535
1741768756.960,-1000.000,-1000.000,41.504,-1000.000
1741768756.964,-944.336,-930.176,-137.207,-977.539
1741768756.968,-1000.000,-1000.000,-76.172,-970.215
1741768756.972,-7.812,-138.184,-57.129,206.543
1741768756.989,999.512,999.512,1.465,999.512
1741768756.993,999.512,999.512,12.207,879.883
1741768756.997,-101.074,-28.320,-9.766,-322.266
1741768757.001,-1000.000,-1000.000,-31.738,-1000.000
1741768757.005,-1000.000,-1000.000,-90.820,-1000.000
1741768757.009,-181.641,-188.477,-102.051,-62.012
1741768757.013,981.445,974.609,3.418,999.512
1741768757.016,999.512,999.512,6.836,999.512
1741768757.020,162.109,202.148,17.578,123.535
1741768757.024,-1000.000,-1000.000,39.062,-1000.000
1741768757.028,-984.863,-991.211,-47.852,-975.098
1741768757.032,-910.156,-907.227,-28.809,-920.898
1741768756.989,999.512,999.512,1.465,999.512
1741768756.993,999.512,999.512,12.207,879.883
1741768756.997,-101.074,-28.320,-9.766,-322.266
1741768757.001,-1000.000,-1000.000,-31.738,-1000.000
1741768757.005,-1000.000,-1000.000,-90.820,-1000.000
1741768757.009,-181.641,-188.477,-102.051,-62.012
1741768757.013,981.445,974.609,3.418,999.512
1741768757.016,999.512,999.512,6.836,999.512
1741768757.020,162.109,202.148,17.578,123.535
1741768757.024,-1000.000,-1000.000,39.062,-1000.000
1741768757.028,-984.863,-991.211,-47.852,-975.098
1741768757.032,-910.156,-907.227,-28.809,-920.898
1741768757.034,-1000.000,-1000.000,-35.156,-1000.000
1741768757.038,-208.496,-214.355,-116.211,-137.207
1741768757.042,988.770,999.512,-54.199,990.723
1741768757.046,987.793,934.570,33.691,999.512
1741768757.050,847.168,999.512,2.930,641.602
1741768757.054,-495.605,-205.566,36.621,-711.426
1741768757.058,-1000.000,-1000.000,0.977,-1000.000
1741768757.061,-1000.000,-1000.000,-41.504,-1000.000
1741768757.065,-240.234,-227.539,-159.180,-81.055
1741768757.069,997.559,986.328,-154.785,999.512
1741768757.073,999.512,999.512,-80.078,899.414
1741768757.077,-51.758,32.227,-52.734,-296.387
1741768757.034,-1000.000,-1000.000,-35.156,-1000.000
1741768757.038,-208.496,-214.355,-116.211,-137.207
1741768757.042,988.770,999.512,-54.199,990.723
1741768757.046,987.793,934.570,33.691,999.512
1741768757.050,847.168,999.512,2.930,641.602
1741768757.054,-495.605,-205.566,36.621,-711.426
1741768757.058,-1000.000,-1000.000,0.977,-1000.000
1741768757.061,-1000.000,-1000.000,-41.504,-1000.000
1741768757.065,-240.234,-227.539,-159.180,-81.055
1741768757.069,997.559,986.328,-154.785,999.512
1741768757.073,999.512,999.512,-80.078,899.414
1741768757.077,-51.758,32.227,-52.734,-296.387
1741768757.079,-1000.000,-1000.000,-45.898,-1000.000
1741768757.083,-1000.000,-1000.000,-87.891,-945.312
1741768757.087,4.883,-109.863,-83.984,223.145
1741768757.091,999.512,999.512,-70.312,999.512
1741768757.095,910.645,933.105,-62.500,895.508
1741768757.099,909.668,891.602,-0.488,936.523
1741768757.103,999.512,999.512,39.551,999.512
1741768757.106,-16.113,86.914,37.598,-112.793
1741768757.110,-1000.000,-1000.000,-32.227,-1000.000
1741768757.114,-1000.000,-1000.000,-130.371,-1000.000
1741768757.118,-671.875,-809.570,-121.582,-509.766
1741768757.122,708.008,541.504,-87.891,812.988
1741768757.079,-1000.000,-1000.000,-45.898,-1000.000
1741768757.083,-1000.000,-1000.000,-87.891,-945.312
1741768757.087,4.883,-109.863,-83.984,223.145
1741768757.091,999.512,999.512,-70.312,999.512
1741768757.095,910.645,933.105,-62.500,895.508
1741768757.099,909.668,891.602,-0.488,936.523
1741768757.103,999.512,999.512,39.551,999.512
1741768757.106,-16.113,86.914,37.598,-112.793
1741768757.110,-1000.000,-1000.000,-32.227,-1000.000
1741768757.114,-1000.000,-1000.000,-130.371,-1000.000
1741768757.118,-671.875,-809.570,-121.582,-509.766
1741768757.122,708.008,541.504,-87.891,812.988
1741768757.124,999.512,999.512,-11.719,999.512
1741768757.128,880.859,964.844,-22.461,685.547
1741768757.132,-365.234,-201.660,11.719,-599.121
1741768757.136,-1000.000,-1000.000,-39.551,-1000.000
1741768757.140,-1000.000,-1000.000,-77.637,-1000.000
1741768757.144,-90.820,-139.160,-71.777,64.941
1741768757.148,999.512,995.605,-14.160,999.512
1741768757.151,999.512,999.512,-29.785,999.512
1741768757.155,169.922,166.016,-25.879,39.062
1741768757.159,-1000.000,-1000.000,-60.547,-1000.000
1741768757.163,-984.863,-984.863,-135.254,-968.750
1741768757.167,-910.156,-910.156,-106.445,-922.363
1741768757.124,999.512,999.512,-11.719,999.512
1741768757.128,880.859,964.844,-22.461,685.547
1741768757.132,-365.234,-201.660,11.719,-599.121
1741768757.136,-1000.000,-1000.000,-39.551,-1000.000
1741768757.140,-1000.000,-1000.000,-77.637,-1000.000
1741768757.144,-90.820,-139.160,-71.777,64.941
1741768757.148,999.512,995.605,-14.160,999.512
1741768757.151,999.512,999.512,-29.785,999.512
1741768757.155,169.922,166.016,-25.879,39.062
1741768757.159,-1000.000,-1000.000,-60.547,-1000.000
1741768757.163,-984.863,-984.863,-135.254,-968.750
1741768757.167,-910.156,-910.156,-106.445,-922.363
1741768757.170,-1000.000,-1000.000,-129.883,-1000.000
1741768757.174,-208.984,-212.891,-212.402,-177.246
1741768757.178,991.211,999.512,-104.492,984.863
1741768757.182,981.445,944.336,27.344,999.512
1741768757.186,869.141,981.934,-41.504,665.039
1741768757.190,-463.867,-271.973,-1.953,-694.824
1741768757.194,-1000.000,-1000.000,-27.344,-1000.000
1741768757.197,-1000.000,-1000.000,-80.566,-1000.000
1741768757.201,-229.980,-316.895,-206.543,-173.828
1741768757.205,999.512,999.512,-155.273,999.512
1741768757.209,933.594,957.031,-14.160,914.062
1741768757.213,902.832,883.789,-53.223,944.336
1741768757.170,-1000.000,-1000.000,-129.883,-1000.000
1741768757.174,-208.984,-212.891,-212.402,-177.246
1741768757.178,991.211,999.512,-104.492,984.863
1741768757.182,981.445,944.336,27.344,999.512
1741768757.186,869.141,981.934,-41.504,665.039
1741768757.190,-463.867,-271.973,-1.953,-694.824
1741768757.194,-1000.000,-1000.000,-27.344,-1000.000
1741768757.197,-1000.000,-1000.000,-80.566,-1000.000
1741768757.201,-229.980,-316.895,-206.543,-173.828
1741768757.205,999.512,999.512,-155.273,999.512
1741768757.209,933.594,957.031,-14.160,914.062
1741768757.213,902.832,883.789,-53.223,944.336
1741768757.214,999.512,999.512,-41.504,943.359
1741768757.218,-75.195,27.344,34.668,-267.578
1741768757.222,-1000.000,-1000.000,24.902,-1000.000
1741768757.226,-892.578,-902.344,-57.617,-908.203
1741768757.230,-1000.000,-1000.000,-108.887,-1000.000
1741768757.234,-170.410,-191.895,-130.371,-49.805
1741768757.238,987.793,983.398,-15.625,999.512
1741768757.241,999.512,999.512,18.555,999.512
1741768757.245,163.086,158.203,-22.949,134.766
1741768757.249,-1000.000,-999.023,-105.469,-1000.000
1741768757.253,-1000.000,-1000.000,-147.461,-1000.000
1741768757.257,-181.152,-241.211,-173.340,-157.715
1741768757.214,999.512,999.512,-41.504,943.359
1741768757.218,-75.195,27.344,34.668,-267.578
1741768757.222,-1000.000,-1000.000,24.902,-1000.000
1741768757.226,-892.578,-902.344,-57.617,-908.203
1741768757.230,-1000.000,-1000.000,-108.887,-1000.000
1741768757.234,-170.410,-191.895,-130.371,-49.805
1741768757.238,987.793,983.398,-15.625,999.512
1741768757.241,999.512,999.512,18.555,999.512
1741768757.245,163.086,158.203,-22.949,134.766
1741768757.249,-1000.000,-999.023,-105.469,-1000.000
1741768757.253,-1000.000,-1000.000,-147.461,-1000.000
1741768757.257,-181.152,-241.211,-173.340,-157.715
1741768757.259,956.543,937.500,-151.367,971.191
1741768757.263,999.512,999.512,-73.730,999.512
1741768757.267,417.480,550.293,-42.480,296.387
1741768757.271,-880.859,-780.762,23.438,-936.523
1741768757.275,-1000.000,-1000.000,-77.148,-1000.000
1741768757.279,-313.965,-268.066,-156.738,-265.137
1741768757.283,974.609,991.211,-126.465,990.234
1741768757.286,907.715,897.461,-58.594,918.945
1741768757.290,999.512,999.512,-124.023,999.512
1741768757.294,251.465,338.379,-32.715,117.188
1741768757.298,-1000.000,-1000.000,21.973,-1000.000
1741768757.302,-918.457,-934.570,-130.371,-914.062
1741768757.259,956.543,937.500,-151.367,971.191
1741768757.263,999.512,999.512,-73.730,999.512
1741768757.267,417.480,550.293,-42.480,296.387
1741768757.271,-880.859,-780.762,23.438,-936.523
1741768757.275,-1000.000,-1000.000,-77.148,-1000.000
1741768757.279,-313.965,-268.066,-156.738,-265.137
1741768757.283,974.609,991.211,-126.465,990.234
1741768757.286,907.715,897.461,-58.594,918.945
1741768757.290,999.512,999.512,-124.023,999.512
1741768757.294,251.465,338.379,-32.715,117.188
1741768757.298,-1000.000,-1000.000,21.973,-1000.000
1741768757.302,-918.457,-934.570,-130.371,-914.062
1741768757.304,-1000.000,-1000.000,-125.000,-1000.000
1741768757.308,-489.746,-604.980,-195.801,-391.602
1741768757.312,885.742,826.660,-213.379,909.180
1741768757.316,999.512,994.141,-53.711,999.512
1741768757.320,918.457,999.512,-51.270,713.867
1741768757.324,-329.590,-128.906,-27.832,-583.984
1741768757.328,-1000.000,-1000.000,-29.785,-1000.000
1741768757.331,-1000.000,-1000.000,-65.918,-993.652
1741768757.335,-166.992,-215.820,-170.898,36.133
1741768757.339,991.699,974.609,-107.910,999.512
1741768757.343,999.512,999.512,-8.301,983.887
1741768757.347,138.184,160.156,-16.113,-90.332
1741768757.304,-1000.000,-1000.000,-125.000,-1000.000
1741768757.308,-489.746,-604.980,-195.801,-391.602
1741768757.312,885.742,826.660,-213.379,909.180
1741768757.316,999.512,994.141,-53.711,999.512
1741768757.320,918.457,999.512,-51.270,713.867
1741768757.324,-329.590,-128.906,-27.832,-583.984
1741768757.328,-1000.000,-1000.000,-29.785,-1000.000
1741768757.331,-1000.000,-1000.000,-65.918,-993.652
1741768757.335,-166.992,-215.820,-170.898,36.133
1741768757.339,991.699,974.609,-107.910,999.512
1741768757.343,999.512,999.512,-8.301,983.887
1741768757.347,138.184,160.156,-16.113,-90.332
1741768757.366,-1000.000,-1000.000,-3.418,-1000.000
1741768757.370,-977.539,-984.375,-40.039,-952.637
1741768757.374,-917.480,-911.133,-44.922,-942.383
1741768757.378,-1000.000,-1000.000,-68.848,-1000.000
1741768757.382,-153.320,-206.543,-115.723,-62.500
1741768757.386,999.512,999.512,12.207,999.512
1741768757.390,945.801,935.547,148.438,986.816
1741768757.393,954.590,999.512,108.887,776.367
1741768757.397,-318.359,-220.703,64.941,-545.410
1741768757.401,-1000.000,-1000.000,-22.949,-1000.000
1741768757.405,-1000.000,-1000.000,-17.090,-1000.000
1741768757.409,-147.461,-213.867,-34.180,33.203
1741768757.366,-1000.000,-1000.000,-3.418,-1000.000
1741768757.370,-977.539,-984.375,-40.039,-952.637
1741768757.374,-917.480,-911.133,-44.922,-942.383
1741768757.378,-1000.000,-1000.000,-68.848,-1000.000
1741768757.382,-153.320,-206.543,-115.723,-62.500
1741768757.386,999.512,999.512,12.207,999.512
1741768757.390,945.801,935.547,148.438,986.816
1741768757.393,954.590,999.512,108.887,776.367
1741768757.397,-318.359,-220.703,64.941,-545.410
1741768757.401,-1000.000,-1000.000,-22.949,-1000.000
1741768757.405,-1000.000,-1000.000,-17.090,-1000.000
1741768757.409,-147.461,-213.867,-34.180,33.203
1741768757.409,999.512,978.516,12.207,999.512
1741768757.413,999.512,999.512,44.922,952.148
1741768757.417,56.152,146.484,55.176,-162.109
1741768757.421,-1000.000,-1000.000,46.875,-1000.000
1741768757.425,-1000.000,-1000.000,19.531,-1000.000
1741768757.429,-71.289,-127.441,-12.207,111.328
1741768757.433,999.512,999.512,-19.043,999.512
1741768757.436,989.258,976.074,13.184,999.512
1741768757.440,795.898,868.652,3.906,653.809
1741768757.444,-585.938,-472.168,31.250,-712.402
1741768757.448,-1000.000,-1000.000,-18.555,-1000.000
1741768757.452,-871.582,-870.605,-37.598,-890.625
1741768757.409,999.512,978.516,12.207,999.512
1741768757.413,999.512,999.512,44.922,952.148
1741768757.417,56.152,146.484,55.176,-162.109
1741768757.421,-1000.000,-1000.000,46.875,-1000.000
1741768757.425,-1000.000,-1000.000,19.531,-1000.000
1741768757.429,-71.289,-127.441,-12.207,111.328
1741768757.433,999.512,999.512,-19.043,999.512
1741768757.436,989.258,976.074,13.184,999.512
1741768757.440,795.898,868.652,3.906,653.809
1741768757.444,-585.938,-472.168,31.250,-712.402
1741768757.448,-1000.000,-1000.000,-18.555,-1000.000
1741768757.452,-871.582,-870.605,-37.598,-890.625
1741768757.457,-1000.000,-1000.000,-62.012,-1000.000
1741768757.461,-200.195,-205.078,-104.980,-115.234
1741768757.465,964.355,965.820,9.277,985.840
1741768757.469,999.512,999.512,84.961,999.512
1741768757.473,481.934,556.152,48.340,368.652
1741768757.477,-903.320,-852.539,62.500,-944.824
1741768757.481,-1000.000,-1000.000,38.086,-1000.000
1741768757.484,-1000.000,-1000.000,21.484,-948.242
1741768757.488,-9.766,-158.203,-76.660,227.539
1741768757.492,999.512,999.512,-48.828,999.512
1741768757.496,845.703,866.699,4.883,844.238
1741768757.500,999.512,999.512,-33.203,999.512
1741768757.457,-1000.000,-1000.000,-62.012,-1000.000
1741768757.461,-200.195,-205.078,-104.980,-115.234
1741768757.465,964.355,965.820,9.277,985.840
1741768757.469,999.512,999.512,84.961,999.512
1741768757.473,481.934,556.152,48.340,368.652
1741768757.477,-903.320,-852.539,62.500,-944.824
1741768757.481,-1000.000,-1000.000,38.086,-1000.000
1741768757.484,-1000.000,-1000.000,21.484,-948.242
1741768757.488,-9.766,-158.203,-76.660,227.539
1741768757.492,999.512,999.512,-48.828,999.512
1741768757.496,845.703,866.699,4.883,844.238
1741768757.500,999.512,999.512,-33.203,999.512
1741768757.499,531.738,565.918,42.969,493.164
1741768757.503,-926.270,-890.625,98.145,-918.945
1741768757.507,-991.211,-1000.000,8.301,-978.516
1741768757.511,-1000.000,-974.609,-57.129,-1000.000
1741768757.515,-856.445,-947.266,-104.004,-703.125
1741768757.519,568.848,435.059,-98.633,705.078
1741768757.523,999.512,999.512,-10.742,988.281
1741768757.526,999.512,999.512,13.184,999.512
1741768757.530,198.730,189.941,24.902,98.633
1741768757.534,-1000.000,-1000.000,-83.496,-1000.000
1741768757.538,-1000.000,-1000.000,-109.375,-1000.000
1741768757.542,-186.523,-307.617,-114.258,-154.785
1741768757.499,531.738,565.918,42.969,493.164
1741768757.503,-926.270,-890.625,98.145,-918.945
1741768757.507,-991.211,-1000.000,8.301,-978.516
1741768757.511,-1000.000,-974.609,-57.129,-1000.000
1741768757.515,-856.445,-947.266,-104.004,-703.125
1741768757.519,568.848,435.059,-98.633,705.078
1741768757.523,999.512,999.512,-10.742,988.281
1741768757.526,999.512,999.512,13.184,999.512
1741768757.530,198.730,189.941,24.902,98.633
1741768757.534,-1000.000,-1000.000,-83.496,-1000.000
1741768757.538,-1000.000,-1000.000,-109.375,-1000.000
1741768757.542,-186.523,-307.617,-114.258,-154.785
1741768757.544,999.512,967.773,-157.715,995.605
1741768757.548,939.941,941.406,-83.984,988.770
1741768757.552,989.258,999.512,-50.781,766.113
1741768757.556,-243.164,-119.141,16.113,-516.113
1741768757.560,-1000.000,-1000.000,-35.156,-1000.000
1741768757.564,-865.723,-877.441,-54.199,-874.512
1741768757.568,-1000.000,-1000.000,-14.160,-1000.000
1741768757.571,-617.188,-696.777,-103.027,-546.875
1741768757.575,838.867,763.672,-189.941,865.234
1741768757.579,951.660,966.797,-78.125,943.848
1741768757.583,999.512,999.512,-12.695,999.512
1741768757.587,381.348,476.562,68.848,293.945
1741768757.589,-921.875,-871.582,53.711,-962.891
1741768757.593,-1000.000,-1000.000,-41.504,-1000.000
1741768757.597,-452.637,-541.504,-47.363,-340.332
1741768757.601,907.715,839.844,-59.570,963.867
1741768757.605,999.512,999.512,-2.930,987.793
1741768757.609,878.906,881.348,10.254,885.254
1741768757.613,990.234,971.191,81.543,999.512
1741768757.616,960.938,999.512,88.379,894.043
1741768757.620,-372.559,-250.977,54.688,-439.453
1741768757.624,-1000.000,-1000.000,-13.184,-1000.000
1741768757.628,-998.047,-951.660,12.207,-1000.000
1741768757.632,-828.125,-985.840,30.273,-632.812
1741768757.634,585.938,342.773,-7.324,750.000
1741768757.638,999.512,999.512,70.312,999.512
1741768757.642,999.512,999.512,73.242,958.496
1741768757.646,135.742,220.703,91.797,-48.340
1741768757.650,-1000.000,-1000.000,48.828,-1000.000
1741768757.654,-851.074,-896.484,-20.996,-636.230
1741768757.658,444.336,399.414,8.789,657.227
1741768757.661,999.512,999.512,19.043,999.512
1741768757.665,237.305,269.531,26.855,183.105
1741768757.669,-941.895,-926.758,15.625,-968.750
1741768757.673,-1000.000,-1000.000,-35.645,-1000.000
1741768757.677,-366.211,-466.797,-117.188,-279.297
1741768757.634,585.938,342.773,-7.324,750.000
1741768757.638,999.512,999.512,70.312,999.512
1741768757.642,999.512,999.512,73.242,958.496
1741768757.646,135.742,220.703,91.797,-48.340
1741768757.650,-1000.000,-1000.000,48.828,-1000.000
1741768757.654,-851.074,-896.484,-20.996,-636.230
1741768757.658,444.336,399.414,8.789,657.227
1741768757.661,999.512,999.512,19.043,999.512
1741768757.665,237.305,269.531,26.855,183.105
1741768757.669,-941.895,-926.758,15.625,-968.750
1741768757.673,-1000.000,-1000.000,-35.645,-1000.000
1741768757.677,-366.211,-466.797,-117.188,-279.297
1741768757.680,956.543,902.344,-125.488,994.141
1741768757.684,994.629,999.512,-26.855,978.516
1741768757.688,849.609,842.773,-44.434,859.375
1741768757.692,999.512,999.512,-55.176,999.512
1741768757.696,477.051,442.383,14.160,456.543
1741768757.700,-960.449,-978.027,81.055,-961.914
1741768757.704,-964.844,-969.238,-12.207,-962.402
1741768757.707,-1000.000,-1000.000,-67.871,-1000.000
1741768757.711,-633.301,-795.410,-102.051,-501.953
1741768757.715,751.465,579.102,-101.562,827.148
1741768757.719,999.512,999.512,6.348,999.512
1741768757.723,679.688,777.344,35.645,496.094
1741768757.680,956.543,902.344,-125.488,994.141
1741768757.684,994.629,999.512,-26.855,978.516
1741768757.688,849.609,842.773,-44.434,859.375
1741768757.692,999.512,999.512,-55.176,999.512
1741768757.696,477.051,442.383,14.160,456.543
1741768757.700,-960.449,-978.027,81.055,-961.914
1741768757.704,-964.844,-969.238,-12.207,-962.402
1741768757.707,-1000.000,-1000.000,-67.871,-1000.000
1741768757.711,-633.301,-795.410,-102.051,-501.953
1741768757.715,751.465,579.102,-101.562,827.148
1741768757.719,999.512,999.512,6.348,999.512
1741768757.723,679.688,777.344,35.645,496.094
1741768757.739,-603.516,-453.125,25.879,-782.227
1741768757.743,-1000.000,-1000.000,6.348,-1000.000
1741768757.747,-477.051,-640.137,-28.809,-338.867
1741768757.751,812.988,708.008,-39.062,893.555
1741768757.755,999.512,999.512,-5.371,993.652
1741768757.759,847.656,841.309,-29.297,865.234
1741768757.763,999.512,999.512,23.926,999.512
1741768757.766,186.523,187.012,96.191,132.812
1741768757.770,-1000.000,-1000.000,51.758,-1000.000
1741768757.774,-921.387,-921.387,-64.941,-920.898
1741768757.778,-1000.000,-1000.000,-62.012,-1000.000
1741768757.782,-213.379,-216.309,-84.961,-152.832
1741768757.739,-603.516,-453.125,25.879,-782.227
1741768757.743,-1000.000,-1000.000,6.348,-1000.000
1741768757.747,-477.051,-640.137,-28.809,-338.867
1741768757.751,812.988,708.008,-39.062,893.555
1741768757.755,999.512,999.512,-5.371,993.652
1741768757.759,847.656,841.309,-29.297,865.234
1741768757.763,999.512,999.512,23.926,999.512
1741768757.766,186.523,187.012,96.191,132.812
1741768757.770,-1000.000,-1000.000,51.758,-1000.000
1741768757.774,-921.387,-921.387,-64.941,-920.898
1741768757.778,-1000.000,-1000.000,-62.012,-1000.000
1741768757.782,-213.379,-216.309,-84.961,-152.832
1741768757.784,980.957,994.141,-60.059,986.816
1741768757.788,999.512,976.074,19.043,999.512
1741768757.792,757.324,874.023,45.410,598.633
1741768757.796,-540.039,-376.465,42.480,-698.242
1741768757.800,-1000.000,-1000.000,-15.137,-1000.000
1741768757.804,-658.691,-748.047,-51.270,-488.281
1741768757.808,614.746,504.883,-57.129,765.137
1741768757.811,999.512,999.512,4.395,999.512
1741768757.815,339.844,391.602,25.391,251.465
1741768757.819,-908.691,-902.344,-39.062,-945.801
1741768757.823,-1000.000,-1000.000,-134.766,-1000.000
1741768757.827,-812.500,-960.449,-126.953,-625.000
1741768757.784,980.957,994.141,-60.059,986.816
1741768757.788,999.512,976.074,19.043,999.512
1741768757.792,757.324,874.023,45.410,598.633
1741768757.796,-540.039,-376.465,42.480,-698.242
1741768757.800,-1000.000,-1000.000,-15.137,-1000.000
1741768757.804,-658.691,-748.047,-51.270,-488.281
1741768757.808,614.746,504.883,-57.129,765.137
1741768757.811,999.512,999.512,4.395,999.512
1741768757.815,339.844,391.602,25.391,251.465
1741768757.819,-908.691,-902.344,-39.062,-945.801
1741768757.823,-1000.000,-1000.000,-134.766,-1000.000
1741768757.827,-812.500,-960.449,-126.953,-625.000
1741768757.829,527.832,284.668,-161.133,712.891
1741768757.833,999.512,999.512,-115.723,999.512
1741768757.837,836.426,853.516,-37.109,847.656
1741768757.841,999.512,999.512,-53.223,999.512
1741768757.845,716.309,876.953,-45.410,615.234
1741768757.849,-715.820,-501.465,32.227,-775.391
1741768757.853,-1000.000,-1000.000,-61.523,-1000.000
1741768757.856,-1000.000,-1000.000,-115.723,-1000.000
1741768757.860,-226.074,-249.023,-147.461,-163.086
1741768757.864,965.332,953.125,-143.066,983.887
1741768757.868,999.512,999.512,-33.691,999.512
1741768757.872,331.055,408.203,34.668,252.930
1741768757.829,527.832,284.668,-161.133,712.891
1741768757.833,999.512,999.512,-115.723,999.512
1741768757.837,836.426,853.516,-37.109,847.656
1741768757.841,999.512,999.512,-53.223,999.512
1741768757.845,716.309,876.953,-45.410,615.234
1741768757.849,-715.820,-501.465,32.227,-775.391
1741768757.853,-1000.000,-1000.000,-61.523,-1000.000
1741768757.856,-1000.000,-1000.000,-115.723,-1000.000
1741768757.860,-226.074,-249.023,-147.461,-163.086
1741768757.864,965.332,953.125,-143.066,983.887
1741768757.868,999.512,999.512,-33.691,999.512
1741768757.872,331.055,408.203,34.668,252.930
1741768757.874,-928.711,-882.324,16.602,-966.797
1741768757.878,-1000.000,-1000.000,-42.480,-1000.000
1741768757.882,-266.113,-361.328,-77.637,-211.914
1741768757.886,977.539,946.289,-69.824,982.422
1741768757.890,928.223,926.758,7.812,977.051
1741768757.894,999.512,999.512,-21.973,780.762
1741768757.898,-63.965,125.977,79.102,-402.832
1741768757.901,-1000.000,-1000.000,93.262,-1000.000
1741768757.905,-880.371,-902.832,-31.250,-884.766
1741768757.909,-1000.000,-1000.000,-43.457,-1000.000
1741768757.913,-365.234,-373.047,-92.285,-328.125
1741768757.917,984.863,983.398,-126.953,995.605
1741768757.919,911.133,913.086,5.859,910.645
1741768757.923,999.512,999.512,0.000,999.512
1741768757.927,196.777,197.266,54.688,153.809
1741768757.931,-1000.000,-1000.000,29.297,-1000.000
1741768757.935,-1000.000,-1000.000,-73.730,-1000.000
1741768757.939,-196.777,-193.359,-83.008,-173.340
1741768757.943,973.633,969.727,-21.973,999.512
1741768757.946,999.512,999.512,15.625,999.512
1741768757.950,94.727,150.391,-17.578,-89.355
1741768757.954,-1000.000,-1000.000,-11.230,-1000.000
1741768757.958,-1000.000,-1000.000,-17.578,-1000.000
1741768757.962,-161.133,-188.477,-61.035,29.297
1741768757.965,999.512,999.512,-68.848,999.512
1741768757.969,958.984,928.711,-41.992,987.793
1741768757.973,926.270,999.512,-31.738,702.148
1741768757.977,-368.652,-170.898,41.016,-615.234
1741768757.981,-1000.000,-1000.000,-2.441,-1000.000
1741768757.985,-875.977,-883.301,-12.695,-904.297
1741768757.989,-1000.000,-1000.000,46.875,-1000.000
1741768757.992,-166.992,-170.898,-30.273,-33.203
1741768757.996,999.512,999.512,-57.129,999.512
1741768758.000,923.828,906.738,20.996,964.844
1741768758.004,999.512,999.512,57.617,845.215
1741768758.008,-181.152,-57.129,76.660,-427.246
1741768758.009,-1000.000,-1000.000,-24.902,-1000.000
1741768758.013,-1000.000,-1000.000,-7.812,-972.656
1741768758.017,-114.746,-200.684,5.859,75.195
1741768758.021,999.512,999.512,56.641,999.512
1741768758.025,887.695,999.512,97.168,656.250
1741768758.029,-453.125,-255.859,105.469,-695.801
1741768758.033,-1000.000,-1000.000,108.398,-1000.000
1741768758.036,-1000.000,-1000.000,8.789,-1000.000
1741768758.040,-530.273,-661.133,-58.594,-436.523
1741768758.044,903.320,786.133,-109.863,949.707
1741768758.048,999.512,999.512,-41.504,976.074
1741768758.052,853.516,843.750,-12.207,884.277
1741768758.009,-1000.000,-1000.000,-24.902,-1000.000
1741768758.013,-1000.000,-1000.000,-7.812,-972.656
1741768758.017,-114.746,-200.684,5.859,75.195
1741768758.021,999.512,999.512,56.641,999.512
1741768758.025,887.695,999.512,97.168,656.250
1741768758.029,-453.125,-255.859,105.469,-695.801
1741768758.033,-1000.000,-1000.000,108.398,-1000.000
1741768758.036,-1000.000,-1000.000,8.789,-1000.000
1741768758.040,-530.273,-661.133,-58.594,-436.523
1741768758.044,903.320,786.133,-109.863,949.707
1741768758.048,999.512,999.512,-41.504,976.074
1741768758.052,853.516,843.750,-12.207,884.277
1741768758.054,999.512,999.512,-22.461,999.512
1741768758.058,155.762,178.711,79.590,-6.836
1741768758.062,-1000.000,-1000.000,41.504,-1000.000
1741768758.066,-1000.000,-983.398,-87.891,-1000.000
1741768758.070,-906.738,-998.535,-102.051,-715.332
1741768758.074,399.902,254.395,-81.055,602.539
1741768758.078,999.512,999.512,17.578,999.512
1741768758.081,992.188,999.512,17.578,836.426
1741768758.085,-120.117,38.574,7.324,-373.535
1741768758.089,-1000.000,-1000.000,-25.879,-1000.000
1741768758.093,-1000.000,-1000.000,-39.062,-1000.000
1741768758.097,-159.180,-204.590,-81.543,41.992
1741768758.054,999.512,999.512,-22.461,999.512
1741768758.058,155.762,178.711,79.590,-6.836
1741768758.062,-1000.000,-1000.000,41.504,-1000.000
1741768758.066,-1000.000,-983.398,-87.891,-1000.000
1741768758.070,-906.738,-998.535,-102.051,-715.332
1741768758.074,399.902,254.395,-81.055,602.539
1741768758.078,999.512,999.512,17.578,999.512
1741768758.081,992.188,999.512,17.578,836.426
1741768758.085,-120.117,38.574,7.324,-373.535
1741768758.089,-1000.000,-1000.000,-25.879,-1000.000
1741768758.093,-1000.000,-1000.000,-39.062,-1000.000
1741768758.097,-159.180,-204.590,-81.543,41.992
1741768758.116,999.512,999.512,-50.781,999.512
1741768758.120,941.895,951.172,2.441,917.969
1741768758.124,881.348,876.953,-6.836,908.203
1741768758.128,999.512,999.512,20.020,999.512
1741768758.132,178.711,187.012,106.445,64.941
1741768758.136,-1000.000,-1000.000,103.516,-1000.000
1741768758.140,-927.734,-923.828,-15.625,-939.453
1741768758.143,-1000.000,-1000.000,-39.551,-1000.000
1741768758.147,-141.602,-197.754,-56.641,16.113
1741768758.151,996.094,982.910,-16.602,999.512
1741768758.155,999.512,999.512,12.695,999.512
1741768758.159,165.527,160.645,50.781,81.055
1741768758.116,999.512,999.512,-50.781,999.512
1741768758.120,941.895,951.172,2.441,917.969
1741768758.124,881.348,876.953,-6.836,908.203
1741768758.128,999.512,999.512,20.020,999.512
1741768758.132,178.711,187.012,106.445,64.941
1741768758.136,-1000.000,-1000.000,103.516,-1000.000
1741768758.140,-927.734,-923.828,-15.625,-939.453
1741768758.143,-1000.000,-1000.000,-39.551,-1000.000
1741768758.147,-141.602,-197.754,-56.641,16.113
1741768758.151,996.094,982.910,-16.602,999.512
1741768758.155,999.512,999.512,12.695,999.512
1741768758.159,165.527,160.645,50.781,81.055
1741768758.159,-1000.000,-1000.000,27.344,-1000.000
1741768758.163,-1000.000,-1000.000,-24.414,-1000.000
1741768758.167,-193.848,-208.984,-82.520,-140.625
1741768758.171,999.512,999.512,-83.008,999.512
1741768758.175,962.891,968.750,13.184,954.102
1741768758.179,865.234,866.211,15.137,872.070
1741768758.183,999.512,999.512,19.043,999.512
1741768758.186,458.496,586.426,53.223,418.457
1741768758.190,-955.078,-861.816,39.551,-959.473
1741768758.194,-969.727,-996.094,-134.766,-977.539
1741768758.198,-1000.000,-1000.000,-107.910,-1000.000
1741768758.202,-224.121,-222.168,-101.074,-106.445
1741768758.159,-1000.000,-1000.000,27.344,-1000.000
1741768758.163,-1000.000,-1000.000,-24.414,-1000.000
1741768758.167,-193.848,-208.984,-82.520,-140.625
1741768758.171,999.512,999.512,-83.008,999.512
1741768758.175,962.891,968.750,13.184,954.102
1741768758.179,865.234,866.211,15.137,872.070
1741768758.183,999.512,999.512,19.043,999.512
1741768758.186,458.496,586.426,53.223,418.457
1741768758.190,-955.078,-861.816,39.551,-959.473
1741768758.194,-969.727,-996.094,-134.766,-977.539
1741768758.198,-1000.000,-1000.000,-107.910,-1000.000
1741768758.202,-224.121,-222.168,-101.074,-106.445
1741768758.204,964.355,963.379,-86.914,988.770
1741768758.208,999.512,999.512,2.441,999.512
1741768758.212,375.488,470.215,64.941,287.598
1741768758.216,-914.551,-862.793,46.387,-959.961
1741768758.220,-1000.000,-1000.000,-65.918,-1000.000
1741768758.224,-197.754,-183.105,-85.938,-191.406
1741768758.228,998.047,984.375,-12.207,999.512
1741768758.231,999.512,999.512,15.625,869.629
1741768758.235,-156.250,-71.777,-45.410,-395.996
1741768758.239,-1000.000,-1000.000,-59.570,-1000.000
1741768758.243,-1000.000,-1000.000,-57.129,-879.395
1741768758.247,96.191,-20.020,-84.473,347.168
1741768758.204,964.355,963.379,-86.914,988.770
1741768758.208,999.512,999.512,2.441,999.512
1741768758.212,375.488,470.215,64.941,287.598
1741768758.216,-914.551,-862.793,46.387,-959.961
1741768758.220,-1000.000,-1000.000,-65.918,-1000.000
1741768758.224,-197.754,-183.105,-85.938,-191.406
1741768758.228,998.047,984.375,-12.207,999.512
1741768758.231,999.512,999.512,15.625,869.629
1741768758.235,-156.250,-71.777,-45.410,-395.996
1741768758.239,-1000.000,-1000.000,-59.570,-1000.000
1741768758.243,-1000.000,-1000.000,-57.129,-879.395
1741768758.247,96.191,-20.020,-84.473,347.168
1741768758.249,999.512,999.512,-25.391,999.512
1741768758.253,999.512,999.512,-11.230,999.512
1741768758.257,510.254,648.438,-18.555,406.738
1741768758.261,-920.410,-781.738,35.156,-964.844
1741768758.265,-1000.000,-1000.000,-92.285,-1000.000
1741768758.269,-895.020,-888.672,-102.539,-918.457
1741768758.273,-1000.000,-1000.000,-62.988,-1000.000
1741768758.276,-75.684,-61.035,-129.883,10.742
1741768758.280,999.512,999.512,-96.680,999.512
1741768758.284,995.117,963.867,-40.527,999.512
1741768758.288,763.672,870.117,-2.930,598.145
1741768758.292,-590.820,-453.613,-0.488,-735.840
1741768758.249,999.512,999.512,-25.391,999.512
1741768758.253,999.512,999.512,-11.230,999.512
1741768758.257,510.254,648.438,-18.555,406.738
1741768758.261,-920.410,-781.738,35.156,-964.844
1741768758.265,-1000.000,-1000.000,-92.285,-1000.000
1741768758.269,-895.020,-888.672,-102.539,-918.457
1741768758.273,-1000.000,-1000.000,-62.988,-1000.000
1741768758.276,-75.684,-61.035,-129.883,10.742
1741768758.280,999.512,999.512,-96.680,999.512
1741768758.284,995.117,963.867,-40.527,999.512
1741768758.288,763.672,870.117,-2.930,598.145
1741768758.292,-590.820,-453.613,-0.488,-735.840
1741768758.294,-1000.000,-1000.000,-97.168,-1000.000
1741768758.298,-954.590,-1000.000,-94.238,-786.133
1741768758.302,166.992,35.156,-71.289,418.945
1741768758.306,999.512,999.512,-12.207,999.512
1741768758.310,437.012,470.215,16.602,314.453
1741768758.314,-932.617,-929.199,15.137,-984.863
1741768758.318,-972.656,-972.168,-53.223,-952.148
1741768758.321,-1000.000,-1000.000,-80.566,-1000.000
1741768758.325,-333.984,-471.680,-159.180,-296.387
1741768758.329,999.512,955.078,-194.336,999.512
1741768758.333,916.016,935.059,-64.453,906.250
1741768758.337,973.633,984.863,-37.598,997.070
1741768758.294,-1000.000,-1000.000,-97.168,-1000.000
1741768758.298,-954.590,-1000.000,-94.238,-786.133
1741768758.302,166.992,35.156,-71.289,418.945
1741768758.306,999.512,999.512,-12.207,999.512
1741768758.310,437.012,470.215,16.602,314.453
1741768758.314,-932.617,-929.199,15.137,-984.863
1741768758.318,-972.656,-972.168,-53.223,-952.148
1741768758.321,-1000.000,-1000.000,-80.566,-1000.000
1741768758.325,-333.984,-471.680,-159.180,-296.387
1741768758.329,999.512,955.078,-194.336,999.512
1741768758.333,916.016,935.059,-64.453,906.250
1741768758.337,973.633,984.863,-37.598,997.070
1741768758.339,869.141,784.668,-36.621,773.438
1741768758.343,-533.691,-644.043,66.406,-628.418
1741768758.347,-1000.000,-1000.000,3.418,-1000.000
1741768758.351,-1000.000,-1000.000,-81.055,-1000.000
1741768758.355,-399.414,-533.691,-141.602,-311.523
1741768758.359,907.715,864.746,-119.141,936.035
1741768758.363,999.512,999.512,66.406,999.512
1741768758.366,734.863,932.129,62.500,542.480
1741768758.370,-631.348,-303.711,3.418,-806.152
1741768758.374,-1000.000,-1000.000,-101.074,-1000.000
1741768758.378,-1000.000,-1000.000,-100.586,-1000.000
1741768758.382,-234.375,-224.609,-127.930,-112.793
1741768758.339,869.141,784.668,-36.621,773.438
1741768758.343,-533.691,-644.043,66.406,-628.418
1741768758.347,-1000.000,-1000.000,3.418,-1000.000
1741768758.351,-1000.000,-1000.000,-81.055,-1000.000
1741768758.355,-399.414,-533.691,-141.602,-311.523
1741768758.359,907.715,864.746,-119.141,936.035
1741768758.363,999.512,999.512,66.406,999.512
1741768758.366,734.863,932.129,62.500,542.480
1741768758.370,-631.348,-303.711,3.418,-806.152
1741768758.374,-1000.000,-1000.000,-101.074,-1000.000
1741768758.378,-1000.000,-1000.000,-100.586,-1000.000
1741768758.382,-234.375,-224.609,-127.930,-112.793
1741768758.339,869.141,784.668,-36.621,773.438
1741768758.343,-533.691,-644.043,66.406,-628.418
1741768758.347,-1000.000,-1000.000,3.418,-1000.000
1741768758.351,-1000.000,-1000.000,-81.055,-1000.000
1741768758.355,-399.414,-533.691,-141.602,-311.523
1741768758.359,907.715,864.746,-119.141,936.035
1741768758.363,999.512,999.512,66.406,999.512
1741768758.366,734.863,932.129,62.500,542.480
1741768758.370,-631.348,-303.711,3.418,-806.152
1741768758.374,-1000.000,-1000.000,-101.074,-1000.000
1741768758.378,-1000.000,-1000.000,-100.586,-1000.000
1741768758.382,-234.375,-224.609,-127.930,-112.793
1741768758.386,999.512,999.512,-142.090,999.512
1741768758.390,947.754,951.172,-80.078,926.758
1741768758.394,880.371,877.441,-57.617,907.715
1741768758.398,999.512,999.512,-58.594,999.512
1741768758.402,137.207,181.641,-4.883,2.441
1741768758.406,-1000.000,-1000.000,0.488,-1000.000
1741768758.410,-937.500,-931.152,-23.926,-961.914
1741768758.413,-1000.000,-1000.000,-28.320,-998.047
1741768758.417,7.324,-103.516,-98.633,197.754
1741768758.421,999.512,999.512,-40.527,999.512
1741768758.425,999.512,999.512,6.348,999.512
1741768758.429,175.293,168.457,16.602,23.438
1741768758.386,999.512,999.512,-142.090,999.512
1741768758.390,947.754,951.172,-80.078,926.758
1741768758.394,880.371,877.441,-57.617,907.715
1741768758.398,999.512,999.512,-58.594,999.512
1741768758.402,137.207,181.641,-4.883,2.441
1741768758.406,-1000.000,-1000.000,0.488,-1000.000
1741768758.410,-937.500,-931.152,-23.926,-961.914
1741768758.413,-1000.000,-1000.000,-28.320,-998.047
1741768758.417,7.324,-103.516,-98.633,197.754
1741768758.421,999.512,999.512,-40.527,999.512
1741768758.425,999.512,999.512,6.348,999.512
1741768758.429,175.293,168.457,16.602,23.438
1741768758.429,-1000.000,-1000.000,-18.555,-1000.000
1741768758.433,-1000.000,-1000.000,-58.105,-1000.000
1741768758.437,-188.965,-193.359,-109.863,-23.926
1741768758.441,999.512,999.512,-88.867,999.512
1741768758.445,950.195,952.637,-27.832,931.641
1741768758.449,876.465,875.000,-36.133,891.113
1741768758.453,999.512,999.512,6.348,999.512
1741768758.456,178.711,205.566,66.895,147.949
1741768758.460,-1000.000,-1000.000,-3.418,-1000.000
1741768758.464,-980.957,-974.121,-151.855,-1000.000
1741768758.468,-1000.000,-1000.000,-88.867,-831.055
1741768758.472,252.441,187.988,-48.340,490.234
1741768758.429,-1000.000,-1000.000,-18.555,-1000.000
1741768758.433,-1000.000,-1000.000,-58.105,-1000.000
1741768758.437,-188.965,-193.359,-109.863,-23.926
1741768758.441,999.512,999.512,-88.867,999.512
1741768758.445,950.195,952.637,-27.832,931.641
1741768758.449,876.465,875.000,-36.133,891.113
1741768758.453,999.512,999.512,6.348,999.512
1741768758.456,178.711,205.566,66.895,147.949
1741768758.460,-1000.000,-1000.000,-3.418,-1000.000
1741768758.464,-980.957,-974.121,-151.855,-1000.000
1741768758.468,-1000.000,-1000.000,-88.867,-831.055
1741768758.472,252.441,187.988,-48.340,490.234
1741768758.475,999.512,999.512,-17.578,999.512
1741768758.479,999.512,999.512,10.742,999.512
1741768758.483,190.918,187.988,64.453,102.051
1741768758.487,-1000.000,-1000.000,17.578,-1000.000
1741768758.491,-1000.000,-1000.000,-25.879,-1000.000
1741768758.495,-182.129,-191.406,-11.230,-55.664
1741768758.499,999.512,990.234,30.273,999.512
1741768758.502,999.512,999.512,41.016,869.629
1741768758.506,-104.980,-21.973,8.789,-343.750
1741768758.510,-1000.000,-1000.000,-8.789,-1000.000
1741768758.514,-1000.000,-1000.000,-11.230,-908.691
1741768758.518,36.621,-69.824,-33.691,287.109
1741768758.475,999.512,999.512,-17.578,999.512
1741768758.479,999.512,999.512,10.742,999.512
1741768758.483,190.918,187.988,64.453,102.051
1741768758.487,-1000.000,-1000.000,17.578,-1000.000
1741768758.491,-1000.000,-1000.000,-25.879,-1000.000
1741768758.495,-182.129,-191.406,-11.230,-55.664
1741768758.499,999.512,990.234,30.273,999.512
1741768758.502,999.512,999.512,41.016,869.629
1741768758.506,-104.980,-21.973,8.789,-343.750
1741768758.510,-1000.000,-1000.000,-8.789,-1000.000
1741768758.514,-1000.000,-1000.000,-11.230,-908.691
1741768758.518,36.621,-69.824,-33.691,287.109
1741768758.534,999.512,999.512,-20.508,999.512
1741768758.538,844.727,856.934,20.996,845.703
1741768758.542,999.512,999.512,-32.715,999.512
1741768758.546,415.039,504.883,43.945,327.148
1741768758.550,-979.492,-930.664,94.238,-999.512
1741768758.554,-960.938,-978.516,-21.484,-953.613
1741768758.558,-1000.000,-1000.000,22.461,-1000.000
1741768758.561,-218.262,-220.215,-28.809,-170.410
1741768758.565,965.332,972.168,-24.902,978.027
1741768758.569,999.512,999.512,40.039,999.512
1741768758.573,546.875,655.762,59.082,419.434
1741768758.577,-791.016,-693.848,75.195,-865.234
1741768758.534,999.512,999.512,-20.508,999.512
1741768758.538,844.727,856.934,20.996,845.703
1741768758.542,999.512,999.512,-32.715,999.512
1741768758.546,415.039,504.883,43.945,327.148
1741768758.550,-979.492,-930.664,94.238,-999.512
1741768758.554,-960.938,-978.516,-21.484,-953.613
1741768758.558,-1000.000,-1000.000,22.461,-1000.000
1741768758.561,-218.262,-220.215,-28.809,-170.410
1741768758.565,965.332,972.168,-24.902,978.027
1741768758.569,999.512,999.512,40.039,999.512
1741768758.573,546.875,655.762,59.082,419.434
1741768758.577,-791.016,-693.848,75.195,-865.234
1741768758.579,-1000.000,-1000.000,-26.367,-1000.000
1741768758.583,-724.121,-869.629,-36.133,-540.039
1741768758.587,562.012,370.117,-41.016,725.586
1741768758.591,999.512,999.512,27.344,999.512
1741768758.595,797.363,923.340,55.664,608.398
1741768758.599,-510.254,-299.805,80.078,-721.680
1741768758.603,-1000.000,-1000.000,38.086,-1000.000
1741768758.606,-906.250,-890.137,-34.668,-963.867
1741768758.610,-1000.000,-1000.000,-37.598,-887.695
1741768758.614,104.004,-39.062,-89.355,365.723
1741768758.618,999.512,999.512,-47.363,999.512
1741768758.622,854.004,863.770,54.199,892.578
1741768758.579,-1000.000,-1000.000,-26.367,-1000.000
1741768758.583,-724.121,-869.629,-36.133,-540.039
1741768758.587,562.012,370.117,-41.016,725.586
1741768758.591,999.512,999.512,27.344,999.512
1741768758.595,797.363,923.340,55.664,608.398
1741768758.599,-510.254,-299.805,80.078,-721.680
1741768758.603,-1000.000,-1000.000,38.086,-1000.000
1741768758.606,-906.250,-890.137,-34.668,-963.867
1741768758.610,-1000.000,-1000.000,-37.598,-887.695
1741768758.614,104.004,-39.062,-89.355,365.723
1741768758.618,999.512,999.512,-47.363,999.512
1741768758.622,854.004,863.770,54.199,892.578
1741768758.624,999.512,999.512,39.551,999.512
1741768758.628,117.676,177.734,100.586,-101.562
1741768758.632,-1000.000,-1000.000,49.316,-1000.000
1741768758.636,-1000.000,-1000.000,-25.879,-1000.000
1741768758.640,-780.273,-937.988,-53.711,-586.914
1741768758.644,580.566,353.516,-101.562,740.723
1741768758.648,999.512,999.512,24.414,999.512
1741768758.651,976.074,999.512,41.016,808.105
1741768758.655,-173.340,-25.879,15.625,-435.059
1741768758.659,-1000.000,-1000.000,-92.285,-1000.000
1741768758.663,-1000.000,-1000.000,-123.535,-1000.000
1741768758.667,-215.820,-209.473,-97.168,-75.195
1741768758.624,999.512,999.512,39.551,999.512
1741768758.628,117.676,177.734,100.586,-101.562
1741768758.632,-1000.000,-1000.000,49.316,-1000.000
1741768758.636,-1000.000,-1000.000,-25.879,-1000.000
1741768758.640,-780.273,-937.988,-53.711,-586.914
1741768758.644,580.566,353.516,-101.562,740.723
1741768758.648,999.512,999.512,24.414,999.512
1741768758.651,976.074,999.512,41.016,808.105
1741768758.655,-173.340,-25.879,15.625,-435.059
1741768758.659,-1000.000,-1000.000,-92.285,-1000.000
1741768758.663,-1000.000,-1000.000,-123.535,-1000.000
1741768758.667,-215.820,-209.473,-97.168,-75.195
1741768758.671,999.512,999.512,-111.816,999.512
1741768758.675,937.012,945.312,-71.289,913.086
1741768758.679,895.996,885.742,-20.020,930.664
1741768758.683,999.512,999.512,-13.184,999.512
1741768758.687,-18.066,84.961,5.859,-161.133
1741768758.691,-1000.000,-1000.000,-33.691,-1000.000
1741768758.695,-917.969,-915.039,-59.570,-952.148
1741768758.698,-1000.000,-1000.000,-56.152,-993.652
1741768758.702,13.184,-133.301,-125.488,217.773
1741768758.706,999.512,998.047,-54.199,999.512
1741768758.710,999.512,999.512,-16.113,979.980
1741768758.714,157.227,166.016,28.809,-47.363
1741768758.714,-1000.000,-1000.000,2.930,-1000.000
1741768758.718,-1000.000,-1000.000,-52.734,-1000.000
1741768758.722,-175.293,-193.359,-64.941,0.488
1741768758.726,999.512,999.512,-39.551,999.512
1741768758.730,948.730,957.520,-14.160,932.129
1741768758.734,876.465,870.117,16.113,888.672
1741768758.738,999.512,999.512,62.988,999.512
1741768758.741,206.055,303.223,126.465,205.566
1741768758.745,-1000.000,-1000.000,66.895,-1000.000
1741768758.749,-941.895,-952.148,-129.883,-973.145
1741768758.753,-1000.000,-1000.000,-89.355,-1000.000
1741768758.757,-46.387,-101.074,-48.340,131.836
1741768758.714,-1000.000,-1000.000,2.930,-1000.000
1741768758.718,-1000.000,-1000.000,-52.734,-1000.000
1741768758.722,-175.293,-193.359,-64.941,0.488
1741768758.726,999.512,999.512,-39.551,999.512
1741768758.730,948.730,957.520,-14.160,932.129
1741768758.734,876.465,870.117,16.113,888.672
1741768758.738,999.512,999.512,62.988,999.512
1741768758.741,206.055,303.223,126.465,205.566
1741768758.745,-1000.000,-1000.000,66.895,-1000.000
1741768758.749,-941.895,-952.148,-129.883,-973.145
1741768758.753,-1000.000,-1000.000,-89.355,-1000.000
1741768758.757,-46.387,-101.074,-48.340,131.836
1741768758.759,999.512,999.512,-21.973,999.512
1741768758.763,999.512,999.512,-1.465,998.047
1741768758.767,127.441,163.574,37.598,-41.016
1741768758.771,-1000.000,-1000.000,18.555,-1000.000
1741768758.775,-1000.000,-1000.000,7.812,-1000.000
1741768758.779,-201.172,-202.637,-3.906,-97.168
1741768758.783,999.512,992.188,15.625,999.512
1741768758.786,999.512,999.512,17.578,829.590
1741768758.790,-168.457,-67.383,0.977,-439.453
1741768758.794,-1000.000,-1000.000,-13.672,-1000.000
1741768758.798,-1000.000,-1000.000,-33.691,-1000.000
1741768758.802,-166.504,-209.961,-68.848,42.480
1741768758.759,999.512,999.512,-21.973,999.512
1741768758.763,999.512,999.512,-1.465,998.047
1741768758.767,127.441,163.574,37.598,-41.016
1741768758.771,-1000.000,-1000.000,18.555,-1000.000
1741768758.775,-1000.000,-1000.000,7.812,-1000.000
1741768758.779,-201.172,-202.637,-3.906,-97.168
1741768758.783,999.512,992.188,15.625,999.512
1741768758.786,999.512,999.512,17.578,829.590
1741768758.790,-168.457,-67.383,0.977,-439.453
1741768758.794,-1000.000,-1000.000,-13.672,-1000.000
1741768758.798,-1000.000,-1000.000,-33.691,-1000.000
1741768758.802,-166.504,-209.961,-68.848,42.480
1741768758.805,999.512,999.512,-94.727,999.512
1741768758.809,896.484,916.504,-12.695,877.441
1741768758.813,974.609,939.941,21.484,999.512
1741768758.817,900.391,997.070,2.441,790.527
1741768758.821,-482.422,-323.242,45.410,-575.684
1741768758.825,-1000.000,-1000.000,-21.973,-1000.000
1741768758.829,-1000.000,-1000.000,-30.273,-1000.000
1741768758.832,-451.172,-536.621,-76.660,-340.820
1741768758.836,869.629,827.148,-165.039,917.969
1741768758.840,999.512,999.512,-58.594,999.512
1741768758.844,568.359,672.363,30.762,420.898
1741768758.848,-740.723,-625.977,30.273,-846.680
1741768758.805,999.512,999.512,-94.727,999.512
1741768758.809,896.484,916.504,-12.695,877.441
1741768758.813,974.609,939.941,21.484,999.512
1741768758.817,900.391,997.070,2.441,790.527
1741768758.821,-482.422,-323.242,45.410,-575.684
1741768758.825,-1000.000,-1000.000,-21.973,-1000.000
1741768758.829,-1000.000,-1000.000,-30.273,-1000.000
1741768758.832,-451.172,-536.621,-76.660,-340.820
1741768758.836,869.629,827.148,-165.039,917.969
1741768758.840,999.512,999.512,-58.594,999.512
1741768758.844,568.359,672.363,30.762,420.898
1741768758.848,-740.723,-625.977,30.273,-846.680
1741768758.865,-1000.000,-1000.000,-62.012,-1000.000
1741768758.869,-704.590,-838.379,-76.172,-536.621
1741768758.873,650.879,474.121,-62.988,786.133
1741768758.877,990.723,999.512,-8.789,985.840
1741768758.881,999.512,999.512,-48.828,971.680
1741768758.885,219.727,407.227,77.637,19.531
1741768758.889,-1000.000,-987.793,104.980,-1000.000
1741768758.892,-975.586,-1000.000,-85.938,-954.590
1741768758.896,-926.758,-901.367,-105.469,-956.543
1741768758.900,-1000.000,-1000.000,-118.652,-1000.000
1741768758.904,-16.602,-114.746,-134.277,101.562
1741768758.908,999.512,999.512,-69.824,999.512
1741768758.865,-1000.000,-1000.000,-62.012,-1000.000
1741768758.869,-704.590,-838.379,-76.172,-536.621
1741768758.873,650.879,474.121,-62.988,786.133
1741768758.877,990.723,999.512,-8.789,985.840
1741768758.881,999.512,999.512,-48.828,971.680
1741768758.885,219.727,407.227,77.637,19.531
1741768758.889,-1000.000,-987.793,104.980,-1000.000
1741768758.892,-975.586,-1000.000,-85.938,-954.590
1741768758.896,-926.758,-901.367,-105.469,-956.543
1741768758.900,-1000.000,-1000.000,-118.652,-1000.000
1741768758.904,-16.602,-114.746,-134.277,101.562
1741768758.908,999.512,999.512,-69.824,999.512
1741768758.909,991.211,967.285,4.883,999.512
1741768758.913,762.207,881.836,5.859,576.660
1741768758.917,-632.812,-453.125,15.137,-796.387
1741768758.921,-1000.000,-1000.000,-51.270,-1000.000
1741768758.925,-1000.000,-1000.000,-70.801,-1000.000
1741768758.929,-100.098,-136.230,-89.355,36.621
1741768758.933,999.512,988.281,-8.789,999.512
1741768758.936,999.512,999.512,-13.184,999.512
1741768758.940,233.887,324.219,25.879,165.527
1741768758.944,-1000.000,-1000.000,54.688,-1000.000
1741768758.948,-995.117,-1000.000,-85.449,-985.352
1741768758.952,-905.273,-896.973,-57.129,-911.621
1741768758.909,991.211,967.285,4.883,999.512
1741768758.913,762.207,881.836,5.859,576.660
1741768758.917,-632.812,-453.125,15.137,-796.387
1741768758.921,-1000.000,-1000.000,-51.270,-1000.000
1741768758.925,-1000.000,-1000.000,-70.801,-1000.000
1741768758.929,-100.098,-136.230,-89.355,36.621
1741768758.933,999.512,988.281,-8.789,999.512
1741768758.936,999.512,999.512,-13.184,999.512
1741768758.940,233.887,324.219,25.879,165.527
1741768758.944,-1000.000,-1000.000,54.688,-1000.000
1741768758.948,-995.117,-1000.000,-85.449,-985.352
1741768758.952,-905.273,-896.973,-57.129,-911.621
1741768758.954,-1000.000,-1000.000,-72.754,-1000.000
1741768758.958,-214.844,-230.469,-158.691,-197.754
1741768758.962,999.512,999.512,-69.824,995.117
1741768758.966,933.105,909.180,41.016,987.305
1741768758.970,999.512,999.512,-11.230,817.383
1741768758.974,-201.172,-13.184,29.785,-483.887
1741768758.978,-1000.000,-1000.000,3.418,-1000.000
1741768758.981,-1000.000,-1000.000,-70.312,-1000.000
1741768758.985,-209.961,-279.785,-164.062,-182.617
1741768758.989,964.355,930.664,-131.836,980.469
1741768758.993,999.512,999.512,-45.410,999.512
1741768758.997,356.934,462.891,8.301,239.258
1741768758.954,-1000.000,-1000.000,-72.754,-1000.000
1741768758.958,-214.844,-230.469,-158.691,-197.754
1741768758.962,999.512,999.512,-69.824,995.117
1741768758.966,933.105,909.180,41.016,987.305
1741768758.970,999.512,999.512,-11.230,817.383
1741768758.974,-201.172,-13.184,29.785,-483.887
1741768758.978,-1000.000,-1000.000,3.418,-1000.000
1741768758.981,-1000.000,-1000.000,-70.312,-1000.000
1741768758.985,-209.961,-279.785,-164.062,-182.617
1741768758.989,964.355,930.664,-131.836,980.469
1741768758.993,999.512,999.512,-45.410,999.512
1741768758.997,356.934,462.891,8.301,239.258
1741768758.999,-982.910,-924.316,32.227,-1000.000
1741768759.003,-961.426,-977.539,-113.770,-982.910
1741768759.007,-1000.000,-1000.000,-70.801,-980.469
1741768759.011,-167.480,-235.352,-127.930,95.703
1741768759.015,999.512,999.512,-167.969,999.512
1741768759.019,884.277,905.762,-10.254,868.652
1741768759.023,999.512,967.773,22.949,999.512
1741768759.026,809.082,915.039,26.367,684.570
1741768759.030,-605.957,-453.125,8.301,-704.102
1741768759.034,-1000.000,-1000.000,-155.273,-1000.000
1741768759.038,-1000.000,-1000.000,-126.953,-1000.000
1741768759.042,-232.910,-228.516,-92.285,-116.211
1741768758.999,-982.910,-924.316,32.227,-1000.000
1741768759.003,-961.426,-977.539,-113.770,-982.910
1741768759.007,-1000.000,-1000.000,-70.801,-980.469
1741768759.011,-167.480,-235.352,-127.930,95.703
1741768759.015,999.512,999.512,-167.969,999.512
1741768759.019,884.277,905.762,-10.254,868.652
1741768759.023,999.512,967.773,22.949,999.512
1741768759.026,809.082,915.039,26.367,684.570
1741768759.030,-605.957,-453.125,8.301,-704.102
1741768759.034,-1000.000,-1000.000,-155.273,-1000.000
1741768759.038,-1000.000,-1000.000,-126.953,-1000.000
1741768759.042,-232.910,-228.516,-92.285,-116.211
1741768759.044,974.609,975.586,-99.121,999.512
1741768759.048,999.512,999.512,-94.727,999.512
1741768759.052,158.691,159.180,-25.391,43.945
1741768759.056,-1000.000,-1000.000,-21.484,-1000.000
1741768759.060,-1000.000,-1000.000,-94.238,-1000.000
1741768759.064,-209.961,-205.078,-123.535,-138.672
1741768759.068,994.629,987.793,-73.242,999.512
1741768759.071,999.512,999.512,-22.461,903.809
1741768759.075,-104.492,-41.504,-73.730,-348.633
1741768759.079,-1000.000,-1000.000,-114.746,-1000.000
1741768759.083,-1000.000,-1000.000,-101.562,-1000.000
1741768759.087,-212.891,-231.445,-129.883,-148.438
1741768759.090,999.512,999.512,-134.277,999.512
1741768759.094,912.598,928.711,-16.113,895.020
1741768759.098,948.242,919.434,14.648,986.328
1741768759.102,970.215,999.512,-3.906,834.961
1741768759.106,-356.934,-209.961,28.809,-516.113
1741768759.110,-1000.000,-1000.000,-21.484,-1000.000
1741768759.114,-1000.000,-1000.000,-42.969,-1000.000
1741768759.117,-263.184,-348.145,-114.746,-217.773
1741768759.121,946.289,909.668,-187.500,967.285
1741768759.125,999.512,999.512,-42.969,999.512
1741768759.129,395.508,472.656,54.688,290.039
1741768759.133,-882.812,-834.473,35.645,-937.988
1741768759.090,999.512,999.512,-134.277,999.512
1741768759.094,912.598,928.711,-16.113,895.020
1741768759.098,948.242,919.434,14.648,986.328
1741768759.102,970.215,999.512,-3.906,834.961
1741768759.106,-356.934,-209.961,28.809,-516.113
1741768759.110,-1000.000,-1000.000,-21.484,-1000.000
1741768759.114,-1000.000,-1000.000,-42.969,-1000.000
1741768759.117,-263.184,-348.145,-114.746,-217.773
1741768759.121,946.289,909.668,-187.500,967.285
1741768759.125,999.512,999.512,-42.969,999.512
1741768759.129,395.508,472.656,54.688,290.039
1741768759.133,-882.812,-834.473,35.645,-937.988
1741768759.134,-1000.000,-1000.000,-43.457,-1000.000
1741768759.138,-493.652,-610.352,-77.637,-369.141
1741768759.142,878.418,767.090,-97.168,945.801
1741768759.146,999.512,999.512,2.930,997.070
1741768759.150,854.004,854.980,-3.906,865.723
1741768759.154,999.512,999.512,25.879,999.512
1741768759.158,771.973,847.656,80.566,717.285
1741768759.161,-659.668,-557.617,54.199,-685.547
1741768759.165,-1000.000,-1000.000,-76.660,-1000.000
1741768759.169,-1000.000,-1000.000,-64.941,-1000.000
1741768759.173,-473.633,-570.801,-69.824,-354.492
1741768759.177,892.578,849.609,-81.543,928.711
1741768759.134,-1000.000,-1000.000,-43.457,-1000.000
1741768759.138,-493.652,-610.352,-77.637,-369.141
1741768759.142,878.418,767.090,-97.168,945.801
1741768759.146,999.512,999.512,2.930,997.070
1741768759.150,854.004,854.980,-3.906,865.723
1741768759.154,999.512,999.512,25.879,999.512
1741768759.158,771.973,847.656,80.566,717.285
1741768759.161,-659.668,-557.617,54.199,-685.547
1741768759.165,-1000.000,-1000.000,-76.660,-1000.000
1741768759.169,-1000.000,-1000.000,-64.941,-1000.000
1741768759.173,-473.633,-570.801,-69.824,-354.492
1741768759.177,892.578,849.609,-81.543,928.711
1741768759.179,999.512,999.512,40.527,999.512
1741768759.183,888.184,969.727,57.617,703.125
1741768759.187,-366.699,-198.730,66.406,-584.961
1741768759.191,-1000.000,-1000.000,24.902,-1000.000
1741768759.195,-1000.000,-1000.000,5.859,-922.363
1741768759.199,50.781,14.160,-5.859,257.324
1741768759.203,999.512,999.512,46.875,999.512
1741768759.206,999.512,999.512,16.602,999.512
1741768759.210,179.688,177.246,30.762,41.504
1741768759.214,-1000.000,-1000.000,6.836,-1000.000
1741768759.218,-983.398,-984.863,-81.055,-964.355
1741768759.222,-912.109,-910.156,-70.801,-929.688
1741768759.179,999.512,999.512,40.527,999.512
1741768759.183,888.184,969.727,57.617,703.125
1741768759.187,-366.699,-198.730,66.406,-584.961
1741768759.191,-1000.000,-1000.000,24.902,-1000.000
1741768759.195,-1000.000,-1000.000,5.859,-922.363
1741768759.199,50.781,14.160,-5.859,257.324
1741768759.203,999.512,999.512,46.875,999.512
1741768759.206,999.512,999.512,16.602,999.512
1741768759.210,179.688,177.246,30.762,41.504
1741768759.214,-1000.000,-1000.000,6.836,-1000.000
1741768759.218,-983.398,-984.863,-81.055,-964.355
1741768759.222,-912.109,-910.156,-70.801,-929.688
1741768759.239,-1000.000,-1000.000,-83.496,-1000.000
1741768759.243,-188.965,-213.379,-132.812,-109.375
1741768759.247,997.559,999.512,-13.184,998.047
1741768759.251,975.586,939.453,76.172,999.512
1741768759.255,879.883,993.164,34.668,685.547
1741768759.259,-450.195,-235.840,87.891,-677.734
1741768759.263,-1000.000,-1000.000,10.254,-1000.000
1741768759.266,-1000.000,-1000.000,-43.945,-1000.000
1741768759.270,-229.004,-218.262,-115.234,-146.484
1741768759.274,974.609,971.680,-60.547,999.512
1741768759.278,999.512,999.512,-6.836,999.512
1741768759.282,146.973,205.078,44.434,51.270
1741768759.239,-1000.000,-1000.000,-83.496,-1000.000
1741768759.243,-188.965,-213.379,-132.812,-109.375
1741768759.247,997.559,999.512,-13.184,998.047
1741768759.251,975.586,939.453,76.172,999.512
1741768759.255,879.883,993.164,34.668,685.547
1741768759.259,-450.195,-235.840,87.891,-677.734
1741768759.263,-1000.000,-1000.000,10.254,-1000.000
1741768759.266,-1000.000,-1000.000,-43.945,-1000.000
1741768759.270,-229.004,-218.262,-115.234,-146.484
1741768759.274,974.609,971.680,-60.547,999.512
1741768759.278,999.512,999.512,-6.836,999.512
1741768759.282,146.973,205.078,44.434,51.270
1741768759.284,-1000.000,-1000.000,47.363,-1000.000
1741768759.288,-1000.000,-995.605,-74.219,-1000.000
1741768759.292,-859.375,-984.375,-39.062,-685.547
1741768759.296,492.188,281.250,-71.289,663.574
1741768759.300,999.512,999.512,-59.570,999.512
1741768759.304,826.172,827.637,33.691,839.844
1741768759.308,999.512,999.512,39.551,999.512
1741768759.311,411.621,533.203,117.188,339.355
1741768759.315,-978.027,-911.621,102.539,-992.188
1741768759.319,-963.379,-984.863,-120.605,-976.562
1741768759.323,-1000.000,-1000.000,-104.492,-1000.000
1741768759.327,-200.195,-230.469,-95.703,-4.395
1741768759.284,-1000.000,-1000.000,47.363,-1000.000
1741768759.288,-1000.000,-995.605,-74.219,-1000.000
1741768759.292,-859.375,-984.375,-39.062,-685.547
1741768759.296,492.188,281.250,-71.289,663.574
1741768759.300,999.512,999.512,-59.570,999.512
1741768759.304,826.172,827.637,33.691,839.844
1741768759.308,999.512,999.512,39.551,999.512
1741768759.311,411.621,533.203,117.188,339.355
1741768759.315,-978.027,-911.621,102.539,-992.188
1741768759.319,-963.379,-984.863,-120.605,-976.562
1741768759.323,-1000.000,-1000.000,-104.492,-1000.000
1741768759.327,-200.195,-230.469,-95.703,-4.395
1741768759.331,983.398,969.727,-47.852,999.512
1741768759.335,999.512,999.512,-27.344,999.512
1741768759.339,154.297,254.395,46.875,125.000
1741768759.343,-994.141,-957.031,65.918,-1000.000
1741768759.347,-1000.000,-1000.000,-39.551,-1000.000
1741768759.351,-333.496,-321.289,-98.633,-269.531
1741768759.355,928.711,910.156,-100.586,952.637
1741768759.358,999.512,999.512,-62.988,999.512
1741768759.362,868.164,671.875,-84.961,819.336
1741768759.366,-442.871,-690.918,12.207,-494.141
1741768759.370,-1000.000,-1000.000,-10.742,-1000.000
1741768759.374,-870.605,-875.977,-56.641,-876.953
1741768759.331,983.398,969.727,-47.852,999.512
1741768759.335,999.512,999.512,-27.344,999.512
1741768759.339,154.297,254.395,46.875,125.000
1741768759.343,-994.141,-957.031,65.918,-1000.000
1741768759.347,-1000.000,-1000.000,-39.551,-1000.000
1741768759.351,-333.496,-321.289,-98.633,-269.531
1741768759.355,928.711,910.156,-100.586,952.637
1741768759.358,999.512,999.512,-62.988,999.512
1741768759.362,868.164,671.875,-84.961,819.336
1741768759.366,-442.871,-690.918,12.207,-494.141
1741768759.370,-1000.000,-1000.000,-10.742,-1000.000
1741768759.374,-870.605,-875.977,-56.641,-876.953
1741768759.375,-1000.000,-1000.000,-60.547,-1000.000
1741768759.379,-211.914,-216.797,-157.227,-180.664
1741768759.383,999.512,999.512,-46.875,991.211
1741768759.387,954.590,916.992,77.148,999.512
1741768759.391,947.754,999.512,20.020,736.816
1741768759.395,-316.406,-84.961,61.035,-567.871
1741768759.399,-1000.000,-1000.000,19.531,-1000.000
1741768759.402,-1000.000,-1000.000,-2.930,-933.105
1741768759.406,-85.938,-204.102,-105.469,181.641
1741768759.410,999.512,976.562,-114.258,999.512
1741768759.414,999.512,999.512,-46.387,999.512
1741768759.418,169.922,160.645,28.809,53.711
1741768759.375,-1000.000,-1000.000,-60.547,-1000.000
1741768759.379,-211.914,-216.797,-157.227,-180.664
1741768759.383,999.512,999.512,-46.875,991.211
1741768759.387,954.590,916.992,77.148,999.512
1741768759.391,947.754,999.512,20.020,736.816
1741768759.395,-316.406,-84.961,61.035,-567.871
1741768759.399,-1000.000,-1000.000,19.531,-1000.000
1741768759.402,-1000.000,-1000.000,-2.930,-933.105
1741768759.406,-85.938,-204.102,-105.469,181.641
1741768759.410,999.512,976.562,-114.258,999.512
1741768759.414,999.512,999.512,-46.387,999.512
1741768759.418,169.922,160.645,28.809,53.711
1741768759.419,-1000.000,-1000.000,63.965,-1000.000
1741768759.423,-921.387,-921.387,-23.438,-938.477
1741768759.427,-1000.000,-1000.000,26.367,-1000.000
1741768759.431,-227.539,-227.051,-70.801,-28.320
1741768759.435,999.512,999.512,-82.520,999.512
1741768759.439,887.207,887.695,87.402,878.418
1741768759.443,999.512,999.512,69.824,999.512
1741768759.446,179.199,189.941,102.051,156.738
1741768759.450,-1000.000,-1000.000,37.109,-1000.000
1741768759.454,-1000.000,-1000.000,-81.543,-1000.000
1741768759.458,-783.203,-914.551,-43.457,-592.285
1741768759.462,560.059,379.883,-55.664,718.750
1741768759.419,-1000.000,-1000.000,63.965,-1000.000
1741768759.423,-921.387,-921.387,-23.438,-938.477
1741768759.427,-1000.000,-1000.000,26.367,-1000.000
1741768759.431,-227.539,-227.051,-70.801,-28.320
1741768759.435,999.512,999.512,-82.520,999.512
1741768759.439,887.207,887.695,87.402,878.418
1741768759.443,999.512,999.512,69.824,999.512
1741768759.446,179.199,189.941,102.051,156.738
1741768759.450,-1000.000,-1000.000,37.109,-1000.000
1741768759.454,-1000.000,-1000.000,-81.543,-1000.000
1741768759.458,-783.203,-914.551,-43.457,-592.285
1741768759.462,560.059,379.883,-55.664,718.750
1741768759.464,999.512,999.512,35.156,999.512
1741768759.468,937.988,988.770,107.910,740.234
1741768759.472,-270.996,-145.508,121.094,-539.062
1741768759.476,-1000.000,-1000.000,62.988,-1000.000
1741768759.480,-1000.000,-1000.000,30.273,-1000.000
1741768759.484,-223.145,-216.797,-7.324,-125.000
1741768759.488,999.512,999.512,47.852,999.512
1741768759.491,891.602,891.602,101.562,902.832
1741768759.495,999.512,999.512,42.969,999.512
1741768759.499,142.578,151.367,89.844,-17.578
1741768759.503,-1000.000,-1000.000,62.500,-1000.000
1741768759.507,-914.062,-915.527,1.953,-905.762
1741768759.464,999.512,999.512,35.156,999.512
1741768759.468,937.988,988.770,107.910,740.234
1741768759.472,-270.996,-145.508,121.094,-539.062
1741768759.476,-1000.000,-1000.000,62.988,-1000.000
1741768759.480,-1000.000,-1000.000,30.273,-1000.000
1741768759.484,-223.145,-216.797,-7.324,-125.000
1741768759.488,999.512,999.512,47.852,999.512
1741768759.491,891.602,891.602,101.562,902.832
1741768759.495,999.512,999.512,42.969,999.512
1741768759.499,142.578,151.367,89.844,-17.578
1741768759.503,-1000.000,-1000.000,62.500,-1000.000
1741768759.507,-914.062,-915.527,1.953,-905.762
1741768759.509,-1000.000,-1000.000,45.410,-1000.000
1741768759.513,-210.938,-211.426,-40.039,-178.223
1741768759.517,968.262,975.098,-1.465,975.586
1741768759.521,999.512,999.512,137.695,999.512
1741768759.525,625.488,703.125,140.137,474.609
1741768759.529,-786.621,-693.848,185.059,-884.277
1741768759.533,-1000.000,-1000.000,133.301,-1000.000
1741768759.536,-1000.000,-1000.000,61.035,-1000.000
1741768759.540,-218.750,-233.887,-42.969,-61.523
1741768759.544,979.004,975.586,15.137,999.512
1741768759.548,999.512,999.512,47.363,999.512
1741768759.552,160.645,160.156,70.801,-4.883
1741768759.509,-1000.000,-1000.000,45.410,-1000.000
1741768759.513,-210.938,-211.426,-40.039,-178.223
1741768759.517,968.262,975.098,-1.465,975.586
1741768759.521,999.512,999.512,137.695,999.512
1741768759.525,625.488,703.125,140.137,474.609
1741768759.529,-786.621,-693.848,185.059,-884.277
1741768759.533,-1000.000,-1000.000,133.301,-1000.000
1741768759.536,-1000.000,-1000.000,61.035,-1000.000
1741768759.540,-218.750,-233.887,-42.969,-61.523
1741768759.544,979.004,975.586,15.137,999.512
1741768759.548,999.512,999.512,47.363,999.512
1741768759.552,160.645,160.156,70.801,-4.883
1741768759.554,-1000.000,-1000.000,65.918,-1000.000
1741768759.558,-984.375,-984.863,-49.316,-964.355
1741768759.562,-910.645,-910.156,-9.277,-928.711
1741768759.566,-1000.000,-1000.000,-20.508,-1000.000
1741768759.570,-204.590,-212.402,-134.277,-133.789
1741768759.574,994.141,999.512,-44.434,995.117
1741768759.578,976.074,946.777,99.609,999.512
1741768759.581,883.789,975.586,30.762,724.121
1741768759.585,-438.965,-280.273,-47.852,-622.559
1741768759.589,-1000.000,-1000.000,-165.039,-1000.000
1741768759.593,-1000.000,-1000.000,-152.344,-1000.000
1741768759.597,-180.664,-223.145,-148.438,-0.977
1741768759.554,-1000.000,-1000.000,65.918,-1000.000
1741768759.558,-984.375,-984.863,-49.316,-964.355
1741768759.562,-910.645,-910.156,-9.277,-928.711
1741768759.566,-1000.000,-1000.000,-20.508,-1000.000
1741768759.570,-204.590,-212.402,-134.277,-133.789
1741768759.574,994.141,999.512,-44.434,995.117
1741768759.578,976.074,946.777,99.609,999.512
1741768759.581,883.789,975.586,30.762,724.121
1741768759.585,-438.965,-280.273,-47.852,-622.559
1741768759.589,-1000.000,-1000.000,-165.039,-1000.000
1741768759.593,-1000.000,-1000.000,-152.344,-1000.000
1741768759.597,-180.664,-223.145,-148.438,-0.977
1741768759.614,988.281,975.098,-103.027,999.512
1741768759.618,999.512,999.512,-82.520,998.535
1741768759.622,148.926,159.180,-41.992,-58.105
1741768759.626,-1000.000,-1000.000,-33.691,-1000.000
1741768759.630,-1000.000,-1000.000,-114.258,-1000.000
1741768759.634,-186.523,-183.594,-139.160,-157.227
1741768759.638,998.047,990.723,-104.004,999.512
1741768759.641,947.754,971.680,-72.754,975.098
1741768759.645,970.215,886.230,-118.164,841.309
1741768759.649,-287.598,-403.809,-69.336,-445.312
1741768759.653,-1000.000,-1000.000,-81.055,-1000.000
1741768759.657,-873.535,-874.512,-113.770,-883.789
1741768759.614,988.281,975.098,-103.027,999.512
1741768759.618,999.512,999.512,-82.520,998.535
1741768759.622,148.926,159.180,-41.992,-58.105
1741768759.626,-1000.000,-1000.000,-33.691,-1000.000
1741768759.630,-1000.000,-1000.000,-114.258,-1000.000
1741768759.634,-186.523,-183.594,-139.160,-157.227
1741768759.638,998.047,990.723,-104.004,999.512
1741768759.641,947.754,971.680,-72.754,975.098
1741768759.645,970.215,886.230,-118.164,841.309
1741768759.649,-287.598,-403.809,-69.336,-445.312
1741768759.653,-1000.000,-1000.000,-81.055,-1000.000
1741768759.657,-873.535,-874.512,-113.770,-883.789
1741768759.660,-1000.000,-1000.000,-151.367,-1000.000
1741768759.664,-207.520,-205.566,-255.371,-153.809
1741768759.668,962.891,970.215,-161.133,980.469
1741768759.672,999.512,999.512,-55.664,999.512
1741768759.676,449.219,628.906,-48.828,311.035
1741768759.680,-884.766,-745.117,-10.254,-940.918
1741768759.684,-1000.000,-1000.000,-83.008,-1000.000
1741768759.687,-877.441,-1000.000,-115.234,-679.688
1741768759.691,421.875,172.363,-179.199,628.906
1741768759.695,999.512,999.512,-125.000,999.512
1741768759.699,999.512,999.512,-75.684,946.777
1741768759.703,178.711,187.012,26.855,-88.867
1741768759.660,-1000.000,-1000.000,-151.367,-1000.000
1741768759.664,-207.520,-205.566,-255.371,-153.809
1741768759.668,962.891,970.215,-161.133,980.469
1741768759.672,999.512,999.512,-55.664,999.512
1741768759.676,449.219,628.906,-48.828,311.035
1741768759.680,-884.766,-745.117,-10.254,-940.918
1741768759.684,-1000.000,-1000.000,-83.008,-1000.000
1741768759.687,-877.441,-1000.000,-115.234,-679.688
1741768759.691,421.875,172.363,-179.199,628.906
1741768759.695,999.512,999.512,-125.000,999.512
1741768759.699,999.512,999.512,-75.684,946.777
1741768759.703,178.711,187.012,26.855,-88.867
1741768759.704,-1000.000,-1000.000,17.578,-1000.000
1741768759.708,-979.004,-984.375,-103.027,-953.613
1741768759.712,-916.016,-910.645,-91.309,-942.871
1741768759.716,-1000.000,-1000.000,-104.004,-1000.000
1741768759.720,-154.785,-205.078,-191.406,-59.082
1741768759.724,996.582,993.652,-109.375,998.047
1741768759.728,995.605,979.004,29.785,999.512
1741768759.731,795.410,875.977,-3.418,615.234
1741768759.735,-547.363,-435.059,-2.441,-717.285
1741768759.739,-1000.000,-1000.000,-57.129,-1000.000
1741768759.743,-1000.000,-1000.000,-48.828,-852.051
1741768759.747,121.094,15.625,-48.828,358.398
1741768759.704,-1000.000,-1000.000,17.578,-1000.000
1741768759.708,-979.004,-984.375,-103.027,-953.613
1741768759.712,-916.016,-910.645,-91.309,-942.871
1741768759.716,-1000.000,-1000.000,-104.004,-1000.000
1741768759.720,-154.785,-205.078,-191.406,-59.082
1741768759.724,996.582,993.652,-109.375,998.047
1741768759.728,995.605,979.004,29.785,999.512
1741768759.731,795.410,875.977,-3.418,615.234
1741768759.735,-547.363,-435.059,-2.441,-717.285
1741768759.739,-1000.000,-1000.000,-57.129,-1000.000
1741768759.743,-1000.000,-1000.000,-48.828,-852.051
1741768759.747,121.094,15.625,-48.828,358.398
1741768759.749,999.512,999.512,-9.277,999.512
1741768759.753,999.512,999.512,-12.207,914.551
1741768759.757,20.996,140.137,32.715,-218.750
1741768759.761,-1000.000,-1000.000,41.016,-1000.000
1741768759.765,-1000.000,-1000.000,-33.691,-1000.000
1741768759.769,-202.148,-192.383,-72.266,-150.879
1741768759.773,999.512,999.512,-7.812,999.512
1741768759.776,914.551,917.480,73.730,940.918
1741768759.780,999.512,999.512,17.578,939.941
1741768759.784,-75.195,-86.914,12.207,-258.789
1741768759.788,-1000.000,-1000.000,3.418,-1000.000
1741768759.792,-892.578,-887.695,-41.504,-910.645
1741768759.749,999.512,999.512,-9.277,999.512
1741768759.753,999.512,999.512,-12.207,914.551
1741768759.757,20.996,140.137,32.715,-218.750
1741768759.761,-1000.000,-1000.000,41.016,-1000.000
1741768759.765,-1000.000,-1000.000,-33.691,-1000.000
1741768759.769,-202.148,-192.383,-72.266,-150.879
1741768759.773,999.512,999.512,-7.812,999.512
1741768759.776,914.551,917.480,73.730,940.918
1741768759.780,999.512,999.512,17.578,939.941
1741768759.784,-75.195,-86.914,12.207,-258.789
1741768759.788,-1000.000,-1000.000,3.418,-1000.000
1741768759.792,-892.578,-887.695,-41.504,-910.645
1741768759.794,-1000.000,-1000.000,-27.344,-1000.000
1741768759.798,-150.879,-203.125,-82.520,-0.977
1741768759.802,978.027,964.844,-39.551,998.535
1741768759.806,999.512,999.512,31.250,999.512
1741768759.810,411.133,466.797,79.590,311.035
1741768759.814,-923.828,-903.809,125.000,-956.543
1741768759.818,-1000.000,-1000.000,41.016,-1000.000
1741768759.821,-964.844,-1000.000,15.625,-761.230
1741768759.825,260.742,88.379,-44.434,504.883
1741768759.829,999.512,999.512,-6.348,999.512
1741768759.833,999.512,999.512,44.434,882.324
1741768759.837,-40.039,50.293,62.500,-286.621
1741768759.839,-1000.000,-1000.000,1.953,-1000.000
1741768759.843,-941.895,-959.961,-37.598,-927.246
1741768759.847,-946.289,-929.688,15.137,-974.609
1741768759.851,-1000.000,-1000.000,-8.301,-1000.000
1741768759.855,-7.324,-100.098,-109.375,100.098
1741768759.859,999.512,999.512,-37.598,999.512
1741768759.863,999.512,980.469,74.219,999.512
1741768759.866,723.145,832.520,20.508,559.570
1741768759.870,-686.035,-533.691,-25.879,-817.871
1741768759.874,-1000.000,-1000.000,-115.723,-1000.000
1741768759.878,-1000.000,-1000.000,-94.727,-1000.000
1741768759.882,-167.480,-236.816,-144.043,18.066
1741768759.839,-1000.000,-1000.000,1.953,-1000.000
1741768759.843,-941.895,-959.961,-37.598,-927.246
1741768759.847,-946.289,-929.688,15.137,-974.609
1741768759.851,-1000.000,-1000.000,-8.301,-1000.000
1741768759.855,-7.324,-100.098,-109.375,100.098
1741768759.859,999.512,999.512,-37.598,999.512
1741768759.863,999.512,980.469,74.219,999.512
1741768759.866,723.145,832.520,20.508,559.570
1741768759.870,-686.035,-533.691,-25.879,-817.871
1741768759.874,-1000.000,-1000.000,-115.723,-1000.000
1741768759.878,-1000.000,-1000.000,-94.727,-1000.000
1741768759.882,-167.480,-236.816,-144.043,18.066
1741768759.839,-1000.000,-1000.000,1.953,-1000.000
1741768759.843,-941.895,-959.961,-37.598,-927.246
1741768759.847,-946.289,-929.688,15.137,-974.609
1741768759.851,-1000.000,-1000.000,-8.301,-1000.000
1741768759.855,-7.324,-100.098,-109.375,100.098
1741768759.859,999.512,999.512,-37.598,999.512
1741768759.863,999.512,980.469,74.219,999.512
1741768759.866,723.145,832.520,20.508,559.570
1741768759.870,-686.035,-533.691,-25.879,-817.871
1741768759.874,-1000.000,-1000.000,-115.723,-1000.000
1741768759.878,-1000.000,-1000.000,-94.727,-1000.000
1741768759.882,-167.480,-236.816,-144.043,18.066
1741768759.885,999.512,984.375,-55.664,999.512
1741768759.889,999.512,999.512,25.391,901.855
1741768759.893,-32.715,62.012,-0.977,-286.621
1741768759.897,-1000.000,-1000.000,-22.949,-1000.000
1741768759.901,-1000.000,-1000.000,-52.734,-1000.000
1741768759.905,-128.418,-109.863,-49.316,-9.277
1741768759.909,988.770,982.422,-18.555,999.512
1741768759.912,999.512,999.512,-35.645,999.512
1741768759.916,708.008,557.617,-56.641,654.297
1741768759.920,-696.777,-846.680,27.832,-744.141
1741768759.924,-1000.000,-1000.000,-26.855,-1000.000
1741768759.928,-883.301,-883.301,-95.215,-905.273
1741768759.885,999.512,984.375,-55.664,999.512
1741768759.889,999.512,999.512,25.391,901.855
1741768759.893,-32.715,62.012,-0.977,-286.621
1741768759.897,-1000.000,-1000.000,-22.949,-1000.000
1741768759.901,-1000.000,-1000.000,-52.734,-1000.000
1741768759.905,-128.418,-109.863,-49.316,-9.277
1741768759.909,988.770,982.422,-18.555,999.512
1741768759.912,999.512,999.512,-35.645,999.512
1741768759.916,708.008,557.617,-56.641,654.297
1741768759.920,-696.777,-846.680,27.832,-744.141
1741768759.924,-1000.000,-1000.000,-26.855,-1000.000
1741768759.928,-883.301,-883.301,-95.215,-905.273
1741768759.885,999.512,984.375,-55.664,999.512
1741768759.889,999.512,999.512,25.391,901.855
1741768759.893,-32.715,62.012,-0.977,-286.621
1741768759.897,-1000.000,-1000.000,-22.949,-1000.000
1741768759.901,-1000.000,-1000.000,-52.734,-1000.000
1741768759.905,-128.418,-109.863,-49.316,-9.277
1741768759.909,988.770,982.422,-18.555,999.512
1741768759.912,999.512,999.512,-35.645,999.512
1741768759.916,708.008,557.617,-56.641,654.297
1741768759.920,-696.777,-846.680,27.832,-744.141
1741768759.924,-1000.000,-1000.000,-26.855,-1000.000
1741768759.928,-883.301,-883.301,-95.215,-905.273
1741768759.944,-1000.000,-1000.000,-115.234,-1000.000
1741768759.948,-96.191,-182.617,-155.273,16.602
1741768759.952,997.070,973.145,-47.852,999.512
1741768759.956,999.512,999.512,16.602,999.512
1741768759.960,278.320,338.379,28.809,215.820
1741768759.964,-948.242,-916.016,43.945,-980.469
1741768759.968,-1000.000,-1000.000,-24.902,-1000.000
1741768759.971,-448.730,-517.090,-81.055,-347.168
1741768759.975,832.031,789.062,-133.789,889.648
1741768759.979,999.512,999.512,-65.918,999.512
1741768759.983,469.238,595.215,16.602,326.660
1741768759.987,-904.297,-781.250,81.543,-962.891
1741768759.944,-1000.000,-1000.000,-115.234,-1000.000
1741768759.948,-96.191,-182.617,-155.273,16.602
1741768759.952,997.070,973.145,-47.852,999.512
1741768759.956,999.512,999.512,16.602,999.512
1741768759.960,278.320,338.379,28.809,215.820
1741768759.964,-948.242,-916.016,43.945,-980.469
1741768759.968,-1000.000,-1000.000,-24.902,-1000.000
1741768759.971,-448.730,-517.090,-81.055,-347.168
1741768759.975,832.031,789.062,-133.789,889.648
1741768759.979,999.512,999.512,-65.918,999.512
1741768759.983,469.238,595.215,16.602,326.660
1741768759.987,-904.297,-781.250,81.543,-962.891
1741768759.989,-983.398,-1000.000,-11.230,-986.816
1741768759.993,-1000.000,-1000.000,4.395,-1000.000
1741768759.997,-222.168,-236.328,-74.219,0.488
1741768760.001,999.512,999.512,-103.027,999.512
1741768760.005,934.082,947.754,24.414,908.691
1741768760.009,899.414,882.324,69.336,935.547
1741768760.013,999.512,999.512,78.125,999.512
1741768760.016,-47.852,111.816,83.008,-175.781
1741768760.020,-1000.000,-1000.000,-58.105,-1000.000
1741768760.024,-1000.000,-1000.000,-107.422,-1000.000
1741768760.028,-330.566,-437.500,-95.703,-256.836
1741768760.032,919.434,855.469,-102.051,955.566
1741768759.989,-983.398,-1000.000,-11.230,-986.816
1741768759.993,-1000.000,-1000.000,4.395,-1000.000
1741768759.997,-222.168,-236.328,-74.219,0.488
1741768760.001,999.512,999.512,-103.027,999.512
1741768760.005,934.082,947.754,24.414,908.691
1741768760.009,899.414,882.324,69.336,935.547
1741768760.013,999.512,999.512,78.125,999.512
1741768760.016,-47.852,111.816,83.008,-175.781
1741768760.020,-1000.000,-1000.000,-58.105,-1000.000
1741768760.024,-1000.000,-1000.000,-107.422,-1000.000
1741768760.028,-330.566,-437.500,-95.703,-256.836
1741768760.032,919.434,855.469,-102.051,955.566
1741768759.989,-983.398,-1000.000,-11.230,-986.816
1741768759.993,-1000.000,-1000.000,4.395,-1000.000
1741768759.997,-222.168,-236.328,-74.219,0.488
1741768760.001,999.512,999.512,-103.027,999.512
1741768760.005,934.082,947.754,24.414,908.691
1741768760.009,899.414,882.324,69.336,935.547
1741768760.013,999.512,999.512,78.125,999.512
1741768760.016,-47.852,111.816,83.008,-175.781
1741768760.020,-1000.000,-1000.000,-58.105,-1000.000
1741768760.024,-1000.000,-1000.000,-107.422,-1000.000
1741768760.028,-330.566,-437.500,-95.703,-256.836
1741768760.032,919.434,855.469,-102.051,955.566
1741768760.034,999.512,999.512,31.250,999.512
1741768760.038,254.395,357.422,108.398,185.547
1741768760.042,-943.359,-890.625,121.094,-979.492
1741768760.046,-1000.000,-1000.000,37.598,-1000.000
1741768760.050,-457.520,-586.914,-30.273,-323.730
1741768760.054,925.293,814.453,-34.180,985.352
1741768760.058,923.828,954.102,69.336,902.832
1741768760.061,999.512,999.512,22.949,999.512
1741768760.065,540.527,486.816,63.965,499.512
1741768760.069,-925.293,-952.637,82.031,-933.105
1741768760.073,-1000.000,-1000.000,-41.016,-988.281
1741768760.077,-960.449,-935.547,-57.129,-1000.000
1741768760.034,999.512,999.512,31.250,999.512
1741768760.038,254.395,357.422,108.398,185.547
1741768760.042,-943.359,-890.625,121.094,-979.492
1741768760.046,-1000.000,-1000.000,37.598,-1000.000
1741768760.050,-457.520,-586.914,-30.273,-323.730
1741768760.054,925.293,814.453,-34.180,985.352
1741768760.058,923.828,954.102,69.336,902.832
1741768760.061,999.512,999.512,22.949,999.512
1741768760.065,540.527,486.816,63.965,499.512
1741768760.069,-925.293,-952.637,82.031,-933.105
1741768760.073,-1000.000,-1000.000,-41.016,-988.281
1741768760.077,-960.449,-935.547,-57.129,-1000.000
1741768760.034,999.512,999.512,31.250,999.512
1741768760.038,254.395,357.422,108.398,185.547
1741768760.042,-943.359,-890.625,121.094,-979.492
1741768760.046,-1000.000,-1000.000,37.598,-1000.000
1741768760.050,-457.520,-586.914,-30.273,-323.730
1741768760.054,925.293,814.453,-34.180,985.352
1741768760.058,923.828,954.102,69.336,902.832
1741768760.061,999.512,999.512,22.949,999.512
1741768760.065,540.527,486.816,63.965,499.512
1741768760.069,-925.293,-952.637,82.031,-933.105
1741768760.073,-1000.000,-1000.000,-41.016,-988.281
1741768760.077,-960.449,-935.547,-57.129,-1000.000
1741768760.079,-995.605,-1000.000,-61.523,-848.145
1741768760.083,351.562,192.871,-82.031,529.785
1741768760.087,999.512,999.512,-0.977,999.512
1741768760.091,999.512,999.512,29.785,999.512
1741768760.095,179.688,178.711,64.453,151.855
1741768760.099,-1000.000,-1000.000,56.641,-1000.000
1741768760.103,-1000.000,-987.793,38.574,-1000.000
1741768760.106,-832.031,-986.816,9.277,-634.766
1741768760.110,538.086,289.062,-90.332,729.004
1741768760.114,999.512,999.512,-34.668,997.559
1741768760.118,876.953,864.746,2.930,928.223
1741768760.122,999.512,999.512,-9.277,898.438
1741768760.079,-995.605,-1000.000,-61.523,-848.145
1741768760.083,351.562,192.871,-82.031,529.785
1741768760.087,999.512,999.512,-0.977,999.512
1741768760.091,999.512,999.512,29.785,999.512
1741768760.095,179.688,178.711,64.453,151.855
1741768760.099,-1000.000,-1000.000,56.641,-1000.000
1741768760.103,-1000.000,-987.793,38.574,-1000.000
1741768760.106,-832.031,-986.816,9.277,-634.766
1741768760.110,538.086,289.062,-90.332,729.004
1741768760.114,999.512,999.512,-34.668,997.559
1741768760.118,876.953,864.746,2.930,928.223
1741768760.122,999.512,999.512,-9.277,898.438
1741768760.124,-172.852,-65.430,37.109,-376.953
1741768760.128,-1000.000,-1000.000,25.879,-1000.000
1741768760.132,-880.859,-889.160,-16.113,-897.949
1741768760.136,-1000.000,-1000.000,-17.578,-1000.000
1741768760.140,-195.801,-206.543,-110.352,-83.496
1741768760.144,965.332,969.238,-37.598,987.793
1741768760.148,999.512,999.512,80.566,999.512
1741768760.151,497.070,614.258,89.844,378.906
1741768760.155,-855.957,-761.230,16.113,-909.180
1741768760.159,-1000.000,-1000.000,-130.371,-1000.000
1741768760.163,-858.398,-977.539,-93.262,-673.340
1741768760.167,399.414,196.289,-105.957,599.609
1741768760.124,-172.852,-65.430,37.109,-376.953
1741768760.128,-1000.000,-1000.000,25.879,-1000.000
1741768760.132,-880.859,-889.160,-16.113,-897.949
1741768760.136,-1000.000,-1000.000,-17.578,-1000.000
1741768760.140,-195.801,-206.543,-110.352,-83.496
1741768760.144,965.332,969.238,-37.598,987.793
1741768760.148,999.512,999.512,80.566,999.512
1741768760.151,497.070,614.258,89.844,378.906
1741768760.155,-855.957,-761.230,16.113,-909.180
1741768760.159,-1000.000,-1000.000,-130.371,-1000.000
1741768760.163,-858.398,-977.539,-93.262,-673.340
1741768760.167,399.414,196.289,-105.957,599.609
1741768760.169,999.512,999.512,-52.734,999.512
1741768760.173,928.711,989.746,-17.090,733.398
1741768760.177,-288.086,-161.133,-8.789,-544.922
1741768760.181,-1000.000,-1000.000,-67.383,-1000.000
1741768760.185,-1000.000,-1000.000,-96.680,-1000.000
1741768760.189,-224.609,-217.773,-122.070,-200.684
1741768760.193,999.512,999.512,-145.508,999.512
1741768760.196,929.199,937.012,-99.121,914.062
1741768760.200,910.156,898.926,-89.355,945.801
1741768760.204,999.512,999.512,-68.848,956.055
1741768760.208,-140.137,-51.270,-13.672,-306.152
1741768760.212,-1000.000,-1000.000,-91.309,-1000.000
1741768760.214,-1000.000,-1000.000,-174.316,-1000.000
1741768760.218,-372.559,-448.242,-209.473,-296.875
1741768760.222,906.738,862.793,-145.996,942.383
1741768760.226,999.512,999.512,21.484,999.512
1741768760.230,248.535,292.480,22.461,200.195
1741768760.234,-960.938,-937.500,11.719,-989.746
1741768760.238,-1000.000,-1000.000,-24.902,-1000.000
1741768760.241,-181.641,-176.758,-129.395,-132.324
1741768760.245,960.938,953.125,-166.016,980.957
1741768760.249,999.512,999.512,-123.047,999.512
1741768760.253,222.656,333.984,-31.738,151.855
1741768760.257,-1000.000,-998.535,24.902,-1000.000
1741768760.214,-1000.000,-1000.000,-174.316,-1000.000
1741768760.218,-372.559,-448.242,-209.473,-296.875
1741768760.222,906.738,862.793,-145.996,942.383
1741768760.226,999.512,999.512,21.484,999.512
1741768760.230,248.535,292.480,22.461,200.195
1741768760.234,-960.938,-937.500,11.719,-989.746
1741768760.238,-1000.000,-1000.000,-24.902,-1000.000
1741768760.241,-181.641,-176.758,-129.395,-132.324
1741768760.245,960.938,953.125,-166.016,980.957
1741768760.249,999.512,999.512,-123.047,999.512
1741768760.253,222.656,333.984,-31.738,151.855
1741768760.257,-1000.000,-998.535,24.902,-1000.000
1741768760.214,-1000.000,-1000.000,-174.316,-1000.000
1741768760.218,-372.559,-448.242,-209.473,-296.875
1741768760.222,906.738,862.793,-145.996,942.383
1741768760.226,999.512,999.512,21.484,999.512
1741768760.230,248.535,292.480,22.461,200.195
1741768760.234,-960.938,-937.500,11.719,-989.746
1741768760.238,-1000.000,-1000.000,-24.902,-1000.000
1741768760.241,-181.641,-176.758,-129.395,-132.324
1741768760.245,960.938,953.125,-166.016,980.957
1741768760.249,999.512,999.512,-123.047,999.512
1741768760.253,222.656,333.984,-31.738,151.855
1741768760.257,-1000.000,-998.535,24.902,-1000.000
1741768760.261,-932.129,-951.172,-117.676,-953.613
1741768760.265,-1000.000,-1000.000,-95.215,-1000.000
1741768760.269,-219.238,-231.934,-153.809,-2.930
1741768760.273,999.512,999.512,-159.180,999.512
1741768760.277,932.129,942.871,-5.371,905.762
1741768760.281,903.809,888.672,38.574,943.848
1741768760.285,999.512,999.512,73.242,994.141
1741768760.288,-79.102,49.805,66.406,-234.375
1741768760.292,-1000.000,-1000.000,-104.492,-1000.000
1741768760.296,-1000.000,-1000.000,-127.441,-1000.000
1741768760.300,-211.914,-252.441,-117.676,-193.359
1741768760.304,973.145,954.590,-111.328,999.512
1741768760.261,-932.129,-951.172,-117.676,-953.613
1741768760.265,-1000.000,-1000.000,-95.215,-1000.000
1741768760.269,-219.238,-231.934,-153.809,-2.930
1741768760.273,999.512,999.512,-159.180,999.512
1741768760.277,932.129,942.871,-5.371,905.762
1741768760.281,903.809,888.672,38.574,943.848
1741768760.285,999.512,999.512,73.242,994.141
1741768760.288,-79.102,49.805,66.406,-234.375
1741768760.292,-1000.000,-1000.000,-104.492,-1000.000
1741768760.296,-1000.000,-1000.000,-127.441,-1000.000
1741768760.300,-211.914,-252.441,-117.676,-193.359
1741768760.304,973.145,954.590,-111.328,999.512
1741768760.305,999.512,999.512,-39.551,999.512
1741768760.309,153.809,144.043,10.742,-14.160
1741768760.313,-996.582,-989.258,30.273,-1000.000
1741768760.317,-1000.000,-1000.000,-47.852,-1000.000
1741768760.321,-288.574,-446.777,-142.578,-229.004
1741768760.325,997.070,926.270,-114.258,999.512
1741768760.329,963.867,994.141,17.578,947.266
1741768760.332,872.070,858.887,-52.246,891.113
1741768760.336,999.512,999.512,-62.500,999.512
1741768760.340,144.043,158.203,22.461,44.922
1741768760.344,-1000.000,-1000.000,-35.156,-1000.000
1741768760.348,-920.898,-916.992,-146.973,-935.059
1741768760.305,999.512,999.512,-39.551,999.512
1741768760.309,153.809,144.043,10.742,-14.160
1741768760.313,-996.582,-989.258,30.273,-1000.000
1741768760.317,-1000.000,-1000.000,-47.852,-1000.000
1741768760.321,-288.574,-446.777,-142.578,-229.004
1741768760.325,997.070,926.270,-114.258,999.512
1741768760.329,963.867,994.141,17.578,947.266
1741768760.332,872.070,858.887,-52.246,891.113
1741768760.336,999.512,999.512,-62.500,999.512
1741768760.340,144.043,158.203,22.461,44.922
1741768760.344,-1000.000,-1000.000,-35.156,-1000.000
1741768760.348,-920.898,-916.992,-146.973,-935.059
1741768760.305,999.512,999.512,-39.551,999.512
1741768760.309,153.809,144.043,10.742,-14.160
1741768760.313,-996.582,-989.258,30.273,-1000.000
1741768760.317,-1000.000,-1000.000,-47.852,-1000.000
1741768760.321,-288.574,-446.777,-142.578,-229.004
1741768760.325,997.070,926.270,-114.258,999.512
1741768760.329,963.867,994.141,17.578,947.266
1741768760.332,872.070,858.887,-52.246,891.113
1741768760.336,999.512,999.512,-62.500,999.512
1741768760.340,144.043,158.203,22.461,44.922
1741768760.344,-1000.000,-1000.000,-35.156,-1000.000
1741768760.348,-920.898,-916.992,-146.973,-935.059
1741768760.365,-1000.000,-1000.000,-72.266,-1000.000
1741768760.369,-163.574,-226.074,-112.305,10.254
1741768760.373,990.234,975.586,-89.844,999.512
1741768760.377,999.512,999.512,-10.742,999.512
1741768760.381,149.414,148.438,8.301,121.094
1741768760.385,-1000.000,-1000.000,-6.348,-1000.000
1741768760.389,-1000.000,-1000.000,-60.059,-1000.000
1741768760.392,-743.164,-919.434,-101.562,-544.922
1741768760.396,651.367,401.855,-202.148,811.523
1741768760.400,999.512,999.512,-118.164,999.512
1741768760.404,828.613,825.684,-39.551,848.145
1741768760.408,999.512,999.512,-78.125,999.512
1741768760.365,-1000.000,-1000.000,-72.266,-1000.000
1741768760.369,-163.574,-226.074,-112.305,10.254
1741768760.373,990.234,975.586,-89.844,999.512
1741768760.377,999.512,999.512,-10.742,999.512
1741768760.381,149.414,148.438,8.301,121.094
1741768760.385,-1000.000,-1000.000,-6.348,-1000.000
1741768760.389,-1000.000,-1000.000,-60.059,-1000.000
1741768760.392,-743.164,-919.434,-101.562,-544.922
1741768760.396,651.367,401.855,-202.148,811.523
1741768760.400,999.512,999.512,-118.164,999.512
1741768760.404,828.613,825.684,-39.551,848.145
1741768760.408,999.512,999.512,-78.125,999.512
1741768760.410,404.297,491.211,2.441,324.707
1741768760.414,-986.328,-947.266,50.781,-1000.000
1741768760.418,-956.543,-965.820,-113.281,-947.266
1741768760.422,-1000.000,-1000.000,-104.980,-1000.000
1741768760.426,-262.695,-442.383,-139.648,-224.609
1741768760.430,959.473,899.902,-94.727,966.797
1741768760.434,999.512,999.512,50.293,999.512
1741768760.437,688.477,819.824,20.508,509.766
1741768760.441,-666.016,-481.934,16.113,-799.805
1741768760.445,-1000.000,-1000.000,-65.430,-1000.000
1741768760.449,-983.398,-1000.000,-80.078,-795.898
1741768760.453,212.891,58.105,-87.891,473.633
1741768760.410,404.297,491.211,2.441,324.707
1741768760.414,-986.328,-947.266,50.781,-1000.000
1741768760.418,-956.543,-965.820,-113.281,-947.266
1741768760.422,-1000.000,-1000.000,-104.980,-1000.000
1741768760.426,-262.695,-442.383,-139.648,-224.609
1741768760.430,959.473,899.902,-94.727,966.797
1741768760.434,999.512,999.512,50.293,999.512
1741768760.437,688.477,819.824,20.508,509.766
1741768760.441,-666.016,-481.934,16.113,-799.805
1741768760.445,-1000.000,-1000.000,-65.430,-1000.000
1741768760.449,-983.398,-1000.000,-80.078,-795.898
1741768760.453,212.891,58.105,-87.891,473.633
1741768760.454,999.512,999.512,-17.090,999.512
1741768760.458,999.512,999.512,12.207,999.512
1741768760.462,188.965,222.656,88.867,91.797
1741768760.466,-1000.000,-1000.000,133.301,-1000.000
1741768760.470,-933.594,-938.477,-14.160,-919.434
1741768760.474,-1000.000,-1000.000,-3.906,-1000.000
1741768760.478,-898.438,-866.699,-8.301,-792.480
1741768760.481,505.859,541.016,-134.277,604.004
1741768760.485,999.512,997.559,-61.523,987.793
1741768760.489,999.512,999.512,-2.930,999.512
1741768760.493,458.984,536.621,39.551,354.492
1741768760.497,-888.672,-856.445,61.035,-932.617
1741768760.454,999.512,999.512,-17.090,999.512
1741768760.458,999.512,999.512,12.207,999.512
1741768760.462,188.965,222.656,88.867,91.797
1741768760.466,-1000.000,-1000.000,133.301,-1000.000
1741768760.470,-933.594,-938.477,-14.160,-919.434
1741768760.474,-1000.000,-1000.000,-3.906,-1000.000
1741768760.478,-898.438,-866.699,-8.301,-792.480
1741768760.481,505.859,541.016,-134.277,604.004
1741768760.485,999.512,997.559,-61.523,987.793
1741768760.489,999.512,999.512,-2.930,999.512
1741768760.493,458.984,536.621,39.551,354.492
1741768760.497,-888.672,-856.445,61.035,-932.617
1741768760.500,-1000.000,-1000.000,-64.941,-1000.000
1741768760.504,-681.641,-814.453,-72.266,-516.602
1741768760.508,601.562,414.062,-62.988,753.418
1741768760.512,999.512,999.512,38.086,999.512
1741768760.516,390.137,430.664,101.074,296.875
1741768760.520,-862.305,-850.098,69.824,-916.504
1741768760.524,-1000.000,-1000.000,28.320,-1000.000
1741768760.527,-558.594,-709.473,-54.688,-406.250
1741768760.531,821.777,652.832,-148.926,912.598
1741768760.535,999.512,999.512,-96.680,999.512
1741768760.539,836.914,830.566,-55.176,852.051
1741768760.543,999.512,999.512,-42.480,999.512
1741768760.500,-1000.000,-1000.000,-64.941,-1000.000
1741768760.504,-681.641,-814.453,-72.266,-516.602
1741768760.508,601.562,414.062,-62.988,753.418
1741768760.512,999.512,999.512,38.086,999.512
1741768760.516,390.137,430.664,101.074,296.875
1741768760.520,-862.305,-850.098,69.824,-916.504
1741768760.524,-1000.000,-1000.000,28.320,-1000.000
1741768760.527,-558.594,-709.473,-54.688,-406.250
1741768760.531,821.777,652.832,-148.926,912.598
1741768760.535,999.512,999.512,-96.680,999.512
1741768760.539,836.914,830.566,-55.176,852.051
1741768760.543,999.512,999.512,-42.480,999.512
1741768760.551,354.980,361.328,44.922,337.891
1741768760.555,-1000.000,-1000.000,68.848,-1000.000
1741768760.559,-947.266,-941.895,-63.477,-947.754
1741768760.563,-1000.000,-1000.000,-65.918,-1000.000
1741768760.567,-255.859,-390.137,-138.672,-224.121
1741768760.571,949.707,900.879,-129.883,964.355
1741768760.575,999.512,999.512,19.531,999.512
1741768760.578,476.562,576.660,55.176,358.398
1741768760.582,-856.934,-775.391,-28.320,-909.668
1741768760.586,-1000.000,-1000.000,-128.418,-1000.000
1741768760.590,-807.129,-951.660,-87.891,-612.793
1741768760.594,521.973,280.762,-112.793,722.656
1741768761.054,-1000.000,-1000.000,-51.270,-1000.000
1741768761.058,-1000.000,-1000.000,-86.914,-1000.000
1741768761.062,-201.172,-258.789,-144.043,-153.809
1741768761.066,999.512,999.512,-153.809,999.512
1741768761.070,962.891,976.074,-48.828,954.590
1741768761.074,864.746,859.863,-38.574,872.070
1741768761.078,999.512,999.512,6.836,999.512
1741768761.081,466.309,541.016,60.547,415.527
1741768761.085,-951.172,-906.738,42.969,-961.914
1741768761.089,-971.191,-986.816,-124.512,-976.074
1741768761.093,-1000.000,-1000.000,-101.562,-1000.000
1741768761.097,-234.375,-233.887,-120.117,-115.723
1741768760.589,999.512,999.512,-72.266,999.512
1741768760.593,898.926,902.344,-37.598,901.855
1741768760.597,916.992,908.691,-8.789,933.105
1741768760.601,999.512,999.512,-1.953,999.512
1741768760.605,161.133,186.523,86.914,45.898
1741768760.609,-1000.000,-1000.000,51.270,-1000.000
1741768760.613,-928.223,-925.781,-90.820,-942.871
1741768760.616,-1000.000,-1000.000,-70.312,-1000.000
1741768760.620,-105.957,-176.270,-163.086,53.223
1741768760.624,999.512,988.281,-182.617,999.512
1741768760.628,999.512,999.512,-106.934,999.512
1741768760.632,157.227,163.086,-45.410,13.672
1741768760.589,999.512,999.512,-72.266,999.512
1741768760.593,898.926,902.344,-37.598,901.855
1741768760.597,916.992,908.691,-8.789,933.105
1741768760.601,999.512,999.512,-1.953,999.512
1741768760.605,161.133,186.523,86.914,45.898
1741768760.609,-1000.000,-1000.000,51.270,-1000.000
1741768760.613,-928.223,-925.781,-90.820,-942.871
1741768760.616,-1000.000,-1000.000,-70.312,-1000.000
1741768760.620,-105.957,-176.270,-163.086,53.223
1741768760.624,999.512,988.281,-182.617,999.512
1741768760.628,999.512,999.512,-106.934,999.512
1741768760.632,157.227,163.086,-45.410,13.672
1741768760.589,999.512,999.512,-72.266,999.512
1741768760.593,898.926,902.344,-37.598,901.855
1741768760.597,916.992,908.691,-8.789,933.105
1741768760.601,999.512,999.512,-1.953,999.512
1741768760.605,161.133,186.523,86.914,45.898
1741768760.609,-1000.000,-1000.000,51.270,-1000.000
1741768760.613,-928.223,-925.781,-90.820,-942.871
1741768760.616,-1000.000,-1000.000,-70.312,-1000.000
1741768760.620,-105.957,-176.270,-163.086,53.223
1741768760.624,999.512,988.281,-182.617,999.512
1741768760.628,999.512,999.512,-106.934,999.512
1741768760.632,157.227,163.086,-45.410,13.672
1741768760.634,-1000.000,-1000.000,-48.340,-1000.000
1741768760.638,-1000.000,-1000.000,-78.125,-1000.000
1741768760.642,-194.336,-193.359,-128.906,-72.754
1741768760.646,999.512,999.512,-93.262,999.512
1741768760.650,949.219,951.172,-9.766,929.199
1741768760.654,877.930,877.441,1.953,899.414
1741768760.658,999.512,999.512,16.113,999.512
1741768760.661,151.855,174.805,29.297,57.129
1741768760.665,-1000.000,-1000.000,-33.691,-1000.000
1741768760.669,-1000.000,-982.422,-146.484,-1000.000
1741768760.673,-903.320,-1000.000,-105.469,-722.656
1741768760.677,430.176,262.695,-84.961,629.883
1741768760.634,-1000.000,-1000.000,-48.340,-1000.000
1741768760.638,-1000.000,-1000.000,-78.125,-1000.000
1741768760.642,-194.336,-193.359,-128.906,-72.754
1741768760.646,999.512,999.512,-93.262,999.512
1741768760.650,949.219,951.172,-9.766,929.199
1741768760.654,877.930,877.441,1.953,899.414
1741768760.658,999.512,999.512,16.113,999.512
1741768760.661,151.855,174.805,29.297,57.129
1741768760.665,-1000.000,-1000.000,-33.691,-1000.000
1741768760.669,-1000.000,-982.422,-146.484,-1000.000
1741768760.673,-903.320,-1000.000,-105.469,-722.656
1741768760.677,430.176,262.695,-84.961,629.883
1741768760.679,999.512,999.512,2.930,999.512
1741768760.683,999.512,999.512,56.152,999.023
1741768760.687,157.715,190.430,30.762,-11.230
1741768760.691,-1000.000,-1000.000,-10.742,-1000.000
1741768760.695,-1000.000,-1000.000,-34.180,-1000.000
1741768760.699,-207.520,-198.242,-62.012,-156.250
1741768760.703,986.328,976.562,-6.836,999.512
1741768760.706,999.512,999.512,21.973,950.195
1741768760.710,-27.832,66.406,-8.301,-261.719
1741768760.714,-1000.000,-1000.000,-19.531,-1000.000
1741768760.718,-1000.000,-1000.000,-21.484,-1000.000
1741768760.722,-207.520,-229.004,-102.051,-147.461
1741768760.679,999.512,999.512,2.930,999.512
1741768760.683,999.512,999.512,56.152,999.023
1741768760.687,157.715,190.430,30.762,-11.230
1741768760.691,-1000.000,-1000.000,-10.742,-1000.000
1741768760.695,-1000.000,-1000.000,-34.180,-1000.000
1741768760.699,-207.520,-198.242,-62.012,-156.250
1741768760.703,986.328,976.562,-6.836,999.512
1741768760.706,999.512,999.512,21.973,950.195
1741768760.710,-27.832,66.406,-8.301,-261.719
1741768760.714,-1000.000,-1000.000,-19.531,-1000.000
1741768760.718,-1000.000,-1000.000,-21.484,-1000.000
1741768760.722,-207.520,-229.004,-102.051,-147.461
1741768760.739,999.512,999.512,-145.996,999.512
1741768760.743,950.684,956.055,-31.250,937.988
1741768760.747,876.465,875.000,3.418,891.113
1741768760.751,999.512,999.512,-5.371,999.512
1741768760.755,184.570,186.523,72.266,98.145
1741768760.759,-1000.000,-1000.000,62.012,-1000.000
1741768760.763,-939.941,-927.246,-74.219,-970.703
1741768760.766,-1000.000,-1000.000,-105.957,-980.957
1741768760.770,-41.504,-163.086,-161.621,181.641
1741768760.774,999.512,998.047,-92.285,999.512
1741768760.778,999.512,999.512,-36.621,935.059
1741768760.782,5.859,99.609,-40.527,-202.637
1741768760.739,999.512,999.512,-145.996,999.512
1741768760.743,950.684,956.055,-31.250,937.988
1741768760.747,876.465,875.000,3.418,891.113
1741768760.751,999.512,999.512,-5.371,999.512
1741768760.755,184.570,186.523,72.266,98.145
1741768760.759,-1000.000,-1000.000,62.012,-1000.000
1741768760.763,-939.941,-927.246,-74.219,-970.703
1741768760.766,-1000.000,-1000.000,-105.957,-980.957
1741768760.770,-41.504,-163.086,-161.621,181.641
1741768760.774,999.512,998.047,-92.285,999.512
1741768760.778,999.512,999.512,-36.621,935.059
1741768760.782,5.859,99.609,-40.527,-202.637
1741768760.784,-1000.000,-1000.000,-55.176,-1000.000
1741768760.788,-1000.000,-1000.000,-72.266,-1000.000
1741768760.792,-187.500,-197.754,-106.445,-25.879
1741768760.796,987.305,970.215,-50.293,999.512
1741768760.800,999.512,999.512,25.879,912.109
1741768760.804,57.129,160.156,36.621,-255.859
1741768760.808,-1000.000,-1000.000,47.363,-1000.000
1741768760.811,-970.215,-984.863,-24.902,-952.637
1741768760.815,-917.969,-910.156,-56.152,-935.059
1741768760.819,-1000.000,-1000.000,-88.867,-1000.000
1741768760.823,-219.238,-220.215,-190.918,-191.406
1741768760.827,999.512,999.512,-152.832,999.512
1741768760.784,-1000.000,-1000.000,-55.176,-1000.000
1741768760.788,-1000.000,-1000.000,-72.266,-1000.000
1741768760.792,-187.500,-197.754,-106.445,-25.879
1741768760.796,987.305,970.215,-50.293,999.512
1741768760.800,999.512,999.512,25.879,912.109
1741768760.804,57.129,160.156,36.621,-255.859
1741768760.808,-1000.000,-1000.000,47.363,-1000.000
1741768760.811,-970.215,-984.863,-24.902,-952.637
1741768760.815,-917.969,-910.156,-56.152,-935.059
1741768760.819,-1000.000,-1000.000,-88.867,-1000.000
1741768760.823,-219.238,-220.215,-190.918,-191.406
1741768760.827,999.512,999.512,-152.832,999.512
1741768760.831,902.832,890.625,-29.785,941.895
1741768760.835,999.512,999.512,-58.594,950.684
1741768760.839,32.227,166.504,-1.953,-223.633
1741768760.843,-1000.000,-1000.000,-31.738,-1000.000
1741768760.847,-1000.000,-1000.000,-89.844,-1000.000
1741768760.851,-117.188,-106.934,-194.824,-104.004
1741768760.855,960.938,958.496,-133.789,989.258
1741768760.858,999.512,999.512,-13.184,999.512
1741768760.862,147.461,151.367,2.441,0.488
1741768760.866,-1000.000,-1000.000,-35.645,-1000.000
1741768760.870,-1000.000,-1000.000,-94.727,-1000.000
1741768760.874,-784.180,-929.688,-82.520,-642.578
1741768760.831,902.832,890.625,-29.785,941.895
1741768760.835,999.512,999.512,-58.594,950.684
1741768760.839,32.227,166.504,-1.953,-223.633
1741768760.843,-1000.000,-1000.000,-31.738,-1000.000
1741768760.847,-1000.000,-1000.000,-89.844,-1000.000
1741768760.851,-117.188,-106.934,-194.824,-104.004
1741768760.855,960.938,958.496,-133.789,989.258
1741768760.858,999.512,999.512,-13.184,999.512
1741768760.862,147.461,151.367,2.441,0.488
1741768760.866,-1000.000,-1000.000,-35.645,-1000.000
1741768760.870,-1000.000,-1000.000,-94.727,-1000.000
1741768760.874,-784.180,-929.688,-82.520,-642.578
1741768760.831,902.832,890.625,-29.785,941.895
1741768760.835,999.512,999.512,-58.594,950.684
1741768760.839,32.227,166.504,-1.953,-223.633
1741768760.843,-1000.000,-1000.000,-31.738,-1000.000
1741768760.847,-1000.000,-1000.000,-89.844,-1000.000
1741768760.851,-117.188,-106.934,-194.824,-104.004
1741768760.855,960.938,958.496,-133.789,989.258
1741768760.858,999.512,999.512,-13.184,999.512
1741768760.862,147.461,151.367,2.441,0.488
1741768760.866,-1000.000,-1000.000,-35.645,-1000.000
1741768760.870,-1000.000,-1000.000,-94.727,-1000.000
1741768760.874,-784.180,-929.688,-82.520,-642.578
1741768760.874,601.562,387.207,-175.293,718.750
1741768760.878,999.512,999.512,-125.488,999.512
1741768760.882,854.492,849.609,-22.949,867.676
1741768760.886,999.512,999.512,-11.230,999.512
1741768760.890,121.094,209.473,90.820,97.168
1741768760.894,-1000.000,-1000.000,84.961,-1000.000
1741768760.898,-938.965,-944.824,-97.168,-976.562
1741768760.901,-1000.000,-1000.000,-81.543,-980.957
1741768760.905,-105.957,-196.289,-113.770,125.488
1741768760.909,999.512,999.512,-125.488,999.512
1741768760.913,986.816,999.512,-80.078,786.621
1741768760.917,-221.191,-164.062,-40.039,-459.961
1741768760.874,601.562,387.207,-175.293,718.750
1741768760.878,999.512,999.512,-125.488,999.512
1741768760.882,854.492,849.609,-22.949,867.676
1741768760.886,999.512,999.512,-11.230,999.512
1741768760.890,121.094,209.473,90.820,97.168
1741768760.894,-1000.000,-1000.000,84.961,-1000.000
1741768760.898,-938.965,-944.824,-97.168,-976.562
1741768760.901,-1000.000,-1000.000,-81.543,-980.957
1741768760.905,-105.957,-196.289,-113.770,125.488
1741768760.909,999.512,999.512,-125.488,999.512
1741768760.913,986.816,999.512,-80.078,786.621
1741768760.917,-221.191,-164.062,-40.039,-459.961
1741768760.919,-1000.000,-1000.000,-97.656,-1000.000
1741768760.923,-1000.000,-1000.000,-126.465,-884.766
1741768760.927,86.914,-39.062,-115.234,331.055
1741768760.931,999.512,999.512,-78.613,999.512
1741768760.935,909.180,926.758,-46.387,899.902
1741768760.939,903.320,891.113,-54.688,924.316
1741768760.943,999.512,999.512,-17.578,999.512
1741768760.946,122.559,172.363,37.598,30.273
1741768760.950,-1000.000,-1000.000,-32.715,-1000.000
1741768760.954,-949.219,-948.730,-153.320,-976.562
1741768760.958,-1000.000,-1000.000,-115.723,-935.547
1741768760.962,105.957,55.176,-109.863,306.641
1741768760.965,999.512,999.512,-92.773,999.512
1741768760.969,999.512,999.512,-63.477,972.168
1741768760.973,80.566,154.785,-3.906,-100.098
1741768760.977,-1000.000,-1000.000,-63.965,-1000.000
1741768760.981,-1000.000,-1000.000,-114.258,-1000.000
1741768760.985,-207.520,-205.566,-125.488,-111.816
1741768760.989,999.512,985.840,-85.938,999.512
1741768760.992,999.512,999.512,-37.598,906.738
1741768760.996,-117.676,-33.203,-80.566,-352.539
1741768761.000,-1000.000,-1000.000,-117.676,-1000.000
1741768761.004,-1000.000,-1000.000,-97.168,-1000.000
1741768761.008,-447.754,-559.570,-117.676,-375.000
1741768760.965,999.512,999.512,-92.773,999.512
1741768760.969,999.512,999.512,-63.477,972.168
1741768760.973,80.566,154.785,-3.906,-100.098
1741768760.977,-1000.000,-1000.000,-63.965,-1000.000
1741768760.981,-1000.000,-1000.000,-114.258,-1000.000
1741768760.985,-207.520,-205.566,-125.488,-111.816
1741768760.989,999.512,985.840,-85.938,999.512
1741768760.992,999.512,999.512,-37.598,906.738
1741768760.996,-117.676,-33.203,-80.566,-352.539
1741768761.000,-1000.000,-1000.000,-117.676,-1000.000
1741768761.004,-1000.000,-1000.000,-97.168,-1000.000
1741768761.008,-447.754,-559.570,-117.676,-375.000
1741768761.010,939.453,869.141,-177.734,973.633
1741768761.014,991.211,999.512,-49.316,968.750
1741768761.018,858.398,848.633,-33.203,882.324
1741768761.022,999.512,999.512,-82.031,999.512
1741768761.026,168.945,185.547,1.465,34.180
1741768761.030,-1000.000,-1000.000,-8.789,-1000.000
1741768761.034,-952.637,-937.500,-88.867,-982.910
