timestamps,TP9,AF7,AF8,TP10
1741774719.904,-1000.000,-1000.000,-15.625,-1000.000
1741774719.908,-968.262,-969.238,-268.555,-965.820
1741774719.912,-996.094,-993.652,-163.574,-1000.000
1741774719.916,-1000.000,-1000.000,-24.902,-1000.000
1741774719.920,250.488,238.281,441.895,286.133
1741774719.924,999.512,999.512,995.117,999.512
1741774719.928,902.344,903.320,477.539,904.785
1741774719.931,969.238,969.238,-256.836,970.215
1741774719.935,966.309,967.285,-362.793,967.285
1741774719.939,966.309,966.797,-61.523,966.797
1741774719.943,966.309,966.797,-15.137,966.797
1741774719.947,966.309,967.285,-227.051,966.797
1741774719.949,966.797,965.820,-419.922,967.773
1741774719.953,903.320,907.227,-304.688,904.297
1741774719.957,999.512,999.512,79.102,999.512
1741774719.961,187.012,155.762,-221.191,187.012
1741774719.965,-1000.000,-1000.000,-1000.000,-1000.000
1741774719.969,-983.887,-979.492,-637.695,-983.887
1741774719.973,-973.145,-975.586,296.875,-973.145
1741774719.976,-1000.000,-1000.000,375.488,-1000.000
1741774719.980,-1000.000,-1000.000,450.195,-1000.000
1741774719.984,-1000.000,-1000.000,-41.504,-1000.000
1741774719.988,-951.660,-956.543,-608.887,-946.777
1741774719.992,-1000.000,-1000.000,-291.504,-1000.000
1741774719.996,-907.227,-954.102,131.836,-838.867
1741774720.000,470.703,399.902,742.188,547.363
1741774720.004,999.512,999.512,799.805,999.512
1741774720.008,899.414,899.902,-121.094,902.832
1741774720.012,980.469,977.539,-294.434,983.887
1741774720.016,947.266,954.102,500.000,939.941
1741774720.020,934.570,924.805,758.789,955.566
1741774720.023,999.512,999.512,-87.402,999.512
1741774720.027,-111.816,-24.902,-857.422,-216.797
1741774720.031,-1000.000,-1000.000,-919.922,-1000.000
1741774720.035,-947.266,-956.055,-416.992,-945.801
1741774720.039,-994.141,-988.770,-43.457,-997.559
1741774719.996,-907.227,-954.102,131.836,-838.867
1741774720.000,470.703,399.902,742.188,547.363
1741774720.004,999.512,999.512,799.805,999.512
1741774720.008,899.414,899.902,-121.094,902.832
1741774720.012,980.469,977.539,-294.434,983.887
1741774720.016,947.266,954.102,500.000,939.941
1741774720.020,934.570,924.805,758.789,955.566
1741774720.023,999.512,999.512,-87.402,999.512
1741774720.027,-111.816,-24.902,-857.422,-216.797
1741774720.031,-1000.000,-1000.000,-919.922,-1000.000
1741774720.035,-947.266,-956.055,-416.992,-945.801
1741774720.039,-994.141,-988.770,-43.457,-997.559
1741774720.039,-1000.000,-1000.000,-133.789,-1000.000
1741774720.043,-991.211,-990.234,-261.230,-987.793
1741774720.047,-952.148,-953.613,13.672,-958.984
1741774720.051,-1000.000,-1000.000,300.781,-1000.000
1741774720.055,-60.059,-50.781,643.555,-15.137
1741774720.059,999.512,999.512,937.012,999.512
1741774720.063,928.223,927.734,394.531,925.293
1741774720.066,951.172,952.637,-298.340,954.590
1741774720.070,970.215,970.215,-68.359,969.727
1741774720.074,903.320,904.785,213.867,904.785
1741774720.078,999.512,999.512,-195.801,999.512
1741774720.082,187.012,181.641,-736.328,180.664
1741774720.039,-1000.000,-1000.000,-133.789,-1000.000
1741774720.043,-991.211,-990.234,-261.230,-987.793
1741774720.047,-952.148,-953.613,13.672,-958.984
1741774720.051,-1000.000,-1000.000,300.781,-1000.000
1741774720.055,-60.059,-50.781,643.555,-15.137
1741774720.059,999.512,999.512,937.012,999.512
1741774720.063,928.223,927.734,394.531,925.293
1741774720.066,951.172,952.637,-298.340,954.590
1741774720.070,970.215,970.215,-68.359,969.727
1741774720.074,903.320,904.785,213.867,904.785
1741774720.078,999.512,999.512,-195.801,999.512
1741774720.082,187.012,181.641,-736.328,180.664
1741774720.084,-1000.000,-1000.000,-1000.000,-1000.000
1741774720.088,-983.887,-983.398,-488.770,-982.910
1741774720.092,-973.145,-973.633,139.160,-973.633
1741774720.096,-1000.000,-1000.000,143.066,-1000.000
1741774720.100,-1000.000,-1000.000,-237.305,-998.535
1741774720.104,-937.500,-937.500,-32.227,-941.895
1741774720.108,-1000.000,-1000.000,383.301,-1000.000
1741774720.111,-220.703,-220.703,426.758,-178.711
1741774720.115,999.512,999.512,604.492,999.512
1741774720.119,949.707,950.684,155.762,945.312
1741774720.123,938.965,939.941,-211.426,942.871
1741774720.127,973.633,974.121,125.000,975.098
1741774720.084,-1000.000,-1000.000,-1000.000,-1000.000
1741774720.088,-983.887,-983.398,-488.770,-982.910
1741774720.092,-973.145,-973.633,139.160,-973.633
1741774720.096,-1000.000,-1000.000,143.066,-1000.000
1741774720.100,-1000.000,-1000.000,-237.305,-998.535
1741774720.104,-937.500,-937.500,-32.227,-941.895
1741774720.108,-1000.000,-1000.000,383.301,-1000.000
1741774720.111,-220.703,-220.703,426.758,-178.711
1741774720.115,999.512,999.512,604.492,999.512
1741774720.119,949.707,950.684,155.762,945.312
1741774720.123,938.965,939.941,-211.426,942.871
1741774720.127,973.633,974.121,125.000,975.098
1741774720.144,963.379,965.820,373.047,957.031
1741774720.148,908.691,907.227,270.996,922.363
1741774720.152,999.512,999.512,-185.059,999.512
1741774720.156,125.488,154.297,-727.539,30.762
1741774720.160,-1000.000,-1000.000,-835.938,-1000.000
1741774720.164,-975.098,-979.004,-85.449,-966.797
1741774720.168,-977.539,-975.586,253.418,-983.398
1741774720.171,-1000.000,-1000.000,-550.781,-1000.000
1741774720.175,-1000.000,-1000.000,-550.781,-1000.000
1741774720.179,-1000.000,-1000.000,185.547,-1000.000
1741774720.183,-1000.000,-1000.000,46.875,-1000.000
1741774720.187,-1000.000,-1000.000,-216.797,-1000.000
1741774720.144,963.379,965.820,373.047,957.031
1741774720.148,908.691,907.227,270.996,922.363
1741774720.152,999.512,999.512,-185.059,999.512
1741774720.156,125.488,154.297,-727.539,30.762
1741774720.160,-1000.000,-1000.000,-835.938,-1000.000
1741774720.164,-975.098,-979.004,-85.449,-966.797
1741774720.168,-977.539,-975.586,253.418,-983.398
1741774720.171,-1000.000,-1000.000,-550.781,-1000.000
1741774720.175,-1000.000,-1000.000,-550.781,-1000.000
1741774720.179,-1000.000,-1000.000,185.547,-1000.000
1741774720.183,-1000.000,-1000.000,46.875,-1000.000
1741774720.187,-1000.000,-1000.000,-216.797,-1000.000
1741774720.189,-987.305,-988.770,-411.621,-988.281
1741774720.193,-958.008,-956.055,-477.539,-958.008
1741774720.197,-1000.000,-1000.000,-228.027,-1000.000
1741774720.201,-7.324,-28.809,289.062,-20.020
1741774720.205,999.512,999.512,771.973,999.512
1741774720.209,921.875,925.293,569.336,925.293
1741774720.213,954.590,953.613,179.199,954.102
1741774720.216,968.262,969.727,-309.082,969.727
1741774720.220,966.309,966.797,-363.770,966.797
1741774720.224,966.309,967.285,165.527,966.797
1741774720.228,966.309,966.797,-12.695,966.797
1741774720.232,966.309,967.285,-327.148,966.797
1741774720.189,-987.305,-988.770,-411.621,-988.281
1741774720.193,-958.008,-956.055,-477.539,-958.008
1741774720.197,-1000.000,-1000.000,-228.027,-1000.000
1741774720.201,-7.324,-28.809,289.062,-20.020
1741774720.205,999.512,999.512,771.973,999.512
1741774720.209,921.875,925.293,569.336,925.293
1741774720.213,954.590,953.613,179.199,954.102
1741774720.216,968.262,969.727,-309.082,969.727
1741774720.220,966.309,966.797,-363.770,966.797
1741774720.224,966.309,967.285,165.527,966.797
1741774720.228,966.309,966.797,-12.695,966.797
1741774720.232,966.309,967.285,-327.148,966.797
1741774720.234,966.797,967.285,-109.863,969.238
1741774720.238,903.809,904.785,0.000,902.832
1741774720.242,999.512,999.512,266.113,999.512
1741774720.246,187.012,181.641,-38.574,212.402
1741774720.250,-1000.000,-1000.000,-1000.000,-1000.000
1741774720.254,-983.887,-983.398,-520.996,-988.281
1741774720.258,-973.145,-973.633,382.812,-971.191
1741774720.261,-1000.000,-1000.000,342.285,-1000.000
1741774720.265,-1000.000,-1000.000,259.277,-1000.000
1741774720.269,-1000.000,-1000.000,-290.527,-1000.000
1741774720.273,-1000.000,-1000.000,-522.949,-1000.000
1741774720.277,-1000.000,-1000.000,-22.461,-1000.000
1741774720.234,966.797,967.285,-109.863,969.238
1741774720.238,903.809,904.785,0.000,902.832
1741774720.242,999.512,999.512,266.113,999.512
1741774720.246,187.012,181.641,-38.574,212.402
1741774720.250,-1000.000,-1000.000,-1000.000,-1000.000
1741774720.254,-983.887,-983.398,-520.996,-988.281
1741774720.258,-973.145,-973.633,382.812,-971.191
1741774720.261,-1000.000,-1000.000,342.285,-1000.000
1741774720.265,-1000.000,-1000.000,259.277,-1000.000
1741774720.269,-1000.000,-1000.000,-290.527,-1000.000
1741774720.273,-1000.000,-1000.000,-522.949,-1000.000
1741774720.277,-1000.000,-1000.000,-22.461,-1000.000
1741774720.744,908.691,915.039,-520.508,910.156
1741774720.748,981.934,981.934,-335.938,981.934
1741774720.752,966.309,966.797,-4.883,966.797
1741774720.756,966.309,967.285,-46.387,967.285
1741774720.760,966.797,967.285,-348.145,967.773
1741774720.764,903.320,905.273,-392.578,904.297
1741774720.768,999.512,999.512,-58.105,999.512
1741774720.771,186.523,176.270,-461.914,187.012
1741774720.775,-1000.000,-1000.000,-904.785,-1000.000
1741774720.779,-983.887,-982.422,-596.191,-983.887
1741774720.783,-973.145,-974.121,-687.988,-973.145
1741774720.787,-1000.000,-1000.000,-587.402,-1000.000
1741774720.280,-933.105,-935.547,279.297,-947.754
1741774720.284,-1000.000,-1000.000,176.270,-1000.000
1741774720.288,-696.777,-251.465,-106.934,-860.352
1741774720.292,740.723,999.512,13.672,529.297
1741774720.296,999.512,955.566,298.828,999.512
1741774720.300,904.785,937.500,639.648,901.367
1741774720.304,980.957,974.609,687.988,977.539
1741774720.307,966.309,966.797,-299.316,966.797
1741774720.311,966.309,967.285,-876.465,966.797
1741774720.315,981.934,981.934,-380.371,980.957
1741774720.319,898.438,905.273,99.609,901.367
1741774720.323,999.512,999.512,78.613,999.512
1741774720.280,-933.105,-935.547,279.297,-947.754
1741774720.284,-1000.000,-1000.000,176.270,-1000.000
1741774720.288,-696.777,-251.465,-106.934,-860.352
1741774720.292,740.723,999.512,13.672,529.297
1741774720.296,999.512,955.566,298.828,999.512
1741774720.300,904.785,937.500,639.648,901.367
1741774720.304,980.957,974.609,687.988,977.539
1741774720.307,966.309,966.797,-299.316,966.797
1741774720.311,966.309,967.285,-876.465,966.797
1741774720.315,981.934,981.934,-380.371,980.957
1741774720.319,898.438,905.273,99.609,901.367
1741774720.323,999.512,999.512,78.613,999.512
1741774720.325,670.898,743.164,-329.590,646.484
1741774720.329,-774.414,-684.570,-823.730,-773.926
1741774720.333,-1000.000,-1000.000,-726.074,-1000.000
1741774720.337,-937.500,-935.547,-290.527,-940.918
1741774720.341,-1000.000,-1000.000,41.504,-1000.000
1741774720.345,-1000.000,-1000.000,102.539,-1000.000
1741774720.349,-1000.000,-1000.000,-322.754,-998.047
1741774720.352,-937.500,-936.523,-487.305,-942.383
1741774720.356,-1000.000,-1000.000,-105.469,-1000.000
1741774720.360,-220.703,-233.887,314.941,-177.734
1741774720.364,999.512,999.512,318.848,999.512
1741774720.368,949.707,953.125,-182.129,945.801
1741774720.325,670.898,743.164,-329.590,646.484
1741774720.329,-774.414,-684.570,-823.730,-773.926
1741774720.333,-1000.000,-1000.000,-726.074,-1000.000
1741774720.337,-937.500,-935.547,-290.527,-940.918
1741774720.341,-1000.000,-1000.000,41.504,-1000.000
1741774720.345,-1000.000,-1000.000,102.539,-1000.000
1741774720.349,-1000.000,-1000.000,-322.754,-998.047
1741774720.352,-937.500,-936.523,-487.305,-942.383
1741774720.356,-1000.000,-1000.000,-105.469,-1000.000
1741774720.360,-220.703,-233.887,314.941,-177.734
1741774720.364,999.512,999.512,318.848,999.512
1741774720.368,949.707,953.125,-182.129,945.801
1741774720.369,938.965,938.477,-254.395,942.383
1741774720.373,987.305,986.816,113.281,985.352
1741774720.377,906.250,915.527,245.117,903.809
1741774720.381,999.512,999.512,-134.277,999.512
1741774720.385,759.277,851.562,-635.742,646.484
1741774720.389,-663.086,-538.086,-558.105,-756.836
1741774720.393,-1000.000,-1000.000,-65.430,-1000.000
1741774720.396,-935.059,-933.594,135.254,-941.895
1741774720.400,-1000.000,-1000.000,-364.746,-1000.000
1741774720.404,-1000.000,-1000.000,-535.645,-1000.000
1741774720.408,-930.664,-940.430,-168.457,-932.617
1741774720.412,-1000.000,-1000.000,76.172,-1000.000
1741774720.369,938.965,938.477,-254.395,942.383
1741774720.373,987.305,986.816,113.281,985.352
1741774720.377,906.250,915.527,245.117,903.809
1741774720.381,999.512,999.512,-134.277,999.512
1741774720.385,759.277,851.562,-635.742,646.484
1741774720.389,-663.086,-538.086,-558.105,-756.836
1741774720.393,-1000.000,-1000.000,-65.430,-1000.000
1741774720.396,-935.059,-933.594,135.254,-941.895
1741774720.400,-1000.000,-1000.000,-364.746,-1000.000
1741774720.404,-1000.000,-1000.000,-535.645,-1000.000
1741774720.408,-930.664,-940.430,-168.457,-932.617
1741774720.412,-1000.000,-1000.000,76.172,-1000.000
1741774720.415,-666.504,-798.340,262.695,-629.395
1741774720.419,778.809,625.977,663.086,791.016
1741774720.423,999.512,999.512,459.473,999.512
1741774720.427,905.762,901.367,172.363,910.156
1741774720.431,982.422,981.445,370.605,981.934
1741774720.435,903.320,904.297,779.785,903.809
1741774720.439,999.512,999.512,728.516,999.512
1741774720.442,187.012,187.500,-421.387,194.336
1741774720.446,-1000.000,-1000.000,-944.824,-1000.000
1741774720.450,-983.887,-983.887,-252.930,-985.352
1741774720.454,-973.145,-973.145,154.297,-972.656
1741774720.458,-1000.000,-1000.000,19.043,-1000.000
1741774720.415,-666.504,-798.340,262.695,-629.395
1741774720.419,778.809,625.977,663.086,791.016
1741774720.423,999.512,999.512,459.473,999.512
1741774720.427,905.762,901.367,172.363,910.156
1741774720.431,982.422,981.445,370.605,981.934
1741774720.435,903.320,904.297,779.785,903.809
1741774720.439,999.512,999.512,728.516,999.512
1741774720.442,187.012,187.500,-421.387,194.336
1741774720.446,-1000.000,-1000.000,-944.824,-1000.000
1741774720.450,-983.887,-983.887,-252.930,-985.352
1741774720.454,-973.145,-973.145,154.297,-972.656
1741774720.458,-1000.000,-1000.000,19.043,-1000.000
1741774720.459,-1000.000,-1000.000,-441.895,-1000.000
1741774720.463,-985.352,-991.211,-472.168,-982.422
1741774720.467,-961.426,-952.148,106.934,-969.727
1741774720.471,-1000.000,-1000.000,307.617,-1000.000
1741774720.475,20.020,-59.082,586.426,59.570
1741774720.479,999.512,999.512,926.270,999.512
1741774720.483,918.945,928.711,703.125,919.922
1741774720.486,956.543,952.148,23.926,958.496
1741774720.490,968.750,970.703,-282.715,969.238
1741774720.494,903.320,904.297,-20.508,904.297
1741774720.498,999.512,999.512,-298.340,999.512
1741774720.502,187.012,187.500,-685.059,187.500
1741774720.459,-1000.000,-1000.000,-441.895,-1000.000
1741774720.463,-985.352,-991.211,-472.168,-982.422
1741774720.467,-961.426,-952.148,106.934,-969.727
1741774720.471,-1000.000,-1000.000,307.617,-1000.000
1741774720.475,20.020,-59.082,586.426,59.570
1741774720.479,999.512,999.512,926.270,999.512
1741774720.483,918.945,928.711,703.125,919.922
1741774720.486,956.543,952.148,23.926,958.496
1741774720.490,968.750,970.703,-282.715,969.238
1741774720.494,903.320,904.297,-20.508,904.297
1741774720.498,999.512,999.512,-298.340,999.512
1741774720.502,187.012,187.500,-685.059,187.500
1741774720.519,-1000.000,-1000.000,-636.719,-1000.000
1741774720.523,-983.887,-983.887,-313.965,-983.887
1741774720.527,-988.770,-984.375,-146.973,-988.281
1741774720.531,-935.547,-934.570,-637.207,-937.988
1741774720.535,-1000.000,-1000.000,-811.523,-1000.000
1741774720.539,-643.066,-458.496,94.238,-670.410
1741774720.543,805.664,935.059,877.441,770.996
1741774720.546,999.512,993.164,666.504,999.512
1741774720.550,906.738,920.410,57.617,906.250
1741774720.554,981.934,979.980,-356.445,981.934
1741774720.558,966.309,966.797,-343.750,966.797
1741774720.562,966.309,967.285,-40.527,967.285
1741774720.519,-1000.000,-1000.000,-636.719,-1000.000
1741774720.523,-983.887,-983.887,-313.965,-983.887
1741774720.527,-988.770,-984.375,-146.973,-988.281
1741774720.531,-935.547,-934.570,-637.207,-937.988
1741774720.535,-1000.000,-1000.000,-811.523,-1000.000
1741774720.539,-643.066,-458.496,94.238,-670.410
1741774720.543,805.664,935.059,877.441,770.996
1741774720.546,999.512,993.164,666.504,999.512
1741774720.550,906.738,920.410,57.617,906.250
1741774720.554,981.934,979.980,-356.445,981.934
1741774720.558,966.309,966.797,-343.750,966.797
1741774720.562,966.309,967.285,-40.527,967.285
1741774720.565,966.797,967.285,136.719,967.773
1741774720.569,903.320,904.785,-66.406,904.297
1741774720.573,999.512,999.512,-142.090,999.512
1741774720.577,187.012,180.176,-366.699,187.012
1741774720.581,-1000.000,-1000.000,-855.957,-1000.000
1741774720.585,-983.887,-982.910,-104.004,-983.887
1741774720.589,-973.145,-973.633,234.375,-973.145
1741774720.592,-1000.000,-1000.000,-538.086,-1000.000
1741774720.596,-1000.000,-1000.000,-577.637,-1000.000
1741774720.600,-1000.000,-1000.000,-35.156,-1000.000
1741774720.604,-1000.000,-1000.000,356.934,-1000.000
1741774720.608,-1000.000,-1000.000,110.840,-1000.000
1741774720.565,966.797,967.285,136.719,967.773
1741774720.569,903.320,904.785,-66.406,904.297
1741774720.573,999.512,999.512,-142.090,999.512
1741774720.577,187.012,180.176,-366.699,187.012
1741774720.581,-1000.000,-1000.000,-855.957,-1000.000
1741774720.585,-983.887,-982.910,-104.004,-983.887
1741774720.589,-973.145,-973.633,234.375,-973.145
1741774720.592,-1000.000,-1000.000,-538.086,-1000.000
1741774720.596,-1000.000,-1000.000,-577.637,-1000.000
1741774720.600,-1000.000,-1000.000,-35.156,-1000.000
1741774720.604,-1000.000,-1000.000,356.934,-1000.000
1741774720.608,-1000.000,-1000.000,110.840,-1000.000
1741774720.609,-933.594,-932.129,-393.555,-932.617
1741774720.613,-1000.000,-1000.000,-124.023,-1000.000
1741774720.617,-285.645,-312.012,385.742,-308.105
1741774720.621,999.512,999.512,792.969,999.512
1741774720.625,960.449,965.820,749.023,965.332
1741774720.629,933.594,932.617,378.906,932.617
1741774720.633,975.098,976.562,185.547,976.562
1741774720.636,966.797,967.773,88.379,967.285
1741774720.640,903.320,904.297,155.273,904.785
1741774720.644,999.512,999.512,-117.188,999.512
1741774720.648,187.012,187.012,-764.160,178.223
1741774720.652,-1000.000,-1000.000,-1000.000,-1000.000
1741774720.609,-933.594,-932.129,-393.555,-932.617
1741774720.613,-1000.000,-1000.000,-124.023,-1000.000
1741774720.617,-285.645,-312.012,385.742,-308.105
1741774720.621,999.512,999.512,792.969,999.512
1741774720.625,960.449,965.820,749.023,965.332
1741774720.629,933.594,932.617,378.906,932.617
1741774720.633,975.098,976.562,185.547,976.562
1741774720.636,966.797,967.773,88.379,967.285
1741774720.640,903.320,904.297,155.273,904.785
1741774720.644,999.512,999.512,-117.188,999.512
1741774720.648,187.012,187.012,-764.160,178.223
1741774720.652,-1000.000,-1000.000,-1000.000,-1000.000
1741774720.654,-983.887,-983.887,-705.566,-982.910
1741774720.658,-973.145,-973.145,-29.297,-973.633
1741774720.662,-1000.000,-1000.000,179.199,-1000.000
1741774720.666,-943.359,-937.012,-227.539,-944.824
1741774720.670,-1000.000,-1000.000,-436.523,-1000.000
1741774720.674,-830.078,-736.816,114.746,-832.520
1741774720.678,583.984,687.500,820.312,568.359
1741774720.681,999.512,999.512,897.949,999.512
1741774720.685,899.902,904.297,5.371,901.855
1741774720.689,979.004,980.957,-619.629,978.516
1741774720.693,967.773,967.773,-251.953,969.727
1741774720.697,958.496,963.867,-80.078,953.613
1741774720.654,-983.887,-983.887,-705.566,-982.910
1741774720.658,-973.145,-973.145,-29.297,-973.633
1741774720.662,-1000.000,-1000.000,179.199,-1000.000
1741774720.666,-943.359,-937.012,-227.539,-944.824
1741774720.670,-1000.000,-1000.000,-436.523,-1000.000
1741774720.674,-830.078,-736.816,114.746,-832.520
1741774720.678,583.984,687.500,820.312,568.359
1741774720.681,999.512,999.512,897.949,999.512
1741774720.685,899.902,904.297,5.371,901.855
1741774720.689,979.004,980.957,-619.629,978.516
1741774720.693,967.773,967.773,-251.953,969.727
1741774720.697,958.496,963.867,-80.078,953.613
1741774720.699,916.016,909.180,-189.941,928.223
1741774720.703,999.512,999.512,-276.855,999.512
1741774720.707,49.316,128.418,-751.953,-22.461
1741774720.711,-1000.000,-1000.000,-956.543,-1000.000
1741774720.715,-964.844,-975.586,-462.891,-960.938
1741774720.719,-983.398,-977.539,270.020,-986.816
1741774720.723,-1000.000,-1000.000,108.887,-1000.000
1741774720.726,-926.758,-926.270,-666.504,-929.199
1741774720.730,-1000.000,-1000.000,-266.602,-1000.000
1741774720.734,-604.492,-529.785,318.359,-607.910
1741774720.738,846.191,897.461,751.953,827.637
1741774720.742,999.512,999.512,351.074,999.512
1741774720.790,-1000.000,-1000.000,145.508,-1000.000
1741774720.794,-1000.000,-1000.000,480.469,-1000.000
1741774720.798,-999.023,-992.188,150.879,-999.023
1741774720.802,-939.941,-950.684,-420.898,-939.941
1741774720.806,-1000.000,-1000.000,-485.840,-1000.000
1741774720.810,-189.941,-79.102,439.453,-191.406
1741774720.814,999.512,999.512,999.512,999.512
1741774720.817,945.312,931.641,449.707,946.289
1741774720.821,941.406,950.195,-180.664,941.895
1741774720.825,972.168,970.703,-383.301,973.145
1741774720.829,979.004,979.004,-306.641,979.492
1741774720.833,916.016,920.898,-18.555,912.598
1741774720.850,999.512,998.535,83.496,999.512
1741774720.854,859.375,895.996,-312.012,802.734
1741774720.858,-524.902,-470.703,-828.125,-586.914
1741774720.862,-1000.000,-1000.000,-894.531,-1000.000
1741774720.866,-933.594,-933.594,-572.266,-936.035
1741774720.870,-1000.000,-1000.000,145.996,-1000.000
1741774720.874,-1000.000,-1000.000,170.898,-1000.000
1741774720.877,-1000.000,-1000.000,-432.129,-1000.000
1741774720.881,-1000.000,-1000.000,-341.309,-1000.000
1741774720.885,-1000.000,-1000.000,35.156,-1000.000
1741774720.889,-1000.000,-1000.000,218.750,-1000.000
1741774720.893,-938.965,-940.918,-202.637,-941.406
1741774720.850,999.512,998.535,83.496,999.512
1741774720.854,859.375,895.996,-312.012,802.734
1741774720.858,-524.902,-470.703,-828.125,-586.914
1741774720.862,-1000.000,-1000.000,-894.531,-1000.000
1741774720.866,-933.594,-933.594,-572.266,-936.035
1741774720.870,-1000.000,-1000.000,145.996,-1000.000
1741774720.874,-1000.000,-1000.000,170.898,-1000.000
1741774720.877,-1000.000,-1000.000,-432.129,-1000.000
1741774720.881,-1000.000,-1000.000,-341.309,-1000.000
1741774720.885,-1000.000,-1000.000,35.156,-1000.000
1741774720.889,-1000.000,-1000.000,218.750,-1000.000
1741774720.893,-938.965,-940.918,-202.637,-941.406
1741774720.894,-1000.000,-1000.000,-530.273,-1000.000
1741774720.898,-782.715,-802.734,-121.582,-791.016
1741774720.902,643.555,618.164,626.465,621.094
1741774720.906,999.512,999.512,823.730,999.512
1741774720.910,901.367,901.855,165.039,902.832
1741774720.914,979.980,980.469,-32.715,979.492
1741774720.918,975.098,976.562,238.770,977.051
1741774720.921,930.664,928.711,193.359,926.758
1741774720.925,970.703,978.027,187.988,984.375
1741774720.929,978.516,957.031,-195.312,934.082
1741774720.933,-330.078,-363.281,-921.387,-391.602
1741774720.937,-1000.000,-1000.000,-1000.000,-1000.000
1741774720.939,-935.059,-935.059,-503.418,-936.035
1741774720.943,-1000.000,-1000.000,121.094,-1000.000
1741774720.947,-999.512,-989.746,15.137,-999.512
1741774720.951,-939.453,-955.078,-500.000,-939.941
1741774720.955,-1000.000,-1000.000,-372.559,-1000.000
1741774720.959,-196.777,-43.457,521.973,-190.918
1741774720.963,999.512,999.512,999.512,999.512
1741774720.966,946.289,927.734,613.281,946.289
1741774720.970,940.918,952.637,-256.836,941.895
1741774720.974,972.656,970.215,-561.035,973.145
1741774720.978,976.074,974.609,-21.973,977.539
1741774720.982,927.246,937.012,225.098,921.875
1741774720.939,-935.059,-935.059,-503.418,-936.035
1741774720.943,-1000.000,-1000.000,121.094,-1000.000
1741774720.947,-999.512,-989.746,15.137,-999.512
1741774720.951,-939.453,-955.078,-500.000,-939.941
1741774720.955,-1000.000,-1000.000,-372.559,-1000.000
1741774720.959,-196.777,-43.457,521.973,-190.918
1741774720.963,999.512,999.512,999.512,999.512
1741774720.966,946.289,927.734,613.281,946.289
1741774720.970,940.918,952.637,-256.836,941.895
1741774720.974,972.656,970.215,-561.035,973.145
1741774720.978,976.074,974.609,-21.973,977.539
1741774720.982,927.246,937.012,225.098,921.875
1741774720.984,979.004,958.496,105.957,999.512
1741774720.988,953.613,999.512,-188.965,871.094
1741774720.992,-372.070,-259.277,-571.777,-472.168
1741774720.996,-1000.000,-1000.000,-611.816,-1000.000
1741774721.000,-934.570,-937.012,-165.039,-937.500
1741774721.004,-1000.000,-1000.000,220.215,-1000.000
1741774721.008,-1000.000,-1000.000,35.156,-1000.000
1741774721.011,-1000.000,-998.047,-322.754,-1000.000
1741774721.015,-937.500,-941.895,25.879,-938.965
1741774721.019,-1000.000,-1000.000,168.945,-1000.000
1741774721.023,-220.703,-170.898,467.773,-202.148
1741774721.027,999.512,999.512,397.949,999.512
1741774720.984,979.004,958.496,105.957,999.512
1741774720.988,953.613,999.512,-188.965,871.094
1741774720.992,-372.070,-259.277,-571.777,-472.168
1741774720.996,-1000.000,-1000.000,-611.816,-1000.000
1741774721.000,-934.570,-937.012,-165.039,-937.500
1741774721.004,-1000.000,-1000.000,220.215,-1000.000
1741774721.008,-1000.000,-1000.000,35.156,-1000.000
1741774721.011,-1000.000,-998.047,-322.754,-1000.000
1741774721.015,-937.500,-941.895,25.879,-938.965
1741774721.019,-1000.000,-1000.000,168.945,-1000.000
1741774721.023,-220.703,-170.898,467.773,-202.148
1741774721.027,999.512,999.512,397.949,999.512
1741774720.984,979.004,958.496,105.957,999.512
1741774720.988,953.613,999.512,-188.965,871.094
1741774720.992,-372.070,-259.277,-571.777,-472.168
1741774720.996,-1000.000,-1000.000,-611.816,-1000.000
1741774721.000,-934.570,-937.012,-165.039,-937.500
1741774721.004,-1000.000,-1000.000,220.215,-1000.000
1741774721.008,-1000.000,-1000.000,35.156,-1000.000
1741774721.011,-1000.000,-998.047,-322.754,-1000.000
1741774721.015,-937.500,-941.895,25.879,-938.965
1741774721.019,-1000.000,-1000.000,168.945,-1000.000
1741774721.023,-220.703,-170.898,467.773,-202.148
1741774721.027,999.512,999.512,397.949,999.512
1741774721.029,950.195,943.848,-143.066,947.754
1741774721.033,938.965,943.359,135.254,941.406
1741774721.037,973.145,972.656,244.629,973.633
1741774721.041,966.309,967.285,61.035,966.797
1741774721.045,978.516,967.773,-371.094,980.957
1741774721.049,892.578,904.297,-191.406,895.020
1741774721.053,999.512,999.512,421.387,999.512
1741774721.056,441.895,187.500,173.340,547.852
1741774721.060,-964.355,-1000.000,-464.355,-884.277
1741774721.064,-1000.000,-983.887,-744.629,-1000.000
1741774721.068,-952.637,-973.145,-615.234,-944.824
1741774721.072,-1000.000,-1000.000,-134.277,-1000.000
1741774721.029,950.195,943.848,-143.066,947.754
1741774721.033,938.965,943.359,135.254,941.406
1741774721.037,973.145,972.656,244.629,973.633
1741774721.041,966.309,967.285,61.035,966.797
1741774721.045,978.516,967.773,-371.094,980.957
1741774721.049,892.578,904.297,-191.406,895.020
1741774721.053,999.512,999.512,421.387,999.512
1741774721.056,441.895,187.500,173.340,547.852
1741774721.060,-964.355,-1000.000,-464.355,-884.277
1741774721.064,-1000.000,-983.887,-744.629,-1000.000
1741774721.068,-952.637,-973.145,-615.234,-944.824
1741774721.072,-1000.000,-1000.000,-134.277,-1000.000
1741774721.075,-1000.000,-1000.000,382.324,-1000.000
1741774721.079,-1000.000,-1000.000,500.488,-1000.000
1741774721.083,-998.535,-994.141,-19.531,-997.559
1741774721.087,-941.406,-947.754,-578.125,-942.383
1741774721.091,-1000.000,-1000.000,-277.832,-1000.000
1741774721.095,-175.781,-110.352,597.168,-165.527
1741774721.099,999.512,999.512,999.512,999.512
1741774721.102,943.359,935.547,335.449,943.359
1741774721.106,942.383,947.754,-216.309,943.359
1741774721.110,972.168,971.191,-11.230,973.145
1741774721.114,966.797,967.773,87.891,964.355
1741774721.118,903.809,904.297,193.359,909.668
1741774721.075,-1000.000,-1000.000,382.324,-1000.000
1741774721.079,-1000.000,-1000.000,500.488,-1000.000
1741774721.083,-998.535,-994.141,-19.531,-997.559
1741774721.087,-941.406,-947.754,-578.125,-942.383
1741774721.091,-1000.000,-1000.000,-277.832,-1000.000
1741774721.095,-175.781,-110.352,597.168,-165.527
1741774721.099,999.512,999.512,999.512,999.512
1741774721.102,943.359,935.547,335.449,943.359
1741774721.106,942.383,947.754,-216.309,943.359
1741774721.110,972.168,971.191,-11.230,973.145
1741774721.114,966.797,967.773,87.891,964.355
1741774721.118,903.809,904.297,193.359,909.668
1741774721.119,999.512,999.512,-169.434,999.512
1741774721.123,185.059,187.500,-784.668,132.324
1741774721.127,-1000.000,-1000.000,-855.957,-1000.000
1741774721.131,-983.887,-983.887,-413.086,-977.051
1741774721.135,-973.145,-973.145,-109.863,-977.051
1741774721.139,-1000.000,-1000.000,217.285,-1000.000
1741774721.143,-1000.000,-1000.000,89.355,-1000.000
1741774721.146,-995.605,-1000.000,-365.234,-987.793
1741774721.150,-945.312,-938.477,-252.441,-961.914
1741774721.154,-1000.000,-1000.000,144.043,-1000.000
1741774721.158,-135.254,-207.520,362.793,-27.344
1741774721.162,999.512,999.512,176.758,999.512
1741774721.119,999.512,999.512,-169.434,999.512
1741774721.123,185.059,187.500,-784.668,132.324
1741774721.127,-1000.000,-1000.000,-855.957,-1000.000
1741774721.131,-983.887,-983.887,-413.086,-977.051
1741774721.135,-973.145,-973.145,-109.863,-977.051
1741774721.139,-1000.000,-1000.000,217.285,-1000.000
1741774721.143,-1000.000,-1000.000,89.355,-1000.000
1741774721.146,-995.605,-1000.000,-365.234,-987.793
1741774721.150,-945.312,-938.477,-252.441,-961.914
1741774721.154,-1000.000,-1000.000,144.043,-1000.000
1741774721.158,-135.254,-207.520,362.793,-27.344
1741774721.162,999.512,999.512,176.758,999.512
1741774721.164,937.988,948.730,34.180,931.641
1741774721.168,945.312,940.918,409.180,951.660
1741774721.172,970.703,973.145,588.379,971.191
1741774721.176,966.309,966.797,206.055,966.797
1741774721.180,966.309,967.285,-470.703,966.797
1741774721.184,967.285,968.262,-159.668,967.773
1741774721.188,961.914,961.426,519.531,963.867
1741774721.191,910.645,913.574,405.762,909.668
1741774721.195,999.512,999.512,102.051,999.512
1741774721.199,104.004,83.496,-534.668,124.512
1741774721.203,-1000.000,-1000.000,-1000.000,-1000.000
1741774721.207,-972.168,-969.727,-809.570,-975.586
1741774721.164,937.988,948.730,34.180,931.641
1741774721.168,945.312,940.918,409.180,951.660
1741774721.172,970.703,973.145,588.379,971.191
1741774721.176,966.309,966.797,206.055,966.797
1741774721.180,966.309,967.285,-470.703,966.797
1741774721.184,967.285,968.262,-159.668,967.773
1741774721.188,961.914,961.426,519.531,963.867
1741774721.191,910.645,913.574,405.762,909.668
1741774721.195,999.512,999.512,102.051,999.512
1741774721.199,104.004,83.496,-534.668,124.512
1741774721.203,-1000.000,-1000.000,-1000.000,-1000.000
1741774721.207,-972.168,-969.727,-809.570,-975.586
1741774721.210,-979.492,-980.957,-228.027,-977.539
1741774721.214,-1000.000,-1000.000,198.730,-1000.000
1741774721.218,-1000.000,-1000.000,-93.262,-1000.000
1741774721.222,-937.500,-937.500,-564.941,-936.035
1741774721.226,-1000.000,-1000.000,-293.945,-1000.000
1741774721.230,-220.703,-220.703,501.465,-246.094
1741774721.234,999.512,999.512,999.512,999.512
1741774721.237,949.707,950.684,444.824,954.590
1741774721.241,938.965,939.941,-181.152,937.500
1741774721.245,973.145,973.633,8.301,974.609
1741774721.249,981.445,982.910,144.531,978.516
1741774721.253,891.602,897.461,112.793,895.996
1741774721.258,999.512,999.512,-211.426,999.512
1741774721.262,539.551,638.672,-337.891,472.168
1741774721.266,-906.738,-810.059,-538.574,-927.734
1741774721.270,-1000.000,-1000.000,-531.250,-1000.000
1741774721.274,-944.336,-938.965,-31.738,-950.684
1741774721.278,-1000.000,-1000.000,212.891,-1000.000
1741774721.282,-1000.000,-1000.000,-19.531,-1000.000
1741774721.285,-1000.000,-1000.000,-241.211,-1000.000
1741774721.289,-1000.000,-1000.000,107.910,-1000.000
1741774721.293,-1000.000,-1000.000,265.137,-1000.000
1741774721.297,-1000.000,-1000.000,12.207,-1000.000
1741774721.301,-937.500,-937.500,-553.711,-937.988
1741774721.303,-1000.000,-1000.000,-583.984,-1000.000
1741774721.307,-220.703,-220.703,326.660,-215.820
1741774721.311,999.512,999.512,999.512,999.512
1741774721.315,949.707,950.684,625.000,950.195
1741774721.319,938.965,939.453,-172.363,939.941
1741774721.323,973.145,973.633,117.188,973.633
1741774721.327,981.445,982.422,461.426,979.980
1741774721.330,894.043,898.926,-21.973,896.484
1741774721.334,999.512,999.512,-428.223,999.512
1741774721.338,592.285,666.016,-611.816,526.367
1741774721.342,-854.492,-780.762,-864.258,-887.207
1741774721.346,-1000.000,-1000.000,-804.199,-1000.000
1741774721.303,-1000.000,-1000.000,-583.984,-1000.000
1741774721.307,-220.703,-220.703,326.660,-215.820
1741774721.311,999.512,999.512,999.512,999.512
1741774721.315,949.707,950.684,625.000,950.195
1741774721.319,938.965,939.453,-172.363,939.941
1741774721.323,973.145,973.633,117.188,973.633
1741774721.327,981.445,982.422,461.426,979.980
1741774721.330,894.043,898.926,-21.973,896.484
1741774721.334,999.512,999.512,-428.223,999.512
1741774721.338,592.285,666.016,-611.816,526.367
1741774721.342,-854.492,-780.762,-864.258,-887.207
1741774721.346,-1000.000,-1000.000,-804.199,-1000.000
1741774721.360,-941.895,-937.988,-121.582,-947.266
1741774721.364,-1000.000,-1000.000,297.363,-1000.000
1741774721.368,-1000.000,-999.023,-249.512,-999.512
1741774721.372,-937.500,-940.918,-588.867,-939.453
1741774721.376,-1000.000,-1000.000,-269.531,-1000.000
1741774721.380,-221.191,-187.012,493.164,-199.219
1741774721.384,999.512,999.512,999.512,999.512
1741774721.387,950.195,946.289,44.922,947.754
1741774721.391,938.965,942.383,-478.516,941.406
1741774721.395,973.145,973.145,11.719,973.633
1741774721.399,966.797,970.215,127.930,966.797
1741774721.403,903.320,901.367,36.133,905.762
1741774721.360,-941.895,-937.988,-121.582,-947.266
1741774721.364,-1000.000,-1000.000,297.363,-1000.000
1741774721.368,-1000.000,-999.023,-249.512,-999.512
1741774721.372,-937.500,-940.918,-588.867,-939.453
1741774721.376,-1000.000,-1000.000,-269.531,-1000.000
1741774721.380,-221.191,-187.012,493.164,-199.219
1741774721.384,999.512,999.512,999.512,999.512
1741774721.387,950.195,946.289,44.922,947.754
1741774721.391,938.965,942.383,-478.516,941.406
1741774721.395,973.145,973.145,11.719,973.633
1741774721.399,966.797,970.215,127.930,966.797
1741774721.403,903.320,901.367,36.133,905.762
1741774721.405,999.512,999.512,-254.883,999.512
1741774721.409,186.523,230.469,-541.992,174.805
1741774721.413,-1000.000,-1000.000,-715.332,-1000.000
1741774721.417,-984.375,-991.211,-358.398,-982.910
1741774721.421,-973.633,-970.215,91.309,-974.609
1741774721.425,-944.336,-945.312,121.094,-944.336
1741774721.429,-1000.000,-1000.000,-252.930,-1000.000
1741774721.432,-221.191,-220.703,336.914,-220.703
1741774721.436,999.512,999.512,619.629,999.512
1741774721.440,950.195,951.172,-673.828,950.684
1741774721.444,946.777,940.430,-770.020,948.242
1741774721.448,902.832,911.133,-128.906,902.832
1741774721.405,999.512,999.512,-254.883,999.512
1741774721.409,186.523,230.469,-541.992,174.805
1741774721.413,-1000.000,-1000.000,-715.332,-1000.000
1741774721.417,-984.375,-991.211,-358.398,-982.910
1741774721.421,-973.633,-970.215,91.309,-974.609
1741774721.425,-944.336,-945.312,121.094,-944.336
1741774721.429,-1000.000,-1000.000,-252.930,-1000.000
1741774721.432,-221.191,-220.703,336.914,-220.703
1741774721.436,999.512,999.512,619.629,999.512
1741774721.440,950.195,951.172,-673.828,950.684
1741774721.444,946.777,940.430,-770.020,948.242
1741774721.448,902.832,911.133,-128.906,902.832
1741774721.464,999.512,999.512,171.875,999.512
1741774721.468,322.754,187.500,-242.676,349.609
1741774721.472,-1000.000,-1000.000,-1000.000,-1000.000
1741774721.476,-1000.000,-983.887,-590.332,-1000.000
1741774721.480,-961.914,-973.145,210.449,-959.961
1741774721.484,-1000.000,-1000.000,339.355,-1000.000
1741774721.488,-1000.000,-1000.000,235.840,-1000.000
1741774721.491,-1000.000,-1000.000,-114.746,-1000.000
1741774721.495,-931.152,-937.012,-295.410,-932.617
1741774721.499,-1000.000,-1000.000,-265.625,-1000.000
1741774721.503,-681.641,-760.742,21.973,-648.926
1741774721.507,764.648,672.363,564.453,776.367
1741774721.464,999.512,999.512,171.875,999.512
1741774721.468,322.754,187.500,-242.676,349.609
1741774721.472,-1000.000,-1000.000,-1000.000,-1000.000
1741774721.476,-1000.000,-983.887,-590.332,-1000.000
1741774721.480,-961.914,-973.145,210.449,-959.961
1741774721.484,-1000.000,-1000.000,339.355,-1000.000
1741774721.488,-1000.000,-1000.000,235.840,-1000.000
1741774721.491,-1000.000,-1000.000,-114.746,-1000.000
1741774721.495,-931.152,-937.012,-295.410,-932.617
1741774721.499,-1000.000,-1000.000,-265.625,-1000.000
1741774721.503,-681.641,-760.742,21.973,-648.926
1741774721.507,764.648,672.363,564.453,776.367
1741774721.509,999.512,999.512,385.742,999.512
1741774721.513,904.785,902.344,-252.930,908.691
1741774721.517,981.445,981.445,-143.066,981.445
1741774721.521,966.309,966.797,340.332,966.797
1741774721.525,966.309,966.797,208.008,966.797
1741774721.529,966.309,969.727,-218.262,967.285
1741774721.533,966.797,954.590,-63.965,967.773
1741774721.536,903.320,927.246,163.086,904.297
1741774721.540,999.512,999.512,30.762,999.512
1741774721.544,187.012,-17.090,-466.309,187.012
1741774721.548,-1000.000,-1000.000,-1000.000,-1000.000
1741774721.552,-983.887,-960.938,-770.020,-983.887
1741774721.509,999.512,999.512,385.742,999.512
1741774721.513,904.785,902.344,-252.930,908.691
1741774721.517,981.445,981.445,-143.066,981.445
1741774721.521,966.309,966.797,340.332,966.797
1741774721.525,966.309,966.797,208.008,966.797
1741774721.529,966.309,969.727,-218.262,967.285
1741774721.533,966.797,954.590,-63.965,967.773
1741774721.536,903.320,927.246,163.086,904.297
1741774721.540,999.512,999.512,30.762,999.512
1741774721.544,187.012,-17.090,-466.309,187.012
1741774721.548,-1000.000,-1000.000,-1000.000,-1000.000
1741774721.552,-983.887,-960.938,-770.020,-983.887
1741774721.554,-973.145,-986.816,-146.484,-973.145
1741774721.558,-1000.000,-1000.000,-22.949,-1000.000
1741774721.562,-1000.000,-1000.000,37.598,-1000.000
1741774721.566,-937.500,-938.477,-92.773,-937.012
1741774721.570,-1000.000,-1000.000,-404.785,-1000.000
1741774721.574,-220.703,-208.496,290.039,-227.051
1741774721.578,999.512,999.512,999.512,999.512
1741774721.581,950.195,948.730,768.555,951.660
1741774721.585,938.965,940.430,-5.371,938.965
1741774721.589,973.145,973.633,-659.180,974.121
1741774721.593,969.727,967.773,-554.688,971.680
1741774721.597,900.391,904.297,-66.895,899.902
1741774721.554,-973.145,-986.816,-146.484,-973.145
1741774721.558,-1000.000,-1000.000,-22.949,-1000.000
1741774721.562,-1000.000,-1000.000,37.598,-1000.000
1741774721.566,-937.500,-938.477,-92.773,-937.012
1741774721.570,-1000.000,-1000.000,-404.785,-1000.000
1741774721.574,-220.703,-208.496,290.039,-227.051
1741774721.578,999.512,999.512,999.512,999.512
1741774721.581,950.195,948.730,768.555,951.660
1741774721.585,938.965,940.430,-5.371,938.965
1741774721.589,973.145,973.633,-659.180,974.121
1741774721.593,969.727,967.773,-554.688,971.680
1741774721.597,900.391,904.297,-66.895,899.902
1741774721.599,999.512,999.512,92.773,999.512
1741774721.603,239.746,187.500,-359.375,264.160
1741774721.607,-1000.000,-1000.000,-1000.000,-1000.000
1741774721.611,-992.676,-983.887,-708.496,-996.582
1741774721.615,-968.750,-973.145,-71.289,-966.797
1741774721.619,-1000.000,-1000.000,403.809,-1000.000
1741774721.623,-1000.000,-1000.000,261.719,-1000.000
1741774721.626,-1000.000,-1000.000,-471.191,-1000.000
1741774721.630,-928.223,-927.246,-407.227,-929.688
1741774721.634,-1000.000,-1000.000,-99.609,-1000.000
1741774721.638,-393.066,-429.688,210.449,-376.953
1741774721.642,972.168,954.590,788.086,975.586
1741774721.599,999.512,999.512,92.773,999.512
1741774721.603,239.746,187.500,-359.375,264.160
1741774721.607,-1000.000,-1000.000,-1000.000,-1000.000
1741774721.611,-992.676,-983.887,-708.496,-996.582
1741774721.615,-968.750,-973.145,-71.289,-966.797
1741774721.619,-1000.000,-1000.000,403.809,-1000.000
1741774721.623,-1000.000,-1000.000,261.719,-1000.000
1741774721.626,-1000.000,-1000.000,-471.191,-1000.000
1741774721.630,-928.223,-927.246,-407.227,-929.688
1741774721.634,-1000.000,-1000.000,-99.609,-1000.000
1741774721.638,-393.066,-429.688,210.449,-376.953
1741774721.642,972.168,954.590,788.086,975.586
1741774721.645,979.004,986.816,356.445,977.539
1741774721.649,925.293,922.852,-91.309,927.246
1741774721.653,977.539,979.492,159.180,978.027
1741774721.657,966.309,967.285,317.383,966.797
1741774721.661,966.309,967.285,-40.527,966.797
1741774721.665,981.445,973.145,-459.961,981.934
1741774721.669,891.602,897.949,19.043,899.414
1741774721.672,999.512,999.512,466.309,999.512
1741774721.676,537.109,302.734,33.203,658.203
1741774721.680,-908.203,-1000.000,-685.547,-779.785
1741774721.684,-1000.000,-1000.000,-1000.000,-1000.000
1741774721.688,-944.824,-963.867,-756.348,-938.965
1741774721.691,-1000.000,-1000.000,-151.855,-1000.000
1741774721.695,-1000.000,-1000.000,378.906,-1000.000
1741774721.699,-1000.000,-1000.000,341.309,-1000.000
1741774721.703,-991.699,-988.770,-250.000,-990.234
1741774721.707,-951.172,-955.566,-385.742,-953.613
1741774721.711,-1000.000,-1000.000,-64.941,-1000.000
1741774721.715,-69.824,-31.250,624.512,-52.246
1741774721.718,999.512,999.512,849.609,999.512
1741774721.722,929.199,925.781,-55.664,928.711
1741774721.726,950.195,953.613,-504.883,952.148
1741774721.730,979.980,977.051,-44.922,979.980
1741774721.734,893.555,896.973,259.766,895.508
1741774721.691,-1000.000,-1000.000,-151.855,-1000.000
1741774721.695,-1000.000,-1000.000,378.906,-1000.000
1741774721.699,-1000.000,-1000.000,341.309,-1000.000
1741774721.703,-991.699,-988.770,-250.000,-990.234
1741774721.707,-951.172,-955.566,-385.742,-953.613
1741774721.711,-1000.000,-1000.000,-64.941,-1000.000
1741774721.715,-69.824,-31.250,624.512,-52.246
1741774721.718,999.512,999.512,849.609,999.512
1741774721.722,929.199,925.781,-55.664,928.711
1741774721.726,950.195,953.613,-504.883,952.148
1741774721.730,979.980,977.051,-44.922,979.980
1741774721.734,893.555,896.973,259.766,895.508
1741774721.734,999.512,999.512,261.230,999.512
1741774721.738,394.043,324.219,-306.641,379.883
1741774721.742,-989.258,-1000.000,-1000.000,-992.676
1741774721.746,-1000.000,-1000.000,-579.590,-1000.000
1741774721.750,-956.543,-961.914,154.297,-957.520
1741774721.754,-1000.000,-1000.000,297.852,-1000.000
1741774721.758,-1000.000,-1000.000,-40.039,-1000.000
1741774721.761,-1000.000,-1000.000,-292.480,-1000.000
1741774721.765,-1000.000,-1000.000,-243.652,-1000.000
1741774721.769,-1000.000,-1000.000,-277.832,-1000.000
1741774721.773,-1000.000,-1000.000,-30.762,-1000.000
1741774721.777,-1000.000,-1000.000,-8.789,-1000.000
1741774721.734,999.512,999.512,261.230,999.512
1741774721.738,394.043,324.219,-306.641,379.883
1741774721.742,-989.258,-1000.000,-1000.000,-992.676
1741774721.746,-1000.000,-1000.000,-579.590,-1000.000
1741774721.750,-956.543,-961.914,154.297,-957.520
1741774721.754,-1000.000,-1000.000,297.852,-1000.000
1741774721.758,-1000.000,-1000.000,-40.039,-1000.000
1741774721.761,-1000.000,-1000.000,-292.480,-1000.000
1741774721.765,-1000.000,-1000.000,-243.652,-1000.000
1741774721.769,-1000.000,-1000.000,-277.832,-1000.000
1741774721.773,-1000.000,-1000.000,-30.762,-1000.000
1741774721.777,-1000.000,-1000.000,-8.789,-1000.000
1741774721.779,-937.500,-937.500,-239.746,-938.477
1741774721.783,-1000.000,-1000.000,-209.473,-1000.000
1741774721.787,-221.191,-220.703,280.762,-209.473
1741774721.791,999.512,999.512,999.512,999.512
1741774721.795,949.707,950.684,495.117,948.730
1741774721.799,938.965,939.941,-136.719,940.430
1741774721.803,973.633,974.121,198.242,975.098
1741774721.806,964.844,966.797,432.617,959.473
1741774721.810,906.738,905.762,176.758,916.992
1741774721.814,999.512,999.512,-348.633,999.512
1741774721.818,145.020,168.945,-879.395,66.895
1741774721.822,-1000.000,-1000.000,-963.379,-1000.000
1741774721.779,-937.500,-937.500,-239.746,-938.477
1741774721.783,-1000.000,-1000.000,-209.473,-1000.000
1741774721.787,-221.191,-220.703,280.762,-209.473
1741774721.791,999.512,999.512,999.512,999.512
1741774721.795,949.707,950.684,495.117,948.730
1741774721.799,938.965,939.941,-136.719,940.430
1741774721.803,973.633,974.121,198.242,975.098
1741774721.806,964.844,966.797,432.617,959.473
1741774721.810,906.738,905.762,176.758,916.992
1741774721.814,999.512,999.512,-348.633,999.512
1741774721.818,145.020,168.945,-879.395,66.895
1741774721.822,-1000.000,-1000.000,-963.379,-1000.000
1741774721.839,-978.027,-981.445,-497.070,-969.727
1741774721.843,-976.562,-976.562,-261.230,-981.934
1741774721.847,-1000.000,-995.605,-317.871,-1000.000
1741774721.851,-939.941,-956.055,-342.285,-940.430
1741774721.855,-1000.000,-1000.000,-141.113,-1000.000
1741774721.859,-191.895,-37.598,554.199,-189.941
1741774721.863,999.512,999.512,999.512,999.512
1741774721.866,945.801,927.734,717.285,946.289
1741774721.870,941.406,952.637,-160.156,941.895
1741774721.874,972.656,970.215,-450.684,973.145
1741774721.878,966.797,967.773,-264.160,967.773
1741774721.882,903.320,904.297,5.859,904.297
1741774721.839,-978.027,-981.445,-497.070,-969.727
1741774721.843,-976.562,-976.562,-261.230,-981.934
1741774721.847,-1000.000,-995.605,-317.871,-1000.000
1741774721.851,-939.941,-956.055,-342.285,-940.430
1741774721.855,-1000.000,-1000.000,-141.113,-1000.000
1741774721.859,-191.895,-37.598,554.199,-189.941
1741774721.863,999.512,999.512,999.512,999.512
1741774721.866,945.801,927.734,717.285,946.289
1741774721.870,941.406,952.637,-160.156,941.895
1741774721.874,972.656,970.215,-450.684,973.145
1741774721.878,966.797,967.773,-264.160,967.773
1741774721.882,903.320,904.297,5.859,904.297
1741774722.349,-969.238,-960.449,-317.383,-973.633
1741774722.353,-1000.000,-1000.000,-95.215,-1000.000
1741774722.357,81.543,13.184,400.879,99.121
1741774722.361,999.512,999.512,890.137,999.512
1741774722.365,912.598,920.410,193.848,915.039
1741774722.369,960.938,957.031,-88.867,961.426
1741774722.373,967.773,969.238,433.105,968.262
1741774722.376,903.320,904.297,570.801,905.273
1741774722.380,999.512,999.512,-154.785,999.512
1741774722.384,187.012,187.500,-884.766,175.293
1741774722.388,-1000.000,-1000.000,-937.012,-1000.000
1741774722.392,-983.887,-983.887,-364.258,-982.422
1741774721.885,999.512,999.512,33.203,999.512
1741774721.889,187.012,187.012,-590.820,187.012
1741774721.893,-1000.000,-1000.000,-1000.000,-1000.000
1741774721.897,-983.887,-983.887,-521.484,-983.887
1741774721.901,-973.145,-973.145,127.930,-973.145
1741774721.905,-1000.000,-1000.000,480.469,-1000.000
1741774721.909,-1000.000,-1000.000,254.395,-1000.000
1741774721.912,-1000.000,-1000.000,-174.316,-1000.000
1741774721.916,-1000.000,-999.512,-71.289,-1000.000
1741774721.920,-937.500,-939.453,109.863,-934.570
1741774721.924,-1000.000,-1000.000,105.957,-1000.000
1741774721.928,-220.703,-196.777,167.969,-272.949
1741774721.885,999.512,999.512,33.203,999.512
1741774721.889,187.012,187.012,-590.820,187.012
1741774721.893,-1000.000,-1000.000,-1000.000,-1000.000
1741774721.897,-983.887,-983.887,-521.484,-983.887
1741774721.901,-973.145,-973.145,127.930,-973.145
1741774721.905,-1000.000,-1000.000,480.469,-1000.000
1741774721.909,-1000.000,-1000.000,254.395,-1000.000
1741774721.912,-1000.000,-1000.000,-174.316,-1000.000
1741774721.916,-1000.000,-999.512,-71.289,-1000.000
1741774721.920,-937.500,-939.453,109.863,-934.570
1741774721.924,-1000.000,-1000.000,105.957,-1000.000
1741774721.928,-220.703,-196.777,167.969,-272.949
1741774721.929,999.512,999.512,367.676,999.512
1741774721.933,949.707,947.266,253.418,958.984
1741774721.937,938.965,941.406,253.418,935.547
1741774721.941,973.145,973.145,369.629,975.098
1741774721.945,966.309,966.797,-141.602,966.797
1741774721.949,981.445,977.539,-252.441,980.469
1741774721.953,901.367,895.020,297.363,910.156
1741774721.956,999.512,999.512,501.465,999.512
1741774721.960,702.148,412.109,75.684,788.574
1741774721.964,-734.863,-974.121,-722.168,-620.117
1741774721.968,-1000.000,-1000.000,-1000.000,-1000.000
1741774721.972,-936.523,-955.078,-390.137,-935.059
1741774721.929,999.512,999.512,367.676,999.512
1741774721.933,949.707,947.266,253.418,958.984
1741774721.937,938.965,941.406,253.418,935.547
1741774721.941,973.145,973.145,369.629,975.098
1741774721.945,966.309,966.797,-141.602,966.797
1741774721.949,981.445,977.539,-252.441,980.469
1741774721.953,901.367,895.020,297.363,910.156
1741774721.956,999.512,999.512,501.465,999.512
1741774721.960,702.148,412.109,75.684,788.574
1741774721.964,-734.863,-974.121,-722.168,-620.117
1741774721.968,-1000.000,-1000.000,-1000.000,-1000.000
1741774721.972,-936.523,-955.078,-390.137,-935.059
1741774721.976,-1000.000,-1000.000,312.988,-1000.000
1741774721.980,-1000.000,-1000.000,248.047,-1000.000
1741774721.984,-1000.000,-1000.000,-125.977,-1000.000
1741774721.988,-955.566,-949.707,-336.914,-955.566
1741774721.992,-1000.000,-1000.000,-127.930,-1000.000
1741774721.996,-944.336,-884.766,240.234,-933.105
1741774722.000,415.039,495.605,783.691,418.945
1741774722.003,999.512,999.512,714.355,999.512
1741774722.007,899.414,901.367,-156.738,901.367
1741774722.011,975.098,977.539,-229.004,975.098
1741774722.015,966.797,967.773,181.641,967.285
1741774722.019,903.320,904.297,330.078,905.273
1741774721.976,-1000.000,-1000.000,312.988,-1000.000
1741774721.980,-1000.000,-1000.000,248.047,-1000.000
1741774721.984,-1000.000,-1000.000,-125.977,-1000.000
1741774721.988,-955.566,-949.707,-336.914,-955.566
1741774721.992,-1000.000,-1000.000,-127.930,-1000.000
1741774721.996,-944.336,-884.766,240.234,-933.105
1741774722.000,415.039,495.605,783.691,418.945
1741774722.003,999.512,999.512,714.355,999.512
1741774722.007,899.414,901.367,-156.738,901.367
1741774722.011,975.098,977.539,-229.004,975.098
1741774722.015,966.797,967.773,181.641,967.285
1741774722.019,903.320,904.297,330.078,905.273
1741774722.019,999.512,999.512,43.457,999.512
1741774722.023,187.012,187.500,-672.852,178.223
1741774722.027,-1000.000,-1000.000,-952.637,-1000.000
1741774722.031,-983.887,-983.887,-462.891,-982.910
1741774722.035,-973.145,-973.145,178.223,-973.633
1741774722.039,-1000.000,-1000.000,155.762,-1000.000
1741774722.043,-1000.000,-1000.000,-159.668,-1000.000
1741774722.046,-1000.000,-1000.000,-1.465,-1000.000
1741774722.050,-1000.000,-1000.000,48.828,-1000.000
1741774722.054,-1000.000,-1000.000,-26.367,-1000.000
1741774722.058,-1000.000,-1000.000,17.578,-1000.000
1741774722.062,-969.238,-973.145,-141.602,-969.238
1741774722.019,999.512,999.512,43.457,999.512
1741774722.023,187.012,187.500,-672.852,178.223
1741774722.027,-1000.000,-1000.000,-952.637,-1000.000
1741774722.031,-983.887,-983.887,-462.891,-982.910
1741774722.035,-973.145,-973.145,178.223,-973.633
1741774722.039,-1000.000,-1000.000,155.762,-1000.000
1741774722.043,-1000.000,-1000.000,-159.668,-1000.000
1741774722.046,-1000.000,-1000.000,-1.465,-1000.000
1741774722.050,-1000.000,-1000.000,48.828,-1000.000
1741774722.054,-1000.000,-1000.000,-26.367,-1000.000
1741774722.058,-1000.000,-1000.000,17.578,-1000.000
1741774722.062,-969.238,-973.145,-141.602,-969.238
1741774722.064,-993.164,-985.352,-171.387,-995.605
1741774722.068,-1000.000,-1000.000,17.090,-1000.000
1741774722.072,236.816,186.523,528.809,237.305
1741774722.076,999.512,999.512,946.289,999.512
1741774722.080,902.344,905.762,218.262,906.250
1741774722.084,968.750,967.285,-199.219,968.262
1741774722.088,967.285,968.262,426.270,968.262
1741774722.091,903.320,904.297,725.586,903.809
1741774722.095,999.512,999.512,195.312,999.512
1741774722.099,187.012,187.500,-578.125,187.988
1741774722.103,-1000.000,-1000.000,-1000.000,-1000.000
1741774722.107,-983.887,-983.887,-559.570,-984.375
1741774722.064,-993.164,-985.352,-171.387,-995.605
1741774722.068,-1000.000,-1000.000,17.090,-1000.000
1741774722.072,236.816,186.523,528.809,237.305
1741774722.076,999.512,999.512,946.289,999.512
1741774722.080,902.344,905.762,218.262,906.250
1741774722.084,968.750,967.285,-199.219,968.262
1741774722.088,967.285,968.262,426.270,968.262
1741774722.091,903.320,904.297,725.586,903.809
1741774722.095,999.512,999.512,195.312,999.512
1741774722.099,187.012,187.500,-578.125,187.988
1741774722.103,-1000.000,-1000.000,-1000.000,-1000.000
1741774722.107,-983.887,-983.887,-559.570,-984.375
1741774722.109,-973.145,-973.145,161.133,-973.145
1741774722.113,-1000.000,-1000.000,230.469,-1000.000
1741774722.117,-996.582,-988.281,-201.660,-996.582
1741774722.121,-943.848,-957.520,-338.379,-943.848
1741774722.125,-1000.000,-1000.000,-86.426,-1000.000
1741774722.129,-146.973,-19.043,540.527,-151.367
1741774722.133,999.512,999.512,999.512,999.512
1741774722.136,939.453,924.805,324.219,940.918
1741774722.140,944.824,954.590,-653.320,944.824
1741774722.144,971.680,970.215,-455.078,973.145
1741774722.148,965.820,966.309,-145.508,963.379
1741774722.152,905.273,906.738,-80.566,910.645
1741774722.109,-973.145,-973.145,161.133,-973.145
1741774722.113,-1000.000,-1000.000,230.469,-1000.000
1741774722.117,-996.582,-988.281,-201.660,-996.582
1741774722.121,-943.848,-957.520,-338.379,-943.848
1741774722.125,-1000.000,-1000.000,-86.426,-1000.000
1741774722.129,-146.973,-19.043,540.527,-151.367
1741774722.133,999.512,999.512,999.512,999.512
1741774722.136,939.453,924.805,324.219,940.918
1741774722.140,944.824,954.590,-653.320,944.824
1741774722.144,971.680,970.215,-455.078,973.145
1741774722.148,965.820,966.309,-145.508,963.379
1741774722.152,905.273,906.738,-80.566,910.645
1741774722.634,-1000.000,-1000.000,-171.875,-1000.000
1741774722.638,-47.363,-172.852,381.836,-51.270
1741774722.642,999.512,999.512,947.754,999.512
1741774722.646,926.758,943.848,596.680,929.688
1741774722.650,951.660,943.359,-29.297,951.660
1741774722.654,983.887,986.816,91.797,984.863
1741774722.658,904.785,908.691,489.258,904.297
1741774722.661,999.512,999.512,474.609,999.512
1741774722.665,744.141,779.785,-329.590,707.031
1741774722.669,-683.105,-638.672,-1000.000,-716.309
1741774722.673,-1000.000,-1000.000,-829.102,-1000.000
1741774722.677,-935.547,-934.570,-229.004,-937.988
1741774722.155,999.512,999.512,-218.750,999.512
1741774722.159,165.527,154.785,-779.297,120.605
1741774722.163,-1000.000,-1000.000,-904.297,-1000.000
1741774722.167,-980.957,-979.492,-292.480,-975.098
1741774722.171,-974.609,-975.586,80.078,-978.027
1741774722.175,-1000.000,-1000.000,146.973,-1000.000
1741774722.179,-1000.000,-1000.000,60.547,-1000.000
1741774722.182,-1000.000,-1000.000,-140.625,-1000.000
1741774722.186,-1000.000,-1000.000,-111.328,-1000.000
1741774722.190,-925.781,-931.641,-60.059,-933.594
1741774722.194,-1000.000,-1000.000,-223.633,-1000.000
1741774722.198,-571.289,-331.543,-183.105,-702.148
1741774722.155,999.512,999.512,-218.750,999.512
1741774722.159,165.527,154.785,-779.297,120.605
1741774722.163,-1000.000,-1000.000,-904.297,-1000.000
1741774722.167,-980.957,-979.492,-292.480,-975.098
1741774722.171,-974.609,-975.586,80.078,-978.027
1741774722.175,-1000.000,-1000.000,146.973,-1000.000
1741774722.179,-1000.000,-1000.000,60.547,-1000.000
1741774722.182,-1000.000,-1000.000,-140.625,-1000.000
1741774722.186,-1000.000,-1000.000,-111.328,-1000.000
1741774722.190,-925.781,-931.641,-60.059,-933.594
1741774722.194,-1000.000,-1000.000,-223.633,-1000.000
1741774722.198,-571.289,-331.543,-183.105,-702.148
1741774722.214,874.023,997.070,484.375,735.352
1741774722.218,999.512,969.238,633.301,999.512
1741774722.222,910.645,930.664,328.125,905.273
1741774722.226,981.934,977.051,80.078,981.445
1741774722.230,966.309,966.797,-361.816,966.797
1741774722.234,966.309,967.285,-268.555,967.285
1741774722.238,966.797,967.773,146.973,966.797
1741774722.241,903.320,904.785,394.043,905.762
1741774722.245,999.512,999.512,54.688,999.512
1741774722.249,187.012,184.570,-699.707,172.363
1741774722.253,-1000.000,-1000.000,-1000.000,-1000.000
1741774722.257,-983.887,-983.398,-705.566,-981.934
1741774722.214,874.023,997.070,484.375,735.352
1741774722.218,999.512,969.238,633.301,999.512
1741774722.222,910.645,930.664,328.125,905.273
1741774722.226,981.934,977.051,80.078,981.445
1741774722.230,966.309,966.797,-361.816,966.797
1741774722.234,966.309,967.285,-268.555,967.285
1741774722.238,966.797,967.773,146.973,966.797
1741774722.241,903.320,904.785,394.043,905.762
1741774722.245,999.512,999.512,54.688,999.512
1741774722.249,187.012,184.570,-699.707,172.363
1741774722.253,-1000.000,-1000.000,-1000.000,-1000.000
1741774722.257,-983.887,-983.398,-705.566,-981.934
1741774722.260,-973.145,-973.145,-122.559,-974.121
1741774722.264,-1000.000,-1000.000,79.102,-1000.000
1741774722.268,-999.512,-992.188,-152.832,-999.023
1741774722.272,-939.453,-951.172,-356.445,-940.918
1741774722.276,-1000.000,-1000.000,-166.504,-1000.000
1741774722.280,-198.730,-78.613,510.742,-185.059
1741774722.284,999.512,999.512,941.895,999.512
1741774722.287,946.777,932.129,225.098,945.801
1741774722.291,940.918,950.195,-512.207,942.383
1741774722.295,974.121,971.191,-400.391,975.586
1741774722.299,958.496,963.379,19.531,953.125
1741774722.303,915.527,910.156,145.996,929.688
1741774722.260,-973.145,-973.145,-122.559,-974.121
1741774722.264,-1000.000,-1000.000,79.102,-1000.000
1741774722.268,-999.512,-992.188,-152.832,-999.023
1741774722.272,-939.453,-951.172,-356.445,-940.918
1741774722.276,-1000.000,-1000.000,-166.504,-1000.000
1741774722.280,-198.730,-78.613,510.742,-185.059
1741774722.284,999.512,999.512,941.895,999.512
1741774722.287,946.777,932.129,225.098,945.801
1741774722.291,940.918,950.195,-512.207,942.383
1741774722.295,974.121,971.191,-400.391,975.586
1741774722.299,958.496,963.379,19.531,953.125
1741774722.303,915.527,910.156,145.996,929.688
1741774722.304,999.512,999.512,-237.305,999.512
1741774722.308,50.293,115.723,-770.020,-33.691
1741774722.312,-1000.000,-1000.000,-942.871,-1000.000
1741774722.316,-964.844,-973.633,-426.758,-959.473
1741774722.320,-983.398,-978.516,340.332,-987.793
1741774722.324,-1000.000,-1000.000,237.305,-1000.000
1741774722.328,-1000.000,-1000.000,-162.598,-1000.000
1741774722.331,-1000.000,-1000.000,153.320,-1000.000
1741774722.335,-1000.000,-1000.000,150.391,-1000.000
1741774722.339,-1000.000,-1000.000,-137.695,-1000.000
1741774722.343,-1000.000,-1000.000,-422.363,-1000.000
1741774722.347,-980.957,-985.840,-668.945,-979.492
1741774722.304,999.512,999.512,-237.305,999.512
1741774722.308,50.293,115.723,-770.020,-33.691
1741774722.312,-1000.000,-1000.000,-942.871,-1000.000
1741774722.316,-964.844,-973.633,-426.758,-959.473
1741774722.320,-983.398,-978.516,340.332,-987.793
1741774722.324,-1000.000,-1000.000,237.305,-1000.000
1741774722.328,-1000.000,-1000.000,-162.598,-1000.000
1741774722.331,-1000.000,-1000.000,153.320,-1000.000
1741774722.335,-1000.000,-1000.000,150.391,-1000.000
1741774722.339,-1000.000,-1000.000,-137.695,-1000.000
1741774722.343,-1000.000,-1000.000,-422.363,-1000.000
1741774722.347,-980.957,-985.840,-668.945,-979.492
1741774722.394,-973.145,-973.145,185.059,-974.121
1741774722.398,-1000.000,-1000.000,-41.016,-1000.000
1741774722.402,-1000.000,-1000.000,-450.195,-999.023
1741774722.406,-937.500,-938.965,-171.387,-940.430
1741774722.410,-1000.000,-1000.000,155.273,-1000.000
1741774722.414,-220.703,-206.543,444.824,-188.477
1741774722.418,999.512,999.512,925.781,999.512
1741774722.421,949.707,948.730,642.090,946.289
1741774722.425,938.965,940.430,-103.516,941.895
1741774722.429,973.145,973.633,-240.234,973.145
1741774722.433,966.797,967.773,-88.867,966.309
1741774722.437,903.320,904.297,-126.953,906.250
1741774722.394,-973.145,-973.145,185.059,-974.121
1741774722.398,-1000.000,-1000.000,-41.016,-1000.000
1741774722.402,-1000.000,-1000.000,-450.195,-999.023
1741774722.406,-937.500,-938.965,-171.387,-940.430
1741774722.410,-1000.000,-1000.000,155.273,-1000.000
1741774722.414,-220.703,-206.543,444.824,-188.477
1741774722.418,999.512,999.512,925.781,999.512
1741774722.421,949.707,948.730,642.090,946.289
1741774722.425,938.965,940.430,-103.516,941.895
1741774722.429,973.145,973.633,-240.234,973.145
1741774722.433,966.797,967.773,-88.867,966.309
1741774722.437,903.320,904.297,-126.953,906.250
1741774722.439,999.512,999.512,-325.684,999.512
1741774722.443,187.012,187.500,-721.680,167.969
1741774722.447,-1000.000,-1000.000,-887.207,-1000.000
1741774722.451,-983.887,-983.887,-194.336,-981.445
1741774722.455,-973.145,-973.145,178.223,-974.609
1741774722.459,-1000.000,-1000.000,53.223,-1000.000
1741774722.463,-1000.000,-1000.000,-45.410,-1000.000
1741774722.466,-1000.000,-1000.000,-145.996,-1000.000
1741774722.470,-1000.000,-1000.000,31.738,-1000.000
1741774722.474,-948.730,-928.223,145.508,-958.984
1741774722.478,-1000.000,-1000.000,-104.004,-1000.000
1741774722.482,-883.789,-558.594,-235.840,-965.820
1741774722.439,999.512,999.512,-325.684,999.512
1741774722.443,187.012,187.500,-721.680,167.969
1741774722.447,-1000.000,-1000.000,-887.207,-1000.000
1741774722.451,-983.887,-983.887,-194.336,-981.445
1741774722.455,-973.145,-973.145,178.223,-974.609
1741774722.459,-1000.000,-1000.000,53.223,-1000.000
1741774722.463,-1000.000,-1000.000,-45.410,-1000.000
1741774722.466,-1000.000,-1000.000,-145.996,-1000.000
1741774722.470,-1000.000,-1000.000,31.738,-1000.000
1741774722.474,-948.730,-928.223,145.508,-958.984
1741774722.478,-1000.000,-1000.000,-104.004,-1000.000
1741774722.482,-883.789,-558.594,-235.840,-965.820
1741774722.439,999.512,999.512,-325.684,999.512
1741774722.443,187.012,187.500,-721.680,167.969
1741774722.447,-1000.000,-1000.000,-887.207,-1000.000
1741774722.451,-983.887,-983.887,-194.336,-981.445
1741774722.455,-973.145,-973.145,178.223,-974.609
1741774722.459,-1000.000,-1000.000,53.223,-1000.000
1741774722.463,-1000.000,-1000.000,-45.410,-1000.000
1741774722.466,-1000.000,-1000.000,-145.996,-1000.000
1741774722.470,-1000.000,-1000.000,31.738,-1000.000
1741774722.474,-948.730,-928.223,145.508,-958.984
1741774722.478,-1000.000,-1000.000,-104.004,-1000.000
1741774722.482,-883.789,-558.594,-235.840,-965.820
1741774722.485,505.371,866.211,517.090,372.070
1741774722.489,999.512,999.512,881.836,999.512
1741774722.493,899.414,913.574,587.891,901.367
1741774722.497,977.051,981.445,123.047,973.633
1741774722.501,966.309,967.285,-444.336,967.285
1741774722.505,979.980,978.027,-0.488,980.957
1741774722.509,891.602,893.555,609.863,892.578
1741774722.512,999.512,999.512,480.957,999.512
1741774722.516,486.328,419.922,-224.121,493.652
1741774722.520,-939.453,-974.609,-972.168,-932.617
1741774722.524,-1000.000,-1000.000,-866.699,-1000.000
1741774722.528,-948.730,-954.102,-210.938,-948.242
1741774722.485,505.371,866.211,517.090,372.070
1741774722.489,999.512,999.512,881.836,999.512
1741774722.493,899.414,913.574,587.891,901.367
1741774722.497,977.051,981.445,123.047,973.633
1741774722.501,966.309,967.285,-444.336,967.285
1741774722.505,979.980,978.027,-0.488,980.957
1741774722.509,891.602,893.555,609.863,892.578
1741774722.512,999.512,999.512,480.957,999.512
1741774722.516,486.328,419.922,-224.121,493.652
1741774722.520,-939.453,-974.609,-972.168,-932.617
1741774722.524,-1000.000,-1000.000,-866.699,-1000.000
1741774722.528,-948.730,-954.102,-210.938,-948.242
1741774722.545,-1000.000,-1000.000,261.230,-1000.000
1741774722.549,-1000.000,-1000.000,89.355,-1000.000
1741774722.553,-1000.000,-1000.000,-81.055,-1000.000
1741774722.557,-937.500,-937.500,-25.391,-937.988
1741774722.561,-1000.000,-1000.000,-62.500,-1000.000
1741774722.565,-221.191,-220.703,520.020,-218.262
1741774722.569,999.512,999.512,908.691,999.512
1741774722.572,950.195,950.684,13.672,950.195
1741774722.576,938.965,939.941,-338.867,939.941
1741774722.580,973.145,974.121,-119.141,975.098
1741774722.584,966.309,966.797,36.621,960.938
1741774722.588,904.785,905.762,208.008,915.527
1741774722.545,-1000.000,-1000.000,261.230,-1000.000
1741774722.549,-1000.000,-1000.000,89.355,-1000.000
1741774722.553,-1000.000,-1000.000,-81.055,-1000.000
1741774722.557,-937.500,-937.500,-25.391,-937.988
1741774722.561,-1000.000,-1000.000,-62.500,-1000.000
1741774722.565,-221.191,-220.703,520.020,-218.262
1741774722.569,999.512,999.512,908.691,999.512
1741774722.572,950.195,950.684,13.672,950.195
1741774722.576,938.965,939.941,-338.867,939.941
1741774722.580,973.145,974.121,-119.141,975.098
1741774722.584,966.309,966.797,36.621,960.938
1741774722.588,904.785,905.762,208.008,915.527
1741774722.589,999.512,999.512,-133.301,999.512
1741774722.593,173.828,170.410,-665.527,86.914
1741774722.597,-1000.000,-1000.000,-729.492,-1000.000
1741774722.601,-981.934,-981.445,-134.277,-972.656
1741774722.605,-974.121,-974.121,128.418,-979.980
1741774722.609,-1000.000,-1000.000,135.254,-1000.000
1741774722.613,-1000.000,-1000.000,211.426,-1000.000
1741774722.616,-1000.000,-1000.000,338.379,-1000.000
1741774722.620,-1000.000,-1000.000,168.457,-1000.000
1741774722.624,-1000.000,-1000.000,-225.586,-1000.000
1741774722.628,-990.234,-998.047,-575.684,-990.234
1741774722.632,-953.613,-941.406,-577.637,-955.078
1741774722.589,999.512,999.512,-133.301,999.512
1741774722.593,173.828,170.410,-665.527,86.914
1741774722.597,-1000.000,-1000.000,-729.492,-1000.000
1741774722.601,-981.934,-981.445,-134.277,-972.656
1741774722.605,-974.121,-974.121,128.418,-979.980
1741774722.609,-1000.000,-1000.000,135.254,-1000.000
1741774722.613,-1000.000,-1000.000,211.426,-1000.000
1741774722.616,-1000.000,-1000.000,338.379,-1000.000
1741774722.620,-1000.000,-1000.000,168.457,-1000.000
1741774722.624,-1000.000,-1000.000,-225.586,-1000.000
1741774722.628,-990.234,-998.047,-575.684,-990.234
1741774722.632,-953.613,-941.406,-577.637,-955.078
1741774722.679,-1000.000,-1000.000,187.500,-1000.000
1741774722.683,-1000.000,-1000.000,-153.809,-1000.000
1741774722.687,-942.383,-948.730,-466.309,-940.918
1741774722.691,-1000.000,-1000.000,5.371,-1000.000
1741774722.695,-819.824,-884.277,331.055,-766.113
1741774722.699,597.168,505.859,750.000,640.625
1741774722.703,999.512,999.512,903.809,999.512
1741774722.706,899.902,899.902,473.145,904.297
1741774722.710,979.004,978.027,12.207,979.492
1741774722.714,978.516,980.469,-271.973,976.074
1741774722.718,892.090,892.578,9.766,895.996
1741774722.722,999.512,999.512,30.273,999.512
1741774722.679,-1000.000,-1000.000,187.500,-1000.000
1741774722.683,-1000.000,-1000.000,-153.809,-1000.000
1741774722.687,-942.383,-948.730,-466.309,-940.918
1741774722.691,-1000.000,-1000.000,5.371,-1000.000
1741774722.695,-819.824,-884.277,331.055,-766.113
1741774722.699,597.168,505.859,750.000,640.625
1741774722.703,999.512,999.512,903.809,999.512
1741774722.706,899.902,899.902,473.145,904.297
1741774722.710,979.004,978.027,12.207,979.492
1741774722.714,978.516,980.469,-271.973,976.074
1741774722.718,892.090,892.578,9.766,895.996
1741774722.722,999.512,999.512,30.273,999.512
1741774722.757,437.500,477.539,-435.059,369.629
1741774722.761,-967.285,-944.824,-902.344,-996.094
1741774722.765,-1000.000,-1000.000,-641.602,-1000.000
1741774722.769,-952.637,-949.707,128.418,-958.496
1741774722.773,-1000.000,-1000.000,103.027,-1000.000
1741774722.777,-1000.000,-1000.000,-49.316,-1000.000
1741774722.781,-1000.000,-1000.000,174.316,-1000.000
1741774722.784,-1000.000,-1000.000,174.316,-1000.000
1741774722.788,-1000.000,-1000.000,157.715,-1000.000
1741774722.792,-1000.000,-1000.000,15.625,-999.512
1741774722.796,-1000.000,-1000.000,-413.574,-1000.000
1741774722.800,-1000.000,-1000.000,64.941,-996.094
1741774722.799,-1000.000,-1000.000,503.906,-990.723
1741774722.803,-1000.000,-1000.000,157.715,-1000.000
1741774722.807,-948.730,-958.008,235.352,-947.266
1741774722.811,-1000.000,-1000.000,177.246,-1000.000
1741774722.815,-881.348,-962.402,109.375,-801.270
1741774722.819,507.324,385.254,169.434,572.754
1741774722.823,999.512,999.512,388.672,999.512
1741774722.826,899.902,899.902,389.160,905.762
1741774722.830,977.051,974.609,222.656,977.051
1741774722.834,966.309,967.773,120.605,966.797
1741774722.838,975.098,967.773,-280.762,979.004
1741774722.842,894.531,904.297,-197.754,893.555
1741774722.799,-1000.000,-1000.000,503.906,-990.723
1741774722.803,-1000.000,-1000.000,157.715,-1000.000
1741774722.807,-948.730,-958.008,235.352,-947.266
1741774722.811,-1000.000,-1000.000,177.246,-1000.000
1741774722.815,-881.348,-962.402,109.375,-801.270
1741774722.819,507.324,385.254,169.434,572.754
1741774722.823,999.512,999.512,388.672,999.512
1741774722.826,899.902,899.902,389.160,905.762
1741774722.830,977.051,974.609,222.656,977.051
1741774722.834,966.309,967.773,120.605,966.797
1741774722.838,975.098,967.773,-280.762,979.004
1741774722.842,894.531,904.297,-197.754,893.555
1741774722.844,999.512,999.512,203.613,999.512
1741774722.848,360.840,187.500,-60.547,447.754
1741774722.852,-1000.000,-1000.000,-519.043,-958.008
1741774722.856,-1000.000,-983.887,-712.891,-1000.000
1741774722.860,-958.984,-973.145,-792.480,-952.148
1741774722.864,-1000.000,-1000.000,-152.832,-1000.000
1741774722.868,-1000.000,-1000.000,433.594,-1000.000
1741774722.871,-1000.000,-1000.000,82.520,-1000.000
1741774722.875,-942.871,-929.199,-397.461,-950.195
1741774722.879,-1000.000,-1000.000,-763.184,-1000.000
1741774722.883,-827.148,-541.504,-311.035,-890.625
1741774722.887,587.891,871.582,575.684,491.211
1741774722.844,999.512,999.512,203.613,999.512
1741774722.848,360.840,187.500,-60.547,447.754
1741774722.852,-1000.000,-1000.000,-519.043,-958.008
1741774722.856,-1000.000,-983.887,-712.891,-1000.000
1741774722.860,-958.984,-973.145,-792.480,-952.148
1741774722.864,-1000.000,-1000.000,-152.832,-1000.000
1741774722.868,-1000.000,-1000.000,433.594,-1000.000
1741774722.871,-1000.000,-1000.000,82.520,-1000.000
1741774722.875,-942.871,-929.199,-397.461,-950.195
1741774722.879,-1000.000,-1000.000,-763.184,-1000.000
1741774722.883,-827.148,-541.504,-311.035,-890.625
1741774722.887,587.891,871.582,575.684,491.211
1741774722.891,999.512,999.512,781.738,999.512
1741774722.895,899.902,915.039,351.074,900.391
1741774722.899,979.004,980.957,-209.473,977.051
1741774722.903,966.309,967.285,-455.566,967.285
1741774722.907,966.797,970.215,-234.375,969.238
1741774722.911,903.320,900.879,450.684,902.832
1741774722.915,999.512,999.512,568.359,999.512
1741774722.918,187.012,239.746,-475.098,210.938
1741774722.922,-1000.000,-1000.000,-1000.000,-1000.000
1741774722.926,-983.887,-992.676,-664.062,-987.793
1741774722.930,-973.145,-968.750,-125.000,-971.191
1741774722.934,-1000.000,-1000.000,40.527,-1000.000
1741774722.891,999.512,999.512,781.738,999.512
1741774722.895,899.902,915.039,351.074,900.391
1741774722.899,979.004,980.957,-209.473,977.051
1741774722.903,966.309,967.285,-455.566,967.285
1741774722.907,966.797,970.215,-234.375,969.238
1741774722.911,903.320,900.879,450.684,902.832
1741774722.915,999.512,999.512,568.359,999.512
1741774722.918,187.012,239.746,-475.098,210.938
1741774722.922,-1000.000,-1000.000,-1000.000,-1000.000
1741774722.926,-983.887,-992.676,-664.062,-987.793
1741774722.930,-973.145,-968.750,-125.000,-971.191
1741774722.934,-1000.000,-1000.000,40.527,-1000.000
1741774722.949,-1000.000,-1000.000,-246.582,-1000.000
1741774722.953,-954.102,-958.984,-214.355,-948.242
1741774722.957,-1000.000,-1000.000,123.047,-1000.000
1741774722.961,-933.594,-971.680,295.898,-846.680
1741774722.965,432.129,368.652,734.375,529.785
1741774722.969,999.512,999.512,754.395,999.512
1741774722.973,899.414,900.391,177.734,903.320
1741774722.976,975.098,974.121,-88.867,977.051
1741774722.980,966.309,966.797,-112.305,967.285
1741774722.984,966.309,967.285,-146.484,964.355
1741774722.988,966.797,966.797,-292.480,976.074
1741774722.992,903.809,905.762,-449.219,876.953
1741774723.460,999.512,999.512,-130.859,999.512
1741774723.464,187.012,187.500,-754.883,187.012
1741774723.468,-1000.000,-1000.000,-856.445,-1000.000
1741774723.472,-983.887,-983.887,-293.945,-983.887
1741774723.476,-973.145,-973.145,23.438,-973.145
1741774723.480,-1000.000,-1000.000,188.965,-1000.000
1741774723.484,-1000.000,-1000.000,4.395,-1000.000
1741774723.487,-1000.000,-1000.000,-313.477,-1000.000
1741774723.491,-1000.000,-1000.000,-228.516,-1000.000
1741774723.495,-1000.000,-1000.000,-67.871,-1000.000
1741774723.499,-1000.000,-1000.000,-41.016,-1000.000
1741774723.503,-999.023,-1000.000,-265.137,-997.559
1741774722.995,999.512,999.512,-330.078,999.512
1741774722.999,186.523,171.387,-353.027,204.102
1741774723.003,-1000.000,-1000.000,-607.422,-1000.000
1741774723.007,-983.887,-981.445,-599.609,-987.305
1741774723.011,-973.145,-974.121,-569.336,-971.680
1741774723.015,-1000.000,-1000.000,81.055,-1000.000
1741774723.019,-1000.000,-1000.000,612.793,-1000.000
1741774723.022,-1000.000,-1000.000,427.734,-1000.000
1741774723.026,-1000.000,-1000.000,-319.824,-1000.000
1741774723.030,-933.105,-941.895,-732.910,-935.059
1741774723.034,-1000.000,-1000.000,-275.391,-1000.000
1741774723.038,-706.543,-816.406,70.801,-683.105
1741774722.995,999.512,999.512,-330.078,999.512
1741774722.999,186.523,171.387,-353.027,204.102
1741774723.003,-1000.000,-1000.000,-607.422,-1000.000
1741774723.007,-983.887,-981.445,-599.609,-987.305
1741774723.011,-973.145,-974.121,-569.336,-971.680
1741774723.015,-1000.000,-1000.000,81.055,-1000.000
1741774723.019,-1000.000,-1000.000,612.793,-1000.000
1741774723.022,-1000.000,-1000.000,427.734,-1000.000
1741774723.026,-1000.000,-1000.000,-319.824,-1000.000
1741774723.030,-933.105,-941.895,-732.910,-935.059
1741774723.034,-1000.000,-1000.000,-275.391,-1000.000
1741774723.038,-706.543,-816.406,70.801,-683.105
1741774723.039,737.793,602.051,648.926,735.840
1741774723.043,999.512,999.512,545.410,999.512
1741774723.047,903.320,900.879,-190.430,907.715
1741774723.051,981.445,979.980,70.801,980.469
1741774723.055,981.934,981.934,405.273,980.469
1741774723.059,897.461,906.250,403.809,899.414
1741774723.063,999.512,999.512,202.148,999.512
1741774723.066,653.809,757.324,-307.129,597.168
1741774723.070,-792.969,-668.945,-899.902,-822.266
1741774723.074,-1000.000,-1000.000,-851.074,-1000.000
1741774723.078,-938.477,-935.059,-47.363,-943.359
1741774723.082,-1000.000,-1000.000,-55.664,-1000.000
1741774723.039,737.793,602.051,648.926,735.840
1741774723.043,999.512,999.512,545.410,999.512
1741774723.047,903.320,900.879,-190.430,907.715
1741774723.051,981.445,979.980,70.801,980.469
1741774723.055,981.934,981.934,405.273,980.469
1741774723.059,897.461,906.250,403.809,899.414
1741774723.063,999.512,999.512,202.148,999.512
1741774723.066,653.809,757.324,-307.129,597.168
1741774723.070,-792.969,-668.945,-899.902,-822.266
1741774723.074,-1000.000,-1000.000,-851.074,-1000.000
1741774723.078,-938.477,-935.059,-47.363,-943.359
1741774723.082,-1000.000,-1000.000,-55.664,-1000.000
1741774723.084,-1000.000,-1000.000,-738.281,-1000.000
1741774723.088,-928.223,-926.270,-780.762,-930.176
1741774723.092,-1000.000,-1000.000,-232.422,-1000.000
1741774723.096,-392.578,-473.633,304.688,-368.652
1741774723.100,972.168,932.617,602.051,978.516
1741774723.104,979.004,995.605,265.137,976.562
1741774723.108,925.293,919.434,132.324,928.223
1741774723.111,981.445,982.910,202.637,984.375
1741774723.115,949.219,953.613,-85.938,937.988
1741774723.119,931.641,925.293,-285.156,960.938
1741774723.123,999.512,999.512,-613.770,984.863
1741774723.127,-87.402,-33.203,-662.598,-246.094
1741774723.084,-1000.000,-1000.000,-738.281,-1000.000
1741774723.088,-928.223,-926.270,-780.762,-930.176
1741774723.092,-1000.000,-1000.000,-232.422,-1000.000
1741774723.096,-392.578,-473.633,304.688,-368.652
1741774723.100,972.168,932.617,602.051,978.516
1741774723.104,979.004,995.605,265.137,976.562
1741774723.108,925.293,919.434,132.324,928.223
1741774723.111,981.445,982.910,202.637,984.375
1741774723.115,949.219,953.613,-85.938,937.988
1741774723.119,931.641,925.293,-285.156,960.938
1741774723.123,999.512,999.512,-613.770,984.863
1741774723.127,-87.402,-33.203,-662.598,-246.094
1741774723.129,-1000.000,-1000.000,-501.465,-1000.000
1741774723.133,-949.707,-955.078,-467.773,-945.312
1741774723.137,-998.047,-994.141,-345.215,-1000.000
1741774723.141,-979.004,-980.469,-289.062,-973.633
1741774723.145,-975.098,-973.633,-333.496,-987.793
1741774723.149,-1000.000,-1000.000,146.973,-1000.000
1741774723.153,124.512,113.770,808.594,189.453
1741774723.156,999.512,999.512,860.352,999.512
1741774723.160,908.691,910.645,23.438,909.180
1741774723.164,963.379,963.379,-544.922,965.820
1741774723.168,967.773,968.262,-5.371,969.727
1741774723.172,903.320,904.297,286.621,902.344
1741774723.175,999.512,999.512,134.277,999.512
1741774723.179,187.012,187.500,-419.434,218.262
1741774723.183,-1000.000,-1000.000,-984.863,-1000.000
1741774723.187,-983.887,-983.887,-600.098,-989.258
1741774723.191,-973.145,-973.145,-216.309,-970.703
1741774723.195,-1000.000,-1000.000,264.160,-1000.000
1741774723.199,-1000.000,-1000.000,192.383,-1000.000
1741774723.202,-1000.000,-1000.000,-565.430,-1000.000
1741774723.206,-1000.000,-1000.000,-388.184,-1000.000
1741774723.210,-1000.000,-1000.000,-96.680,-1000.000
1741774723.214,-1000.000,-1000.000,-38.086,-1000.000
1741774723.218,-989.746,-992.676,-18.555,-990.723
1741774723.175,999.512,999.512,134.277,999.512
1741774723.179,187.012,187.500,-419.434,218.262
1741774723.183,-1000.000,-1000.000,-984.863,-1000.000
1741774723.187,-983.887,-983.887,-600.098,-989.258
1741774723.191,-973.145,-973.145,-216.309,-970.703
1741774723.195,-1000.000,-1000.000,264.160,-1000.000
1741774723.199,-1000.000,-1000.000,192.383,-1000.000
1741774723.202,-1000.000,-1000.000,-565.430,-1000.000
1741774723.206,-1000.000,-1000.000,-388.184,-1000.000
1741774723.210,-1000.000,-1000.000,-96.680,-1000.000
1741774723.214,-1000.000,-1000.000,-38.086,-1000.000
1741774723.218,-989.746,-992.676,-18.555,-990.723
1741774723.219,-954.102,-949.707,-286.133,-953.613
1741774723.223,-1000.000,-1000.000,-208.984,-1000.000
1741774723.227,-44.434,-83.984,433.105,-57.617
1741774723.231,999.512,999.512,999.512,999.512
1741774723.235,926.270,931.641,799.805,929.688
1741774723.239,952.148,950.195,311.035,951.660
1741774723.243,981.445,973.633,224.609,983.398
1741774723.246,892.090,901.367,138.184,893.066
1741774723.250,999.512,999.512,-18.066,999.512
1741774723.254,448.242,239.258,-355.957,479.004
1741774723.258,-961.914,-1000.000,-877.441,-941.406
1741774723.262,-1000.000,-992.676,-672.852,-1000.000
1741774723.219,-954.102,-949.707,-286.133,-953.613
1741774723.223,-1000.000,-1000.000,-208.984,-1000.000
1741774723.227,-44.434,-83.984,433.105,-57.617
1741774723.231,999.512,999.512,999.512,999.512
1741774723.235,926.270,931.641,799.805,929.688
1741774723.239,952.148,950.195,311.035,951.660
1741774723.243,981.445,973.633,224.609,983.398
1741774723.246,892.090,901.367,138.184,893.066
1741774723.250,999.512,999.512,-18.066,999.512
1741774723.254,448.242,239.258,-355.957,479.004
1741774723.258,-961.914,-1000.000,-877.441,-941.406
1741774723.262,-1000.000,-992.676,-672.852,-1000.000
1741774723.264,-951.660,-968.750,-214.844,-949.219
1741774723.268,-1000.000,-1000.000,27.344,-1000.000
1741774723.272,-1000.000,-998.535,-71.289,-1000.000
1741774723.276,-937.500,-941.406,-339.355,-937.500
1741774723.280,-1000.000,-1000.000,-246.582,-1000.000
1741774723.284,-220.703,-181.641,480.957,-219.238
1741774723.288,999.512,999.512,999.512,999.512
1741774723.291,949.707,945.312,704.102,950.195
1741774723.295,938.965,942.871,-257.812,939.941
1741774723.299,973.145,973.145,-615.234,973.633
1741774723.303,969.727,967.773,-198.242,970.703
1741774723.307,900.879,904.297,200.684,900.391
1741774723.264,-951.660,-968.750,-214.844,-949.219
1741774723.268,-1000.000,-1000.000,27.344,-1000.000
1741774723.272,-1000.000,-998.535,-71.289,-1000.000
1741774723.276,-937.500,-941.406,-339.355,-937.500
1741774723.280,-1000.000,-1000.000,-246.582,-1000.000
1741774723.284,-220.703,-181.641,480.957,-219.238
1741774723.288,999.512,999.512,999.512,999.512
1741774723.291,949.707,945.312,704.102,950.195
1741774723.295,938.965,942.871,-257.812,939.941
1741774723.299,973.145,973.145,-615.234,973.633
1741774723.303,969.727,967.773,-198.242,970.703
1741774723.307,900.879,904.297,200.684,900.391
1741774723.324,999.512,999.512,385.742,999.512
1741774723.328,232.422,187.012,-227.051,244.629
1741774723.332,-1000.000,-1000.000,-947.266,-1000.000
1741774723.336,-991.211,-983.887,-511.230,-993.164
1741774723.340,-969.238,-973.145,113.770,-968.262
1741774723.344,-1000.000,-1000.000,598.145,-1000.000
1741774723.348,-1000.000,-1000.000,412.598,-1000.000
1741774723.351,-926.270,-927.246,-261.230,-927.734
1741774723.355,-1000.000,-1000.000,-277.344,-1000.000
1741774723.359,-475.586,-448.730,273.926,-448.730
1741774723.363,931.152,944.824,993.652,941.895
1741774723.367,994.629,990.723,420.898,991.211
1741774723.324,999.512,999.512,385.742,999.512
1741774723.328,232.422,187.012,-227.051,244.629
1741774723.332,-1000.000,-1000.000,-947.266,-1000.000
1741774723.336,-991.211,-983.887,-511.230,-993.164
1741774723.340,-969.238,-973.145,113.770,-968.262
1741774723.344,-1000.000,-1000.000,598.145,-1000.000
1741774723.348,-1000.000,-1000.000,412.598,-1000.000
1741774723.351,-926.270,-927.246,-261.230,-927.734
1741774723.355,-1000.000,-1000.000,-277.344,-1000.000
1741774723.359,-475.586,-448.730,273.926,-448.730
1741774723.363,931.152,944.824,993.652,941.895
1741774723.367,994.629,990.723,420.898,991.211
1741774723.369,918.457,921.387,-613.281,921.387
1741774723.373,979.980,979.980,-562.500,979.492
1741774723.377,966.309,967.285,-98.633,966.797
1741774723.381,966.309,967.285,194.824,967.285
1741774723.385,968.262,967.285,-202.637,972.656
1741774723.389,901.855,904.785,-428.711,898.438
1741774723.393,999.512,999.512,-16.113,999.512
1741774723.396,214.355,178.711,-236.816,284.668
1741774723.400,-1000.000,-1000.000,-789.062,-1000.000
1741774723.404,-988.281,-982.910,-933.594,-1000.000
1741774723.408,-970.703,-973.633,-909.180,-965.332
1741774723.412,-1000.000,-1000.000,-380.859,-1000.000
1741774723.369,918.457,921.387,-613.281,921.387
1741774723.373,979.980,979.980,-562.500,979.492
1741774723.377,966.309,967.285,-98.633,966.797
1741774723.381,966.309,967.285,194.824,967.285
1741774723.385,968.262,967.285,-202.637,972.656
1741774723.389,901.855,904.785,-428.711,898.438
1741774723.393,999.512,999.512,-16.113,999.512
1741774723.396,214.355,178.711,-236.816,284.668
1741774723.400,-1000.000,-1000.000,-789.062,-1000.000
1741774723.404,-988.281,-982.910,-933.594,-1000.000
1741774723.408,-970.703,-973.633,-909.180,-965.332
1741774723.412,-1000.000,-1000.000,-380.859,-1000.000
1741774723.414,-1000.000,-1000.000,234.375,-1000.000
1741774723.418,-1000.000,-1000.000,119.629,-1000.000
1741774723.422,-1000.000,-1000.000,-269.043,-1000.000
1741774723.426,-934.570,-934.570,-382.324,-936.523
1741774723.430,-1000.000,-1000.000,-217.773,-1000.000
1741774723.434,-729.004,-729.492,132.324,-731.934
1741774723.438,711.914,709.473,779.297,694.336
1741774723.441,999.512,999.512,742.188,999.512
1741774723.445,902.344,903.809,-257.812,904.785
1741774723.449,981.445,981.934,-501.953,980.957
1741774723.453,966.797,967.773,103.027,967.773
1741774723.457,903.320,904.297,277.344,904.297
1741774723.414,-1000.000,-1000.000,234.375,-1000.000
1741774723.418,-1000.000,-1000.000,119.629,-1000.000
1741774723.422,-1000.000,-1000.000,-269.043,-1000.000
1741774723.426,-934.570,-934.570,-382.324,-936.523
1741774723.430,-1000.000,-1000.000,-217.773,-1000.000
1741774723.434,-729.004,-729.492,132.324,-731.934
1741774723.438,711.914,709.473,779.297,694.336
1741774723.441,999.512,999.512,742.188,999.512
1741774723.445,902.344,903.809,-257.812,904.785
1741774723.449,981.445,981.934,-501.953,980.957
1741774723.453,966.797,967.773,103.027,967.773
1741774723.457,903.320,904.297,277.344,904.297
1741774723.505,-940.430,-938.477,-221.191,-942.871
1741774723.509,-1000.000,-1000.000,-168.945,-1000.000
1741774723.513,-187.988,-211.914,249.023,-165.039
1741774723.517,999.512,999.512,999.512,999.512
1741774723.521,945.312,949.707,485.352,943.359
1741774723.525,941.406,940.430,-53.223,943.848
1741774723.529,972.168,973.633,334.473,972.168
1741774723.532,966.309,967.285,345.215,967.285
1741774723.536,966.309,967.285,-156.250,967.773
1741774723.540,966.309,967.285,-588.867,955.566
1741774723.544,969.238,966.309,-421.387,963.379
1741774723.548,900.879,906.250,-62.988,899.414
1741774724.014,950.195,948.730,108.887,948.242
1741774724.018,938.965,940.918,-384.766,940.918
1741774724.022,973.145,973.633,-71.289,973.145
1741774724.026,966.309,966.797,505.859,966.797
1741774724.030,966.309,969.727,457.520,967.285
1741774724.034,966.797,957.031,-215.820,967.773
1741774724.038,903.320,922.852,-299.805,904.297
1741774724.041,999.512,999.512,-60.059,999.512
1741774724.045,186.523,22.461,-257.324,187.012
1741774724.049,-1000.000,-1000.000,-715.332,-1000.000
1741774724.053,-983.887,-965.820,-988.770,-983.887
1741774724.057,-973.145,-983.887,-776.367,-973.145
1741774723.550,999.512,999.512,-3.418,999.512
1741774723.554,229.004,163.086,8.789,306.641
1741774723.558,-1000.000,-1000.000,-668.945,-1000.000
1741774723.562,-990.723,-980.469,-974.121,-1000.000
1741774723.566,-969.727,-975.098,-305.664,-963.379
1741774723.570,-1000.000,-1000.000,520.020,-1000.000
1741774723.574,-1000.000,-1000.000,809.570,-1000.000
1741774723.577,-1000.000,-1000.000,292.480,-1000.000
1741774723.581,-1000.000,-1000.000,-509.277,-997.070
1741774723.585,-937.988,-937.500,-673.828,-943.848
1741774723.589,-1000.000,-1000.000,-193.359,-1000.000
1741774723.593,-215.332,-220.703,583.984,-158.203
1741774723.550,999.512,999.512,-3.418,999.512
1741774723.554,229.004,163.086,8.789,306.641
1741774723.558,-1000.000,-1000.000,-668.945,-1000.000
1741774723.562,-990.723,-980.469,-974.121,-1000.000
1741774723.566,-969.727,-975.098,-305.664,-963.379
1741774723.570,-1000.000,-1000.000,520.020,-1000.000
1741774723.574,-1000.000,-1000.000,809.570,-1000.000
1741774723.577,-1000.000,-1000.000,292.480,-1000.000
1741774723.581,-1000.000,-1000.000,-509.277,-997.070
1741774723.585,-937.988,-937.500,-673.828,-943.848
1741774723.589,-1000.000,-1000.000,-193.359,-1000.000
1741774723.593,-215.332,-220.703,583.984,-158.203
1741774723.594,999.512,999.512,828.125,999.512
1741774723.598,949.219,950.684,92.773,942.871
1741774723.602,939.453,939.941,-71.777,944.336
1741774723.606,972.656,973.633,281.738,972.656
1741774723.610,966.309,966.797,334.473,966.797
1741774723.614,966.309,967.285,269.043,966.797
1741774723.618,974.609,973.145,27.344,971.191
1741774723.621,931.152,898.926,-227.051,948.730
1741774723.625,970.215,999.512,-90.820,936.035
1741774723.629,972.168,295.898,166.504,999.512
1741774723.633,-322.754,-1000.000,2.930,-98.145
1741774723.637,-1000.000,-1000.000,-711.426,-1000.000
1741774723.594,999.512,999.512,828.125,999.512
1741774723.598,949.219,950.684,92.773,942.871
1741774723.602,939.453,939.941,-71.777,944.336
1741774723.606,972.656,973.633,281.738,972.656
1741774723.610,966.309,966.797,334.473,966.797
1741774723.614,966.309,967.285,269.043,966.797
1741774723.618,974.609,973.145,27.344,971.191
1741774723.621,931.152,898.926,-227.051,948.730
1741774723.625,970.215,999.512,-90.820,936.035
1741774723.629,972.168,295.898,166.504,999.512
1741774723.633,-322.754,-1000.000,2.930,-98.145
1741774723.637,-1000.000,-1000.000,-711.426,-1000.000
1741774723.639,-937.500,-964.355,-916.992,-951.172
1741774723.643,-1000.000,-1000.000,-490.723,-992.676
1741774723.647,-1000.000,-1000.000,-18.555,-1000.000
1741774723.651,-1000.000,-1000.000,210.938,-1000.000
1741774723.655,-937.500,-937.988,-186.035,-935.547
1741774723.659,-1000.000,-1000.000,-234.863,-1000.000
1741774723.663,-221.191,-213.867,491.211,-255.371
1741774723.666,999.512,999.512,965.820,999.512
1741774723.670,949.707,949.707,578.613,956.055
1741774723.674,938.965,940.430,-257.812,936.523
1741774723.678,982.910,986.328,-418.457,982.422
1741774723.682,927.734,897.461,109.375,935.059
1741774723.639,-937.500,-964.355,-916.992,-951.172
1741774723.643,-1000.000,-1000.000,-490.723,-992.676
1741774723.647,-1000.000,-1000.000,-18.555,-1000.000
1741774723.651,-1000.000,-1000.000,210.938,-1000.000
1741774723.655,-937.500,-937.988,-186.035,-935.547
1741774723.659,-1000.000,-1000.000,-234.863,-1000.000
1741774723.663,-221.191,-213.867,491.211,-255.371
1741774723.666,999.512,999.512,965.820,999.512
1741774723.670,949.707,949.707,578.613,956.055
1741774723.674,938.965,940.430,-257.812,936.523
1741774723.678,982.910,986.328,-418.457,982.422
1741774723.682,927.734,897.461,109.375,935.059
1741774723.700,977.539,999.512,545.410,963.379
1741774723.704,956.543,519.043,335.449,997.070
1741774723.708,-366.211,-889.160,-652.344,-281.250
1741774723.712,-1000.000,-1000.000,-918.945,-1000.000
1741774723.716,-934.570,-947.754,-290.039,-937.988
1741774723.720,-1000.000,-1000.000,436.523,-1000.000
1741774723.724,-1000.000,-1000.000,804.199,-1000.000
1741774723.727,-1000.000,-1000.000,76.172,-1000.000
1741774723.731,-937.500,-937.988,-500.000,-937.500
1741774723.735,-1000.000,-1000.000,-229.492,-1000.000
1741774723.739,-221.191,-214.355,459.961,-219.727
1741774723.743,999.512,999.512,999.512,999.512
1741774723.700,977.539,999.512,545.410,963.379
1741774723.704,956.543,519.043,335.449,997.070
1741774723.708,-366.211,-889.160,-652.344,-281.250
1741774723.712,-1000.000,-1000.000,-918.945,-1000.000
1741774723.716,-934.570,-947.754,-290.039,-937.988
1741774723.720,-1000.000,-1000.000,436.523,-1000.000
1741774723.724,-1000.000,-1000.000,804.199,-1000.000
1741774723.727,-1000.000,-1000.000,76.172,-1000.000
1741774723.731,-937.500,-937.988,-500.000,-937.500
1741774723.735,-1000.000,-1000.000,-229.492,-1000.000
1741774723.739,-221.191,-214.355,459.961,-219.727
1741774723.743,999.512,999.512,999.512,999.512
1741774723.700,977.539,999.512,545.410,963.379
1741774723.704,956.543,519.043,335.449,997.070
1741774723.708,-366.211,-889.160,-652.344,-281.250
1741774723.712,-1000.000,-1000.000,-918.945,-1000.000
1741774723.716,-934.570,-947.754,-290.039,-937.988
1741774723.720,-1000.000,-1000.000,436.523,-1000.000
1741774723.724,-1000.000,-1000.000,804.199,-1000.000
1741774723.727,-1000.000,-1000.000,76.172,-1000.000
1741774723.731,-937.500,-937.988,-500.000,-937.500
1741774723.735,-1000.000,-1000.000,-229.492,-1000.000
1741774723.739,-221.191,-214.355,459.961,-219.727
1741774723.743,999.512,999.512,999.512,999.512
1741774723.744,949.707,949.707,485.840,950.684
1741774723.748,938.965,940.430,-435.547,939.941
1741774723.752,973.145,973.633,-149.414,973.633
1741774723.756,966.309,966.797,513.184,966.797
1741774723.760,966.309,966.797,453.125,966.797
1741774723.764,966.797,973.145,122.070,967.285
1741774723.768,963.867,938.477,-43.457,966.797
1741774723.771,908.203,958.984,18.555,905.762
1741774723.775,999.512,993.164,47.852,999.512
1741774723.779,135.254,-235.840,-171.875,170.898
1741774723.783,-1000.000,-1000.000,-680.176,-1000.000
1741774723.787,-976.562,-945.312,-816.406,-981.445
1741774723.744,949.707,949.707,485.840,950.684
1741774723.748,938.965,940.430,-435.547,939.941
1741774723.752,973.145,973.633,-149.414,973.633
1741774723.756,966.309,966.797,513.184,966.797
1741774723.760,966.309,966.797,453.125,966.797
1741774723.764,966.797,973.145,122.070,967.285
1741774723.768,963.867,938.477,-43.457,966.797
1741774723.771,908.203,958.984,18.555,905.762
1741774723.775,999.512,993.164,47.852,999.512
1741774723.779,135.254,-235.840,-171.875,170.898
1741774723.783,-1000.000,-1000.000,-680.176,-1000.000
1741774723.787,-976.562,-945.312,-816.406,-981.445
1741774723.789,-977.051,-998.535,-469.727,-974.121
1741774723.793,-1000.000,-1000.000,-104.004,-1000.000
1741774723.797,-1000.000,-1000.000,259.277,-1000.000
1741774723.801,-1000.000,-992.188,400.879,-1000.000
1741774723.805,-937.500,-950.684,-170.898,-937.988
1741774723.809,-1000.000,-1000.000,-261.230,-1000.000
1741774723.813,-220.703,-83.984,447.754,-215.332
1741774723.816,999.512,999.512,999.512,999.512
1741774723.820,949.707,932.617,493.164,949.707
1741774723.824,938.965,949.707,-590.820,940.430
1741774723.828,973.145,971.191,-414.062,974.121
1741774723.832,966.797,967.773,193.848,967.285
1741774723.789,-977.051,-998.535,-469.727,-974.121
1741774723.793,-1000.000,-1000.000,-104.004,-1000.000
1741774723.797,-1000.000,-1000.000,259.277,-1000.000
1741774723.801,-1000.000,-992.188,400.879,-1000.000
1741774723.805,-937.500,-950.684,-170.898,-937.988
1741774723.809,-1000.000,-1000.000,-261.230,-1000.000
1741774723.813,-220.703,-83.984,447.754,-215.332
1741774723.816,999.512,999.512,999.512,999.512
1741774723.820,949.707,932.617,493.164,949.707
1741774723.824,938.965,949.707,-590.820,940.430
1741774723.828,973.145,971.191,-414.062,974.121
1741774723.832,966.797,967.773,193.848,967.285
1741774723.789,-977.051,-998.535,-469.727,-974.121
1741774723.793,-1000.000,-1000.000,-104.004,-1000.000
1741774723.797,-1000.000,-1000.000,259.277,-1000.000
1741774723.801,-1000.000,-992.188,400.879,-1000.000
1741774723.805,-937.500,-950.684,-170.898,-937.988
1741774723.809,-1000.000,-1000.000,-261.230,-1000.000
1741774723.813,-220.703,-83.984,447.754,-215.332
1741774723.816,999.512,999.512,999.512,999.512
1741774723.820,949.707,932.617,493.164,949.707
1741774723.824,938.965,949.707,-590.820,940.430
1741774723.828,973.145,971.191,-414.062,974.121
1741774723.832,966.797,967.773,193.848,967.285
1741774723.835,903.320,904.297,118.652,904.297
1741774723.839,999.512,999.512,-76.660,999.512
1741774723.843,187.012,187.012,-634.277,183.594
1741774723.847,-1000.000,-1000.000,-999.512,-1000.000
1741774723.851,-983.887,-983.887,-551.758,-983.398
1741774723.855,-973.145,-973.145,418.457,-973.145
1741774723.859,-1000.000,-1000.000,741.211,-1000.000
1741774723.862,-1000.000,-1000.000,-40.039,-1000.000
1741774723.866,-1000.000,-1000.000,-559.570,-996.094
1741774723.870,-938.965,-937.500,-460.938,-945.312
1741774723.874,-1000.000,-1000.000,-121.094,-1000.000
1741774723.878,-205.566,-220.703,548.340,-145.508
1741774723.835,903.320,904.297,118.652,904.297
1741774723.839,999.512,999.512,-76.660,999.512
1741774723.843,187.012,187.012,-634.277,183.594
1741774723.847,-1000.000,-1000.000,-999.512,-1000.000
1741774723.851,-983.887,-983.887,-551.758,-983.398
1741774723.855,-973.145,-973.145,418.457,-973.145
1741774723.859,-1000.000,-1000.000,741.211,-1000.000
1741774723.862,-1000.000,-1000.000,-40.039,-1000.000
1741774723.866,-1000.000,-1000.000,-559.570,-996.094
1741774723.870,-938.965,-937.500,-460.938,-945.312
1741774723.874,-1000.000,-1000.000,-121.094,-1000.000
1741774723.878,-205.566,-220.703,548.340,-145.508
1741774723.879,999.512,999.512,668.457,999.512
1741774723.883,947.754,950.684,45.410,940.918
1741774723.887,939.941,939.941,61.523,944.824
1741774723.891,972.656,973.633,360.352,972.168
1741774723.895,966.309,966.797,352.051,966.797
1741774723.899,966.309,967.285,-135.254,967.285
1741774723.903,966.797,967.773,-242.188,969.727
1741774723.906,903.809,904.785,39.551,901.855
1741774723.910,999.512,999.512,-25.391,999.512
1741774723.914,186.523,182.617,-328.125,224.121
1741774723.918,-1000.000,-1000.000,-822.754,-1000.000
1741774723.922,-983.887,-983.398,-696.777,-989.746
1741774723.924,-973.145,-973.633,-509.277,-970.215
1741774723.928,-1000.000,-1000.000,-312.988,-1000.000
1741774723.932,-1000.000,-1000.000,94.238,-1000.000
1741774723.936,-987.793,-976.074,45.898,-989.746
1741774723.940,-957.031,-979.980,-393.066,-954.102
1741774723.944,-1000.000,-1000.000,-169.922,-1000.000
1741774723.948,-15.625,143.066,595.215,-44.434
1741774723.951,999.512,999.512,939.453,999.512
1741774723.955,922.852,911.133,334.473,927.246
1741774723.959,954.102,963.867,-362.793,952.637
1741774723.963,968.262,967.773,-348.145,969.727
1741774723.967,972.168,975.586,-0.488,972.168
1741774723.924,-973.145,-973.633,-509.277,-970.215
1741774723.928,-1000.000,-1000.000,-312.988,-1000.000
1741774723.932,-1000.000,-1000.000,94.238,-1000.000
1741774723.936,-987.793,-976.074,45.898,-989.746
1741774723.940,-957.031,-979.980,-393.066,-954.102
1741774723.944,-1000.000,-1000.000,-169.922,-1000.000
1741774723.948,-15.625,143.066,595.215,-44.434
1741774723.951,999.512,999.512,939.453,999.512
1741774723.955,922.852,911.133,334.473,927.246
1741774723.959,954.102,963.867,-362.793,952.637
1741774723.963,968.262,967.773,-348.145,969.727
1741774723.967,972.168,975.586,-0.488,972.168
1741774723.970,897.461,895.020,409.180,899.414
1741774723.974,999.512,999.512,312.988,999.512
1741774723.978,292.480,352.539,-483.398,277.832
1741774723.982,-1000.000,-1000.000,-894.531,-1000.000
1741774723.986,-1000.000,-1000.000,-532.715,-999.023
1741774723.990,-964.844,-959.961,206.055,-965.820
1741774723.994,-1000.000,-1000.000,503.418,-1000.000
1741774723.997,-1000.000,-1000.000,-196.289,-1000.000
1741774724.001,-937.500,-938.965,-438.477,-938.965
1741774724.005,-1000.000,-1000.000,6.836,-1000.000
1741774724.009,-221.191,-206.055,623.047,-202.637
1741774724.013,999.512,999.512,883.301,999.512
1741774723.970,897.461,895.020,409.180,899.414
1741774723.974,999.512,999.512,312.988,999.512
1741774723.978,292.480,352.539,-483.398,277.832
1741774723.982,-1000.000,-1000.000,-894.531,-1000.000
1741774723.986,-1000.000,-1000.000,-532.715,-999.023
1741774723.990,-964.844,-959.961,206.055,-965.820
1741774723.994,-1000.000,-1000.000,503.418,-1000.000
1741774723.997,-1000.000,-1000.000,-196.289,-1000.000
1741774724.001,-937.500,-938.965,-438.477,-938.965
1741774724.005,-1000.000,-1000.000,6.836,-1000.000
1741774724.009,-221.191,-206.055,623.047,-202.637
1741774724.013,999.512,999.512,883.301,999.512
1741774723.970,897.461,895.020,409.180,899.414
1741774723.974,999.512,999.512,312.988,999.512
1741774723.978,292.480,352.539,-483.398,277.832
1741774723.982,-1000.000,-1000.000,-894.531,-1000.000
1741774723.986,-1000.000,-1000.000,-532.715,-999.023
1741774723.990,-964.844,-959.961,206.055,-965.820
1741774723.994,-1000.000,-1000.000,503.418,-1000.000
1741774723.997,-1000.000,-1000.000,-196.289,-1000.000
1741774724.001,-937.500,-938.965,-438.477,-938.965
1741774724.005,-1000.000,-1000.000,6.836,-1000.000
1741774724.009,-221.191,-206.055,623.047,-202.637
1741774724.013,999.512,999.512,883.301,999.512
1741774724.074,-1000.000,-1000.000,-237.793,-1000.000
1741774724.078,-1000.000,-1000.000,89.355,-1000.000
1741774724.082,-1000.000,-1000.000,360.840,-1000.000
1741774724.086,-986.328,-974.609,215.332,-987.793
1741774724.090,-959.961,-983.887,-204.590,-957.520
1741774724.094,-1000.000,-1000.000,-71.289,-1000.000
1741774724.098,10.254,167.969,547.852,-15.625
1741774724.101,999.512,999.512,999.512,999.512
1741774724.105,919.922,909.668,246.582,924.316
1741774724.109,956.055,965.332,-617.676,954.590
1741774724.113,972.168,968.750,-192.871,975.098
1741774724.117,899.414,904.297,203.613,898.438
1741774724.074,-1000.000,-1000.000,-237.793,-1000.000
1741774724.078,-1000.000,-1000.000,89.355,-1000.000
1741774724.082,-1000.000,-1000.000,360.840,-1000.000
1741774724.086,-986.328,-974.609,215.332,-987.793
1741774724.090,-959.961,-983.887,-204.590,-957.520
1741774724.094,-1000.000,-1000.000,-71.289,-1000.000
1741774724.098,10.254,167.969,547.852,-15.625
1741774724.101,999.512,999.512,999.512,999.512
1741774724.105,919.922,909.668,246.582,924.316
1741774724.109,956.055,965.332,-617.676,954.590
1741774724.113,972.168,968.750,-192.871,975.098
1741774724.117,899.414,904.297,203.613,898.438
1741774724.074,-1000.000,-1000.000,-237.793,-1000.000
1741774724.078,-1000.000,-1000.000,89.355,-1000.000
1741774724.082,-1000.000,-1000.000,360.840,-1000.000
1741774724.086,-986.328,-974.609,215.332,-987.793
1741774724.090,-959.961,-983.887,-204.590,-957.520
1741774724.094,-1000.000,-1000.000,-71.289,-1000.000
1741774724.098,10.254,167.969,547.852,-15.625
1741774724.101,999.512,999.512,999.512,999.512
1741774724.105,919.922,909.668,246.582,924.316
1741774724.109,956.055,965.332,-617.676,954.590
1741774724.113,972.168,968.750,-192.871,975.098
1741774724.117,899.414,904.297,203.613,898.438
1741774724.119,999.512,999.512,-21.484,999.512
1741774724.123,252.930,187.012,-490.723,291.992
1741774724.127,-1000.000,-1000.000,-1000.000,-1000.000
1741774724.131,-994.629,-983.887,-788.574,-1000.000
1741774724.135,-967.773,-973.145,-126.953,-964.844
1741774724.139,-1000.000,-1000.000,253.906,-1000.000
1741774724.143,-1000.000,-1000.000,93.262,-1000.000
1741774724.146,-1000.000,-1000.000,-296.387,-1000.000
1741774724.150,-932.129,-940.918,-135.742,-934.570
1741774724.154,-1000.000,-1000.000,-43.945,-1000.000
1741774724.158,-693.359,-806.641,-19.531,-676.270
1741774724.162,752.930,614.746,601.074,746.094
1741774724.119,999.512,999.512,-21.484,999.512
1741774724.123,252.930,187.012,-490.723,291.992
1741774724.127,-1000.000,-1000.000,-1000.000,-1000.000
1741774724.131,-994.629,-983.887,-788.574,-1000.000
1741774724.135,-967.773,-973.145,-126.953,-964.844
1741774724.139,-1000.000,-1000.000,253.906,-1000.000
1741774724.143,-1000.000,-1000.000,93.262,-1000.000
1741774724.146,-1000.000,-1000.000,-296.387,-1000.000
1741774724.150,-932.129,-940.918,-135.742,-934.570
1741774724.154,-1000.000,-1000.000,-43.945,-1000.000
1741774724.158,-693.359,-806.641,-19.531,-676.270
1741774724.162,752.930,614.746,601.074,746.094
1741774724.164,999.512,999.512,471.680,999.512
1741774724.168,904.297,901.367,68.848,907.715
1741774724.172,981.445,980.469,368.164,980.957
1741774724.176,966.309,966.797,600.098,966.797
1741774724.180,966.309,967.285,452.637,966.797
1741774724.184,969.238,967.285,165.039,973.633
1741774724.188,900.879,905.273,202.148,897.461
1741774724.191,999.512,999.512,192.871,999.512
1741774724.195,230.469,176.758,-165.039,306.641
1741774724.199,-1000.000,-1000.000,-795.898,-1000.000
1741774724.203,-991.211,-982.422,-854.004,-1000.000
1741774724.207,-969.727,-973.633,-248.047,-963.379
1741774724.164,999.512,999.512,471.680,999.512
1741774724.168,904.297,901.367,68.848,907.715
1741774724.172,981.445,980.469,368.164,980.957
1741774724.176,966.309,966.797,600.098,966.797
1741774724.180,966.309,967.285,452.637,966.797
1741774724.184,969.238,967.285,165.039,973.633
1741774724.188,900.879,905.273,202.148,897.461
1741774724.191,999.512,999.512,192.871,999.512
1741774724.195,230.469,176.758,-165.039,306.641
1741774724.199,-1000.000,-1000.000,-795.898,-1000.000
1741774724.203,-991.211,-982.422,-854.004,-1000.000
1741774724.207,-969.727,-973.633,-248.047,-963.379
1741774724.210,-1000.000,-1000.000,6.836,-1000.000
1741774724.214,-1000.000,-1000.000,73.242,-1000.000
1741774724.218,-1000.000,-1000.000,291.992,-1000.000
1741774724.222,-934.570,-937.500,9.277,-932.617
1741774724.226,-1000.000,-1000.000,-341.309,-1000.000
1741774724.230,-271.973,-220.703,274.902,-308.594
1741774724.234,999.512,999.512,985.840,999.512
1741774724.237,958.008,950.684,678.711,965.332
1741774724.241,935.059,939.941,-221.680,932.617
1741774724.245,974.609,974.121,-690.430,976.074
1741774724.249,979.980,979.492,-397.461,980.469
1741774724.253,912.109,917.480,5.371,911.621
1741774724.210,-1000.000,-1000.000,6.836,-1000.000
1741774724.214,-1000.000,-1000.000,73.242,-1000.000
1741774724.218,-1000.000,-1000.000,291.992,-1000.000
1741774724.222,-934.570,-937.500,9.277,-932.617
1741774724.226,-1000.000,-1000.000,-341.309,-1000.000
1741774724.230,-271.973,-220.703,274.902,-308.594
1741774724.234,999.512,999.512,985.840,999.512
1741774724.237,958.008,950.684,678.711,965.332
1741774724.241,935.059,939.941,-221.680,932.617
1741774724.245,974.609,974.121,-690.430,976.074
1741774724.249,979.980,979.492,-397.461,980.469
1741774724.253,912.109,917.480,5.371,911.621
1741774724.255,999.512,999.512,239.258,999.512
1741774724.259,823.730,868.652,-124.512,790.527
1741774724.263,-577.637,-511.230,-899.902,-604.980
1741774724.267,-1000.000,-1000.000,-861.328,-1000.000
1741774724.271,-933.594,-933.594,-260.742,-936.035
1741774724.275,-1000.000,-1000.000,106.445,-1000.000
1741774724.279,-1000.000,-1000.000,68.359,-1000.000
1741774724.282,-999.023,-999.023,-323.730,-995.605
1741774724.286,-940.430,-940.430,-386.719,-946.289
1741774724.290,-1000.000,-1000.000,-49.316,-1000.000
1741774724.294,-189.453,-187.012,594.727,-134.766
1741774724.298,999.512,999.512,733.398,999.512
1741774724.255,999.512,999.512,239.258,999.512
1741774724.259,823.730,868.652,-124.512,790.527
1741774724.263,-577.637,-511.230,-899.902,-604.980
1741774724.267,-1000.000,-1000.000,-861.328,-1000.000
1741774724.271,-933.594,-933.594,-260.742,-936.035
1741774724.275,-1000.000,-1000.000,106.445,-1000.000
1741774724.279,-1000.000,-1000.000,68.359,-1000.000
1741774724.282,-999.023,-999.023,-323.730,-995.605
1741774724.286,-940.430,-940.430,-386.719,-946.289
1741774724.290,-1000.000,-1000.000,-49.316,-1000.000
1741774724.294,-189.453,-187.012,594.727,-134.766
1741774724.298,999.512,999.512,733.398,999.512
1741774724.765,-973.145,-973.145,139.160,-971.191
1741774724.769,-1000.000,-1000.000,70.312,-1000.000
1741774724.773,-1000.000,-1000.000,-202.637,-1000.000
1741774724.777,-937.500,-937.500,-416.504,-937.500
1741774724.781,-1000.000,-1000.000,-128.906,-1000.000
1741774724.785,-220.703,-220.703,506.348,-220.703
1741774724.789,999.512,999.512,999.512,999.512
1741774724.792,949.707,950.684,402.832,950.684
1741774724.796,938.965,939.941,-454.590,939.941
1741774724.800,973.145,974.121,-576.660,973.633
1741774724.804,978.516,976.562,-195.801,978.516
1741774724.808,917.480,929.688,280.762,912.598
1741774724.299,945.312,945.801,-151.855,939.453
1741774724.303,941.406,942.383,-380.371,945.801
1741774724.307,982.422,985.352,23.438,979.980
1741774724.311,893.555,893.066,511.719,896.973
1741774724.315,999.512,999.512,170.410,999.512
1741774724.319,384.766,450.195,-578.613,345.215
1741774724.323,-993.164,-960.938,-558.105,-1000.000
1741774724.326,-1000.000,-1000.000,-333.496,-1000.000
1741774724.330,-957.031,-951.660,-238.770,-960.449
1741774724.334,-1000.000,-1000.000,-296.875,-1000.000
1741774724.338,-1000.000,-1000.000,-603.027,-1000.000
1741774724.342,-1000.000,-1000.000,-350.098,-1000.000
1741774724.299,945.312,945.801,-151.855,939.453
1741774724.303,941.406,942.383,-380.371,945.801
1741774724.307,982.422,985.352,23.438,979.980
1741774724.311,893.555,893.066,511.719,896.973
1741774724.315,999.512,999.512,170.410,999.512
1741774724.319,384.766,450.195,-578.613,345.215
1741774724.323,-993.164,-960.938,-558.105,-1000.000
1741774724.326,-1000.000,-1000.000,-333.496,-1000.000
1741774724.330,-957.031,-951.660,-238.770,-960.449
1741774724.334,-1000.000,-1000.000,-296.875,-1000.000
1741774724.338,-1000.000,-1000.000,-603.027,-1000.000
1741774724.342,-1000.000,-1000.000,-350.098,-1000.000
1741774724.344,-1000.000,-1000.000,125.977,-1000.000
1741774724.348,-1000.000,-1000.000,169.434,-1000.000
1741774724.352,-992.188,-983.398,92.285,-994.629
1741774724.356,-950.195,-965.820,-136.719,-946.777
1741774724.360,-1000.000,-1000.000,-255.859,-1000.000
1741774724.364,-79.590,51.270,396.484,-118.652
1741774724.368,999.512,999.512,999.512,999.512
1741774724.371,930.664,917.480,719.727,936.523
1741774724.375,949.707,958.984,-354.980,947.266
1741774724.379,969.727,968.750,-802.734,971.680
1741774724.383,966.797,967.773,-28.320,967.773
1741774724.387,903.320,904.297,332.520,904.297
1741774724.344,-1000.000,-1000.000,125.977,-1000.000
1741774724.348,-1000.000,-1000.000,169.434,-1000.000
1741774724.352,-992.188,-983.398,92.285,-994.629
1741774724.356,-950.195,-965.820,-136.719,-946.777
1741774724.360,-1000.000,-1000.000,-255.859,-1000.000
1741774724.364,-79.590,51.270,396.484,-118.652
1741774724.368,999.512,999.512,999.512,999.512
1741774724.371,930.664,917.480,719.727,936.523
1741774724.375,949.707,958.984,-354.980,947.266
1741774724.379,969.727,968.750,-802.734,971.680
1741774724.383,966.797,967.773,-28.320,967.773
1741774724.387,903.320,904.297,332.520,904.297
1741774724.389,999.512,999.512,-25.879,999.512
1741774724.393,186.523,187.012,-588.867,187.012
1741774724.397,-1000.000,-1000.000,-1000.000,-1000.000
1741774724.401,-983.887,-983.887,-627.930,-983.887
1741774724.405,-973.145,-973.145,-29.785,-973.145
1741774724.409,-1000.000,-1000.000,398.438,-1000.000
1741774724.413,-1000.000,-1000.000,185.547,-1000.000
1741774724.416,-1000.000,-1000.000,-625.977,-1000.000
1741774724.420,-1000.000,-1000.000,-286.621,-1000.000
1741774724.424,-1000.000,-1000.000,78.613,-1000.000
1741774724.428,-1000.000,-1000.000,-20.996,-1000.000
1741774724.432,-1000.000,-1000.000,-73.730,-999.023
1741774724.389,999.512,999.512,-25.879,999.512
1741774724.393,186.523,187.012,-588.867,187.012
1741774724.397,-1000.000,-1000.000,-1000.000,-1000.000
1741774724.401,-983.887,-983.887,-627.930,-983.887
1741774724.405,-973.145,-973.145,-29.785,-973.145
1741774724.409,-1000.000,-1000.000,398.438,-1000.000
1741774724.413,-1000.000,-1000.000,185.547,-1000.000
1741774724.416,-1000.000,-1000.000,-625.977,-1000.000
1741774724.420,-1000.000,-1000.000,-286.621,-1000.000
1741774724.424,-1000.000,-1000.000,78.613,-1000.000
1741774724.428,-1000.000,-1000.000,-20.996,-1000.000
1741774724.432,-1000.000,-1000.000,-73.730,-999.023
1741774724.450,-937.988,-937.500,-332.031,-940.430
1741774724.454,-1000.000,-1000.000,-344.238,-1000.000
1741774724.458,-217.285,-220.703,233.887,-191.406
1741774724.462,999.512,999.512,999.512,999.512
1741774724.466,949.219,950.684,596.680,946.777
1741774724.470,939.453,939.941,6.836,941.895
1741774724.474,986.328,978.516,246.094,986.816
1741774724.477,892.090,899.902,190.918,893.066
1741774724.481,999.512,999.512,-3.906,999.512
1741774724.485,466.309,265.625,-339.844,490.723
1741774724.489,-951.172,-1000.000,-981.934,-934.082
1741774724.493,-1000.000,-997.070,-682.617,-1000.000
1741774724.450,-937.988,-937.500,-332.031,-940.430
1741774724.454,-1000.000,-1000.000,-344.238,-1000.000
1741774724.458,-217.285,-220.703,233.887,-191.406
1741774724.462,999.512,999.512,999.512,999.512
1741774724.466,949.219,950.684,596.680,946.777
1741774724.470,939.453,939.941,6.836,941.895
1741774724.474,986.328,978.516,246.094,986.816
1741774724.477,892.090,899.902,190.918,893.066
1741774724.481,999.512,999.512,-3.906,999.512
1741774724.485,466.309,265.625,-339.844,490.723
1741774724.489,-951.172,-1000.000,-981.934,-934.082
1741774724.493,-1000.000,-997.070,-682.617,-1000.000
1741774724.495,-950.195,-966.797,-281.250,-948.242
1741774724.499,-1000.000,-1000.000,-319.336,-1000.000
1741774724.503,-990.723,-980.469,-276.855,-991.699
1741774724.507,-952.637,-971.680,-385.742,-951.660
1741774724.511,-1000.000,-1000.000,-238.770,-1000.000
1741774724.515,-58.594,90.820,518.066,-68.848
1741774724.519,999.512,999.512,999.512,999.512
1741774724.522,927.734,914.551,540.527,930.176
1741774724.526,951.172,961.426,-267.090,950.684
1741774724.530,969.238,968.262,-545.410,970.215
1741774724.534,976.562,978.516,-179.688,976.074
1741774724.538,893.066,894.043,369.141,895.996
1741774724.495,-950.195,-966.797,-281.250,-948.242
1741774724.499,-1000.000,-1000.000,-319.336,-1000.000
1741774724.503,-990.723,-980.469,-276.855,-991.699
1741774724.507,-952.637,-971.680,-385.742,-951.660
1741774724.511,-1000.000,-1000.000,-238.770,-1000.000
1741774724.515,-58.594,90.820,518.066,-68.848
1741774724.519,999.512,999.512,999.512,999.512
1741774724.522,927.734,914.551,540.527,930.176
1741774724.526,951.172,961.426,-267.090,950.684
1741774724.530,969.238,968.262,-545.410,970.215
1741774724.534,976.562,978.516,-179.688,976.074
1741774724.538,893.066,894.043,369.141,895.996
1741774724.539,999.512,999.512,344.727,999.512
1741774724.543,395.020,413.086,-323.242,364.258
1741774724.547,-988.281,-979.004,-924.805,-999.512
1741774724.551,-1000.000,-1000.000,-577.148,-1000.000
1741774724.555,-956.055,-954.590,7.812,-958.496
1741774724.559,-1000.000,-1000.000,443.848,-1000.000
1741774724.563,-1000.000,-1000.000,351.562,-1000.000
1741774724.566,-997.070,-995.117,-228.027,-995.117
1741774724.570,-943.359,-945.801,-153.809,-946.289
1741774724.574,-1000.000,-1000.000,139.160,-1000.000
1741774724.578,-152.344,-128.418,691.406,-130.371
1741774724.582,999.512,999.512,737.305,999.512
1741774724.539,999.512,999.512,344.727,999.512
1741774724.543,395.020,413.086,-323.242,364.258
1741774724.547,-988.281,-979.004,-924.805,-999.512
1741774724.551,-1000.000,-1000.000,-577.148,-1000.000
1741774724.555,-956.055,-954.590,7.812,-958.496
1741774724.559,-1000.000,-1000.000,443.848,-1000.000
1741774724.563,-1000.000,-1000.000,351.562,-1000.000
1741774724.566,-997.070,-995.117,-228.027,-995.117
1741774724.570,-943.359,-945.801,-153.809,-946.289
1741774724.574,-1000.000,-1000.000,139.160,-1000.000
1741774724.578,-152.344,-128.418,691.406,-130.371
1741774724.582,999.512,999.512,737.305,999.512
1741774724.586,940.430,937.988,36.621,938.965
1741774724.590,944.336,946.777,-208.008,948.730
1741774724.594,970.703,972.168,-5.371,962.891
1741774724.598,905.762,904.297,394.531,920.898
1741774724.602,999.512,999.512,125.488,999.512
1741774724.606,162.598,187.500,-733.887,41.504
1741774724.610,-1000.000,-1000.000,-757.812,-1000.000
1741774724.613,-980.469,-983.887,-386.719,-968.262
1741774724.617,-975.098,-973.145,-293.945,-982.422
1741774724.621,-1000.000,-1000.000,-456.543,-1000.000
1741774724.625,-1000.000,-1000.000,-609.375,-1000.000
1741774724.629,-1000.000,-1000.000,-173.340,-1000.000
1741774724.586,940.430,937.988,36.621,938.965
1741774724.590,944.336,946.777,-208.008,948.730
1741774724.594,970.703,972.168,-5.371,962.891
1741774724.598,905.762,904.297,394.531,920.898
1741774724.602,999.512,999.512,125.488,999.512
1741774724.606,162.598,187.500,-733.887,41.504
1741774724.610,-1000.000,-1000.000,-757.812,-1000.000
1741774724.613,-980.469,-983.887,-386.719,-968.262
1741774724.617,-975.098,-973.145,-293.945,-982.422
1741774724.621,-1000.000,-1000.000,-456.543,-1000.000
1741774724.625,-1000.000,-1000.000,-609.375,-1000.000
1741774724.629,-1000.000,-1000.000,-173.340,-1000.000
1741774724.630,-1000.000,-1000.000,167.480,-1000.000
1741774724.634,-1000.000,-1000.000,174.316,-1000.000
1741774724.638,-935.059,-937.988,18.066,-931.641
1741774724.642,-1000.000,-1000.000,-196.777,-1000.000
1741774724.646,-259.766,-216.797,146.484,-327.637
1741774724.650,999.512,999.512,838.379,998.535
1741774724.654,956.055,950.195,999.512,968.750
1741774724.657,936.035,939.941,735.840,931.152
1741774724.661,974.121,973.633,-242.676,976.562
1741774724.665,977.051,979.004,-588.867,977.539
1741774724.669,924.805,918.457,83.496,924.805
1741774724.673,985.352,999.512,289.062,989.258
1741774724.675,935.547,873.047,-234.375,919.434
1741774724.679,-407.227,-500.977,-864.746,-418.945
1741774724.683,-1000.000,-1000.000,-889.160,-1000.000
1741774724.687,-933.594,-934.082,-328.613,-935.547
1741774724.691,-1000.000,-1000.000,114.746,-1000.000
1741774724.695,-1000.000,-1000.000,444.824,-1000.000
1741774724.699,-1000.000,-1000.000,189.941,-1000.000
1741774724.702,-1000.000,-1000.000,-416.016,-1000.000
1741774724.706,-1000.000,-1000.000,-153.320,-1000.000
1741774724.710,-1000.000,-1000.000,266.113,-1000.000
1741774724.714,-1000.000,-1000.000,172.363,-1000.000
1741774724.718,-985.352,-985.352,-268.555,-984.863
1741774724.675,935.547,873.047,-234.375,919.434
1741774724.679,-407.227,-500.977,-864.746,-418.945
1741774724.683,-1000.000,-1000.000,-889.160,-1000.000
1741774724.687,-933.594,-934.082,-328.613,-935.547
1741774724.691,-1000.000,-1000.000,114.746,-1000.000
1741774724.695,-1000.000,-1000.000,444.824,-1000.000
1741774724.699,-1000.000,-1000.000,189.941,-1000.000
1741774724.702,-1000.000,-1000.000,-416.016,-1000.000
1741774724.706,-1000.000,-1000.000,-153.320,-1000.000
1741774724.710,-1000.000,-1000.000,266.113,-1000.000
1741774724.714,-1000.000,-1000.000,172.363,-1000.000
1741774724.718,-985.352,-985.352,-268.555,-984.863
1741774724.720,-961.914,-961.426,-362.793,-963.379
1741774724.724,-1000.000,-1000.000,-80.566,-1000.000
1741774724.728,24.902,20.508,449.707,25.391
1741774724.732,999.512,999.512,999.512,999.512
1741774724.736,918.457,919.922,356.445,920.410
1741774724.740,957.031,957.520,44.434,957.520
1741774724.744,968.262,969.238,600.586,970.703
1741774724.747,903.320,904.297,444.336,902.832
1741774724.751,999.512,999.512,-9.277,999.512
1741774724.755,187.012,187.500,-578.613,208.984
1741774724.759,-1000.000,-1000.000,-965.332,-1000.000
1741774724.763,-983.887,-983.887,-297.363,-987.305
1741774724.825,999.512,975.098,63.477,999.512
1741774724.829,874.512,967.285,-277.832,753.906
1741774724.833,-501.465,-350.586,-620.117,-622.070
1741774724.837,-1000.000,-1000.000,-759.766,-1000.000
1741774724.841,-933.594,-934.570,-325.195,-939.453
1741774724.845,-1000.000,-1000.000,-20.508,-1000.000
1741774724.849,-1000.000,-1000.000,-50.781,-1000.000
1741774724.852,-992.676,-984.863,-222.168,-992.188
1741774724.856,-949.219,-962.891,-213.379,-950.684
1741774724.860,-1000.000,-1000.000,-51.270,-1000.000
1741774724.864,-86.914,27.832,372.559,-83.984
1741774724.868,999.512,999.512,222.656,999.512
1741774724.825,999.512,975.098,63.477,999.512
1741774724.829,874.512,967.285,-277.832,753.906
1741774724.833,-501.465,-350.586,-620.117,-622.070
1741774724.837,-1000.000,-1000.000,-759.766,-1000.000
1741774724.841,-933.594,-934.570,-325.195,-939.453
1741774724.845,-1000.000,-1000.000,-20.508,-1000.000
1741774724.849,-1000.000,-1000.000,-50.781,-1000.000
1741774724.852,-992.676,-984.863,-222.168,-992.188
1741774724.856,-949.219,-962.891,-213.379,-950.684
1741774724.860,-1000.000,-1000.000,-51.270,-1000.000
1741774724.864,-86.914,27.832,372.559,-83.984
1741774724.868,999.512,999.512,222.656,999.512
1741774724.870,931.152,919.922,-200.684,932.129
1741774724.874,949.219,957.520,-85.449,949.707
1741774724.878,969.727,968.750,230.957,970.703
1741774724.882,966.309,966.797,378.906,966.797
1741774724.886,966.309,966.797,-72.266,966.797
1741774724.890,981.445,980.957,-158.203,981.445
1741774724.894,900.879,894.531,224.609,906.738
1741774724.897,999.512,999.512,121.094,999.512
1741774724.901,697.266,531.738,-137.695,759.277
1741774724.905,-742.188,-897.461,-735.352,-662.598
1741774724.909,-1000.000,-1000.000,-929.688,-1000.000
1741774724.913,-937.012,-946.289,-280.762,-935.059
1741774724.870,931.152,919.922,-200.684,932.129
1741774724.874,949.219,957.520,-85.449,949.707
1741774724.878,969.727,968.750,230.957,970.703
1741774724.882,966.309,966.797,378.906,966.797
1741774724.886,966.309,966.797,-72.266,966.797
1741774724.890,981.445,980.957,-158.203,981.445
1741774724.894,900.879,894.531,224.609,906.738
1741774724.897,999.512,999.512,121.094,999.512
1741774724.901,697.266,531.738,-137.695,759.277
1741774724.905,-742.188,-897.461,-735.352,-662.598
1741774724.909,-1000.000,-1000.000,-929.688,-1000.000
1741774724.913,-937.012,-946.289,-280.762,-935.059
1741774724.915,-1000.000,-1000.000,247.070,-1000.000
1741774724.919,-1000.000,-1000.000,191.895,-1000.000
1741774724.923,-1000.000,-1000.000,-189.453,-1000.000
1741774724.927,-937.500,-937.500,-103.516,-939.453
1741774724.931,-1000.000,-1000.000,267.090,-1000.000
1741774724.935,-220.703,-219.727,620.117,-201.172
1741774724.939,999.512,999.512,990.234,999.512
1741774724.942,949.707,950.684,788.574,947.754
1741774724.946,938.965,939.453,17.090,940.918
1741774724.950,973.633,974.121,-239.258,974.609
1741774724.954,963.379,965.820,270.508,959.473
1741774724.958,908.691,907.227,510.742,917.480
1741774724.959,999.512,999.512,8.301,999.512
1741774724.963,126.953,153.320,-727.539,64.453
1741774724.967,-1000.000,-1000.000,-924.805,-1000.000
1741774724.971,-975.586,-979.004,-377.930,-969.238
1741774724.975,-977.539,-975.586,135.254,-981.445
1741774724.979,-1000.000,-1000.000,4.883,-1000.000
1741774724.983,-933.105,-928.223,-74.707,-935.547
1741774724.986,-1000.000,-1000.000,66.406,-1000.000
1741774724.990,-710.938,-577.148,214.844,-728.516
1741774724.994,733.887,853.027,791.992,703.125
1741774724.998,999.512,999.512,674.316,999.512
1741774725.002,903.320,912.109,-29.297,904.297
1741774724.959,999.512,999.512,8.301,999.512
1741774724.963,126.953,153.320,-727.539,64.453
1741774724.967,-1000.000,-1000.000,-924.805,-1000.000
1741774724.971,-975.586,-979.004,-377.930,-969.238
1741774724.975,-977.539,-975.586,135.254,-981.445
1741774724.979,-1000.000,-1000.000,4.883,-1000.000
1741774724.983,-933.105,-928.223,-74.707,-935.547
1741774724.986,-1000.000,-1000.000,66.406,-1000.000
1741774724.990,-710.938,-577.148,214.844,-728.516
1741774724.994,733.887,853.027,791.992,703.125
1741774724.998,999.512,999.512,674.316,999.512
1741774725.002,903.320,912.109,-29.297,904.297
1741774725.004,981.445,981.934,-37.598,981.445
1741774725.008,966.309,967.285,45.898,967.285
1741774725.012,966.309,967.285,130.371,966.797
1741774725.016,966.309,967.285,203.125,966.797
1741774725.020,978.027,969.727,-229.492,980.957
1741774725.024,892.578,901.855,-38.086,892.578
1741774725.028,999.512,999.512,501.465,999.512
1741774725.031,421.387,229.004,208.008,495.605
