timestamps,TP9,AF7,AF8,TP10
1741776629.201,-1000.000,-1000.000,361.328,-1000.000
1741776629.205,-968.262,-933.594,411.133,-969.727
1741776629.209,-993.652,-1000.000,339.844,-992.676
1741776629.213,-1000.000,-568.848,229.492,-1000.000
1741776629.217,246.582,838.867,130.371,219.238
1741776629.221,999.512,999.512,238.281,999.512
1741776629.225,899.902,925.293,392.090,906.250
1741776629.228,969.727,919.434,317.871,968.262
1741776629.232,982.422,999.512,187.012,983.887
1741776629.236,908.691,665.527,170.410,910.645
1741776629.240,999.512,-760.254,240.234,999.512
1741776629.244,857.422,-1000.000,282.227,870.117
1741776629.250,-597.656,-937.012,305.664,-578.125
1741776629.254,-1000.000,-1000.000,112.793,-1000.000
1741776629.258,-925.781,-958.496,19.531,-925.781
1741776629.262,-1000.000,-1000.000,112.305,-1000.000
1741776629.266,-1000.000,-998.047,165.039,-1000.000
1741776629.270,-942.383,366.699,112.793,-940.430
1741776629.274,-1000.000,999.512,33.691,-1000.000
1741776629.277,-887.207,895.996,-0.977,-864.258
1741776629.281,568.848,976.074,-45.410,596.680
1741776629.285,999.512,967.285,132.324,999.512
1741776629.289,892.090,979.980,232.910,893.555
1741776629.293,987.793,919.922,118.652,988.770
1741776629.250,-597.656,-937.012,305.664,-578.125
1741776629.254,-1000.000,-1000.000,112.793,-1000.000
1741776629.258,-925.781,-958.496,19.531,-925.781
1741776629.262,-1000.000,-1000.000,112.305,-1000.000
1741776629.266,-1000.000,-998.047,165.039,-1000.000
1741776629.270,-942.383,366.699,112.793,-940.430
1741776629.274,-1000.000,999.512,33.691,-1000.000
1741776629.277,-887.207,895.996,-0.977,-864.258
1741776629.281,568.848,976.074,-45.410,596.680
1741776629.285,999.512,967.285,132.324,999.512
1741776629.289,892.090,979.980,232.910,893.555
1741776629.293,987.793,919.922,118.652,988.770
1741776629.294,945.801,994.141,38.574,947.266
1741776629.298,938.965,932.617,57.617,940.430
1741776629.302,999.512,-466.797,174.805,999.512
1741776629.306,-112.793,-1000.000,229.492,-88.379
1741776629.310,-1000.000,-944.336,35.156,-1000.000
1741776629.314,-951.172,-1000.000,-102.051,-957.520
1741776629.318,-993.164,-712.891,-74.219,-990.723
1741776629.321,-1000.000,-858.887,-38.086,-1000.000
1741776629.325,-942.383,-1000.000,43.945,-942.383
1741776629.329,-1000.000,-1000.000,-10.254,-1000.000
1741776629.333,-891.113,84.473,-156.738,-889.648
1741776629.337,563.477,999.512,-166.504,566.406
1741776629.294,945.801,994.141,38.574,947.266
1741776629.298,938.965,932.617,57.617,940.430
1741776629.302,999.512,-466.797,174.805,999.512
1741776629.306,-112.793,-1000.000,229.492,-88.379
1741776629.310,-1000.000,-944.336,35.156,-1000.000
1741776629.314,-951.172,-1000.000,-102.051,-957.520
1741776629.318,-993.164,-712.891,-74.219,-990.723
1741776629.321,-1000.000,-858.887,-38.086,-1000.000
1741776629.325,-942.383,-1000.000,43.945,-942.383
1741776629.329,-1000.000,-1000.000,-10.254,-1000.000
1741776629.333,-891.113,84.473,-156.738,-889.648
1741776629.337,563.477,999.512,-166.504,566.406
1741776629.351,999.512,920.410,78.613,999.512
1741776629.355,891.602,968.262,285.156,892.090
1741776629.359,981.934,938.477,253.906,982.910
1741776629.363,979.980,960.938,125.488,980.957
1741776629.367,917.969,999.512,153.320,917.480
1741776629.371,996.094,-261.719,272.949,999.512
1741776629.375,927.734,-1000.000,362.305,916.016
1741776629.378,-479.980,-938.965,412.109,-499.023
1741776629.382,-1000.000,-1000.000,187.988,-1000.000
1741776629.386,-927.246,-1000.000,75.195,-927.246
1741776629.390,-950.195,-937.500,254.395,-950.684
1741776629.394,-1000.000,-1000.000,369.629,-1000.000
1741776629.351,999.512,920.410,78.613,999.512
1741776629.355,891.602,968.262,285.156,892.090
1741776629.359,981.934,938.477,253.906,982.910
1741776629.363,979.980,960.938,125.488,980.957
1741776629.367,917.969,999.512,153.320,917.480
1741776629.371,996.094,-261.719,272.949,999.512
1741776629.375,927.734,-1000.000,362.305,916.016
1741776629.378,-479.980,-938.965,412.109,-499.023
1741776629.382,-1000.000,-1000.000,187.988,-1000.000
1741776629.386,-927.246,-1000.000,75.195,-927.246
1741776629.390,-950.195,-937.500,254.395,-950.684
1741776629.394,-1000.000,-1000.000,369.629,-1000.000
1741776629.399,-204.102,-259.277,242.676,-205.078
1741776629.403,976.074,999.512,210.449,972.656
1741776629.407,999.512,965.332,322.266,999.512
1741776629.411,791.016,-389.160,354.004,665.527
1741776629.415,-640.625,-1000.000,260.254,-749.512
1741776629.419,-1000.000,-930.664,160.156,-1000.000
1741776629.423,-927.246,-1000.000,199.707,-935.059
1741776629.426,-1000.000,-986.816,287.598,-1000.000
1741776629.430,-927.246,-964.355,339.844,-929.199
1741776629.434,-1000.000,-1000.000,227.051,-1000.000
1741776629.438,-638.672,-48.340,87.402,-660.645
1741776629.442,823.242,999.512,83.496,798.828
1741776629.399,-204.102,-259.277,242.676,-205.078
1741776629.403,976.074,999.512,210.449,972.656
1741776629.407,999.512,965.332,322.266,999.512
1741776629.411,791.016,-389.160,354.004,665.527
1741776629.415,-640.625,-1000.000,260.254,-749.512
1741776629.419,-1000.000,-930.664,160.156,-1000.000
1741776629.423,-927.246,-1000.000,199.707,-935.059
1741776629.426,-1000.000,-986.816,287.598,-1000.000
1741776629.430,-927.246,-964.355,339.844,-929.199
1741776629.434,-1000.000,-1000.000,227.051,-1000.000
1741776629.438,-638.672,-48.340,87.402,-660.645
1741776629.442,823.242,999.512,83.496,798.828
1741776629.441,999.512,937.500,238.770,999.512
1741776629.445,905.762,950.684,238.770,904.785
1741776629.449,982.910,972.168,66.895,983.887
1741776629.453,982.422,983.398,16.602,982.910
1741776629.457,908.691,909.180,70.312,911.133
1741776629.461,999.512,999.512,90.332,999.512
1741776629.465,856.934,856.445,135.254,871.582
1741776629.468,-597.656,-599.121,215.820,-576.172
1741776629.472,-1000.000,-1000.000,73.242,-1000.000
1741776629.476,-925.781,-937.012,-28.809,-925.781
1741776629.480,-1000.000,-975.586,48.828,-1000.000
1741776629.484,-958.008,-1000.000,92.773,-956.055
1741776629.441,999.512,937.500,238.770,999.512
1741776629.445,905.762,950.684,238.770,904.785
1741776629.449,982.910,972.168,66.895,983.887
1741776629.453,982.422,983.398,16.602,982.910
1741776629.457,908.691,909.180,70.312,911.133
1741776629.461,999.512,999.512,90.332,999.512
1741776629.465,856.934,856.445,135.254,871.582
1741776629.468,-597.656,-599.121,215.820,-576.172
1741776629.472,-1000.000,-1000.000,73.242,-1000.000
1741776629.476,-925.781,-937.012,-28.809,-925.781
1741776629.480,-1000.000,-975.586,48.828,-1000.000
1741776629.484,-958.008,-1000.000,92.773,-956.055
1741776629.487,-1000.000,-1000.000,43.457,-1000.000
1741776629.491,-999.023,355.469,-3.418,-983.887
1741776629.495,371.582,999.512,-29.297,395.508
1741776629.499,999.512,896.484,145.020,999.512
1741776629.503,894.043,984.863,308.105,895.020
1741776629.507,976.074,931.641,191.406,977.051
1741776629.511,983.887,968.262,0.977,982.910
1741776629.514,896.973,994.629,-4.395,899.414
1741776629.518,999.512,-315.430,111.328,999.512
1741776629.522,712.891,-1000.000,224.609,690.430
1741776629.526,-765.625,-934.570,233.887,-770.508
1741776629.530,-1000.000,-1000.000,33.203,-1000.000
1741776629.487,-1000.000,-1000.000,43.457,-1000.000
1741776629.491,-999.023,355.469,-3.418,-983.887
1741776629.495,371.582,999.512,-29.297,395.508
1741776629.499,999.512,896.484,145.020,999.512
1741776629.503,894.043,984.863,308.105,895.020
1741776629.507,976.074,931.641,191.406,977.051
1741776629.511,983.887,968.262,0.977,982.910
1741776629.514,896.973,994.629,-4.395,899.414
1741776629.518,999.512,-315.430,111.328,999.512
1741776629.522,712.891,-1000.000,224.609,690.430
1741776629.526,-765.625,-934.570,233.887,-770.508
1741776629.530,-1000.000,-1000.000,33.203,-1000.000
1741776629.546,-932.129,-1000.000,-31.250,-934.082
1741776629.550,-1000.000,-930.664,11.719,-1000.000
1741776629.554,-970.703,-1000.000,48.340,-972.656
1741776629.558,-988.770,-730.957,41.504,-987.793
1741776629.562,-1000.000,743.164,-143.066,-1000.000
1741776629.566,216.797,999.512,-185.059,181.152
1741776629.570,999.512,900.391,-27.832,999.512
1741776629.573,901.855,987.305,169.434,909.668
1741776629.577,968.262,962.891,175.293,965.820
1741776629.581,982.422,918.457,22.461,984.375
1741776629.585,908.691,999.512,-30.762,908.691
1741776629.589,999.512,186.035,31.738,999.512
1741776629.546,-932.129,-1000.000,-31.250,-934.082
1741776629.550,-1000.000,-930.664,11.719,-1000.000
1741776629.554,-970.703,-1000.000,48.340,-972.656
1741776629.558,-988.770,-730.957,41.504,-987.793
1741776629.562,-1000.000,743.164,-143.066,-1000.000
1741776629.566,216.797,999.512,-185.059,181.152
1741776629.570,999.512,900.391,-27.832,999.512
1741776629.573,901.855,987.305,169.434,909.668
1741776629.577,968.262,962.891,175.293,965.820
1741776629.581,982.422,918.457,22.461,984.375
1741776629.585,908.691,999.512,-30.762,908.691
1741776629.589,999.512,186.035,31.738,999.512
1741776629.591,856.934,-1000.000,97.656,852.051
1741776629.595,-600.586,-1000.000,127.441,-609.375
1741776629.599,-1000.000,-915.527,-67.871,-1000.000
1741776629.603,-876.953,-1000.000,-151.367,-888.184
1741776629.607,-1000.000,-909.668,-34.668,-1000.000
1741776629.611,-152.832,535.156,-5.859,-63.965
1741776629.615,999.512,999.512,27.344,999.512
1741776629.618,947.754,898.926,11.719,939.941
1741776629.622,957.520,958.984,-14.648,961.914
1741776629.626,899.902,946.777,59.082,902.344
1741776629.630,999.512,999.512,196.289,999.512
1741776629.634,555.176,-136.719,303.711,522.461
1741776629.591,856.934,-1000.000,97.656,852.051
1741776629.595,-600.586,-1000.000,127.441,-609.375
1741776629.599,-1000.000,-915.527,-67.871,-1000.000
1741776629.603,-876.953,-1000.000,-151.367,-888.184
1741776629.607,-1000.000,-909.668,-34.668,-1000.000
1741776629.611,-152.832,535.156,-5.859,-63.965
1741776629.615,999.512,999.512,27.344,999.512
1741776629.618,947.754,898.926,11.719,939.941
1741776629.622,957.520,958.984,-14.648,961.914
1741776629.626,899.902,946.777,59.082,902.344
1741776629.630,999.512,999.512,196.289,999.512
1741776629.634,555.176,-136.719,303.711,522.461
1741776629.636,-887.695,-1000.000,157.715,-896.484
1741776629.640,-1000.000,-905.273,-48.340,-1000.000
1741776629.644,-943.359,-1000.000,-43.457,-945.801
1741776629.648,-1000.000,-965.820,64.453,-1000.000
1741776629.652,-983.398,433.105,66.895,-978.027
1741776629.656,-967.773,999.512,-22.949,-979.492
1741776629.660,-1000.000,880.371,-54.688,-1000.000
1741776629.663,27.832,946.777,-73.730,92.285
1741776629.667,999.512,911.621,29.785,999.512
1741776629.671,863.770,999.512,159.180,863.770
1741776629.675,999.512,902.832,42.480,999.512
1741776629.679,839.844,-518.066,-27.344,662.598
1741776629.636,-887.695,-1000.000,157.715,-896.484
1741776629.640,-1000.000,-905.273,-48.340,-1000.000
1741776629.644,-943.359,-1000.000,-43.457,-945.801
1741776629.648,-1000.000,-965.820,64.453,-1000.000
1741776629.652,-983.398,433.105,66.895,-978.027
1741776629.656,-967.773,999.512,-22.949,-979.492
1741776629.660,-1000.000,880.371,-54.688,-1000.000
1741776629.663,27.832,946.777,-73.730,92.285
1741776629.667,999.512,911.621,29.785,999.512
1741776629.671,863.770,999.512,159.180,863.770
1741776629.675,999.512,902.832,42.480,999.512
1741776629.679,839.844,-518.066,-27.344,662.598
1741776629.684,-624.023,-1000.000,34.668,-738.770
1741776629.688,-1000.000,-937.500,12.695,-1000.000
1741776629.692,-925.781,-973.145,37.598,-936.035
1741776629.696,-960.449,-1000.000,-63.477,-961.426
1741776629.700,-1000.000,-1000.000,-239.258,-1000.000
1741776629.704,-258.301,353.516,-309.082,-230.957
1741776629.708,990.723,999.512,-232.910,996.094
1741776629.711,964.355,909.180,-32.227,961.426
1741776629.715,934.570,930.664,-68.359,937.500
1741776629.719,990.723,989.746,-185.059,990.723
1741776629.723,910.645,945.312,-124.512,911.621
1741776629.727,999.512,-441.406,12.695,999.512
1741776630.192,-1000.000,-1000.000,17.578,-1000.000
1741776630.196,-925.781,-931.641,-26.367,-926.270
1741776630.200,-1000.000,-1000.000,60.059,-1000.000
1741776630.204,-980.469,-739.746,228.027,-979.492
1741776630.208,-972.656,733.398,226.562,-975.586
1741776630.212,-1000.000,999.512,77.637,-1000.000
1741776630.216,74.219,899.902,-48.340,71.777
1741776630.219,999.512,996.582,20.508,999.512
1741776630.223,917.480,923.828,213.379,921.875
1741776630.227,958.984,985.840,207.031,958.496
1741776630.231,984.863,954.102,45.410,985.840
1741776630.235,908.691,-419.434,-12.695,909.668
1741776629.726,872.070,-1000.000,121.094,878.418
1741776629.730,-590.820,-879.883,115.723,-579.590
1741776629.734,-1000.000,-1000.000,-211.426,-1000.000
1741776629.738,-979.492,-959.961,-360.352,-998.047
1741776629.742,-906.250,444.336,-311.035,-784.668
1741776629.746,563.965,999.512,-244.141,666.504
1741776629.750,999.512,903.809,-87.402,999.512
1741776629.753,906.738,914.062,-186.035,914.551
1741776629.757,929.688,999.512,-222.656,932.129
1741776629.761,999.512,491.211,-113.770,999.512
1741776629.765,897.949,-894.531,-26.855,910.645
1741776629.769,-534.180,-1000.000,54.688,-509.277
1741776629.726,872.070,-1000.000,121.094,878.418
1741776629.730,-590.820,-879.883,115.723,-579.590
1741776629.734,-1000.000,-1000.000,-211.426,-1000.000
1741776629.738,-979.492,-959.961,-360.352,-998.047
1741776629.742,-906.250,444.336,-311.035,-784.668
1741776629.746,563.965,999.512,-244.141,666.504
1741776629.750,999.512,903.809,-87.402,999.512
1741776629.753,906.738,914.062,-186.035,914.551
1741776629.757,929.688,999.512,-222.656,932.129
1741776629.761,999.512,491.211,-113.770,999.512
1741776629.765,897.949,-894.531,-26.855,910.645
1741776629.769,-534.180,-1000.000,54.688,-509.277
1741776629.772,-1000.000,-948.242,-66.895,-1000.000
1741776629.776,-925.781,-1000.000,-220.703,-926.270
1741776629.780,-1000.000,-948.730,-205.566,-1000.000
1741776629.784,-991.699,-1000.000,-110.352,-994.141
1741776629.788,-955.078,-938.477,-22.949,-953.125
1741776629.792,-1000.000,485.840,-108.398,-1000.000
1741776629.796,-113.281,999.512,-239.258,-172.363
1741776629.799,999.512,905.762,-221.680,999.512
1741776629.803,942.383,934.570,5.859,952.637
1741776629.807,945.801,992.676,151.367,940.918
1741776629.811,972.168,938.477,44.922,982.910
1741776629.815,983.887,-455.078,-60.059,910.156
1741776629.772,-1000.000,-948.242,-66.895,-1000.000
1741776629.776,-925.781,-1000.000,-220.703,-926.270
1741776629.780,-1000.000,-948.730,-205.566,-1000.000
1741776629.784,-991.699,-1000.000,-110.352,-994.141
1741776629.788,-955.078,-938.477,-22.949,-953.125
1741776629.792,-1000.000,485.840,-108.398,-1000.000
1741776629.796,-113.281,999.512,-239.258,-172.363
1741776629.799,999.512,905.762,-221.680,999.512
1741776629.803,942.383,934.570,5.859,952.637
1741776629.807,945.801,992.676,151.367,940.918
1741776629.811,972.168,938.477,44.922,982.910
1741776629.815,983.887,-455.078,-60.059,910.156
1741776629.816,900.391,-1000.000,-95.215,846.680
1741776629.820,999.512,-927.734,-57.129,999.512
1741776629.824,751.953,-1000.000,36.133,704.590
1741776629.828,-681.152,-931.152,-27.344,-698.730
1741776629.832,-1000.000,-1000.000,-200.195,-1000.000
1741776629.836,-969.238,-656.250,-191.895,-921.387
1741776629.840,257.812,790.527,-161.621,361.328
1741776629.843,999.512,999.512,-51.270,999.512
1741776629.847,898.438,881.836,-39.062,896.484
1741776629.851,989.258,963.379,-212.891,992.188
1741776629.855,896.484,999.512,-184.082,899.414
1741776629.859,999.512,-147.461,2.441,999.512
1741776629.816,900.391,-1000.000,-95.215,846.680
1741776629.820,999.512,-927.734,-57.129,999.512
1741776629.824,751.953,-1000.000,36.133,704.590
1741776629.828,-681.152,-931.152,-27.344,-698.730
1741776629.832,-1000.000,-1000.000,-200.195,-1000.000
1741776629.836,-969.238,-656.250,-191.895,-921.387
1741776629.840,257.812,790.527,-161.621,361.328
1741776629.843,999.512,999.512,-51.270,999.512
1741776629.847,898.438,881.836,-39.062,896.484
1741776629.851,989.258,963.379,-212.891,992.188
1741776629.855,896.484,999.512,-184.082,899.414
1741776629.859,999.512,-147.461,2.441,999.512
1741776629.863,700.684,-1000.000,131.348,679.199
1741776629.867,-777.832,-963.379,49.805,-778.809
1741776629.871,-1000.000,-950.195,-165.527,-1000.000
1741776629.875,-933.105,-1000.000,-167.480,-935.547
1741776629.879,-1000.000,-1000.000,-39.551,-1000.000
1741776629.883,-1000.000,400.879,-46.875,-1000.000
1741776629.887,-957.520,999.512,-71.777,-949.707
1741776629.890,-1000.000,-443.359,-54.199,-1000.000
1741776629.894,-997.070,-1000.000,36.133,-966.309
1741776629.898,376.953,402.344,41.016,429.688
1741776629.902,999.512,999.512,140.625,999.512
1741776629.906,894.043,912.598,240.723,894.043
1741776629.863,700.684,-1000.000,131.348,679.199
1741776629.867,-777.832,-963.379,49.805,-778.809
1741776629.871,-1000.000,-950.195,-165.527,-1000.000
1741776629.875,-933.105,-1000.000,-167.480,-935.547
1741776629.879,-1000.000,-1000.000,-39.551,-1000.000
1741776629.883,-1000.000,400.879,-46.875,-1000.000
1741776629.887,-957.520,999.512,-71.777,-949.707
1741776629.890,-1000.000,-443.359,-54.199,-1000.000
1741776629.894,-997.070,-1000.000,36.133,-966.309
1741776629.898,376.953,402.344,41.016,429.688
1741776629.902,999.512,999.512,140.625,999.512
1741776629.906,894.043,912.598,240.723,894.043
1741776629.921,978.027,913.574,121.094,981.934
1741776629.925,962.402,999.512,48.340,958.008
1741776629.929,915.039,799.316,134.277,924.316
1741776629.933,999.512,-659.668,211.426,999.512
1741776629.937,156.250,-1000.000,175.781,90.332
1741776629.941,-1000.000,-928.711,33.203,-1000.000
1741776629.945,-987.305,-1000.000,-54.199,-980.957
1741776629.948,-974.121,-1000.000,-41.504,-978.027
1741776629.952,-1000.000,-1000.000,18.066,-1000.000
1741776629.956,-942.383,-934.082,64.941,-942.383
1741776629.960,-1000.000,-1000.000,-31.250,-1000.000
1741776629.964,-891.113,-778.809,-124.023,-891.113
1741776629.966,563.477,691.895,-232.910,564.453
1741776629.970,999.512,999.512,-102.051,999.512
1741776629.974,891.602,897.949,1.953,892.578
1741776629.978,985.352,999.512,-128.906,986.816
1741776629.982,956.543,912.109,-206.543,956.055
1741776629.986,922.363,999.512,-114.258,926.270
1741776629.990,999.512,880.371,21.973,999.512
1741776629.993,63.965,-562.500,162.109,54.199
1741776629.997,-1000.000,-1000.000,73.730,-1000.000
1741776630.001,-974.121,-925.781,-141.113,-975.098
1741776630.005,-980.957,-1000.000,-126.953,-980.957
1741776630.009,-1000.000,-940.918,-25.879,-1000.000
1741776629.966,563.477,691.895,-232.910,564.453
1741776629.970,999.512,999.512,-102.051,999.512
1741776629.974,891.602,897.949,1.953,892.578
1741776629.978,985.352,999.512,-128.906,986.816
1741776629.982,956.543,912.109,-206.543,956.055
1741776629.986,922.363,999.512,-114.258,926.270
1741776629.990,999.512,880.371,21.973,999.512
1741776629.993,63.965,-562.500,162.109,54.199
1741776629.997,-1000.000,-1000.000,73.730,-1000.000
1741776630.001,-974.121,-925.781,-141.113,-975.098
1741776630.005,-980.957,-1000.000,-126.953,-980.957
1741776630.009,-1000.000,-940.918,-25.879,-1000.000
1741776630.477,929.199,850.586,-134.766,941.895
1741776630.481,912.109,999.512,-105.957,913.086
1741776630.485,999.512,871.094,-1.953,999.512
1741776630.489,712.402,-576.660,149.414,579.590
1741776630.493,-766.113,-1000.000,46.387,-831.055
1741776630.497,-1000.000,-925.781,-119.141,-1000.000
1741776630.501,-932.129,-1000.000,-84.961,-942.383
1741776630.504,-1000.000,-1000.000,-4.883,-1000.000
1741776630.508,-942.383,-933.105,-7.812,-942.383
1741776630.512,-1000.000,-1000.000,-70.801,-1000.000
1741776630.516,-891.113,-715.332,-129.883,-891.113
1741776630.520,563.965,749.512,-187.500,564.453
1741776630.011,-956.543,-1000.000,93.262,-956.055
1741776630.015,-1000.000,-872.559,32.715,-1000.000
1741776630.019,-989.258,586.426,-180.176,-981.445
1741776630.023,393.066,999.512,-254.883,400.879
1741776630.027,999.512,908.203,-49.805,999.512
1741776630.031,893.555,930.664,128.906,894.531
1741776630.035,976.562,999.512,24.414,977.539
1741776630.038,982.422,894.531,-110.352,983.398
1741776630.042,908.691,-536.621,-30.762,909.180
1741776630.046,999.512,-1000.000,-7.324,999.512
1741776630.050,856.934,-925.781,56.152,856.445
1741776630.054,-597.656,-1000.000,146.484,-599.609
1741776630.011,-956.543,-1000.000,93.262,-956.055
1741776630.015,-1000.000,-872.559,32.715,-1000.000
1741776630.019,-989.258,586.426,-180.176,-981.445
1741776630.023,393.066,999.512,-254.883,400.879
1741776630.027,999.512,908.203,-49.805,999.512
1741776630.031,893.555,930.664,128.906,894.531
1741776630.035,976.562,999.512,24.414,977.539
1741776630.038,982.422,894.531,-110.352,983.398
1741776630.042,908.691,-536.621,-30.762,909.180
1741776630.046,999.512,-1000.000,-7.324,999.512
1741776630.050,856.934,-925.781,56.152,856.445
1741776630.054,-597.656,-1000.000,146.484,-599.609
1741776630.057,-1000.000,-1000.000,-82.031,-1000.000
1741776630.061,-925.781,-1000.000,-220.215,-925.781
1741776630.065,-1000.000,-953.125,-54.688,-1000.000
1741776630.069,-965.820,-1000.000,51.270,-966.309
1741776630.073,-999.023,-967.285,0.488,-999.023
1741776630.077,-1000.000,432.129,-153.320,-1000.000
1741776630.081,278.320,999.512,-249.512,268.066
1741776630.084,999.512,906.738,-151.367,999.512
1741776630.088,914.551,932.617,-47.852,913.574
1741776630.092,900.391,991.699,-71.777,908.203
1741776630.096,999.512,940.918,-397.949,999.512
1741776630.100,644.531,-450.684,-492.676,613.770
1741776630.057,-1000.000,-1000.000,-82.031,-1000.000
1741776630.061,-925.781,-1000.000,-220.215,-925.781
1741776630.065,-1000.000,-953.125,-54.688,-1000.000
1741776630.069,-965.820,-1000.000,51.270,-966.309
1741776630.073,-999.023,-967.285,0.488,-999.023
1741776630.077,-1000.000,432.129,-153.320,-1000.000
1741776630.081,278.320,999.512,-249.512,268.066
1741776630.084,999.512,906.738,-151.367,999.512
1741776630.088,914.551,932.617,-47.852,913.574
1741776630.092,900.391,991.699,-71.777,908.203
1741776630.096,999.512,940.918,-397.949,999.512
1741776630.100,644.531,-450.684,-492.676,613.770
1741776630.101,-821.777,-1000.000,-281.738,-799.805
1741776630.105,-1000.000,-857.910,-276.367,-1000.000
1741776630.109,-885.254,-1000.000,-253.418,-887.695
1741776630.113,-1000.000,-679.199,-252.930,-1000.000
1741776630.117,-791.504,794.922,-302.246,-781.250
1741776630.121,613.770,985.840,-317.871,613.281
1741776630.125,996.582,949.707,-156.250,999.512
1741776630.128,999.512,898.926,-75.684,999.512
1741776630.132,607.910,-558.105,-113.770,367.188
1741776630.136,-862.793,-1000.000,-107.422,-953.125
1741776630.140,-1000.000,-926.758,-146.973,-1000.000
1741776630.144,-957.031,-1000.000,-54.688,-975.098
1741776630.147,-958.008,-936.523,68.848,-952.637
1741776630.151,-1000.000,-1000.000,6.348,-1000.000
1741776630.155,-878.418,-482.910,-135.742,-873.535
1741776630.159,580.566,893.555,-201.172,586.426
1741776630.163,999.512,963.867,-81.543,999.512
1741776630.167,892.090,932.617,10.254,893.066
1741776630.171,982.422,979.004,-104.492,983.398
1741776630.174,982.422,-396.973,-184.570,983.398
1741776630.178,908.691,-1000.000,-128.906,908.203
1741776630.182,999.512,-929.199,-9.277,999.512
1741776630.186,856.934,-1000.000,141.602,848.145
1741776630.190,-597.656,-1000.000,164.551,-609.863
1741776630.147,-958.008,-936.523,68.848,-952.637
1741776630.151,-1000.000,-1000.000,6.348,-1000.000
1741776630.155,-878.418,-482.910,-135.742,-873.535
1741776630.159,580.566,893.555,-201.172,586.426
1741776630.163,999.512,963.867,-81.543,999.512
1741776630.167,892.090,932.617,10.254,893.066
1741776630.171,982.422,979.004,-104.492,983.398
1741776630.174,982.422,-396.973,-184.570,983.398
1741776630.178,908.691,-1000.000,-128.906,908.203
1741776630.182,999.512,-929.199,-9.277,999.512
1741776630.186,856.934,-1000.000,141.602,848.145
1741776630.190,-597.656,-1000.000,164.551,-609.863
1741776630.237,999.512,-1000.000,13.672,999.512
1741776630.241,856.934,-929.199,51.270,863.770
1741776630.245,-605.957,-1000.000,163.574,-598.633
1741776630.249,-1000.000,-931.152,0.977,-1000.000
1741776630.253,-917.480,-1000.000,-169.922,-937.988
1741776630.257,-1000.000,-623.047,-79.590,-1000.000
1741776630.261,234.863,814.453,-128.418,346.680
1741776630.264,999.512,999.512,-113.281,999.512
1741776630.268,914.551,856.445,-191.406,912.109
1741776630.272,898.438,999.512,-446.777,906.250
1741776630.276,999.512,906.738,-482.910,999.512
1741776630.280,534.668,-517.090,-336.914,589.355
1741776630.237,999.512,-1000.000,13.672,999.512
1741776630.241,856.934,-929.199,51.270,863.770
1741776630.245,-605.957,-1000.000,163.574,-598.633
1741776630.249,-1000.000,-931.152,0.977,-1000.000
1741776630.253,-917.480,-1000.000,-169.922,-937.988
1741776630.257,-1000.000,-623.047,-79.590,-1000.000
1741776630.261,234.863,814.453,-128.418,346.680
1741776630.264,999.512,999.512,-113.281,999.512
1741776630.268,914.551,856.445,-191.406,912.109
1741776630.272,898.438,999.512,-446.777,906.250
1741776630.276,999.512,906.738,-482.910,999.512
1741776630.280,534.668,-517.090,-336.914,589.355
1741776630.296,-906.250,-1000.000,-342.285,-858.398
1741776630.300,-1000.000,-867.188,-471.191,-1000.000
1741776630.304,-963.867,-1000.000,-420.898,-964.844
1741776630.308,-1000.000,-880.371,-226.562,-991.699
1741776630.312,391.602,577.637,-240.723,413.086
1741776630.316,999.512,999.512,-264.648,999.512
1741776630.320,894.043,893.555,-242.676,895.508
1741776630.323,987.305,927.734,-278.320,983.887
1741776630.327,896.973,999.512,-196.777,904.297
1741776630.331,999.512,279.785,-74.707,999.512
1741776630.335,449.219,-989.258,39.062,375.000
1741776630.339,-939.941,-1000.000,-61.035,-958.984
1741776630.296,-906.250,-1000.000,-342.285,-858.398
1741776630.300,-1000.000,-867.188,-471.191,-1000.000
1741776630.304,-963.867,-1000.000,-420.898,-964.844
1741776630.308,-1000.000,-880.371,-226.562,-991.699
1741776630.312,391.602,577.637,-240.723,413.086
1741776630.316,999.512,999.512,-264.648,999.512
1741776630.320,894.043,893.555,-242.676,895.508
1741776630.323,987.305,927.734,-278.320,983.887
1741776630.327,896.973,999.512,-196.777,904.297
1741776630.331,999.512,279.785,-74.707,999.512
1741776630.335,449.219,-989.258,39.062,375.000
1741776630.339,-939.941,-1000.000,-61.035,-958.984
1741776630.341,-1000.000,-963.867,-219.238,-1000.000
1741776630.345,-951.660,-1000.000,-260.742,-957.520
1741776630.349,-1000.000,-946.777,-140.625,-1000.000
1741776630.353,-927.734,-1000.000,17.090,-931.152
1741776630.357,-1000.000,-922.852,-43.457,-1000.000
1741776630.361,-578.125,513.672,-188.965,-577.148
1741776630.365,859.375,999.512,-162.598,843.750
1741776630.368,999.512,908.203,-19.531,999.512
1741776630.372,910.156,925.781,114.258,911.133
1741776630.376,981.934,999.512,87.402,982.422
1741776630.380,982.422,873.047,-44.434,983.398
1741776630.384,908.691,-572.266,18.555,908.691
1741776630.341,-1000.000,-963.867,-219.238,-1000.000
1741776630.345,-951.660,-1000.000,-260.742,-957.520
1741776630.349,-1000.000,-946.777,-140.625,-1000.000
1741776630.353,-927.734,-1000.000,17.090,-931.152
1741776630.357,-1000.000,-922.852,-43.457,-1000.000
1741776630.361,-578.125,513.672,-188.965,-577.148
1741776630.365,859.375,999.512,-162.598,843.750
1741776630.368,999.512,908.203,-19.531,999.512
1741776630.372,910.156,925.781,114.258,911.133
1741776630.376,981.934,999.512,87.402,982.422
1741776630.380,982.422,873.047,-44.434,983.398
1741776630.384,908.691,-572.266,18.555,908.691
1741776630.341,-1000.000,-963.867,-219.238,-1000.000
1741776630.345,-951.660,-1000.000,-260.742,-957.520
1741776630.349,-1000.000,-946.777,-140.625,-1000.000
1741776630.353,-927.734,-1000.000,17.090,-931.152
1741776630.357,-1000.000,-922.852,-43.457,-1000.000
1741776630.361,-578.125,513.672,-188.965,-577.148
1741776630.365,859.375,999.512,-162.598,843.750
1741776630.368,999.512,908.203,-19.531,999.512
1741776630.372,910.156,925.781,114.258,911.133
1741776630.376,981.934,999.512,87.402,982.422
1741776630.380,982.422,873.047,-44.434,983.398
1741776630.384,908.691,-572.266,18.555,908.691
1741776630.386,999.512,-1000.000,73.242,999.512
1741776630.390,857.422,-916.992,154.297,849.609
1741776630.394,-614.258,-974.121,220.215,-622.559
1741776630.398,-1000.000,-1000.000,7.812,-1000.000
1741776630.402,-979.492,-136.230,-99.121,-994.629
1741776630.406,-907.227,999.512,-28.320,-812.012
1741776630.410,563.965,951.660,14.648,645.020
1741776630.413,999.512,944.336,88.867,999.512
1741776630.417,907.715,981.445,57.129,914.551
1741776630.421,924.316,903.320,71.289,924.805
1741776630.425,999.512,999.512,148.926,999.512
1741776630.429,856.934,409.180,255.859,854.492
1741776630.432,-597.656,-940.918,371.582,-602.051
1741776630.436,-1000.000,-1000.000,160.156,-1000.000
1741776630.440,-925.781,-916.016,-39.551,-925.781
1741776630.444,-1000.000,-1000.000,-82.520,-1000.000
1741776630.448,-1000.000,-1000.000,-52.734,-1000.000
1741776630.452,-1000.000,338.867,-78.613,-1000.000
1741776630.456,-1000.000,999.512,-207.520,-999.512
1741776630.459,-927.734,-392.090,-225.586,-950.195
1741776630.463,-1000.000,-1000.000,-151.855,-1000.000
1741776630.467,-555.176,-565.430,-98.633,-311.035
1741776630.471,874.023,816.406,-47.363,937.012
1741776630.475,999.512,999.512,-68.359,981.934
1741776630.522,999.512,999.512,-26.855,999.512
1741776630.526,891.602,890.625,142.578,892.090
1741776630.530,982.422,999.512,55.664,982.910
1741776630.534,966.309,-297.852,-54.688,967.773
1741776630.538,981.934,-1000.000,38.086,976.074
1741776630.542,893.066,289.551,129.883,901.367
1741776630.546,999.512,999.512,107.422,999.512
1741776630.549,570.312,364.258,47.363,443.848
1741776630.553,-880.859,-937.988,-29.785,-926.758
1741776630.557,-1000.000,-1000.000,-142.090,-1000.000
1741776630.561,-942.383,-967.773,-273.926,-952.637
1741776630.565,-1000.000,-960.938,-312.500,-1000.000
1741776630.522,999.512,999.512,-26.855,999.512
1741776630.526,891.602,890.625,142.578,892.090
1741776630.530,982.422,999.512,55.664,982.910
1741776630.534,966.309,-297.852,-54.688,967.773
1741776630.538,981.934,-1000.000,38.086,976.074
1741776630.542,893.066,289.551,129.883,901.367
1741776630.546,999.512,999.512,107.422,999.512
1741776630.549,570.312,364.258,47.363,443.848
1741776630.553,-880.859,-937.988,-29.785,-926.758
1741776630.557,-1000.000,-1000.000,-142.090,-1000.000
1741776630.561,-942.383,-967.773,-273.926,-952.637
1741776630.565,-1000.000,-960.938,-312.500,-1000.000
1741776630.566,-929.199,-1000.000,-262.207,-936.035
1741776630.570,-1000.000,-929.688,-336.426,-1000.000
1741776630.574,-524.902,500.488,-406.738,-448.730
1741776630.578,888.672,999.512,-247.070,906.250
1741776630.582,999.512,909.180,-38.574,998.047
1741776630.586,914.062,921.387,-56.641,920.898
1741776630.590,993.164,999.512,-105.957,992.188
1741776630.593,923.340,838.379,-67.871,922.852
1741776630.597,983.398,-621.582,6.836,987.305
1741776630.601,961.426,-1000.000,38.574,951.660
1741776630.605,-414.062,-926.270,51.270,-427.734
1741776630.609,-1000.000,-1000.000,-129.883,-1000.000
1741776630.566,-929.199,-1000.000,-262.207,-936.035
1741776630.570,-1000.000,-929.688,-336.426,-1000.000
1741776630.574,-524.902,500.488,-406.738,-448.730
1741776630.578,888.672,999.512,-247.070,906.250
1741776630.582,999.512,909.180,-38.574,998.047
1741776630.586,914.062,921.387,-56.641,920.898
1741776630.590,993.164,999.512,-105.957,992.188
1741776630.593,923.340,838.379,-67.871,922.852
1741776630.597,983.398,-621.582,6.836,987.305
1741776630.601,961.426,-1000.000,38.574,951.660
1741776630.605,-414.062,-926.270,51.270,-427.734
1741776630.609,-1000.000,-1000.000,-129.883,-1000.000
1741776630.612,-927.734,-1000.000,-328.613,-928.223
1741776630.616,-1000.000,-1000.000,-232.910,-1000.000
1741776630.620,-1000.000,-933.105,-46.875,-1000.000
1741776630.624,-931.641,-1000.000,-25.879,-932.617
1741776630.628,-1000.000,-716.797,-239.746,-1000.000
1741776630.632,-757.324,740.723,-477.051,-729.980
1741776630.636,720.703,999.512,-638.672,733.887
1741776630.639,999.512,915.039,-537.598,999.512
1741776630.643,897.461,918.457,-404.297,900.391
1741776630.647,983.887,999.512,-494.629,983.887
1741776630.651,983.887,614.746,-506.836,982.422
1741776630.655,896.973,-808.105,-415.527,899.414
1741776630.612,-927.734,-1000.000,-328.613,-928.223
1741776630.616,-1000.000,-1000.000,-232.910,-1000.000
1741776630.620,-1000.000,-933.105,-46.875,-1000.000
1741776630.624,-931.641,-1000.000,-25.879,-932.617
1741776630.628,-1000.000,-716.797,-239.746,-1000.000
1741776630.632,-757.324,740.723,-477.051,-729.980
1741776630.636,720.703,999.512,-638.672,733.887
1741776630.639,999.512,915.039,-537.598,999.512
1741776630.643,897.461,918.457,-404.297,900.391
1741776630.647,983.887,999.512,-494.629,983.887
1741776630.651,983.887,614.746,-506.836,982.422
1741776630.655,896.973,-808.105,-415.527,899.414
1741776630.671,999.512,-1000.000,-351.562,999.512
1741776630.675,713.867,-921.875,-240.234,660.156
1741776630.679,-782.227,-986.816,-299.316,-802.246
1741776630.683,-1000.000,-1000.000,-453.125,-1000.000
1741776630.687,-1000.000,33.691,-485.352,-1000.000
1741776630.691,-766.602,999.512,-428.711,-576.660
1741776630.695,729.492,926.758,-343.262,824.219
1741776630.698,999.512,959.473,-336.426,999.512
1741776630.702,915.527,963.379,-381.836,929.688
1741776630.706,917.480,921.387,-346.191,915.527
1741776630.710,999.512,999.512,-214.355,999.512
1741776630.714,754.883,114.258,-109.375,753.906
1741776630.671,999.512,-1000.000,-351.562,999.512
1741776630.675,713.867,-921.875,-240.234,660.156
1741776630.679,-782.227,-986.816,-299.316,-802.246
1741776630.683,-1000.000,-1000.000,-453.125,-1000.000
1741776630.687,-1000.000,33.691,-485.352,-1000.000
1741776630.691,-766.602,999.512,-428.711,-576.660
1741776630.695,729.492,926.758,-343.262,824.219
1741776630.698,999.512,959.473,-336.426,999.512
1741776630.702,915.527,963.379,-381.836,929.688
1741776630.706,917.480,921.387,-346.191,915.527
1741776630.710,999.512,999.512,-214.355,999.512
1741776630.714,754.883,114.258,-109.375,753.906
1741776630.671,999.512,-1000.000,-351.562,999.512
1741776630.675,713.867,-921.875,-240.234,660.156
1741776630.679,-782.227,-986.816,-299.316,-802.246
1741776630.683,-1000.000,-1000.000,-453.125,-1000.000
1741776630.687,-1000.000,33.691,-485.352,-1000.000
1741776630.691,-766.602,999.512,-428.711,-576.660
1741776630.695,729.492,926.758,-343.262,824.219
1741776630.698,999.512,959.473,-336.426,999.512
1741776630.702,915.527,963.379,-381.836,929.688
1741776630.706,917.480,921.387,-346.191,915.527
1741776630.710,999.512,999.512,-214.355,999.512
1741776630.714,754.883,114.258,-109.375,753.906
1741776630.746,-721.680,-1000.000,-150.391,-716.309
1741776630.750,-1000.000,-1000.000,-345.703,-1000.000
1741776630.754,-929.688,-916.504,-398.438,-930.664
1741776630.758,-1000.000,-1000.000,-252.441,-1000.000
1741776630.762,-1000.000,-909.180,-132.812,-1000.000
1741776630.766,-1000.000,626.953,-147.461,-1000.000
1741776630.770,-1000.000,999.512,-254.883,-1000.000
1741776630.773,-1000.000,-533.691,-263.672,-1000.000
1741776630.777,-953.613,-1000.000,-128.906,-949.219
1741776630.781,-1000.000,-1000.000,-126.465,-1000.000
1741776630.785,-927.734,-157.715,-60.059,-803.711
1741776630.789,438.965,999.512,36.133,552.734
1741776630.746,-721.680,-1000.000,-150.391,-716.309
1741776630.750,-1000.000,-1000.000,-345.703,-1000.000
1741776630.754,-929.688,-916.504,-398.438,-930.664
1741776630.758,-1000.000,-1000.000,-252.441,-1000.000
1741776630.762,-1000.000,-909.180,-132.812,-1000.000
1741776630.766,-1000.000,626.953,-147.461,-1000.000
1741776630.770,-1000.000,999.512,-254.883,-1000.000
1741776630.773,-1000.000,-533.691,-263.672,-1000.000
1741776630.777,-953.613,-1000.000,-128.906,-949.219
1741776630.781,-1000.000,-1000.000,-126.465,-1000.000
1741776630.785,-927.734,-157.715,-60.059,-803.711
1741776630.789,438.965,999.512,36.133,552.734
1741776630.791,999.512,940.918,62.012,999.512
1741776630.795,900.391,954.102,8.301,909.668
1741776630.799,967.773,930.176,26.367,965.820
1741776630.803,915.527,999.023,46.387,921.875
1741776630.807,999.512,844.727,111.328,999.512
1741776630.811,53.711,-450.684,159.180,15.625
1741776630.815,-1000.000,-1000.000,2.441,-1000.000
1741776630.818,-965.332,-944.824,-94.727,-962.402
1741776630.822,-983.398,-1000.000,-87.402,-985.352
1741776630.826,-1000.000,-946.289,7.812,-1000.000
1741776630.830,-933.594,-1000.000,0.977,-933.105
1741776630.834,-1000.000,-826.172,-181.152,-1000.000
1741776630.851,-282.715,562.988,-305.664,-296.387
1741776630.855,999.512,999.512,-195.801,999.512
1741776630.859,959.961,903.320,60.059,963.379
1741776630.863,934.082,991.699,29.785,933.594
1741776630.867,975.098,901.367,-180.176,976.562
1741776630.871,967.285,999.512,-180.664,965.332
1741776630.875,903.320,643.066,11.230,907.715
1741776630.878,999.512,-777.344,243.652,999.512
1741776630.882,187.012,-1000.000,383.789,145.996
1741776630.886,-1000.000,-940.918,238.281,-1000.000
1741776630.890,-983.887,-1000.000,5.859,-978.516
1741776630.894,-973.145,-1000.000,115.234,-976.074
1741776630.851,-282.715,562.988,-305.664,-296.387
1741776630.855,999.512,999.512,-195.801,999.512
1741776630.859,959.961,903.320,60.059,963.379
1741776630.863,934.082,991.699,29.785,933.594
1741776630.867,975.098,901.367,-180.176,976.562
1741776630.871,967.285,999.512,-180.664,965.332
1741776630.875,903.320,643.066,11.230,907.715
1741776630.878,999.512,-777.344,243.652,999.512
1741776630.882,187.012,-1000.000,383.789,145.996
1741776630.886,-1000.000,-940.918,238.281,-1000.000
1741776630.890,-983.887,-1000.000,5.859,-978.516
1741776630.894,-973.145,-1000.000,115.234,-976.074
1741776630.881,-1000.000,-1000.000,235.840,-1000.000
1741776630.885,-934.570,-933.105,134.766,-937.012
1741776630.889,-1000.000,-1000.000,89.355,-1000.000
1741776630.893,-725.098,-303.223,-19.531,-740.723
1741776630.897,714.355,999.512,29.785,684.570
1741776630.901,999.512,964.844,219.727,999.512
1741776630.905,903.320,933.105,25.391,904.297
1741776630.908,981.445,976.562,-146.484,980.957
1741776630.912,969.238,965.820,-136.230,971.191
1741776630.916,900.879,907.227,-111.816,900.391
1741776630.920,999.512,999.512,-58.105,999.512
1741776630.924,229.980,153.809,178.711,251.953
1741776630.881,-1000.000,-1000.000,235.840,-1000.000
1741776630.885,-934.570,-933.105,134.766,-937.012
1741776630.889,-1000.000,-1000.000,89.355,-1000.000
1741776630.893,-725.098,-303.223,-19.531,-740.723
1741776630.897,714.355,999.512,29.785,684.570
1741776630.901,999.512,964.844,219.727,999.512
1741776630.905,903.320,933.105,25.391,904.297
1741776630.908,981.445,976.562,-146.484,980.957
1741776630.912,969.238,965.820,-136.230,971.191
1741776630.916,900.879,907.227,-111.816,900.391
1741776630.920,999.512,999.512,-58.105,999.512
1741776630.924,229.980,153.809,178.711,251.953
1741776630.927,-1000.000,-1000.000,134.277,-1000.000
1741776630.931,-991.211,-980.469,-150.879,-994.629
1741776630.935,-969.727,-970.215,-91.309,-967.773
1741776630.939,-1000.000,-952.637,41.992,-1000.000
1741776630.943,-999.512,-1000.000,90.820,-996.582
1741776630.947,-939.453,-125.000,-19.531,-944.336
1741776630.951,-1000.000,999.512,-165.527,-1000.000
1741776630.954,-199.219,937.988,-277.344,-149.902
1741776630.958,999.512,946.777,-292.969,999.512
1741776630.962,946.777,971.680,-62.500,941.406
1741776630.966,940.430,967.773,-45.898,944.824
1741776630.970,985.352,964.844,-222.656,984.375
1741776630.927,-1000.000,-1000.000,134.277,-1000.000
1741776630.931,-991.211,-980.469,-150.879,-994.629
1741776630.935,-969.727,-970.215,-91.309,-967.773
1741776630.939,-1000.000,-952.637,41.992,-1000.000
1741776630.943,-999.512,-1000.000,90.820,-996.582
1741776630.947,-939.453,-125.000,-19.531,-944.336
1741776630.951,-1000.000,999.512,-165.527,-1000.000
1741776630.954,-199.219,937.988,-277.344,-149.902
1741776630.958,999.512,946.777,-292.969,999.512
1741776630.962,946.777,971.680,-62.500,941.406
1741776630.966,940.430,967.773,-45.898,944.824
1741776630.970,985.352,964.844,-222.656,984.375
1741776630.986,892.090,908.691,-230.957,894.043
1741776630.990,999.512,999.512,-173.340,999.512
1741776630.994,455.566,142.578,-8.301,457.031
1741776630.998,-957.031,-1000.000,-67.383,-950.195
1741776631.002,-1000.000,-978.516,-359.375,-1000.000
1741776631.006,-951.172,-975.586,-338.379,-951.172
1741776631.010,-1000.000,-997.559,-224.121,-1000.000
1741776631.013,-1000.000,-998.535,-186.523,-1000.000
1741776631.017,-1000.000,-1000.000,-207.031,-998.535
1741776631.021,-937.500,-938.477,-268.066,-940.918
1741776631.025,-1000.000,-1000.000,-285.156,-1000.000
1741776631.029,-220.703,-201.660,-279.785,-182.617
1741776630.986,892.090,908.691,-230.957,894.043
1741776630.990,999.512,999.512,-173.340,999.512
1741776630.994,455.566,142.578,-8.301,457.031
1741776630.998,-957.031,-1000.000,-67.383,-950.195
1741776631.002,-1000.000,-978.516,-359.375,-1000.000
1741776631.006,-951.172,-975.586,-338.379,-951.172
1741776631.010,-1000.000,-997.559,-224.121,-1000.000
1741776631.013,-1000.000,-998.535,-186.523,-1000.000
1741776631.017,-1000.000,-1000.000,-207.031,-998.535
1741776631.021,-937.500,-938.477,-268.066,-940.918
1741776631.025,-1000.000,-1000.000,-285.156,-1000.000
1741776631.029,-220.703,-201.660,-279.785,-182.617
1741776631.031,999.512,999.512,-124.512,999.512
1741776631.035,950.195,948.242,3.906,945.801
1741776631.039,938.965,940.918,-144.531,942.383
1741776631.043,973.145,973.145,-217.773,972.656
1741776631.047,979.004,978.516,-196.777,976.562
1741776631.051,892.090,893.555,-101.074,895.996
1741776631.055,999.512,999.512,-82.520,999.512
1741776631.058,453.125,419.922,-133.301,389.160
1741776631.062,-958.984,-974.121,-50.781,-983.887
1741776631.066,-1000.000,-1000.000,-145.996,-1000.000
1741776631.070,-951.660,-954.590,-126.953,-957.031
1741776631.074,-1000.000,-1000.000,-32.227,-1000.000
1741776631.031,999.512,999.512,-124.512,999.512
1741776631.035,950.195,948.242,3.906,945.801
1741776631.039,938.965,940.918,-144.531,942.383
1741776631.043,973.145,973.145,-217.773,972.656
1741776631.047,979.004,978.516,-196.777,976.562
1741776631.051,892.090,893.555,-101.074,895.996
1741776631.055,999.512,999.512,-82.520,999.512
1741776631.058,453.125,419.922,-133.301,389.160
1741776631.062,-958.984,-974.121,-50.781,-983.887
1741776631.066,-1000.000,-1000.000,-145.996,-1000.000
1741776631.070,-951.660,-954.590,-126.953,-957.031
1741776631.074,-1000.000,-1000.000,-32.227,-1000.000
1741776631.076,-937.500,-941.406,-150.879,-936.035
1741776631.080,-1000.000,-1000.000,-232.422,-1000.000
1741776631.084,-220.703,-179.199,-275.879,-246.094
1741776631.088,999.512,999.512,-210.938,999.512
1741776631.092,949.707,945.312,30.762,955.078
1741776631.096,939.453,956.543,-66.895,937.988
1741776631.100,973.633,901.855,-259.277,974.121
1741776631.103,903.320,999.512,-145.020,905.762
1741776631.107,999.512,544.922,-45.898,999.512
1741776631.111,187.012,-876.953,38.086,170.410
1741776631.115,-1000.000,-1000.000,-90.820,-1000.000
1741776631.119,-983.887,-945.801,-315.918,-981.445
1741776631.076,-937.500,-941.406,-150.879,-936.035
1741776631.080,-1000.000,-1000.000,-232.422,-1000.000
1741776631.084,-220.703,-179.199,-275.879,-246.094
1741776631.088,999.512,999.512,-210.938,999.512
1741776631.092,949.707,945.312,30.762,955.078
1741776631.096,939.453,956.543,-66.895,937.988
1741776631.100,973.633,901.855,-259.277,974.121
1741776631.103,903.320,999.512,-145.020,905.762
1741776631.107,999.512,544.922,-45.898,999.512
1741776631.111,187.012,-876.953,38.086,170.410
1741776631.115,-1000.000,-1000.000,-90.820,-1000.000
1741776631.119,-983.887,-945.801,-315.918,-981.445
1741776631.076,-937.500,-941.406,-150.879,-936.035
1741776631.080,-1000.000,-1000.000,-232.422,-1000.000
1741776631.084,-220.703,-179.199,-275.879,-246.094
1741776631.088,999.512,999.512,-210.938,999.512
1741776631.092,949.707,945.312,30.762,955.078
1741776631.096,939.453,956.543,-66.895,937.988
1741776631.100,973.633,901.855,-259.277,974.121
1741776631.103,903.320,999.512,-145.020,905.762
1741776631.107,999.512,544.922,-45.898,999.512
1741776631.111,187.012,-876.953,38.086,170.410
1741776631.115,-1000.000,-1000.000,-90.820,-1000.000
1741776631.119,-983.887,-945.801,-315.918,-981.445
1741776631.121,-973.145,-1000.000,-301.758,-974.121
1741776631.125,-1000.000,-999.023,-267.578,-1000.000
1741776631.129,-971.680,-940.918,-238.281,-971.680
1741776631.133,-988.281,-1000.000,-274.902,-990.723
1741776631.137,-1000.000,-186.035,-380.371,-1000.000
1741776631.141,209.473,999.512,-420.898,215.820
1741776631.145,999.512,875.488,-283.691,999.512
1741776631.148,877.930,999.512,-149.902,916.992
1741776631.152,999.512,345.215,-191.406,949.219
1741776631.156,-149.414,-1000.000,-224.121,-338.379
1741776631.160,-1000.000,-1000.000,-285.645,-1000.000
1741776631.164,-943.848,-960.938,-291.504,-939.941
1741776631.121,-973.145,-1000.000,-301.758,-974.121
1741776631.125,-1000.000,-999.023,-267.578,-1000.000
1741776631.129,-971.680,-940.918,-238.281,-971.680
1741776631.133,-988.281,-1000.000,-274.902,-990.723
1741776631.137,-1000.000,-186.035,-380.371,-1000.000
1741776631.141,209.473,999.512,-420.898,215.820
1741776631.145,999.512,875.488,-283.691,999.512
1741776631.148,877.930,999.512,-149.902,916.992
1741776631.152,999.512,345.215,-191.406,949.219
1741776631.156,-149.414,-1000.000,-224.121,-338.379
1741776631.160,-1000.000,-1000.000,-285.645,-1000.000
1741776631.164,-943.848,-960.938,-291.504,-939.941
1741776631.166,-998.535,-1000.000,-131.348,-1000.000
1741776631.170,-937.012,-937.988,-84.473,-935.059
1741776631.174,-1000.000,-1000.000,-86.914,-1000.000
1741776631.178,-241.211,-215.820,-134.766,-270.508
1741776631.182,999.512,999.512,-99.121,999.512
1741776631.186,953.125,949.707,95.215,958.496
1741776631.190,937.500,939.941,89.844,935.547
1741776631.193,975.586,985.352,-55.176,977.539
1741776631.197,955.078,917.969,-106.934,955.566
1741776631.201,921.387,999.512,19.531,922.852
1741776631.205,999.512,851.562,87.891,999.512
1741776631.209,-0.488,-515.137,42.480,-2.441
1741776631.212,-1000.000,-1000.000,-166.992,-1000.000
1741776631.216,-958.984,-937.988,-358.398,-959.473
1741776631.220,-986.816,-999.512,-295.898,-986.816
1741776631.224,-1000.000,-954.590,-149.902,-1000.000
1741776631.228,-953.125,-1000.000,-75.195,-950.684
1741776631.232,-1000.000,-54.199,-233.887,-1000.000
1741776631.236,-921.875,999.512,-404.297,-880.859
1741776631.239,448.730,930.176,-370.117,488.770
1741776631.243,999.512,951.660,-229.004,999.512
1741776631.247,899.414,970.703,-133.789,902.832
1741776631.251,976.074,966.797,-185.547,976.562
1741776631.255,966.797,905.762,-314.941,967.285
1741776631.212,-1000.000,-1000.000,-166.992,-1000.000
1741776631.216,-958.984,-937.988,-358.398,-959.473
1741776631.220,-986.816,-999.512,-295.898,-986.816
1741776631.224,-1000.000,-954.590,-149.902,-1000.000
1741776631.228,-953.125,-1000.000,-75.195,-950.684
1741776631.232,-1000.000,-54.199,-233.887,-1000.000
1741776631.236,-921.875,999.512,-404.297,-880.859
1741776631.239,448.730,930.176,-370.117,488.770
1741776631.243,999.512,951.660,-229.004,999.512
1741776631.247,899.414,970.703,-133.789,902.832
1741776631.251,976.074,966.797,-185.547,976.562
1741776631.255,966.797,905.762,-314.941,967.285
1741776631.256,903.320,999.512,-311.035,904.785
1741776631.260,999.512,169.922,-176.270,999.512
1741776631.264,186.523,-1000.000,-17.090,182.129
1741776631.268,-1000.000,-940.430,-89.355,-1000.000
1741776631.272,-921.387,-998.535,-268.555,-922.852
1741776631.276,-1000.000,-934.570,-143.066,-1000.000
1741776631.280,-227.539,388.184,-168.945,-202.148
1741776631.283,999.512,999.512,-148.438,999.512
1741776631.287,950.195,833.496,-16.113,947.266
1741776631.291,952.148,999.512,-84.473,954.590
1741776631.295,920.898,423.340,-52.734,918.457
1741776631.299,999.512,-968.750,33.691,999.512
1741776631.256,903.320,999.512,-311.035,904.785
1741776631.260,999.512,169.922,-176.270,999.512
1741776631.264,186.523,-1000.000,-17.090,182.129
1741776631.268,-1000.000,-940.430,-89.355,-1000.000
1741776631.272,-921.387,-998.535,-268.555,-922.852
1741776631.276,-1000.000,-934.570,-143.066,-1000.000
1741776631.280,-227.539,388.184,-168.945,-202.148
1741776631.283,999.512,999.512,-148.438,999.512
1741776631.287,950.195,833.496,-16.113,947.266
1741776631.291,952.148,999.512,-84.473,954.590
1741776631.295,920.898,423.340,-52.734,918.457
1741776631.299,999.512,-968.750,33.691,999.512
1741776631.301,844.238,-1000.000,97.656,789.551
1741776631.305,-546.875,-955.078,107.422,-601.562
1741776631.309,-1000.000,-1000.000,-73.730,-1000.000
1741776631.313,-933.594,-944.336,-73.242,-936.523
1741776631.317,-1000.000,-1000.000,70.312,-1000.000
1741776631.321,-1000.000,-146.973,98.145,-1000.000
1741776631.325,-937.500,999.512,13.184,-936.523
1741776631.328,-1000.000,954.590,-33.203,-1000.000
1741776631.332,-214.844,875.977,-89.355,-226.562
1741776631.336,999.512,999.512,-92.285,990.723
1741776631.340,929.688,560.547,54.199,979.492
1741776631.344,999.512,-858.398,47.363,856.445
1741776631.301,844.238,-1000.000,97.656,789.551
1741776631.305,-546.875,-955.078,107.422,-601.562
1741776631.309,-1000.000,-1000.000,-73.730,-1000.000
1741776631.313,-933.594,-944.336,-73.242,-936.523
1741776631.317,-1000.000,-1000.000,70.312,-1000.000
1741776631.321,-1000.000,-146.973,98.145,-1000.000
1741776631.325,-937.500,999.512,13.184,-936.523
1741776631.328,-1000.000,954.590,-33.203,-1000.000
1741776631.332,-214.844,875.977,-89.355,-226.562
1741776631.336,999.512,999.512,-92.285,990.723
1741776631.340,929.688,560.547,54.199,979.492
1741776631.344,999.512,-858.398,47.363,856.445
1741776631.361,-182.129,-1000.000,-92.773,-423.828
1741776631.365,-1000.000,-951.660,-194.336,-1000.000
1741776631.369,-941.406,-987.305,-153.320,-940.430
1741776631.373,-998.535,-986.328,-16.602,-1000.000
1741776631.377,-939.453,-1000.000,-47.363,-941.406
1741776631.381,-1000.000,187.500,-240.234,-1000.000
1741776631.385,-202.148,999.512,-357.910,-182.617
1741776631.388,999.512,915.039,-195.801,999.512
1741776631.392,936.035,896.484,-0.977,920.410
1741776631.396,895.508,999.512,-43.945,930.176
1741776631.400,999.512,325.684,-82.520,999.512
1741776631.404,-1.953,-1000.000,-31.738,-189.453
1741776631.361,-182.129,-1000.000,-92.773,-423.828
1741776631.365,-1000.000,-951.660,-194.336,-1000.000
1741776631.369,-941.406,-987.305,-153.320,-940.430
1741776631.373,-998.535,-986.328,-16.602,-1000.000
1741776631.377,-939.453,-1000.000,-47.363,-941.406
1741776631.381,-1000.000,187.500,-240.234,-1000.000
1741776631.385,-202.148,999.512,-357.910,-182.617
1741776631.388,999.512,915.039,-195.801,999.512
1741776631.392,936.035,896.484,-0.977,920.410
1741776631.396,895.508,999.512,-43.945,930.176
1741776631.400,999.512,325.684,-82.520,999.512
1741776631.404,-1.953,-1000.000,-31.738,-189.453
1741776631.406,-1000.000,-1000.000,4.883,-1000.000
1741776631.410,-969.238,-977.051,68.359,-961.426
1741776631.414,-946.289,-939.941,99.609,-956.055
1741776631.418,-1000.000,-1000.000,10.742,-1000.000
1741776631.422,-973.145,-627.930,-101.562,-983.887
1741776631.426,364.746,812.988,-153.320,338.867
1741776631.430,999.512,999.512,-68.848,999.512
1741776631.433,900.391,854.980,-6.836,901.855
1741776631.437,973.145,999.512,-85.449,972.656
1741776631.441,970.703,100.098,77.148,974.121
1741776631.445,946.289,-1000.000,189.941,937.988
1741776631.449,936.523,-973.145,239.258,958.984
1741776631.406,-1000.000,-1000.000,4.883,-1000.000
1741776631.410,-969.238,-977.051,68.359,-961.426
1741776631.414,-946.289,-939.941,99.609,-956.055
1741776631.418,-1000.000,-1000.000,10.742,-1000.000
1741776631.422,-973.145,-627.930,-101.562,-983.887
1741776631.426,364.746,812.988,-153.320,338.867
1741776631.430,999.512,999.512,-68.848,999.512
1741776631.433,900.391,854.980,-6.836,901.855
1741776631.437,973.145,999.512,-85.449,972.656
1741776631.441,970.703,100.098,77.148,974.121
1741776631.445,946.289,-1000.000,189.941,937.988
1741776631.449,936.523,-973.145,239.258,958.984
1741776631.451,999.512,-979.492,535.645,997.559
1741776631.455,-124.512,-1000.000,462.402,-242.188
1741776631.459,-1000.000,-983.887,216.797,-1000.000
1741776631.463,-945.801,-964.355,255.371,-943.359
1741776631.467,-995.117,-1000.000,274.414,-999.512
1741776631.471,-1000.000,-29.785,287.109,-1000.000
1741776631.475,-1000.000,999.512,351.074,-1000.000
1741776631.478,-1000.000,196.289,398.926,-1000.000
1741776631.482,-1000.000,-1000.000,378.906,-1000.000
1741776631.486,-1000.000,-985.840,168.457,-1000.000
1741776631.490,-927.246,-916.016,-5.859,-926.270
1741776631.494,-1000.000,-1000.000,-118.164,-1000.000
1741776631.451,999.512,-979.492,535.645,997.559
1741776631.455,-124.512,-1000.000,462.402,-242.188
1741776631.459,-1000.000,-983.887,216.797,-1000.000
1741776631.463,-945.801,-964.355,255.371,-943.359
1741776631.467,-995.117,-1000.000,274.414,-999.512
1741776631.471,-1000.000,-29.785,287.109,-1000.000
1741776631.475,-1000.000,999.512,351.074,-1000.000
1741776631.478,-1000.000,196.289,398.926,-1000.000
1741776631.482,-1000.000,-1000.000,378.906,-1000.000
1741776631.486,-1000.000,-985.840,168.457,-1000.000
1741776631.490,-927.246,-916.016,-5.859,-926.270
1741776631.494,-1000.000,-1000.000,-118.164,-1000.000
1741776631.497,-440.918,-121.582,-255.859,-515.137
1741776631.501,947.266,999.512,-229.980,905.762
1741776631.505,988.281,938.477,-67.871,999.512
1741776631.509,921.387,946.777,-5.371,916.016
1741776631.513,979.492,981.934,-17.578,981.445
1741776631.517,981.934,926.270,-46.387,980.957
1741776631.521,895.020,985.352,-102.539,899.414
1741776631.524,999.512,933.594,-80.566,999.512
1741776631.528,606.934,-397.461,90.332,608.887
1741776631.532,-838.379,-1000.000,127.441,-814.941
1741776631.536,-1000.000,-935.547,-107.422,-1000.000
1741776631.540,-940.918,-1000.000,-126.465,-942.383
1741776631.497,-440.918,-121.582,-255.859,-515.137
1741776631.501,947.266,999.512,-229.980,905.762
1741776631.505,988.281,938.477,-67.871,999.512
1741776631.509,921.387,946.777,-5.371,916.016
1741776631.513,979.492,981.934,-17.578,981.445
1741776631.517,981.934,926.270,-46.387,980.957
1741776631.521,895.020,985.352,-102.539,899.414
1741776631.524,999.512,933.594,-80.566,999.512
1741776631.528,606.934,-397.461,90.332,608.887
1741776631.532,-838.379,-1000.000,127.441,-814.941
1741776631.536,-1000.000,-935.547,-107.422,-1000.000
1741776631.540,-940.918,-1000.000,-126.465,-942.383
1741776631.541,-1000.000,-999.023,28.809,-1000.000
1741776631.545,-925.781,-940.430,98.633,-931.641
1741776631.549,-1000.000,-1000.000,125.000,-1000.000
1741776631.553,-536.621,-188.965,0.488,-633.301
1741776631.557,898.438,999.512,-54.688,801.270
1741776631.561,987.305,875.000,153.809,999.023
1741776631.565,883.789,999.512,226.562,901.855
1741776631.568,999.512,486.328,190.430,999.512
1741776631.572,-126.953,-924.316,127.441,-247.070
1741776631.576,-1000.000,-1000.000,-42.480,-1000.000
1741776631.580,-945.801,-959.961,-59.570,-941.895
1741776631.584,-1000.000,-973.145,110.840,-1000.000
1741776631.541,-1000.000,-999.023,28.809,-1000.000
1741776631.545,-925.781,-940.430,98.633,-931.641
1741776631.549,-1000.000,-1000.000,125.000,-1000.000
1741776631.553,-536.621,-188.965,0.488,-633.301
1741776631.557,898.438,999.512,-54.688,801.270
1741776631.561,987.305,875.000,153.809,999.023
1741776631.565,883.789,999.512,226.562,901.855
1741776631.568,999.512,486.328,190.430,999.512
1741776631.572,-126.953,-924.316,127.441,-247.070
1741776631.576,-1000.000,-1000.000,-42.480,-1000.000
1741776631.580,-945.801,-959.961,-59.570,-941.895
1741776631.584,-1000.000,-973.145,110.840,-1000.000
1741776631.586,-929.688,-1000.000,191.895,-929.688
1741776631.590,-1000.000,-948.242,134.766,-1000.000
1741776631.594,-385.254,373.535,-65.918,-416.992
1741776631.598,974.121,999.512,-50.781,956.055
1741776631.602,978.027,904.785,210.449,985.352
1741776631.606,925.781,986.816,284.668,923.828
1741776631.610,977.539,895.508,188.965,979.004
1741776631.613,968.262,999.512,91.309,969.727
1741776631.617,902.344,551.270,131.836,901.367
1741776631.621,999.512,-877.441,177.246,999.512
1741776631.625,208.496,-1000.000,280.273,229.492
1741776631.629,-1000.000,-945.312,252.441,-1000.000
1741776631.586,-929.688,-1000.000,191.895,-929.688
1741776631.590,-1000.000,-948.242,134.766,-1000.000
1741776631.594,-385.254,373.535,-65.918,-416.992
1741776631.598,974.121,999.512,-50.781,956.055
1741776631.602,978.027,904.785,210.449,985.352
1741776631.606,925.781,986.816,284.668,923.828
1741776631.610,977.539,895.508,188.965,979.004
1741776631.613,968.262,999.512,91.309,969.727
1741776631.617,902.344,551.270,131.836,901.367
1741776631.621,999.512,-877.441,177.246,999.512
1741776631.625,208.496,-1000.000,280.273,229.492
1741776631.629,-1000.000,-945.312,252.441,-1000.000
1741776631.631,-987.305,-1000.000,-3.418,-990.723
1741776631.635,-971.191,-1000.000,-20.020,-969.727
1741776631.639,-1000.000,-977.539,116.211,-1000.000
1741776631.643,-972.656,-978.027,185.059,-969.727
1741776631.647,-985.840,-1000.000,12.695,-995.117
1741776631.651,-1000.000,126.953,-180.664,-1000.000
1741776631.655,188.477,999.512,-157.227,230.469
1741776631.658,999.512,916.992,-11.719,999.512
1741776631.662,880.859,895.996,162.598,874.512
1741776631.666,945.801,999.512,123.047,973.633
1741776631.670,999.512,261.719,10.254,947.266
1741776631.674,-185.547,-1000.000,73.242,-310.547
1741776631.631,-987.305,-1000.000,-3.418,-990.723
1741776631.635,-971.191,-1000.000,-20.020,-969.727
1741776631.639,-1000.000,-977.539,116.211,-1000.000
1741776631.643,-972.656,-978.027,185.059,-969.727
1741776631.647,-985.840,-1000.000,12.695,-995.117
1741776631.651,-1000.000,126.953,-180.664,-1000.000
1741776631.655,188.477,999.512,-157.227,230.469
1741776631.658,999.512,916.992,-11.719,999.512
1741776631.662,880.859,895.996,162.598,874.512
1741776631.666,945.801,999.512,123.047,973.633
1741776631.670,999.512,261.719,10.254,947.266
1741776631.674,-185.547,-1000.000,73.242,-310.547
1741776631.676,-1000.000,-999.023,66.895,-1000.000
1741776631.680,-944.824,-956.055,107.910,-947.754
1741776631.684,-933.105,-966.309,105.957,-934.570
1741776631.688,-1000.000,-1000.000,-3.906,-1000.000
1741776631.692,-266.113,-41.016,-98.633,-274.902
1741776631.696,999.512,999.512,-81.543,999.512
1741776631.700,957.031,923.828,110.840,959.473
1741776631.703,935.547,899.902,120.117,935.547
1741776631.707,978.027,999.512,-30.273,979.980
1741776631.711,947.754,82.520,-16.602,946.777
1741776631.715,934.082,-1000.000,79.102,939.453
1741776631.719,999.512,-971.191,6.836,999.512
1741776631.676,-1000.000,-999.023,66.895,-1000.000
1741776631.680,-944.824,-956.055,107.910,-947.754
1741776631.684,-933.105,-966.309,105.957,-934.570
1741776631.688,-1000.000,-1000.000,-3.906,-1000.000
1741776631.692,-266.113,-41.016,-98.633,-274.902
1741776631.696,999.512,999.512,-81.543,999.512
1741776631.700,957.031,923.828,110.840,959.473
1741776631.703,935.547,899.902,120.117,935.547
1741776631.707,978.027,999.512,-30.273,979.980
1741776631.711,947.754,82.520,-16.602,946.777
1741776631.715,934.082,-1000.000,79.102,939.453
1741776631.719,999.512,-971.191,6.836,999.512
1741776631.736,-106.934,-980.469,-105.957,-124.023
1741776631.740,-1000.000,-1000.000,-262.695,-1000.000
1741776631.744,-947.754,-968.262,-347.168,-949.219
1741776631.748,-994.141,-991.211,-246.582,-994.141
1741776631.752,-1000.000,-1000.000,-138.672,-1000.000
1741776631.756,-1000.000,236.328,-126.465,-1000.000
1741776631.760,-951.660,999.512,-227.539,-942.871
1741776631.763,-1000.000,-324.707,-157.715,-1000.000
1741776631.767,-907.715,-1000.000,-66.895,-769.043
1741776631.771,469.727,406.250,-189.941,621.582
1741776631.775,999.512,999.512,-158.203,999.512
1741776631.779,899.414,903.320,-184.082,905.762
1741776631.736,-106.934,-980.469,-105.957,-124.023
1741776631.740,-1000.000,-1000.000,-262.695,-1000.000
1741776631.744,-947.754,-968.262,-347.168,-949.219
1741776631.748,-994.141,-991.211,-246.582,-994.141
1741776631.752,-1000.000,-1000.000,-138.672,-1000.000
1741776631.756,-1000.000,236.328,-126.465,-1000.000
1741776631.760,-951.660,999.512,-227.539,-942.871
1741776631.763,-1000.000,-324.707,-157.715,-1000.000
1741776631.767,-907.715,-1000.000,-66.895,-769.043
1741776631.771,469.727,406.250,-189.941,621.582
1741776631.775,999.512,999.512,-158.203,999.512
1741776631.779,899.414,903.320,-184.082,905.762
1741776631.781,983.887,958.496,-278.320,984.375
1741776631.785,895.996,929.688,-207.520,897.949
1741776631.789,999.512,999.512,-165.039,999.512
1741776631.793,320.312,-52.734,-28.809,300.781
1741776631.797,-1000.000,-1000.000,-4.883,-1000.000
1741776631.801,-1000.000,-955.078,-238.281,-1000.000
1741776631.805,-962.402,-989.746,-206.055,-963.867
1741776631.808,-1000.000,-1000.000,12.207,-1000.000
1741776631.812,-1000.000,-1000.000,134.277,-1000.000
1741776631.816,-937.500,-937.500,89.844,-937.012
1741776631.820,-1000.000,-1000.000,86.426,-1000.000
1741776631.824,-221.191,-220.703,9.277,-229.980
1741776631.781,983.887,958.496,-278.320,984.375
1741776631.785,895.996,929.688,-207.520,897.949
1741776631.789,999.512,999.512,-165.039,999.512
1741776631.793,320.312,-52.734,-28.809,300.781
1741776631.797,-1000.000,-1000.000,-4.883,-1000.000
1741776631.801,-1000.000,-955.078,-238.281,-1000.000
1741776631.805,-962.402,-989.746,-206.055,-963.867
1741776631.808,-1000.000,-1000.000,12.207,-1000.000
1741776631.812,-1000.000,-1000.000,134.277,-1000.000
1741776631.816,-937.500,-937.500,89.844,-937.012
1741776631.820,-1000.000,-1000.000,86.426,-1000.000
1741776631.824,-221.191,-220.703,9.277,-229.980
1741776631.826,999.512,999.512,-18.066,999.512
1741776631.830,949.707,950.684,90.820,952.148
1741776631.834,938.965,939.453,-44.922,938.965
1741776631.838,981.934,983.398,-196.777,983.398
1741776631.842,930.664,895.020,-160.645,928.223
1741776631.846,970.703,999.512,35.156,981.934
1741776631.850,977.051,381.348,192.871,937.500
1741776631.853,-329.590,-992.676,249.023,-376.953
1741776631.857,-1000.000,-1000.000,55.176,-1000.000
1741776631.861,-935.547,-957.520,-45.898,-937.012
1741776631.865,-1000.000,-1000.000,26.855,-1000.000
1741776631.869,-1000.000,-979.004,130.371,-1000.000
1741776631.826,999.512,999.512,-18.066,999.512
1741776631.830,949.707,950.684,90.820,952.148
1741776631.834,938.965,939.453,-44.922,938.965
1741776631.838,981.934,983.398,-196.777,983.398
1741776631.842,930.664,895.020,-160.645,928.223
1741776631.846,970.703,999.512,35.156,981.934
1741776631.850,977.051,381.348,192.871,937.500
1741776631.853,-329.590,-992.676,249.023,-376.953
1741776631.857,-1000.000,-1000.000,55.176,-1000.000
1741776631.861,-935.547,-957.520,-45.898,-937.012
1741776631.865,-1000.000,-1000.000,26.855,-1000.000
1741776631.869,-1000.000,-979.004,130.371,-1000.000
1741776631.871,-937.500,-976.562,160.645,-936.035
1741776631.875,-1000.000,-1000.000,23.438,-1000.000
1741776631.879,-220.703,100.586,-148.438,-246.582
1741776631.883,999.512,999.512,-88.867,999.512
1741776631.887,950.195,917.969,121.094,955.078
1741776631.891,938.965,972.168,156.738,937.500
1741776631.895,974.609,895.996,20.996,976.562
1741776631.898,958.008,999.512,-21.484,957.520
1741776631.902,916.504,438.965,38.574,921.387
1741776631.906,999.512,-960.938,117.676,999.512
1741776631.910,42.969,-1000.000,212.891,27.344
1741776631.914,-1000.000,-952.637,165.039,-1000.000
1741776631.871,-937.500,-976.562,160.645,-936.035
1741776631.875,-1000.000,-1000.000,23.438,-1000.000
1741776631.879,-220.703,100.586,-148.438,-246.582
1741776631.883,999.512,999.512,-88.867,999.512
1741776631.887,950.195,917.969,121.094,955.078
1741776631.891,938.965,972.168,156.738,937.500
1741776631.895,974.609,895.996,20.996,976.562
1741776631.898,958.008,999.512,-21.484,957.520
1741776631.902,916.504,438.965,38.574,921.387
1741776631.906,999.512,-960.938,117.676,999.512
1741776631.910,42.969,-1000.000,212.891,27.344
1741776631.914,-1000.000,-952.637,165.039,-1000.000
1741776632.381,999.512,-1000.000,415.527,999.512
1741776632.385,104.492,-946.777,421.387,56.641
1741776632.389,-1000.000,-953.125,325.684,-1000.000
1741776632.393,-936.035,-1000.000,149.414,-976.074
1741776632.397,-1000.000,-204.102,126.953,-952.148
1741776632.401,31.738,999.512,85.449,279.785
1741776632.405,999.512,948.730,111.816,999.512
1741776632.408,922.363,953.613,128.906,916.504
1741776632.412,935.547,899.902,49.316,946.289
1741776632.416,941.895,999.512,95.215,942.383
1741776632.420,999.512,459.961,246.094,999.512
1741776632.424,-152.344,-950.684,385.742,-138.672
1741776631.916,-964.355,-1000.000,20.508,-964.844
1741776631.920,-983.887,-1000.000,41.504,-984.375
1741776631.924,-1000.000,-928.711,154.785,-1000.000
1741776631.928,-928.223,-1000.000,188.965,-928.711
1741776631.932,-1000.000,-434.570,103.516,-1000.000
1741776631.936,-407.227,945.312,-62.012,-417.969
1741776631.940,964.844,989.258,-68.848,957.031
1741776631.943,981.934,924.316,63.477,985.352
1741776631.947,923.828,915.039,183.594,921.387
1741776631.951,978.027,999.512,151.855,986.328
1741776631.955,981.445,210.449,43.945,950.195
1741776631.959,891.602,-1000.000,61.523,860.840
1741776631.961,999.512,-987.793,55.176,999.512
1741776631.965,527.832,-971.680,151.855,502.930
1741776631.969,-916.992,-1000.000,151.367,-916.992
1741776631.973,-1000.000,-938.477,-34.668,-1000.000
1741776631.977,-911.133,-1000.000,-54.688,-957.520
1741776631.981,-1000.000,-208.496,-37.598,-976.562
1741776631.985,53.711,999.512,-68.359,290.039
1741776631.988,999.512,954.102,-96.680,999.512
1741776631.992,919.434,920.410,-278.320,918.457
1741776631.996,892.090,950.684,-335.449,898.438
1741776632.000,999.512,999.512,-257.324,999.512
1741776632.004,251.465,-118.652,-190.430,297.363
1741776631.961,999.512,-987.793,55.176,999.512
1741776631.965,527.832,-971.680,151.855,502.930
1741776631.969,-916.992,-1000.000,151.367,-916.992
1741776631.973,-1000.000,-938.477,-34.668,-1000.000
1741776631.977,-911.133,-1000.000,-54.688,-957.520
1741776631.981,-1000.000,-208.496,-37.598,-976.562
1741776631.985,53.711,999.512,-68.359,290.039
1741776631.988,999.512,954.102,-96.680,999.512
1741776631.992,919.434,920.410,-278.320,918.457
1741776631.996,892.090,950.684,-335.449,898.438
1741776632.000,999.512,999.512,-257.324,999.512
1741776632.004,251.465,-118.652,-190.430,297.363
1741776632.006,-1000.000,-1000.000,-340.332,-1000.000
1741776632.010,-994.629,-960.449,-641.602,-1000.000
1741776632.014,-967.773,-971.680,-657.715,-964.355
1741776632.018,-1000.000,-973.145,-560.059,-1000.000
1741776632.022,-1000.000,-1000.000,-396.973,-1000.000
1741776632.026,-927.734,83.496,-436.035,-929.199
1741776632.030,-1000.000,999.512,-606.934,-1000.000
1741776632.033,-419.434,916.016,-668.457,-398.926
1741776632.037,958.984,954.102,-632.324,965.332
1741776632.041,984.375,984.375,-435.547,981.934
1741776632.045,923.340,919.922,-395.508,925.293
1741776632.049,981.934,870.605,-508.301,982.910
1741776632.006,-1000.000,-1000.000,-340.332,-1000.000
1741776632.010,-994.629,-960.449,-641.602,-1000.000
1741776632.014,-967.773,-971.680,-657.715,-964.355
1741776632.018,-1000.000,-973.145,-560.059,-1000.000
1741776632.022,-1000.000,-1000.000,-396.973,-1000.000
1741776632.026,-927.734,83.496,-436.035,-929.199
1741776632.030,-1000.000,999.512,-606.934,-1000.000
1741776632.033,-419.434,916.016,-668.457,-398.926
1741776632.037,958.984,954.102,-632.324,965.332
1741776632.041,984.375,984.375,-435.547,981.934
1741776632.045,923.340,919.922,-395.508,925.293
1741776632.049,981.934,870.605,-508.301,982.910
1741776632.052,949.707,899.902,-494.141,947.754
1741776632.056,930.664,999.512,-422.363,938.477
1741776632.060,999.512,246.582,-330.078,999.512
1741776632.064,-78.125,-1000.000,-231.445,-113.281
1741776632.068,-1000.000,-994.629,-385.254,-1000.000
1741776632.072,-950.684,-967.773,-520.996,-950.684
1741776632.076,-992.188,-1000.000,-487.793,-993.164
1741776632.079,-1000.000,-1000.000,-386.719,-1000.000
1741776632.083,-1000.000,-1000.000,-329.590,-1000.000
1741776632.087,-937.500,-937.500,-411.133,-936.523
1741776632.091,-1000.000,-1000.000,-444.824,-1000.000
1741776632.095,-220.703,-220.703,-488.770,-233.887
1741776632.052,949.707,899.902,-494.141,947.754
1741776632.056,930.664,999.512,-422.363,938.477
1741776632.060,999.512,246.582,-330.078,999.512
1741776632.064,-78.125,-1000.000,-231.445,-113.281
1741776632.068,-1000.000,-994.629,-385.254,-1000.000
1741776632.072,-950.684,-967.773,-520.996,-950.684
1741776632.076,-992.188,-1000.000,-487.793,-993.164
1741776632.079,-1000.000,-1000.000,-386.719,-1000.000
1741776632.083,-1000.000,-1000.000,-329.590,-1000.000
1741776632.087,-937.500,-937.500,-411.133,-936.523
1741776632.091,-1000.000,-1000.000,-444.824,-1000.000
1741776632.095,-220.703,-220.703,-488.770,-233.887
1741776632.111,999.512,999.512,-403.320,999.512
1741776632.115,949.707,950.684,-156.738,952.637
1741776632.119,938.965,939.941,-199.219,938.477
1741776632.123,988.281,976.074,-277.344,988.281
1741776632.127,891.602,902.344,-169.922,895.020
1741776632.131,999.512,999.512,-69.336,999.512
1741776632.135,541.992,217.285,53.223,540.527
1741776632.138,-904.297,-1000.000,70.312,-888.184
1741776632.142,-1000.000,-988.770,-145.508,-1000.000
1741776632.146,-944.336,-970.703,-192.383,-945.801
1741776632.150,-1000.000,-1000.000,-83.008,-1000.000
1741776632.154,-972.168,-929.688,-32.227,-972.656
1741776632.111,999.512,999.512,-403.320,999.512
1741776632.115,949.707,950.684,-156.738,952.637
1741776632.119,938.965,939.941,-199.219,938.477
1741776632.123,988.281,976.074,-277.344,988.281
1741776632.127,891.602,902.344,-169.922,895.020
1741776632.131,999.512,999.512,-69.336,999.512
1741776632.135,541.992,217.285,53.223,540.527
1741776632.138,-904.297,-1000.000,70.312,-888.184
1741776632.142,-1000.000,-988.770,-145.508,-1000.000
1741776632.146,-944.336,-970.703,-192.383,-945.801
1741776632.150,-1000.000,-1000.000,-83.008,-1000.000
1741776632.154,-972.168,-929.688,-32.227,-972.656
1741776632.156,-987.305,-1000.000,-111.816,-988.770
1741776632.160,-1000.000,-387.207,-219.727,-1000.000
1741776632.164,197.754,970.215,-247.559,192.871
1741776632.168,999.512,988.770,-99.609,999.512
1741776632.172,904.785,890.137,60.547,908.691
1741776632.176,966.797,988.281,91.309,965.820
1741776632.180,979.492,948.242,-23.438,980.469
1741776632.183,915.039,-340.820,10.742,913.086
1741776632.187,999.512,-1000.000,108.398,999.512
1741776632.191,851.074,-939.941,104.004,802.734
1741776632.195,-536.621,-1000.000,87.402,-586.914
1741776632.199,-1000.000,-1000.000,-42.969,-1000.000
1741776632.156,-987.305,-1000.000,-111.816,-988.770
1741776632.160,-1000.000,-387.207,-219.727,-1000.000
1741776632.164,197.754,970.215,-247.559,192.871
1741776632.168,999.512,988.770,-99.609,999.512
1741776632.172,904.785,890.137,60.547,908.691
1741776632.176,966.797,988.281,91.309,965.820
1741776632.180,979.492,948.242,-23.438,980.469
1741776632.183,915.039,-340.820,10.742,913.086
1741776632.187,999.512,-1000.000,108.398,999.512
1741776632.191,851.074,-939.941,104.004,802.734
1741776632.195,-536.621,-1000.000,87.402,-586.914
1741776632.199,-1000.000,-1000.000,-42.969,-1000.000
1741776632.201,-933.594,-1000.000,-107.910,-936.035
1741776632.205,-1000.000,-972.168,-21.484,-1000.000
1741776632.209,-1000.000,-990.723,89.355,-1000.000
1741776632.213,-937.500,-1000.000,10.742,-938.477
1741776632.217,-1000.000,198.242,-162.598,-1000.000
1741776632.221,-220.703,999.512,-223.633,-208.984
1741776632.225,999.512,911.133,-123.535,999.512
1741776632.228,950.195,968.750,66.406,949.219
1741776632.232,938.965,902.344,107.910,940.430
1741776632.236,973.145,999.512,-39.551,973.633
1741776632.240,967.285,229.980,-101.562,967.285
1741776632.244,903.809,-1000.000,5.859,905.273
1741776632.201,-933.594,-1000.000,-107.910,-936.035
1741776632.205,-1000.000,-972.168,-21.484,-1000.000
1741776632.209,-1000.000,-990.723,89.355,-1000.000
1741776632.213,-937.500,-1000.000,10.742,-938.477
1741776632.217,-1000.000,198.242,-162.598,-1000.000
1741776632.221,-220.703,999.512,-223.633,-208.984
1741776632.225,999.512,911.133,-123.535,999.512
1741776632.228,950.195,968.750,66.406,949.219
1741776632.232,938.965,902.344,107.910,940.430
1741776632.236,973.145,999.512,-39.551,973.633
1741776632.240,967.285,229.980,-101.562,967.285
1741776632.244,903.809,-1000.000,5.859,905.273
1741776632.246,999.512,-990.723,112.305,999.512
1741776632.250,187.012,-970.215,228.516,177.246
1741776632.254,-1000.000,-1000.000,124.512,-1000.000
1741776632.258,-921.875,-941.895,-34.180,-918.457
1741776632.262,-1000.000,-1000.000,36.133,-1000.000
1741776632.266,-776.367,-173.828,41.992,-669.922
1741776632.270,659.180,999.512,47.852,744.141
1741776632.273,999.512,947.754,81.055,999.512
1741776632.277,912.598,876.953,68.359,918.457
1741776632.281,907.227,999.512,111.328,909.180
1741776632.285,999.512,245.605,170.898,999.512
1741776632.289,403.320,-1000.000,318.848,362.793
1741776632.246,999.512,-990.723,112.305,999.512
1741776632.250,187.012,-970.215,228.516,177.246
1741776632.254,-1000.000,-1000.000,124.512,-1000.000
1741776632.258,-921.875,-941.895,-34.180,-918.457
1741776632.262,-1000.000,-1000.000,36.133,-1000.000
1741776632.266,-776.367,-173.828,41.992,-669.922
1741776632.270,659.180,999.512,47.852,744.141
1741776632.273,999.512,947.754,81.055,999.512
1741776632.277,912.598,876.953,68.359,918.457
1741776632.281,907.227,999.512,111.328,909.180
1741776632.285,999.512,245.605,170.898,999.512
1741776632.289,403.320,-1000.000,318.848,362.793
1741776632.292,-983.887,-993.652,273.926,-999.512
1741776632.296,-1000.000,-969.238,61.523,-1000.000
1741776632.300,-955.566,-1000.000,110.352,-958.984
1741776632.304,-1000.000,-943.848,221.191,-1000.000
1741776632.308,-966.797,-1000.000,207.520,-965.820
1741776632.312,-1000.000,-153.809,89.355,-1000.000
1741776632.316,-1000.000,999.512,58.594,-997.070
1741776632.319,272.461,954.590,128.418,292.480
1741776632.323,999.512,873.535,198.730,999.512
1741776632.327,854.980,999.512,268.066,878.418
1741776632.331,999.512,505.859,180.176,999.512
1741776632.335,15.625,-905.762,140.137,-107.910
1741776632.337,-1000.000,-1000.000,150.879,-1000.000
1741776632.341,-961.426,-953.613,220.215,-953.125
1741776632.345,-985.352,-991.211,369.141,-991.211
1741776632.349,-942.383,-977.539,271.484,-941.895
1741776632.353,-1000.000,-1000.000,147.461,-1000.000
1741776632.357,-200.195,132.324,49.805,-192.383
1741776632.361,999.512,999.512,104.980,999.512
1741776632.364,946.777,923.828,334.961,946.777
1741776632.368,940.430,892.578,348.145,941.895
1741776632.372,973.145,999.512,279.297,975.098
1741776632.376,962.402,525.879,298.828,959.961
1741776632.380,910.156,-892.090,405.273,916.992
1741776632.337,-1000.000,-1000.000,150.879,-1000.000
1741776632.341,-961.426,-953.613,220.215,-953.125
1741776632.345,-985.352,-991.211,369.141,-991.211
1741776632.349,-942.383,-977.539,271.484,-941.895
1741776632.353,-1000.000,-1000.000,147.461,-1000.000
1741776632.357,-200.195,132.324,49.805,-192.383
1741776632.361,999.512,999.512,104.980,999.512
1741776632.364,946.777,923.828,334.961,946.777
1741776632.368,940.430,892.578,348.145,941.895
1741776632.372,973.145,999.512,279.297,975.098
1741776632.376,962.402,525.879,298.828,959.961
1741776632.380,910.156,-892.090,405.273,916.992
1741776632.426,-1000.000,-1000.000,231.445,-1000.000
1741776632.430,-943.848,-955.566,20.996,-947.754
1741776632.434,-996.582,-993.652,29.297,-995.117
1741776632.438,-1000.000,-972.656,80.566,-1000.000
1741776632.442,-987.305,-1000.000,135.254,-984.863
1741776632.446,-958.496,97.656,14.160,-963.867
1741776632.450,-1000.000,999.512,-86.914,-1000.000
1741776632.453,-2.930,913.574,-55.176,22.461
1741776632.457,999.512,961.914,41.016,999.512
1741776632.461,921.387,968.262,198.242,921.875
1741776632.465,955.078,977.539,162.598,957.031
1741776632.469,969.238,924.805,62.012,971.680
1741776632.426,-1000.000,-1000.000,231.445,-1000.000
1741776632.430,-943.848,-955.566,20.996,-947.754
1741776632.434,-996.582,-993.652,29.297,-995.117
1741776632.438,-1000.000,-972.656,80.566,-1000.000
1741776632.442,-987.305,-1000.000,135.254,-984.863
1741776632.446,-958.496,97.656,14.160,-963.867
1741776632.450,-1000.000,999.512,-86.914,-1000.000
1741776632.453,-2.930,913.574,-55.176,22.461
1741776632.457,999.512,961.914,41.016,999.512
1741776632.461,921.387,968.262,198.242,921.875
1741776632.465,955.078,977.539,162.598,957.031
1741776632.469,969.238,924.805,62.012,971.680
1741776632.486,903.320,991.211,52.246,902.344
1741776632.490,999.512,907.715,139.160,999.512
1741776632.494,186.523,-434.570,312.012,216.797
1741776632.498,-1000.000,-1000.000,280.273,-1000.000
1741776632.502,-910.645,-938.965,29.785,-920.898
1741776632.506,-1000.000,-1000.000,-6.348,-1000.000
1741776632.510,-458.008,271.973,-50.781,-342.773
1741776632.513,942.871,999.512,-17.578,991.699
1741776632.517,990.723,913.086,38.574,970.703
1741776632.521,925.293,945.801,-78.613,937.012
1741776632.525,911.621,947.266,-24.414,907.715
1741776632.529,999.512,999.512,-13.184,999.512
1741776632.486,903.320,991.211,52.246,902.344
1741776632.490,999.512,907.715,139.160,999.512
1741776632.494,186.523,-434.570,312.012,216.797
1741776632.498,-1000.000,-1000.000,280.273,-1000.000
1741776632.502,-910.645,-938.965,29.785,-920.898
1741776632.506,-1000.000,-1000.000,-6.348,-1000.000
1741776632.510,-458.008,271.973,-50.781,-342.773
1741776632.513,942.871,999.512,-17.578,991.699
1741776632.517,990.723,913.086,38.574,970.703
1741776632.521,925.293,945.801,-78.613,937.012
1741776632.525,911.621,947.266,-24.414,907.715
1741776632.529,999.512,999.512,-13.184,999.512
1741776632.531,268.555,-157.715,78.125,309.570
1741776632.535,-1000.000,-1000.000,89.355,-1000.000
1741776632.539,-1000.000,-926.270,-138.184,-1000.000
1741776632.543,-901.367,-972.168,-166.016,-897.949
1741776632.547,-1000.000,-1000.000,-59.570,-1000.000
1741776632.551,-263.184,130.371,-59.570,-265.137
1741776632.555,999.512,999.512,-113.281,999.512
1741776632.558,960.449,840.820,-77.637,963.867
1741776632.562,918.457,999.512,-94.238,911.621
1741776632.566,939.453,558.594,-6.836,958.496
1741776632.570,999.512,-865.234,107.422,999.512
1741776632.574,-87.891,-1000.000,200.195,-184.082
1741776632.531,268.555,-157.715,78.125,309.570
1741776632.535,-1000.000,-1000.000,89.355,-1000.000
1741776632.539,-1000.000,-926.270,-138.184,-1000.000
1741776632.543,-901.367,-972.168,-166.016,-897.949
1741776632.547,-1000.000,-1000.000,-59.570,-1000.000
1741776632.551,-263.184,130.371,-59.570,-265.137
1741776632.555,999.512,999.512,-113.281,999.512
1741776632.558,960.449,840.820,-77.637,963.867
1741776632.562,918.457,999.512,-94.238,911.621
1741776632.566,939.453,558.594,-6.836,958.496
1741776632.570,999.512,-865.234,107.422,999.512
1741776632.574,-87.891,-1000.000,200.195,-184.082
1741776632.576,-1000.000,-945.312,141.602,-1000.000
1741776632.580,-949.707,-1000.000,1.465,-947.266
1741776632.584,-993.164,-986.328,49.316,-996.582
1741776632.588,-1000.000,-960.938,94.727,-1000.000
1741776632.592,-937.500,-1000.000,145.996,-938.477
1741776632.596,-1000.000,8.789,73.730,-1000.000
1741776632.600,-220.703,999.512,-105.469,-209.473
1741776632.603,999.512,930.664,-52.246,999.512
1741776632.607,933.594,884.766,82.031,919.922
1741776632.611,903.320,999.512,83.008,935.547
1741776632.615,999.512,361.328,33.691,987.793
1741776632.619,-79.102,-1000.000,175.293,-246.582
1741776632.622,-1000.000,-1000.000,215.820,-1000.000
1741776632.626,-950.684,-960.449,37.598,-946.289
1741776632.630,-993.164,-1000.000,98.145,-999.023
1741776632.634,-938.965,-949.219,52.246,-938.965
1741776632.638,-1000.000,-1000.000,-96.191,-1000.000
1741776632.642,-220.703,-96.191,-160.156,-216.797
1741776632.646,999.512,999.512,-17.578,999.512
1741776632.649,950.195,899.414,211.426,949.707
1741776632.653,938.965,999.512,77.148,939.941
1741776632.657,980.957,-45.898,-50.781,982.910
1741776632.661,935.059,-1000.000,-62.500,928.223
1741776632.665,959.473,-957.520,10.254,982.422
1741776632.622,-1000.000,-1000.000,215.820,-1000.000
1741776632.626,-950.684,-960.449,37.598,-946.289
1741776632.630,-993.164,-1000.000,98.145,-999.023
1741776632.634,-938.965,-949.219,52.246,-938.965
1741776632.638,-1000.000,-1000.000,-96.191,-1000.000
1741776632.642,-220.703,-96.191,-160.156,-216.797
1741776632.646,999.512,999.512,-17.578,999.512
1741776632.649,950.195,899.414,211.426,949.707
1741776632.653,938.965,999.512,77.148,939.941
1741776632.657,980.957,-45.898,-50.781,982.910
1741776632.661,935.059,-1000.000,-62.500,928.223
1741776632.665,959.473,-957.520,10.254,982.422
1741776632.666,999.512,-988.770,104.004,931.641
1741776632.670,-275.879,-1000.000,91.309,-381.348
1741776632.674,-1000.000,-929.199,-31.250,-1000.000
1741776632.678,-899.414,-1000.000,11.230,-911.133
1741776632.682,-1000.000,-585.449,170.410,-1000.000
1741776632.686,34.180,840.820,208.984,88.379
1741776632.690,999.512,999.512,114.258,999.512
1741776632.693,924.316,922.852,54.199,924.316
1741776632.697,928.711,909.180,100.586,926.758
1741776632.701,955.566,999.512,88.867,969.727
1741776632.705,999.512,415.527,239.258,977.539
1741776632.709,-238.770,-974.609,373.535,-303.223
1741776632.666,999.512,-988.770,104.004,931.641
1741776632.670,-275.879,-1000.000,91.309,-381.348
1741776632.674,-1000.000,-929.199,-31.250,-1000.000
1741776632.678,-899.414,-1000.000,11.230,-911.133
1741776632.682,-1000.000,-585.449,170.410,-1000.000
1741776632.686,34.180,840.820,208.984,88.379
1741776632.690,999.512,999.512,114.258,999.512
1741776632.693,924.316,922.852,54.199,924.316
1741776632.697,928.711,909.180,100.586,926.758
1741776632.701,955.566,999.512,88.867,969.727
1741776632.705,999.512,415.527,239.258,977.539
1741776632.709,-238.770,-974.609,373.535,-303.223
1741776632.711,-1000.000,-1000.000,146.484,-1000.000
1741776632.715,-938.477,-959.473,-32.715,-938.965
1741776632.719,-1000.000,-992.188,35.645,-1000.000
1741776632.723,-1000.000,-973.145,141.113,-1000.000
1741776632.727,-937.500,-1000.000,69.824,-937.012
1741776632.731,-1000.000,103.027,-73.242,-1000.000
1741776632.735,-220.703,999.512,-188.477,-233.887
1741776632.738,999.512,894.043,-187.500,999.512
1741776632.742,882.812,933.594,-33.691,887.695
1741776632.746,999.512,999.512,11.230,999.512
1741776632.750,262.695,-100.586,-15.137,241.211
1741776632.754,-1000.000,-1000.000,-157.715,-1000.000
1741776632.711,-1000.000,-1000.000,146.484,-1000.000
1741776632.715,-938.477,-959.473,-32.715,-938.965
1741776632.719,-1000.000,-992.188,35.645,-1000.000
1741776632.723,-1000.000,-973.145,141.113,-1000.000
1741776632.727,-937.500,-1000.000,69.824,-937.012
1741776632.731,-1000.000,103.027,-73.242,-1000.000
1741776632.735,-220.703,999.512,-188.477,-233.887
1741776632.738,999.512,894.043,-187.500,999.512
1741776632.742,882.812,933.594,-33.691,887.695
1741776632.746,999.512,999.512,11.230,999.512
1741776632.750,262.695,-100.586,-15.137,241.211
1741776632.754,-1000.000,-1000.000,-157.715,-1000.000
1741776632.756,-995.117,-954.102,-268.555,-991.699
1741776632.760,-981.445,-988.281,-160.156,-982.910
1741776632.764,-934.570,-946.289,-106.445,-936.035
1741776632.768,-1000.000,-1000.000,-173.340,-1000.000
1741776632.772,-534.668,-151.855,-361.816,-544.434
1741776632.776,895.996,999.512,-345.703,876.465
1741776632.780,999.512,941.895,-111.816,999.512
1741776632.783,913.574,944.824,-30.273,914.062
1741776632.787,981.445,978.027,-71.777,981.445
1741776632.791,968.750,898.926,-46.387,970.215
1741776632.795,901.367,999.512,30.762,901.367
1741776632.799,999.512,288.086,45.898,999.512
1741776632.756,-995.117,-954.102,-268.555,-991.699
1741776632.760,-981.445,-988.281,-160.156,-982.910
1741776632.764,-934.570,-946.289,-106.445,-936.035
1741776632.768,-1000.000,-1000.000,-173.340,-1000.000
1741776632.772,-534.668,-151.855,-361.816,-544.434
1741776632.776,895.996,999.512,-345.703,876.465
1741776632.780,999.512,941.895,-111.816,999.512
1741776632.783,913.574,944.824,-30.273,914.062
1741776632.787,981.445,978.027,-71.777,981.445
1741776632.791,968.750,898.926,-46.387,970.215
1741776632.795,901.367,999.512,30.762,901.367
1741776632.799,999.512,288.086,45.898,999.512
1741776632.801,223.145,-1000.000,168.457,235.840
1741776632.805,-1000.000,-1000.000,145.020,-1000.000
1741776632.809,-989.746,-960.938,-97.168,-992.188
1741776632.813,-970.215,-954.590,-112.793,-969.238
1741776632.817,-1000.000,-1000.000,-54.688,-1000.000
1741776632.821,-1000.000,-142.090,37.109,-1000.000
1741776632.825,-937.500,999.512,4.883,-938.477
1741776632.828,-1000.000,940.430,-125.977,-1000.000
1741776632.832,-220.703,943.359,-182.617,-207.520
1741776632.836,999.512,979.980,-128.418,999.512
1741776632.840,950.195,934.082,58.594,948.730
1741776632.844,938.965,933.105,113.770,940.430
1741776632.801,223.145,-1000.000,168.457,235.840
1741776632.805,-1000.000,-1000.000,145.020,-1000.000
1741776632.809,-989.746,-960.938,-97.168,-992.188
1741776632.813,-970.215,-954.590,-112.793,-969.238
1741776632.817,-1000.000,-1000.000,-54.688,-1000.000
1741776632.821,-1000.000,-142.090,37.109,-1000.000
1741776632.825,-937.500,999.512,4.883,-938.477
1741776632.828,-1000.000,940.430,-125.977,-1000.000
1741776632.832,-220.703,943.359,-182.617,-207.520
1741776632.836,999.512,979.980,-128.418,999.512
1741776632.840,950.195,934.082,58.594,948.730
1741776632.844,938.965,933.105,113.770,940.430
1741776632.861,977.539,905.273,52.734,979.492
1741776632.865,945.312,999.512,11.719,940.918
1741776632.869,938.477,275.391,94.238,952.148
1741776632.873,999.512,-1000.000,274.414,999.512
1741776632.877,-137.695,-999.023,265.137,-202.148
1741776632.881,-1000.000,-965.820,32.715,-1000.000
1741776632.885,-944.824,-1000.000,-88.379,-944.824
1741776632.888,-996.094,-1000.000,-49.805,-997.559
1741776632.892,-1000.000,-1000.000,83.984,-1000.000
1741776632.896,-926.758,-937.988,104.980,-927.246
1741776632.900,-1000.000,-1000.000,-48.828,-1000.000
1741776632.904,-451.172,-216.797,-160.156,-458.008
1741776632.861,977.539,905.273,52.734,979.492
1741776632.865,945.312,999.512,11.719,940.918
1741776632.869,938.477,275.391,94.238,952.148
1741776632.873,999.512,-1000.000,274.414,999.512
1741776632.877,-137.695,-999.023,265.137,-202.148
1741776632.881,-1000.000,-965.820,32.715,-1000.000
1741776632.885,-944.824,-1000.000,-88.379,-944.824
1741776632.888,-996.094,-1000.000,-49.805,-997.559
1741776632.892,-1000.000,-1000.000,83.984,-1000.000
1741776632.896,-926.758,-937.988,104.980,-927.246
1741776632.900,-1000.000,-1000.000,-48.828,-1000.000
1741776632.904,-451.172,-216.797,-160.156,-458.008
1741776632.907,943.359,999.512,-145.020,936.523
1741776632.911,990.723,950.195,70.801,993.164
1741776632.915,920.410,939.941,115.234,920.410
1741776632.919,979.492,973.633,-7.324,979.980
1741776632.923,974.609,977.051,-110.352,977.051
1741776632.927,932.617,927.246,-141.602,924.805
1741776632.931,965.332,981.445,-44.922,990.234
1741776632.934,994.141,946.777,-6.836,910.645
1741776632.938,-301.758,-380.859,-88.379,-421.875
1741776632.942,-1000.000,-1000.000,-212.891,-1000.000
1741776632.946,-935.547,-935.059,-246.094,-936.523
1741776632.950,-1000.000,-1000.000,-126.465,-1000.000
1741776632.907,943.359,999.512,-145.020,936.523
1741776632.911,990.723,950.195,70.801,993.164
1741776632.915,920.410,939.941,115.234,920.410
1741776632.919,979.492,973.633,-7.324,979.980
1741776632.923,974.609,977.051,-110.352,977.051
1741776632.927,932.617,927.246,-141.602,924.805
1741776632.931,965.332,981.445,-44.922,990.234
1741776632.934,994.141,946.777,-6.836,910.645
1741776632.938,-301.758,-380.859,-88.379,-421.875
1741776632.942,-1000.000,-1000.000,-212.891,-1000.000
1741776632.946,-935.547,-935.059,-246.094,-936.523
1741776632.950,-1000.000,-1000.000,-126.465,-1000.000
1741776632.951,-989.746,-928.711,-74.219,-984.863
1741776632.955,-954.590,-1000.000,-214.355,-964.355
1741776632.959,-1000.000,-500.000,-400.391,-1000.000
1741776632.963,-41.504,901.855,-454.590,25.391
1741776632.967,999.512,999.512,-292.969,999.512
1741776632.971,925.781,915.527,-138.672,922.363
1741776632.975,952.148,921.875,-189.941,956.543
1741776632.978,983.398,999.512,-230.469,981.934
1741776632.982,891.602,145.020,-115.723,894.043
1741776632.986,999.512,-1000.000,-7.324,999.512
1741776632.990,506.836,-978.516,56.152,470.215
1741776632.994,-926.758,-976.074,-5.859,-940.430
1741776632.951,-989.746,-928.711,-74.219,-984.863
1741776632.955,-954.590,-1000.000,-214.355,-964.355
1741776632.959,-1000.000,-500.000,-400.391,-1000.000
1741776632.963,-41.504,901.855,-454.590,25.391
1741776632.967,999.512,999.512,-292.969,999.512
1741776632.971,925.781,915.527,-138.672,922.363
1741776632.975,952.148,921.875,-189.941,956.543
1741776632.978,983.398,999.512,-230.469,981.934
1741776632.982,891.602,145.020,-115.723,894.043
1741776632.986,999.512,-1000.000,-7.324,999.512
1741776632.990,506.836,-978.516,56.152,470.215
1741776632.994,-926.758,-976.074,-5.859,-940.430
1741776632.996,-1000.000,-1000.000,-160.645,-1000.000
1741776633.000,-947.266,-1000.000,-74.707,-950.195
1741776633.004,-1000.000,-943.359,60.547,-1000.000
1741776633.008,-929.199,-1000.000,151.855,-934.082
1741776633.012,-1000.000,-811.035,79.590,-1000.000
1741776633.016,-635.254,591.797,-100.586,-679.199
1741776633.020,822.754,999.512,-95.703,759.277
1741776633.023,974.609,841.309,110.840,975.586
1741776633.027,958.008,999.512,216.797,990.234
1741776633.031,847.168,175.293,177.734,695.801
1741776633.035,-565.430,-1000.000,149.902,-724.121
1741776633.039,-1000.000,-982.422,59.082,-1000.000
1741776632.996,-1000.000,-1000.000,-160.645,-1000.000
1741776633.000,-947.266,-1000.000,-74.707,-950.195
1741776633.004,-1000.000,-943.359,60.547,-1000.000
1741776633.008,-929.199,-1000.000,151.855,-934.082
1741776633.012,-1000.000,-811.035,79.590,-1000.000
1741776633.016,-635.254,591.797,-100.586,-679.199
1741776633.020,822.754,999.512,-95.703,759.277
1741776633.023,974.609,841.309,110.840,975.586
1741776633.027,958.008,999.512,216.797,990.234
1741776633.031,847.168,175.293,177.734,695.801
1741776633.035,-565.430,-1000.000,149.902,-724.121
1741776633.039,-1000.000,-982.422,59.082,-1000.000
1741776633.041,-934.082,-985.352,99.121,-940.918
1741776633.045,-1000.000,-934.082,192.383,-1000.000
1741776633.049,-937.500,-1000.000,59.570,-938.965
1741776633.053,-1000.000,-466.797,-199.219,-1000.000
1741776633.057,-221.191,930.176,-340.332,-204.102
1741776633.061,999.512,995.117,-233.398,999.512
1741776633.065,950.195,919.922,-23.926,948.242
1741776633.068,938.965,980.957,20.508,940.918
1741776633.072,978.516,966.309,-52.246,979.492
1741776633.076,941.895,906.738,-32.227,939.941
1741776633.080,944.824,999.512,-4.395,954.102
1741776633.084,999.512,160.645,62.012,999.512
1741776633.041,-934.082,-985.352,99.121,-940.918
1741776633.045,-1000.000,-934.082,192.383,-1000.000
1741776633.049,-937.500,-1000.000,59.570,-938.965
1741776633.053,-1000.000,-466.797,-199.219,-1000.000
1741776633.057,-221.191,930.176,-340.332,-204.102
1741776633.061,999.512,995.117,-233.398,999.512
1741776633.065,950.195,919.922,-23.926,948.242
1741776633.068,938.965,980.957,20.508,940.918
1741776633.072,978.516,966.309,-52.246,979.492
1741776633.076,941.895,906.738,-32.227,939.941
1741776633.080,944.824,999.512,-4.395,954.102
1741776633.084,999.512,160.645,62.012,999.512
1741776633.086,-180.664,-1000.000,134.277,-214.844
1741776633.090,-1000.000,-981.934,-98.145,-1000.000
1741776633.094,-941.895,-969.238,-209.961,-943.848
1741776633.098,-998.047,-953.613,-58.594,-998.535
1741776633.102,-1000.000,-1000.000,116.211,-1000.000
1741776633.106,-940.430,-121.582,164.551,-941.406
1741776633.110,-1000.000,999.512,40.527,-1000.000
1741776633.113,-796.387,937.988,-34.180,-784.180
1741776633.117,625.977,959.473,-93.750,622.559
1741776633.121,999.512,913.574,29.297,999.512
1741776633.125,900.879,999.512,143.066,903.809
1741776633.129,979.980,712.402,61.523,979.492
1741776633.086,-180.664,-1000.000,134.277,-214.844
1741776633.090,-1000.000,-981.934,-98.145,-1000.000
1741776633.094,-941.895,-969.238,-209.961,-943.848
1741776633.098,-998.047,-953.613,-58.594,-998.535
1741776633.102,-1000.000,-1000.000,116.211,-1000.000
1741776633.106,-940.430,-121.582,164.551,-941.406
1741776633.110,-1000.000,999.512,40.527,-1000.000
1741776633.113,-796.387,937.988,-34.180,-784.180
1741776633.117,625.977,959.473,-93.750,622.559
1741776633.121,999.512,913.574,29.297,999.512
1741776633.125,900.879,999.512,143.066,903.809
1741776633.129,979.980,712.402,61.523,979.492
1741776633.132,978.516,-678.223,-94.727,977.539
1741776633.136,892.090,-1000.000,-104.492,895.020
1741776633.140,999.512,-940.918,109.863,999.512
1741776633.144,444.336,-1000.000,207.520,411.621
1741776633.148,-963.867,-939.453,108.887,-974.121
1741776633.152,-1000.000,-1000.000,21.973,-1000.000
1741776633.156,-952.148,-268.555,12.207,-955.078
1741776633.159,-1000.000,999.512,-48.828,-1000.000
1741776633.163,-1000.000,333.496,-57.617,-1000.000
1741776633.167,-999.512,-1000.000,-102.539,-997.559
1741776633.171,-939.453,-972.168,-328.613,-942.871
1741776633.175,-1000.000,-1000.000,-389.160,-1000.000
1741776633.132,978.516,-678.223,-94.727,977.539
1741776633.136,892.090,-1000.000,-104.492,895.020
1741776633.140,999.512,-940.918,109.863,999.512
1741776633.144,444.336,-1000.000,207.520,411.621
1741776633.148,-963.867,-939.453,108.887,-974.121
1741776633.152,-1000.000,-1000.000,21.973,-1000.000
1741776633.156,-952.148,-268.555,12.207,-955.078
1741776633.159,-1000.000,999.512,-48.828,-1000.000
1741776633.163,-1000.000,333.496,-57.617,-1000.000
1741776633.167,-999.512,-1000.000,-102.539,-997.559
1741776633.171,-939.453,-972.168,-328.613,-942.871
1741776633.175,-1000.000,-1000.000,-389.160,-1000.000
1741776633.191,-196.777,16.602,-381.348,-162.109
1741776633.195,999.512,999.512,-303.711,999.512
1741776633.199,946.777,921.875,-210.449,942.871
1741776633.203,940.918,967.773,-342.285,944.824
1741776633.207,973.145,921.875,-318.848,970.215
1741776633.211,903.320,999.512,-195.312,908.691
1741776633.215,999.512,845.703,-89.355,999.512
1741776633.218,187.012,-504.395,113.770,140.625
1741776633.222,-1000.000,-1000.000,57.129,-1000.000
1741776633.226,-983.887,-937.988,-93.262,-978.027
1741776633.230,-973.145,-1000.000,8.789,-977.051
1741776633.234,-1000.000,-954.590,126.953,-1000.000
1741776633.191,-196.777,16.602,-381.348,-162.109
1741776633.195,999.512,999.512,-303.711,999.512
1741776633.199,946.777,921.875,-210.449,942.871
1741776633.203,940.918,967.773,-342.285,944.824
1741776633.207,973.145,921.875,-318.848,970.215
1741776633.211,903.320,999.512,-195.312,908.691
1741776633.215,999.512,845.703,-89.355,999.512
1741776633.218,187.012,-504.395,113.770,140.625
1741776633.222,-1000.000,-1000.000,57.129,-1000.000
1741776633.226,-983.887,-937.988,-93.262,-978.027
1741776633.230,-973.145,-1000.000,8.789,-977.051
1741776633.234,-1000.000,-954.590,126.953,-1000.000
1741776633.236,-937.500,-1000.000,62.012,-938.965
1741776633.240,-1000.000,-912.598,-57.129,-1000.000
1741776633.244,-221.191,437.500,-129.883,-205.078
1741776633.248,999.512,999.512,34.180,999.512
1741776633.252,950.195,852.051,271.973,948.730
1741776633.256,938.965,999.512,243.164,940.918
1741776633.260,973.145,818.359,111.328,973.633
1741776633.263,967.285,-550.781,141.113,967.285
1741776633.267,903.809,-1000.000,226.562,904.785
1741776633.271,999.512,-937.500,221.191,999.512
1741776633.275,187.012,-1000.000,293.945,183.594
1741776633.279,-1000.000,-1000.000,109.863,-1000.000
1741776633.236,-937.500,-1000.000,62.012,-938.965
1741776633.240,-1000.000,-912.598,-57.129,-1000.000
1741776633.244,-221.191,437.500,-129.883,-205.078
1741776633.248,999.512,999.512,34.180,999.512
1741776633.252,950.195,852.051,271.973,948.730
1741776633.256,938.965,999.512,243.164,940.918
1741776633.260,973.145,818.359,111.328,973.633
1741776633.263,967.285,-550.781,141.113,967.285
1741776633.267,903.809,-1000.000,226.562,904.785
1741776633.271,999.512,-937.500,221.191,999.512
1741776633.275,187.012,-1000.000,293.945,183.594
1741776633.279,-1000.000,-1000.000,109.863,-1000.000
1741776633.270,-983.887,-1000.000,-116.699,-983.398
1741776633.274,-973.145,-1000.000,-96.680,-973.145
1741776633.278,-1000.000,-938.477,-179.688,-1000.000
1741776633.282,-940.918,-1000.000,-253.906,-942.383
1741776633.286,-1000.000,-209.961,-316.895,-1000.000
1741776633.290,-804.688,999.512,-360.352,-789.551
1741776633.294,615.723,962.402,-375.000,613.770
1741776633.297,999.512,878.906,-201.660,999.512
1741776633.301,837.891,999.512,-60.547,849.609
1741776633.305,999.512,689.941,-201.172,999.512
1741776633.309,187.012,-716.797,-187.500,102.051
1741776633.313,-1000.000,-1000.000,-119.141,-1000.000
1741776633.270,-983.887,-1000.000,-116.699,-983.398
1741776633.274,-973.145,-1000.000,-96.680,-973.145
1741776633.278,-1000.000,-938.477,-179.688,-1000.000
1741776633.282,-940.918,-1000.000,-253.906,-942.383
1741776633.286,-1000.000,-209.961,-316.895,-1000.000
1741776633.290,-804.688,999.512,-360.352,-789.551
1741776633.294,615.723,962.402,-375.000,613.770
1741776633.297,999.512,878.906,-201.660,999.512
1741776633.301,837.891,999.512,-60.547,849.609
1741776633.305,999.512,689.941,-201.172,999.512
1741776633.309,187.012,-716.797,-187.500,102.051
1741776633.313,-1000.000,-1000.000,-119.141,-1000.000
1741776633.806,-220.703,109.863,-88.867,-207.520
1741776633.810,999.512,999.512,23.926,999.512
1741776633.814,950.195,916.016,197.754,948.730
1741776633.818,942.383,975.098,96.191,943.848
1741776633.822,956.543,896.973,-5.859,958.984
1741776633.826,930.176,999.512,69.336,928.711
1741776633.830,999.512,536.133,145.508,999.512
1741776633.833,-75.684,-888.672,264.648,-43.945
1741776633.837,-1000.000,-1000.000,208.496,-1000.000
1741776633.841,-950.684,-946.289,9.766,-956.055
1741776633.845,-992.188,-1000.000,39.062,-989.258
1741776633.849,-1000.000,-989.746,121.094,-1000.000
1741776633.328,-984.375,-948.730,-161.133,-974.121
1741776633.332,-970.703,-977.051,-178.223,-976.074
1741776633.336,-949.219,-1000.000,-193.848,-948.242
1741776633.340,-1000.000,-990.234,-208.496,-1000.000
1741776633.344,-166.016,306.641,-325.684,-157.715
1741776633.348,999.512,999.512,-251.953,999.512
1741776633.352,941.895,904.785,-37.598,941.895
1741776633.355,943.359,981.445,-34.180,944.336
1741776633.359,985.840,895.020,-135.254,985.840
1741776633.363,906.738,999.512,-74.219,907.715
1741776633.367,999.512,405.762,16.113,999.512
1741776633.371,767.578,-979.980,83.008,736.816
1741776633.328,-984.375,-948.730,-161.133,-974.121
1741776633.332,-970.703,-977.051,-178.223,-976.074
1741776633.336,-949.219,-1000.000,-193.848,-948.242
1741776633.340,-1000.000,-990.234,-208.496,-1000.000
1741776633.344,-166.016,306.641,-325.684,-157.715
1741776633.348,999.512,999.512,-251.953,999.512
1741776633.352,941.895,904.785,-37.598,941.895
1741776633.355,943.359,981.445,-34.180,944.336
1741776633.359,985.840,895.020,-135.254,985.840
1741776633.363,906.738,999.512,-74.219,907.715
1741776633.367,999.512,405.762,16.113,999.512
1741776633.371,767.578,-979.980,83.008,736.816
1741776633.371,-653.809,-1000.000,80.566,-668.457
1741776633.375,-1000.000,-959.473,-159.180,-1000.000
1741776633.379,-934.570,-993.652,-265.625,-937.988
1741776633.383,-1000.000,-970.215,-144.043,-1000.000
1741776633.387,-1000.000,-1000.000,-86.426,-1000.000
1741776633.391,-937.500,79.590,-157.715,-936.523
1741776633.395,-1000.000,999.512,-168.457,-1000.000
1741776633.398,-221.191,915.039,-286.621,-239.258
1741776633.402,999.512,960.938,-330.566,999.512
1741776633.406,950.195,968.262,-116.211,953.613
1741776633.410,938.965,967.285,-105.469,937.988
1741776633.414,988.281,967.773,-250.000,988.281
1741776633.371,-653.809,-1000.000,80.566,-668.457
1741776633.375,-1000.000,-959.473,-159.180,-1000.000
1741776633.379,-934.570,-993.652,-265.625,-937.988
1741776633.383,-1000.000,-970.215,-144.043,-1000.000
1741776633.387,-1000.000,-1000.000,-86.426,-1000.000
1741776633.391,-937.500,79.590,-157.715,-936.523
1741776633.395,-1000.000,999.512,-168.457,-1000.000
1741776633.398,-221.191,915.039,-286.621,-239.258
1741776633.402,999.512,960.938,-330.566,999.512
1741776633.406,950.195,968.262,-116.211,953.613
1741776633.410,938.965,967.285,-105.469,937.988
1741776633.414,988.281,967.773,-250.000,988.281
1741776633.433,896.484,904.297,-305.664,902.832
1741776633.437,999.512,999.512,-273.926,999.512
1741776633.441,629.883,187.012,-109.375,683.105
1741776633.445,-814.453,-1000.000,56.152,-740.723
1741776633.449,-1000.000,-925.781,-55.176,-1000.000
1741776633.453,-939.941,-1000.000,-125.000,-938.965
1741776633.457,-1000.000,-905.762,-56.641,-1000.000
1741776633.460,-1000.000,723.145,-159.668,-1000.000
1741776633.464,-1000.000,220.703,-238.281,-1000.000
1741776633.468,-1000.000,-1000.000,-158.203,-1000.000
1741776633.472,-975.098,-895.020,-150.879,-985.840
1741776633.476,-981.934,-1000.000,-120.605,-961.426
1741776633.433,896.484,904.297,-305.664,902.832
1741776633.437,999.512,999.512,-273.926,999.512
1741776633.441,629.883,187.012,-109.375,683.105
1741776633.445,-814.453,-1000.000,56.152,-740.723
1741776633.449,-1000.000,-925.781,-55.176,-1000.000
1741776633.453,-939.941,-1000.000,-125.000,-938.965
1741776633.457,-1000.000,-905.762,-56.641,-1000.000
1741776633.460,-1000.000,723.145,-159.668,-1000.000
1741776633.464,-1000.000,220.703,-238.281,-1000.000
1741776633.468,-1000.000,-1000.000,-158.203,-1000.000
1741776633.472,-975.098,-895.020,-150.879,-985.840
1741776633.476,-981.934,-1000.000,-120.605,-961.426
1741776633.476,-1000.000,-738.281,-243.652,-1000.000
1741776633.480,162.598,695.801,-473.633,16.113
1741776633.484,999.512,999.512,-410.645,999.512
1741776633.488,907.227,904.297,-246.582,920.898
1741776633.492,964.844,983.887,-152.832,956.543
1741776633.496,967.285,953.613,-128.418,969.238
1741776633.500,971.191,925.781,-263.672,972.168
1741776633.503,898.926,999.512,-266.113,898.926
1741776633.507,999.512,-21.973,-99.609,999.512
1741776633.511,266.602,-1000.000,59.082,280.762
1741776633.515,-1000.000,-958.496,29.785,-1000.000
1741776633.519,-997.070,-987.793,-146.484,-999.512
1741776633.476,-1000.000,-738.281,-243.652,-1000.000
1741776633.480,162.598,695.801,-473.633,16.113
1741776633.484,999.512,999.512,-410.645,999.512
1741776633.488,907.227,904.297,-246.582,920.898
1741776633.492,964.844,983.887,-152.832,956.543
1741776633.496,967.285,953.613,-128.418,969.238
1741776633.500,971.191,925.781,-263.672,972.168
1741776633.503,898.926,999.512,-266.113,898.926
1741776633.507,999.512,-21.973,-99.609,999.512
1741776633.511,266.602,-1000.000,59.082,280.762
1741776633.515,-1000.000,-958.496,29.785,-1000.000
1741776633.519,-997.070,-987.793,-146.484,-999.512
1741776633.536,-966.797,-1000.000,-195.312,-965.332
1741776633.540,-1000.000,-934.570,-86.914,-1000.000
1741776633.544,-988.281,-1000.000,108.398,-988.770
1741776633.548,-957.031,-269.531,76.660,-957.031
1741776633.552,-1000.000,999.512,-75.684,-1000.000
1741776633.556,-4.883,961.914,-113.281,-16.113
1741776633.560,999.512,870.605,-39.551,999.512
1741776633.563,981.445,999.512,65.430,999.512
1741776633.567,794.434,229.980,82.031,660.156
1741776633.571,-599.609,-1000.000,88.867,-741.699
1741776633.575,-1000.000,-990.723,48.828,-1000.000
1741776633.579,-934.082,-970.215,84.473,-939.941
1741776633.536,-966.797,-1000.000,-195.312,-965.332
1741776633.540,-1000.000,-934.570,-86.914,-1000.000
1741776633.544,-988.281,-1000.000,108.398,-988.770
1741776633.548,-957.031,-269.531,76.660,-957.031
1741776633.552,-1000.000,999.512,-75.684,-1000.000
1741776633.556,-4.883,961.914,-113.281,-16.113
1741776633.560,999.512,870.605,-39.551,999.512
1741776633.563,981.445,999.512,65.430,999.512
1741776633.567,794.434,229.980,82.031,660.156
1741776633.571,-599.609,-1000.000,88.867,-741.699
1741776633.575,-1000.000,-990.723,48.828,-1000.000
1741776633.579,-934.082,-970.215,84.473,-939.941
1741776633.566,-1000.000,-1000.000,108.398,-1000.000
1741776633.570,-928.223,-939.453,64.453,-927.734
1741776633.574,-1000.000,-1000.000,-52.734,-1000.000
1741776633.578,-406.250,-198.242,-202.148,-434.570
1741776633.582,965.332,999.512,-183.105,949.219
1741776633.586,981.934,956.543,90.332,990.723
1741776633.590,922.852,870.117,145.996,913.086
1741776633.593,918.457,999.512,-44.434,935.547
1741776633.597,999.512,361.328,-108.887,999.512
1741776633.601,150.879,-1000.000,36.621,46.387
1741776633.605,-1000.000,-1000.000,104.004,-1000.000
1741776633.609,-979.004,-958.984,24.902,-971.680
1741776633.566,-1000.000,-1000.000,108.398,-1000.000
1741776633.570,-928.223,-939.453,64.453,-927.734
1741776633.574,-1000.000,-1000.000,-52.734,-1000.000
1741776633.578,-406.250,-198.242,-202.148,-434.570
1741776633.582,965.332,999.512,-183.105,949.219
1741776633.586,981.934,956.543,90.332,990.723
1741776633.590,922.852,870.117,145.996,913.086
1741776633.593,918.457,999.512,-44.434,935.547
1741776633.597,999.512,361.328,-108.887,999.512
1741776633.601,150.879,-1000.000,36.621,46.387
1741776633.605,-1000.000,-1000.000,104.004,-1000.000
1741776633.609,-979.004,-958.984,24.902,-971.680
1741776633.566,-1000.000,-1000.000,108.398,-1000.000
1741776633.570,-928.223,-939.453,64.453,-927.734
1741776633.574,-1000.000,-1000.000,-52.734,-1000.000
1741776633.578,-406.250,-198.242,-202.148,-434.570
1741776633.582,965.332,999.512,-183.105,949.219
1741776633.586,981.934,956.543,90.332,990.723
1741776633.590,922.852,870.117,145.996,913.086
1741776633.593,918.457,999.512,-44.434,935.547
1741776633.597,999.512,361.328,-108.887,999.512
1741776633.601,150.879,-1000.000,36.621,46.387
1741776633.605,-1000.000,-1000.000,104.004,-1000.000
1741776633.609,-979.004,-958.984,24.902,-971.680
1741776633.626,-975.586,-1000.000,-1.953,-981.445
1741776633.630,-1000.000,-1000.000,11.230,-1000.000
1741776633.634,-1000.000,-984.863,12.695,-1000.000
1741776633.638,-1000.000,-962.402,116.211,-1000.000
1741776633.642,-1000.000,-1000.000,196.777,-1000.000
1741776633.646,-1000.000,-23.926,38.574,-1000.000
1741776633.650,-1000.000,999.512,-98.145,-1000.000
1741776633.653,-1000.000,809.570,-113.281,-1000.000
1741776633.657,-1000.000,-513.184,-106.934,-1000.000
1741776633.661,-1000.000,-1000.000,-103.027,-1000.000
1741776633.665,-954.590,-876.953,-227.539,-985.840
1741776633.669,-1000.000,-1000.000,-315.918,-961.914
1741776633.656,-909.668,-181.152,-265.137,-1000.000
1741776633.660,409.180,999.512,-179.688,-43.457
1741776633.664,999.512,922.852,-98.633,999.512
1741776633.668,976.074,999.512,-134.766,644.531
1741776633.672,-185.547,-163.574,-140.137,-706.543
1741776633.676,-1000.000,-1000.000,-154.785,-1000.000
1741776633.680,-940.918,-942.383,-169.922,-941.406
1741776633.683,-1000.000,-1000.000,-22.949,-1000.000
1741776633.687,-936.523,-928.711,-20.020,-945.801
1741776633.691,-1000.000,-1000.000,-94.727,-1000.000
1741776633.695,-745.117,-426.758,-45.898,-845.215
1741776633.699,688.965,952.637,-110.840,553.223
1741776633.656,-909.668,-181.152,-265.137,-1000.000
1741776633.660,409.180,999.512,-179.688,-43.457
1741776633.664,999.512,922.852,-98.633,999.512
1741776633.668,976.074,999.512,-134.766,644.531
1741776633.672,-185.547,-163.574,-140.137,-706.543
1741776633.676,-1000.000,-1000.000,-154.785,-1000.000
1741776633.680,-940.918,-942.383,-169.922,-941.406
1741776633.683,-1000.000,-1000.000,-22.949,-1000.000
1741776633.687,-936.523,-928.711,-20.020,-945.801
1741776633.691,-1000.000,-1000.000,-94.727,-1000.000
1741776633.695,-745.117,-426.758,-45.898,-845.215
1741776633.699,688.965,952.637,-110.840,553.223
1741776633.701,999.512,987.305,-53.711,999.512
1741776633.705,902.832,923.340,-9.766,901.367
1741776633.709,980.469,979.492,-299.316,978.516
1741776633.713,966.309,967.285,-793.945,966.797
1741776633.717,966.309,979.492,-484.375,966.797
1741776633.721,966.309,895.020,120.605,967.285
1741776633.725,966.309,999.512,86.426,967.285
1741776633.728,966.309,475.098,-83.496,967.285
1741776633.732,966.309,-931.641,-51.758,966.797
1741776633.736,966.309,-1000.000,-33.691,967.285
1741776633.740,966.309,-947.754,29.297,967.285
1741776633.744,966.309,-956.543,42.480,967.285
1741776633.701,999.512,987.305,-53.711,999.512
1741776633.705,902.832,923.340,-9.766,901.367
1741776633.709,980.469,979.492,-299.316,978.516
1741776633.713,966.309,967.285,-793.945,966.797
1741776633.717,966.309,979.492,-484.375,966.797
1741776633.721,966.309,895.020,120.605,967.285
1741776633.725,966.309,999.512,86.426,967.285
1741776633.728,966.309,475.098,-83.496,967.285
1741776633.732,966.309,-931.641,-51.758,966.797
1741776633.736,966.309,-1000.000,-33.691,967.285
1741776633.740,966.309,-947.754,29.297,967.285
1741776633.744,966.309,-956.543,42.480,967.285
1741776633.747,966.309,-1000.000,-85.938,966.797
1741776633.751,980.469,-205.078,-151.367,976.562
1741776633.755,905.273,999.512,-22.949,927.734
1741776633.759,999.512,901.367,323.242,982.422
1741776633.763,730.469,-415.527,457.520,939.453
1741776633.767,-687.988,-1000.000,448.242,-380.859
1741776633.771,-1000.000,-937.500,366.699,-1000.000
1741776633.774,-937.012,-1000.000,329.590,-936.523
1741776633.778,-1000.000,-1000.000,324.707,-1000.000
1741776633.782,-1000.000,-978.516,184.082,-1000.000
1741776633.786,-937.500,-977.051,84.473,-938.477
1741776633.790,-1000.000,-1000.000,28.809,-1000.000
1741776633.747,966.309,-1000.000,-85.938,966.797
1741776633.751,980.469,-205.078,-151.367,976.562
1741776633.755,905.273,999.512,-22.949,927.734
1741776633.759,999.512,901.367,323.242,982.422
1741776633.763,730.469,-415.527,457.520,939.453
1741776633.767,-687.988,-1000.000,448.242,-380.859
1741776633.771,-1000.000,-937.500,366.699,-1000.000
1741776633.774,-937.012,-1000.000,329.590,-936.523
1741776633.778,-1000.000,-1000.000,324.707,-1000.000
1741776633.782,-1000.000,-978.516,184.082,-1000.000
1741776633.786,-937.500,-977.051,84.473,-938.477
1741776633.790,-1000.000,-1000.000,28.809,-1000.000
1741776633.851,-1000.000,-956.055,178.711,-1000.000
1741776633.855,-937.500,-1000.000,132.812,-937.988
1741776633.859,-1000.000,-46.387,9.766,-1000.000
1741776633.863,-220.703,999.512,-58.105,-215.820
1741776633.867,999.512,929.688,-8.301,999.512
1741776633.871,949.707,958.984,190.918,950.195
1741776633.875,939.453,900.879,119.629,940.430
1741776633.878,973.633,999.512,-125.488,973.633
1741776633.882,903.320,312.988,-173.828,905.273
1741776633.886,999.512,-1000.000,-107.422,999.512
1741776633.890,187.012,-1000.000,42.480,175.293
1741776633.894,-1000.000,-962.891,-11.230,-1000.000
1741776633.851,-1000.000,-956.055,178.711,-1000.000
1741776633.855,-937.500,-1000.000,132.812,-937.988
1741776633.859,-1000.000,-46.387,9.766,-1000.000
1741776633.863,-220.703,999.512,-58.105,-215.820
1741776633.867,999.512,929.688,-8.301,999.512
1741776633.871,949.707,958.984,190.918,950.195
1741776633.875,939.453,900.879,119.629,940.430
1741776633.878,973.633,999.512,-125.488,973.633
1741776633.882,903.320,312.988,-173.828,905.273
1741776633.886,999.512,-1000.000,-107.422,999.512
1741776633.890,187.012,-1000.000,42.480,175.293
1741776633.894,-1000.000,-962.891,-11.230,-1000.000
1741776633.896,-983.887,-1000.000,-236.328,-982.422
1741776633.900,-973.145,-1000.000,-226.074,-974.121
1741776633.904,-1000.000,-981.445,-128.418,-1000.000
1741776633.908,-1000.000,-969.238,-26.367,-1000.000
1741776633.912,-937.988,-1000.000,-41.992,-938.477
1741776633.916,-1000.000,78.125,-94.727,-1000.000
1741776633.920,-216.309,999.512,-107.910,-211.914
1741776633.923,999.512,914.551,-23.438,999.512
1741776633.927,949.219,960.938,150.391,949.707
1741776633.931,939.453,972.168,133.301,940.430
1741776633.935,980.469,900.391,-65.918,981.445
1741776633.939,935.059,999.512,-167.969,933.105
1741776633.896,-983.887,-1000.000,-236.328,-982.422
1741776633.900,-973.145,-1000.000,-226.074,-974.121
1741776633.904,-1000.000,-981.445,-128.418,-1000.000
1741776633.908,-1000.000,-969.238,-26.367,-1000.000
1741776633.912,-937.988,-1000.000,-41.992,-938.477
1741776633.916,-1000.000,78.125,-94.727,-1000.000
1741776633.920,-216.309,999.512,-107.910,-211.914
1741776633.923,999.512,914.551,-23.438,999.512
1741776633.927,949.219,960.938,150.391,949.707
1741776633.931,939.453,972.168,133.301,940.430
1741776633.935,980.469,900.391,-65.918,981.445
1741776633.939,935.059,999.512,-167.969,933.105
1741776633.941,959.961,255.859,-27.344,969.727
1741776633.945,999.512,-1000.000,83.984,970.703
1741776633.949,-272.461,-993.652,30.762,-310.059
1741776633.953,-1000.000,-908.203,-144.043,-1000.000
1741776633.957,-936.523,-1000.000,-255.859,-939.453
1741776633.961,-1000.000,-182.617,-210.449,-1000.000
1741776633.965,-1000.000,987.305,-85.938,-1000.000
1741776633.968,-1000.000,999.512,42.969,-1000.000
1741776633.972,-1000.000,137.207,-72.754,-1000.000
1741776633.976,-937.500,-1000.000,-154.785,-937.988
1741776633.980,-1000.000,-1000.000,-41.992,-1000.000
1741776633.984,-220.703,-155.762,-162.109,-213.867
1741776633.941,959.961,255.859,-27.344,969.727
1741776633.945,999.512,-1000.000,83.984,970.703
1741776633.949,-272.461,-993.652,30.762,-310.059
1741776633.953,-1000.000,-908.203,-144.043,-1000.000
1741776633.957,-936.523,-1000.000,-255.859,-939.453
1741776633.961,-1000.000,-182.617,-210.449,-1000.000
1741776633.965,-1000.000,987.305,-85.938,-1000.000
1741776633.968,-1000.000,999.512,42.969,-1000.000
1741776633.972,-1000.000,137.207,-72.754,-1000.000
1741776633.976,-937.500,-1000.000,-154.785,-937.988
1741776633.980,-1000.000,-1000.000,-41.992,-1000.000
1741776633.984,-220.703,-155.762,-162.109,-213.867
1741776633.986,999.512,999.512,-299.316,999.512
1741776633.990,952.637,955.078,-330.566,953.613
1741776633.994,924.805,871.094,-515.137,922.852
1741776633.998,933.594,999.512,-607.910,942.383
1741776634.002,999.512,378.418,-595.703,999.512
1741776634.006,-46.387,-993.652,-539.551,-83.496
1741776634.010,-1000.000,-1000.000,-679.688,-1000.000
1741776634.013,-954.102,-957.520,-814.453,-955.078
1741776634.017,-990.234,-1000.000,-753.906,-990.723
1741776634.021,-1000.000,-1000.000,-635.254,-1000.000
1741776634.025,-1000.000,-999.512,-505.371,-1000.000
1741776634.029,-937.500,-939.941,-574.707,-937.500
1741776634.032,-1000.000,-1000.000,-594.727,-1000.000
1741776634.036,-220.703,-192.383,-632.324,-220.703
1741776634.040,999.512,999.512,-640.625,999.512
1741776634.044,949.707,946.777,-423.340,950.684
1741776634.048,938.965,948.242,-361.328,939.941
1741776634.052,979.980,946.289,-446.777,980.469
1741776634.056,896.484,953.125,-477.539,897.949
1741776634.059,999.512,999.512,-459.961,999.512
1741776634.063,313.965,-214.355,-315.918,308.105
1741776634.067,-1000.000,-1000.000,-288.574,-1000.000
1741776634.071,-1000.000,-942.383,-504.883,-1000.000
1741776634.075,-962.891,-999.023,-517.090,-963.379
1741776634.032,-1000.000,-1000.000,-594.727,-1000.000
1741776634.036,-220.703,-192.383,-632.324,-220.703
1741776634.040,999.512,999.512,-640.625,999.512
1741776634.044,949.707,946.777,-423.340,950.684
1741776634.048,938.965,948.242,-361.328,939.941
1741776634.052,979.980,946.289,-446.777,980.469
1741776634.056,896.484,953.125,-477.539,897.949
1741776634.059,999.512,999.512,-459.961,999.512
1741776634.063,313.965,-214.355,-315.918,308.105
1741776634.067,-1000.000,-1000.000,-288.574,-1000.000
1741776634.071,-1000.000,-942.383,-504.883,-1000.000
1741776634.075,-962.891,-999.023,-517.090,-963.379
1741776634.091,-1000.000,-1000.000,-345.703,-1000.000
1741776634.095,-993.652,-946.289,-134.277,-998.535
1741776634.099,-948.242,-1000.000,-53.223,-940.918
1741776634.103,-1000.000,-846.191,-153.809,-1000.000
1741776634.107,-105.957,546.387,-423.340,-182.129
1741776634.111,999.512,999.512,-407.715,999.512
1741776634.115,935.059,830.078,-137.695,938.965
1741776634.118,884.766,999.512,-52.246,893.555
1741776634.122,999.512,404.297,-59.082,999.512
1741776634.126,187.012,-979.492,31.250,80.566
1741776634.130,-1000.000,-1000.000,-10.742,-1000.000
1741776634.134,-984.375,-957.031,-71.289,-974.121
1741776634.091,-1000.000,-1000.000,-345.703,-1000.000
1741776634.095,-993.652,-946.289,-134.277,-998.535
1741776634.099,-948.242,-1000.000,-53.223,-940.918
1741776634.103,-1000.000,-846.191,-153.809,-1000.000
1741776634.107,-105.957,546.387,-423.340,-182.129
1741776634.111,999.512,999.512,-407.715,999.512
1741776634.115,935.059,830.078,-137.695,938.965
1741776634.118,884.766,999.512,-52.246,893.555
1741776634.122,999.512,404.297,-59.082,999.512
1741776634.126,187.012,-979.492,31.250,80.566
1741776634.130,-1000.000,-1000.000,-10.742,-1000.000
1741776634.134,-984.375,-957.031,-71.289,-974.121
1741776634.121,-973.633,-1000.000,-50.781,-980.469
1741776634.125,-944.336,-950.684,-159.668,-942.871
1741776634.129,-1000.000,-1000.000,-41.016,-1000.000
1741776634.133,-220.703,-96.191,83.496,-220.703
1741776634.137,999.512,999.512,131.836,999.512
1741776634.141,950.195,943.848,203.125,950.684
1741776634.145,943.359,877.441,-21.484,946.289
1741776634.148,953.613,999.512,-260.742,945.801
1741776634.152,935.547,351.562,-145.020,957.520
1741776634.156,999.512,-1000.000,-19.043,998.535
1741776634.160,-117.188,-1000.000,-21.973,-229.492
1741776634.164,-1000.000,-959.961,-91.797,-1000.000
1741776634.181,-946.777,-1000.000,-173.828,-944.824
1741776634.185,-995.117,-1000.000,-59.570,-998.535
1741776634.189,-999.512,-970.215,5.371,-1000.000
1741776634.193,-941.406,-992.188,73.730,-937.500
1741776634.197,-1000.000,-1000.000,132.812,-1000.000
1741776634.201,-177.734,224.121,-30.762,-220.703
1741776634.205,999.512,999.512,-194.824,999.512
1741776634.208,954.590,902.832,-115.234,957.520
1741776634.212,869.629,910.645,79.102,870.605
1741776634.216,999.512,999.512,79.102,999.512
1741776634.220,394.531,136.230,46.875,311.035
1741776634.224,-988.770,-1000.000,125.000,-1000.000
1741776634.181,-946.777,-1000.000,-173.828,-944.824
1741776634.185,-995.117,-1000.000,-59.570,-998.535
1741776634.189,-999.512,-970.215,5.371,-1000.000
1741776634.193,-941.406,-992.188,73.730,-937.500
1741776634.197,-1000.000,-1000.000,132.812,-1000.000
1741776634.201,-177.734,224.121,-30.762,-220.703
1741776634.205,999.512,999.512,-194.824,999.512
1741776634.208,954.590,902.832,-115.234,957.520
1741776634.212,869.629,910.645,79.102,870.605
1741776634.216,999.512,999.512,79.102,999.512
1741776634.220,394.531,136.230,46.875,311.035
1741776634.224,-988.770,-1000.000,125.000,-1000.000
1741776634.181,-946.777,-1000.000,-173.828,-944.824
1741776634.185,-995.117,-1000.000,-59.570,-998.535
1741776634.189,-999.512,-970.215,5.371,-1000.000
1741776634.193,-941.406,-992.188,73.730,-937.500
1741776634.197,-1000.000,-1000.000,132.812,-1000.000
1741776634.201,-177.734,224.121,-30.762,-220.703
1741776634.205,999.512,999.512,-194.824,999.512
1741776634.208,954.590,902.832,-115.234,957.520
1741776634.212,869.629,910.645,79.102,870.605
1741776634.216,999.512,999.512,79.102,999.512
1741776634.220,394.531,136.230,46.875,311.035
1741776634.224,-988.770,-1000.000,125.000,-1000.000
1741776634.226,-1000.000,-977.539,39.062,-1000.000
1741776634.230,-958.008,-984.375,52.734,-963.867
1741776634.234,-1000.000,-975.586,-49.805,-1000.000
1741776634.238,-953.125,-993.164,-273.438,-945.801
1741776634.242,-1000.000,-1000.000,-221.680,-1000.000
1741776634.246,-52.734,233.398,-189.453,-130.371
1741776634.250,999.512,999.512,-213.867,999.512
1741776634.253,857.422,887.207,-173.828,873.047
1741776634.257,999.512,999.512,-306.152,999.512
1741776634.261,319.336,-173.340,-260.254,245.117
1741776634.265,-1000.000,-1000.000,-206.543,-1000.000
1741776634.269,-1000.000,-947.754,-243.164,-993.164
1741776634.271,-962.891,-998.047,-243.652,-968.750
1741776634.275,-1000.000,-991.211,-258.789,-1000.000
1741776634.279,-937.500,-960.449,-156.738,-935.547
1741776634.283,-1000.000,-1000.000,-55.176,-1000.000
1741776634.287,-220.703,-43.457,-171.875,-253.418
1741776634.291,999.512,999.512,-214.355,999.512
1741776634.295,950.195,938.965,-153.320,956.055
1741776634.298,940.430,935.547,-249.023,937.988
1741776634.302,909.668,934.570,-241.699,911.621
1741776634.306,999.512,999.512,-228.027,999.512
1741776634.310,199.707,-30.273,-40.527,187.988
1741776634.314,-1000.000,-1000.000,-9.277,-1000.000
1741776634.317,-986.328,-898.926,-277.344,-983.887
1741776634.321,-972.168,-1000.000,-302.734,-973.145
1741776634.325,-1000.000,-285.156,-292.480,-1000.000
1741776634.329,-1000.000,999.512,-288.574,-1000.000
1741776634.333,-937.500,593.750,-249.023,-933.105
1741776634.337,-1000.000,-1000.000,-166.992,-1000.000
1741776634.341,-220.703,-209.961,-230.469,-293.945
1741776634.344,999.512,999.512,-267.578,999.512
1741776634.348,950.195,930.176,-143.066,962.891
1741776634.352,941.406,946.777,-190.918,939.453
1741776634.356,959.473,907.227,-279.785,951.660
1741776634.360,924.805,999.512,-261.230,950.195
1741776634.363,999.512,233.887,-229.492,999.512
1741776634.367,-31.738,-1000.000,-153.320,-175.293
1741776634.371,-1000.000,-946.777,-233.398,-1000.000
1741776634.375,-886.719,-1000.000,-382.812,-880.859
1741776634.379,-1000.000,-897.949,-348.145,-1000.000
1741776634.383,-328.613,445.801,-358.398,-350.098
1741776634.387,982.422,999.512,-266.113,951.172
1741776634.390,929.688,999.512,-185.547,979.492
