timestamps,TP9,AF7,AF8,TP10
1741777899.740,-1000.000,-1000.000,-365.723,-1000.000
1741777899.744,-974.609,-1000.000,36.133,-984.375
1741777899.748,-993.652,-982.422,401.367,-986.816
1741777899.752,-960.938,-953.613,441.406,-968.750
1741777899.756,-1000.000,-1000.000,95.215,-1000.000
1741777899.760,-985.352,-905.762,252.441,-1000.000
1741777899.764,413.574,551.270,843.262,340.332
1741777899.767,999.512,999.512,863.770,999.512
1741777899.771,900.879,900.391,516.113,912.598
1741777899.775,995.117,999.512,-165.039,970.215
1741777899.779,-365.234,-364.258,-725.098,-404.785
1741777899.783,-1000.000,-1000.000,-441.406,-1000.000
1741777899.785,-929.688,-929.688,-185.059,-928.711
1741777899.789,-1000.000,-1000.000,-169.922,-1000.000
1741777899.793,-965.332,-964.844,-559.570,-967.773
1741777899.797,-1000.000,-1000.000,-643.555,-995.117
1741777899.801,-1000.000,-1000.000,-184.082,-1000.000
1741777899.805,282.715,291.992,448.242,252.441
1741777899.809,999.512,999.512,757.812,999.512
1741777899.812,897.461,898.438,30.273,900.879
1741777899.816,971.680,973.145,-538.574,970.703
1741777899.820,977.539,975.586,-318.848,978.027
1741777899.824,925.781,934.082,-67.871,927.246
1741777899.828,978.027,962.402,224.609,977.051
1741777899.785,-929.688,-929.688,-185.059,-928.711
1741777899.789,-1000.000,-1000.000,-169.922,-1000.000
1741777899.793,-965.332,-964.844,-559.570,-967.773
1741777899.797,-1000.000,-1000.000,-643.555,-995.117
1741777899.801,-1000.000,-1000.000,-184.082,-1000.000
1741777899.805,282.715,291.992,448.242,252.441
1741777899.809,999.512,999.512,757.812,999.512
1741777899.812,897.461,898.438,30.273,900.879
1741777899.816,971.680,973.145,-538.574,970.703
1741777899.820,977.539,975.586,-318.848,978.027
1741777899.824,925.781,934.082,-67.871,927.246
1741777899.828,978.027,962.402,224.609,977.051
1741777899.830,973.633,999.512,-47.852,975.586
1741777899.834,-386.230,-291.992,-744.141,-373.047
1741777899.838,-1000.000,-1000.000,-963.379,-1000.000
1741777899.842,-928.711,-933.105,-527.832,-930.664
1741777899.846,-1000.000,-1000.000,-42.480,-1000.000
1741777899.850,-1000.000,-1000.000,20.020,-1000.000
1741777899.854,-1000.000,-1000.000,-338.379,-1000.000
1741777899.857,-929.688,-934.082,-252.441,-934.570
1741777899.861,-1000.000,-1000.000,74.219,-1000.000
1741777899.865,-718.750,-794.434,83.984,-652.344
1741777899.869,757.812,683.594,255.859,775.879
1741777899.873,999.512,999.512,243.652,999.512
1741777899.830,973.633,999.512,-47.852,975.586
1741777899.834,-386.230,-291.992,-744.141,-373.047
1741777899.838,-1000.000,-1000.000,-963.379,-1000.000
1741777899.842,-928.711,-933.105,-527.832,-930.664
1741777899.846,-1000.000,-1000.000,-42.480,-1000.000
1741777899.850,-1000.000,-1000.000,20.020,-1000.000
1741777899.854,-1000.000,-1000.000,-338.379,-1000.000
1741777899.857,-929.688,-934.082,-252.441,-934.570
1741777899.861,-1000.000,-1000.000,74.219,-1000.000
1741777899.865,-718.750,-794.434,83.984,-652.344
1741777899.869,757.812,683.594,255.859,775.879
1741777899.873,999.512,999.512,243.652,999.512
1741777899.876,899.902,895.996,-88.379,905.762
1741777899.880,995.117,990.723,86.426,994.629
1741777899.884,924.805,942.871,301.270,924.805
1741777899.888,980.469,945.312,48.828,983.887
1741777899.892,967.773,999.512,-358.887,956.543
1741777899.896,-398.438,-163.574,-364.746,-407.227
1741777899.900,-1000.000,-1000.000,-474.121,-1000.000
1741777899.903,-928.711,-945.312,-380.859,-930.176
1741777899.907,-1000.000,-999.023,-301.758,-1000.000
1741777899.911,-986.328,-998.535,-687.988,-984.863
1741777899.915,-963.379,-947.266,-623.535,-967.285
1741777899.919,-1000.000,-1000.000,-33.203,-1000.000
1741777899.876,899.902,895.996,-88.379,905.762
1741777899.880,995.117,990.723,86.426,994.629
1741777899.884,924.805,942.871,301.270,924.805
1741777899.888,980.469,945.312,48.828,983.887
1741777899.892,967.773,999.512,-358.887,956.543
1741777899.896,-398.438,-163.574,-364.746,-407.227
1741777899.900,-1000.000,-1000.000,-474.121,-1000.000
1741777899.903,-928.711,-945.312,-380.859,-930.176
1741777899.907,-1000.000,-999.023,-301.758,-1000.000
1741777899.911,-986.328,-998.535,-687.988,-984.863
1741777899.915,-963.379,-947.266,-623.535,-967.285
1741777899.919,-1000.000,-1000.000,-33.203,-1000.000
1741777899.920,-22.949,-208.008,343.262,-12.207
1741777899.924,999.512,999.512,566.895,999.512
1741777899.928,930.176,957.031,-34.668,932.129
1741777899.932,952.148,938.965,-270.508,952.637
1741777899.936,987.305,990.723,162.598,987.793
1741777899.940,904.297,908.203,195.801,905.273
1741777899.944,999.512,999.512,201.172,999.512
1741777899.947,810.059,847.168,-417.969,809.570
1741777899.951,-657.227,-611.816,-984.375,-653.809
1741777899.955,-1000.000,-1000.000,-493.652,-1000.000
1741777899.959,-927.246,-925.781,75.684,-927.734
1741777899.963,-1000.000,-1000.000,302.246,-1000.000
1741777899.920,-22.949,-208.008,343.262,-12.207
1741777899.924,999.512,999.512,566.895,999.512
1741777899.928,930.176,957.031,-34.668,932.129
1741777899.932,952.148,938.965,-270.508,952.637
1741777899.936,987.305,990.723,162.598,987.793
1741777899.940,904.297,908.203,195.801,905.273
1741777899.944,999.512,999.512,201.172,999.512
1741777899.947,810.059,847.168,-417.969,809.570
1741777899.951,-657.227,-611.816,-984.375,-653.809
1741777899.955,-1000.000,-1000.000,-493.652,-1000.000
1741777899.959,-927.246,-925.781,75.684,-927.734
1741777899.963,-1000.000,-1000.000,302.246,-1000.000
1741777899.966,-995.605,-1000.000,-182.617,-999.023
1741777899.970,-949.707,-933.594,-716.797,-945.801
1741777899.974,-1000.000,-1000.000,-149.414,-1000.000
1741777899.978,-183.105,-429.199,601.074,-253.906
1741777899.982,999.512,929.199,973.633,987.305
1741777899.986,952.148,991.699,880.859,964.844
1741777899.990,940.430,922.363,434.570,935.547
1741777899.993,988.770,993.164,642.090,989.746
1741777899.997,912.109,918.457,697.266,916.504
1741777900.001,999.512,996.582,416.992,999.512
1741777900.005,886.230,928.711,83.984,913.574
1741777900.009,-552.246,-480.469,-635.254,-504.395
1741777899.966,-995.605,-1000.000,-182.617,-999.023
1741777899.970,-949.707,-933.594,-716.797,-945.801
1741777899.974,-1000.000,-1000.000,-149.414,-1000.000
1741777899.978,-183.105,-429.199,601.074,-253.906
1741777899.982,999.512,929.199,973.633,987.305
1741777899.986,952.148,991.699,880.859,964.844
1741777899.990,940.430,922.363,434.570,935.547
1741777899.993,988.770,993.164,642.090,989.746
1741777899.997,912.109,918.457,697.266,916.504
1741777900.001,999.512,996.582,416.992,999.512
1741777900.005,886.230,928.711,83.984,913.574
1741777900.009,-552.246,-480.469,-635.254,-504.395
1741777900.010,-1000.000,-1000.000,-746.094,-1000.000
1741777900.014,-925.781,-926.270,-215.332,-926.270
1741777900.018,-1000.000,-1000.000,48.828,-1000.000
1741777900.022,-941.895,-931.152,122.559,-942.383
1741777900.026,-1000.000,-1000.000,-243.652,-1000.000
1741777900.030,-883.301,-711.914,-23.438,-888.184
1741777900.034,573.730,753.906,832.031,568.359
1741777900.037,999.512,999.512,694.824,999.512
1741777900.041,892.090,901.367,100.098,892.578
1741777900.045,982.422,983.887,-317.383,982.910
1741777900.049,975.586,979.004,-241.211,974.609
1741777900.053,930.664,923.828,308.105,936.035
1741777900.010,-1000.000,-1000.000,-746.094,-1000.000
1741777900.014,-925.781,-926.270,-215.332,-926.270
1741777900.018,-1000.000,-1000.000,48.828,-1000.000
1741777900.022,-941.895,-931.152,122.559,-942.383
1741777900.026,-1000.000,-1000.000,-243.652,-1000.000
1741777900.030,-883.301,-711.914,-23.438,-888.184
1741777900.034,573.730,753.906,832.031,568.359
1741777900.037,999.512,999.512,694.824,999.512
1741777900.041,892.090,901.367,100.098,892.578
1741777900.045,982.422,983.887,-317.383,982.910
1741777900.049,975.586,979.004,-241.211,974.609
1741777900.053,930.664,923.828,308.105,936.035
1741777900.055,966.797,984.863,224.121,958.008
1741777900.059,999.512,958.496,104.004,999.512
1741777900.063,-322.754,-416.504,-347.168,-260.742
1741777900.067,-1000.000,-1000.000,-721.191,-1000.000
1741777900.071,-931.641,-928.223,-119.629,-936.035
1741777900.075,-1000.000,-1000.000,584.473,-1000.000
1741777900.079,-1000.000,-1000.000,604.492,-1000.000
1741777900.082,-1000.000,-1000.000,-68.359,-1000.000
1741777900.086,-942.383,-942.383,-269.531,-941.406
1741777900.090,-1000.000,-1000.000,278.320,-1000.000
1741777900.094,-891.113,-891.113,582.520,-875.000
1741777900.098,563.965,564.453,887.695,583.496
1741777900.055,966.797,984.863,224.121,958.008
1741777900.059,999.512,958.496,104.004,999.512
1741777900.063,-322.754,-416.504,-347.168,-260.742
1741777900.067,-1000.000,-1000.000,-721.191,-1000.000
1741777900.071,-931.641,-928.223,-119.629,-936.035
1741777900.075,-1000.000,-1000.000,584.473,-1000.000
1741777900.079,-1000.000,-1000.000,604.492,-1000.000
1741777900.082,-1000.000,-1000.000,-68.359,-1000.000
1741777900.086,-942.383,-942.383,-269.531,-941.406
1741777900.090,-1000.000,-1000.000,278.320,-1000.000
1741777900.094,-891.113,-891.113,582.520,-875.000
1741777900.098,563.965,564.453,887.695,583.496
1741777900.115,999.512,999.512,572.754,999.512
1741777900.119,891.602,892.578,-129.883,893.066
1741777900.123,981.934,982.910,49.805,982.910
1741777900.127,975.098,974.121,507.324,976.074
1741777900.131,932.129,937.500,673.340,932.617
1741777900.135,963.867,954.590,490.723,966.797
1741777900.139,999.512,999.512,144.043,998.047
1741777900.142,-304.688,-245.605,-66.406,-304.688
1741777900.146,-1000.000,-1000.000,-228.516,-1000.000
1741777900.150,-932.617,-936.035,-19.043,-935.059
1741777900.154,-1000.000,-1000.000,-78.613,-1000.000
1741777900.158,-972.656,-987.793,-250.488,-970.215
1741777900.115,999.512,999.512,572.754,999.512
1741777900.119,891.602,892.578,-129.883,893.066
1741777900.123,981.934,982.910,49.805,982.910
1741777900.127,975.098,974.121,507.324,976.074
1741777900.131,932.129,937.500,673.340,932.617
1741777900.135,963.867,954.590,490.723,966.797
1741777900.139,999.512,999.512,144.043,998.047
1741777900.142,-304.688,-245.605,-66.406,-304.688
1741777900.146,-1000.000,-1000.000,-228.516,-1000.000
1741777900.150,-932.617,-936.035,-19.043,-935.059
1741777900.154,-1000.000,-1000.000,-78.613,-1000.000
1741777900.158,-972.656,-987.793,-250.488,-970.215
1741777900.160,-985.840,-960.938,-87.402,-994.629
1741777900.164,-1000.000,-1000.000,230.469,-1000.000
1741777900.168,183.594,-43.945,524.414,213.379
1741777900.172,999.512,999.512,577.148,999.512
1741777900.176,905.762,933.594,27.344,909.668
1741777900.180,970.703,954.102,42.480,971.680
1741777900.184,951.660,964.355,385.742,953.125
1741777900.187,931.152,918.945,170.410,933.105
1741777900.191,999.512,999.512,-143.555,999.512
1741777900.195,-37.109,107.422,-533.691,-20.020
1741777900.199,-1000.000,-1000.000,-895.996,-1000.000
1741777900.203,-960.449,-979.980,-280.273,-965.332
1741777900.160,-985.840,-960.938,-87.402,-994.629
1741777900.164,-1000.000,-1000.000,230.469,-1000.000
1741777900.168,183.594,-43.945,524.414,213.379
1741777900.172,999.512,999.512,577.148,999.512
1741777900.176,905.762,933.594,27.344,909.668
1741777900.180,970.703,954.102,42.480,971.680
1741777900.184,951.660,964.355,385.742,953.125
1741777900.187,931.152,918.945,170.410,933.105
1741777900.191,999.512,999.512,-143.555,999.512
1741777900.195,-37.109,107.422,-533.691,-20.020
1741777900.199,-1000.000,-1000.000,-895.996,-1000.000
1741777900.203,-960.449,-979.980,-280.273,-965.332
1741777900.205,-988.770,-980.469,319.336,-986.328
1741777900.209,-1000.000,-999.023,38.574,-1000.000
1741777900.213,-934.082,-954.590,-434.082,-929.688
1741777900.217,-1000.000,-1000.000,-401.367,-1000.000
1741777900.221,-420.410,-140.137,273.438,-535.156
1741777900.225,932.617,999.512,905.762,877.930
1741777900.229,989.746,948.242,745.605,999.512
1741777900.232,922.363,943.848,-155.273,914.062
1741777900.236,978.516,973.145,-427.246,981.445
1741777900.240,982.422,983.398,41.504,983.398
1741777900.244,908.691,909.180,400.879,908.691
1741777900.248,999.512,999.512,748.535,999.512
1741777900.205,-988.770,-980.469,319.336,-986.328
1741777900.209,-1000.000,-999.023,38.574,-1000.000
1741777900.213,-934.082,-954.590,-434.082,-929.688
1741777900.217,-1000.000,-1000.000,-401.367,-1000.000
1741777900.221,-420.410,-140.137,273.438,-535.156
1741777900.225,932.617,999.512,905.762,877.930
1741777900.229,989.746,948.242,745.605,999.512
1741777900.232,922.363,943.848,-155.273,914.062
1741777900.236,978.516,973.145,-427.246,981.445
1741777900.240,982.422,983.398,41.504,983.398
1741777900.244,908.691,909.180,400.879,908.691
1741777900.248,999.512,999.512,748.535,999.512
1741777900.250,856.934,857.910,265.137,851.562
1741777900.254,-597.656,-597.656,-537.109,-605.957
1741777900.258,-1000.000,-1000.000,-335.938,-1000.000
1741777900.262,-925.781,-925.781,183.594,-925.781
1741777900.266,-1000.000,-1000.000,322.754,-1000.000
1741777900.270,-1000.000,-1000.000,135.254,-1000.000
1741777900.274,-1000.000,-1000.000,-84.473,-1000.000
1741777900.277,-1000.000,-1000.000,21.973,-1000.000
1741777900.281,-1000.000,-1000.000,-121.094,-1000.000
1741777900.285,-1000.000,-1000.000,-209.473,-1000.000
1741777900.289,-941.406,-942.383,-241.699,-942.383
1741777900.293,-1000.000,-1000.000,-413.086,-1000.000
1741777900.250,856.934,857.910,265.137,851.562
1741777900.254,-597.656,-597.656,-537.109,-605.957
1741777900.258,-1000.000,-1000.000,-335.938,-1000.000
1741777900.262,-925.781,-925.781,183.594,-925.781
1741777900.266,-1000.000,-1000.000,322.754,-1000.000
1741777900.270,-1000.000,-1000.000,135.254,-1000.000
1741777900.274,-1000.000,-1000.000,-84.473,-1000.000
1741777900.277,-1000.000,-1000.000,21.973,-1000.000
1741777900.281,-1000.000,-1000.000,-121.094,-1000.000
1741777900.285,-1000.000,-1000.000,-209.473,-1000.000
1741777900.289,-941.406,-942.383,-241.699,-942.383
1741777900.293,-1000.000,-1000.000,-413.086,-1000.000
1741777900.295,-875.488,-891.113,-70.312,-890.625
1741777900.299,583.496,564.453,589.844,564.453
1741777900.303,999.512,999.512,608.887,999.512
1741777900.307,892.090,892.090,91.309,892.578
1741777900.311,982.422,982.910,-300.293,982.910
1741777900.315,966.309,966.797,1.953,966.797
1741777900.319,977.051,976.074,574.219,977.539
1741777900.322,927.246,933.105,299.316,927.734
1741777900.326,974.121,963.867,-321.777,976.562
1741777900.330,983.887,999.512,-363.281,975.098
1741777900.334,-364.746,-300.781,-147.461,-369.141
1741777900.338,-1000.000,-1000.000,-150.879,-1000.000
1741777900.340,-929.688,-932.617,-166.016,-931.152
1741777900.344,-1000.000,-1000.000,-232.422,-1000.000
1741777900.348,-978.027,-985.352,-645.020,-978.516
1741777900.352,-976.562,-964.355,-369.141,-977.051
1741777900.356,-1000.000,-1000.000,260.254,-1000.000
1741777900.360,107.910,-4.883,647.949,91.797
1741777900.364,999.512,999.512,863.770,999.512
1741777900.367,913.574,928.223,178.711,918.945
1741777900.371,960.938,954.590,-232.422,959.961
1741777900.375,984.375,986.816,30.762,985.840
1741777900.379,908.691,909.180,-2.441,908.203
1741777900.383,999.512,999.512,78.613,999.512
1741777900.340,-929.688,-932.617,-166.016,-931.152
1741777900.344,-1000.000,-1000.000,-232.422,-1000.000
1741777900.348,-978.027,-985.352,-645.020,-978.516
1741777900.352,-976.562,-964.355,-369.141,-977.051
1741777900.356,-1000.000,-1000.000,260.254,-1000.000
1741777900.360,107.910,-4.883,647.949,91.797
1741777900.364,999.512,999.512,863.770,999.512
1741777900.367,913.574,928.223,178.711,918.945
1741777900.371,960.938,954.590,-232.422,959.961
1741777900.375,984.375,986.816,30.762,985.840
1741777900.379,908.691,909.180,-2.441,908.203
1741777900.383,999.512,999.512,78.613,999.512
1741777900.385,856.934,857.910,-224.121,844.727
1741777900.389,-597.656,-597.656,-821.777,-613.770
1741777900.393,-1000.000,-1000.000,-659.668,-1000.000
1741777900.397,-925.781,-925.781,28.320,-926.270
1741777900.401,-1000.000,-1000.000,313.965,-1000.000
1741777900.405,-1000.000,-1000.000,171.875,-1000.000
1741777900.409,-976.562,-986.816,202.148,-974.609
1741777900.412,-978.516,-962.891,265.625,-983.887
1741777900.416,-1000.000,-1000.000,305.176,-1000.000
1741777900.420,127.441,-25.879,472.168,143.555
1741777900.424,999.512,999.512,590.820,999.512
1741777900.428,911.621,931.152,423.828,914.062
1741777900.385,856.934,857.910,-224.121,844.727
1741777900.389,-597.656,-597.656,-821.777,-613.770
1741777900.393,-1000.000,-1000.000,-659.668,-1000.000
1741777900.397,-925.781,-925.781,28.320,-926.270
1741777900.401,-1000.000,-1000.000,313.965,-1000.000
1741777900.405,-1000.000,-1000.000,171.875,-1000.000
1741777900.409,-976.562,-986.816,202.148,-974.609
1741777900.412,-978.516,-962.891,265.625,-983.887
1741777900.416,-1000.000,-1000.000,305.176,-1000.000
1741777900.420,127.441,-25.879,472.168,143.555
1741777900.424,999.512,999.512,590.820,999.512
1741777900.428,911.621,931.152,423.828,914.062
1741777900.431,962.402,952.637,333.008,962.891
1741777900.435,983.887,987.305,562.500,985.352
1741777900.439,908.691,909.180,602.539,906.738
1741777900.443,999.512,999.512,189.453,999.512
1741777900.447,857.422,857.910,-144.043,827.637
1741777900.451,-597.656,-597.656,-106.934,-631.836
1741777900.455,-1000.000,-1000.000,36.621,-1000.000
1741777900.458,-925.781,-925.781,45.410,-927.246
1741777900.462,-1000.000,-1000.000,-302.246,-1000.000
1741777900.466,-1000.000,-1000.000,-779.785,-1000.000
1741777900.470,-1000.000,-1000.000,-536.133,-1000.000
1741777900.474,-1000.000,-1000.000,166.016,-1000.000
1741777900.431,962.402,952.637,333.008,962.891
1741777900.435,983.887,987.305,562.500,985.352
1741777900.439,908.691,909.180,602.539,906.738
1741777900.443,999.512,999.512,189.453,999.512
1741777900.447,857.422,857.910,-144.043,827.637
1741777900.451,-597.656,-597.656,-106.934,-631.836
1741777900.455,-1000.000,-1000.000,36.621,-1000.000
1741777900.458,-925.781,-925.781,45.410,-927.246
1741777900.462,-1000.000,-1000.000,-302.246,-1000.000
1741777900.466,-1000.000,-1000.000,-779.785,-1000.000
1741777900.470,-1000.000,-1000.000,-536.133,-1000.000
1741777900.474,-1000.000,-1000.000,166.016,-1000.000
1741777900.490,-1000.000,-1000.000,325.684,-1000.000
1741777900.494,-977.539,-969.727,-38.574,-985.840
1741777900.498,-977.539,-991.211,-404.785,-963.379
1741777900.502,-1000.000,-1000.000,-375.000,-1000.000
1741777900.506,116.699,224.121,139.160,-28.809
1741777900.510,999.512,999.512,861.328,999.512
1741777900.514,912.598,903.320,320.801,932.129
1741777900.517,961.914,969.238,-824.219,952.148
1741777900.521,967.773,967.773,-708.984,971.191
1741777900.525,983.398,983.398,-120.117,983.887
1741777900.529,902.344,908.203,158.203,904.297
1741777900.533,999.512,999.512,336.914,999.512
1741777900.490,-1000.000,-1000.000,325.684,-1000.000
1741777900.494,-977.539,-969.727,-38.574,-985.840
1741777900.498,-977.539,-991.211,-404.785,-963.379
1741777900.502,-1000.000,-1000.000,-375.000,-1000.000
1741777900.506,116.699,224.121,139.160,-28.809
1741777900.510,999.512,999.512,861.328,999.512
1741777900.514,912.598,903.320,320.801,932.129
1741777900.517,961.914,969.238,-824.219,952.148
1741777900.521,967.773,967.773,-708.984,971.191
1741777900.525,983.398,983.398,-120.117,983.887
1741777900.529,902.344,908.203,158.203,904.297
1741777900.533,999.512,999.512,336.914,999.512
1741777900.535,791.016,845.703,-383.301,793.457
1741777900.539,-680.664,-613.281,-992.676,-671.387
1741777900.543,-1000.000,-1000.000,-594.727,-1000.000
1741777900.547,-928.223,-926.270,-90.332,-928.711
1741777900.551,-1000.000,-1000.000,88.379,-1000.000
1741777900.555,-1000.000,-1000.000,6.836,-1000.000
1741777900.559,-1000.000,-1000.000,34.180,-1000.000
1741777900.562,-1000.000,-1000.000,104.980,-1000.000
1741777900.566,-1000.000,-1000.000,-116.211,-1000.000
1741777900.570,-1000.000,-1000.000,-342.773,-1000.000
1741777900.574,-938.477,-941.895,-668.945,-941.895
1741777900.578,-1000.000,-1000.000,-760.254,-1000.000
1741777900.535,791.016,845.703,-383.301,793.457
1741777900.539,-680.664,-613.281,-992.676,-671.387
1741777900.543,-1000.000,-1000.000,-594.727,-1000.000
1741777900.547,-928.223,-926.270,-90.332,-928.711
1741777900.551,-1000.000,-1000.000,88.379,-1000.000
1741777900.555,-1000.000,-1000.000,6.836,-1000.000
1741777900.559,-1000.000,-1000.000,34.180,-1000.000
1741777900.562,-1000.000,-1000.000,104.980,-1000.000
1741777900.566,-1000.000,-1000.000,-116.211,-1000.000
1741777900.570,-1000.000,-1000.000,-342.773,-1000.000
1741777900.574,-938.477,-941.895,-668.945,-941.895
1741777900.578,-1000.000,-1000.000,-760.254,-1000.000
1741777900.580,-840.332,-886.230,-223.145,-881.348
1741777900.584,624.512,570.801,474.609,576.660
1741777900.588,999.512,999.512,501.953,999.512
1741777900.592,893.555,892.578,-222.656,892.578
1741777900.596,982.910,982.910,-706.055,982.910
1741777900.600,979.004,976.562,-230.469,978.516
1741777900.604,920.410,932.129,221.680,923.828
1741777900.607,990.234,966.797,-41.504,984.863
1741777900.611,942.871,999.512,-514.160,957.031
1741777900.615,-450.684,-316.895,-830.078,-416.016
1741777900.619,-1000.000,-1000.000,-700.684,-1000.000
1741777900.623,-926.758,-932.129,-45.410,-928.711
1741777900.580,-840.332,-886.230,-223.145,-881.348
1741777900.584,624.512,570.801,474.609,576.660
1741777900.588,999.512,999.512,501.953,999.512
1741777900.592,893.555,892.578,-222.656,892.578
1741777900.596,982.910,982.910,-706.055,982.910
1741777900.600,979.004,976.562,-230.469,978.516
1741777900.604,920.410,932.129,221.680,923.828
1741777900.607,990.234,966.797,-41.504,984.863
1741777900.611,942.871,999.512,-514.160,957.031
1741777900.615,-450.684,-316.895,-830.078,-416.016
1741777900.619,-1000.000,-1000.000,-700.684,-1000.000
1741777900.623,-926.758,-932.129,-45.410,-928.711
1741777900.625,-1000.000,-1000.000,161.621,-1000.000
1741777900.629,-1000.000,-1000.000,-94.727,-1000.000
1741777900.633,-933.594,-939.941,-423.828,-935.547
1741777900.637,-1000.000,-1000.000,-61.035,-1000.000
1741777900.641,-784.668,-862.305,523.438,-787.109
1741777900.645,691.895,602.051,916.016,678.223
1741777900.649,999.512,999.512,816.895,999.512
1741777900.652,895.996,893.066,-198.242,897.461
1741777900.656,983.887,983.398,-553.223,983.887
1741777900.660,983.887,983.887,-178.223,983.887
1741777900.664,900.391,906.738,-10.742,902.832
1741777900.668,999.512,999.512,80.078,999.512
1741777900.625,-1000.000,-1000.000,161.621,-1000.000
1741777900.629,-1000.000,-1000.000,-94.727,-1000.000
1741777900.633,-933.594,-939.941,-423.828,-935.547
1741777900.637,-1000.000,-1000.000,-61.035,-1000.000
1741777900.641,-784.668,-862.305,523.438,-787.109
1741777900.645,691.895,602.051,916.016,678.223
1741777900.649,999.512,999.512,816.895,999.512
1741777900.652,895.996,893.066,-198.242,897.461
1741777900.656,983.887,983.398,-553.223,983.887
1741777900.660,983.887,983.887,-178.223,983.887
1741777900.664,900.391,906.738,-10.742,902.832
1741777900.668,999.512,999.512,80.078,999.512
1741777900.670,763.672,830.566,-328.125,777.344
1741777900.674,-712.402,-633.301,-936.523,-689.941
1741777900.678,-1000.000,-1000.000,-672.852,-1000.000
1741777900.682,-929.199,-926.758,-54.688,-929.199
1741777900.686,-1000.000,-1000.000,0.000,-1000.000
1741777900.690,-1000.000,-1000.000,-302.246,-1000.000
1741777900.694,-1000.000,-1000.000,-534.180,-1000.000
1741777900.697,-938.965,-928.711,-386.230,-942.383
1741777900.701,-1000.000,-1000.000,-62.988,-1000.000
1741777900.705,-333.496,-530.762,94.727,-336.914
1741777900.709,965.332,887.207,129.883,950.195
1741777900.713,975.098,999.512,124.023,979.980
1741777900.716,929.199,914.551,51.758,930.176
1741777900.720,991.211,999.023,60.059,984.863
1741777900.724,893.555,895.020,210.938,904.785
1741777900.728,999.512,999.512,-144.531,999.512
1741777900.732,553.711,650.879,-580.078,425.781
1741777900.736,-886.719,-822.754,-342.285,-923.828
1741777900.740,-1000.000,-1000.000,50.293,-1000.000
1741777900.743,-943.359,-936.523,115.234,-953.125
1741777900.747,-1000.000,-1000.000,-260.254,-1000.000
1741777900.751,-942.383,-942.383,-532.227,-940.918
1741777900.755,-1000.000,-1000.000,-208.984,-1000.000
1741777900.759,-889.648,-891.113,377.441,-874.023
1741777900.716,929.199,914.551,51.758,930.176
1741777900.720,991.211,999.023,60.059,984.863
1741777900.724,893.555,895.020,210.938,904.785
1741777900.728,999.512,999.512,-144.531,999.512
1741777900.732,553.711,650.879,-580.078,425.781
1741777900.736,-886.719,-822.754,-342.285,-923.828
1741777900.740,-1000.000,-1000.000,50.293,-1000.000
1741777900.743,-943.359,-936.523,115.234,-953.125
1741777900.747,-1000.000,-1000.000,-260.254,-1000.000
1741777900.751,-942.383,-942.383,-532.227,-940.918
1741777900.755,-1000.000,-1000.000,-208.984,-1000.000
1741777900.759,-889.648,-891.113,377.441,-874.023
1741777900.760,565.918,564.453,901.367,584.961
1741777900.764,999.512,999.512,769.043,999.512
1741777900.768,891.602,892.578,61.523,893.066
1741777900.772,990.234,988.770,105.469,990.723
1741777900.776,935.059,943.848,515.137,938.965
1741777900.780,958.008,943.848,745.117,954.590
1741777900.784,999.512,999.512,419.922,999.512
1741777900.787,-269.043,-152.344,-420.410,-220.703
1741777900.791,-1000.000,-1000.000,-739.746,-1000.000
1741777900.795,-934.570,-946.289,-194.336,-941.406
1741777900.799,-1000.000,-996.094,316.406,-1000.000
1741777900.803,-1000.000,-1000.000,586.914,-1000.000
1741777900.760,565.918,564.453,901.367,584.961
1741777900.764,999.512,999.512,769.043,999.512
1741777900.768,891.602,892.578,61.523,893.066
1741777900.772,990.234,988.770,105.469,990.723
1741777900.776,935.059,943.848,515.137,938.965
1741777900.780,958.008,943.848,745.117,954.590
1741777900.784,999.512,999.512,419.922,999.512
1741777900.787,-269.043,-152.344,-420.410,-220.703
1741777900.791,-1000.000,-1000.000,-739.746,-1000.000
1741777900.795,-934.570,-946.289,-194.336,-941.406
1741777900.799,-1000.000,-996.094,316.406,-1000.000
1741777900.803,-1000.000,-1000.000,586.914,-1000.000
1741777900.805,-1000.000,-1000.000,7.324,-1000.000
1741777900.809,-1000.000,-1000.000,-443.848,-1000.000
1741777900.813,-1000.000,-980.957,-123.535,-1000.000
1741777900.817,-930.176,-972.656,60.547,-929.688
1741777900.821,-1000.000,-1000.000,-125.977,-1000.000
1741777900.825,-511.719,60.059,-290.039,-684.082
1741777900.829,892.090,999.512,64.453,781.738
1741777900.832,999.512,921.875,293.945,999.512
1741777900.836,915.039,958.496,178.711,903.320
1741777900.840,980.469,969.727,-52.246,983.887
1741777900.844,966.309,966.797,-509.766,966.797
1741777900.848,966.309,966.797,-518.066,966.797
1741777900.805,-1000.000,-1000.000,7.324,-1000.000
1741777900.809,-1000.000,-1000.000,-443.848,-1000.000
1741777900.813,-1000.000,-980.957,-123.535,-1000.000
1741777900.817,-930.176,-972.656,60.547,-929.688
1741777900.821,-1000.000,-1000.000,-125.977,-1000.000
1741777900.825,-511.719,60.059,-290.039,-684.082
1741777900.829,892.090,999.512,64.453,781.738
1741777900.832,999.512,921.875,293.945,999.512
1741777900.836,915.039,958.496,178.711,903.320
1741777900.840,980.469,969.727,-52.246,983.887
1741777900.844,966.309,966.797,-509.766,966.797
1741777900.848,966.309,966.797,-518.066,966.797
1741777900.865,982.910,983.398,-44.434,983.398
1741777900.869,906.250,909.180,215.332,906.738
1741777900.873,999.512,999.512,243.652,999.512
1741777900.877,835.449,856.445,-211.426,830.078
1741777900.881,-625.488,-599.609,-761.719,-630.371
1741777900.885,-1000.000,-1000.000,-303.223,-1000.000
1741777900.889,-926.270,-925.781,178.711,-926.758
1741777900.892,-1000.000,-1000.000,177.734,-1000.000
1741777900.896,-1000.000,-1000.000,22.949,-1000.000
1741777900.900,-935.547,-940.918,-169.434,-936.523
1741777900.904,-1000.000,-1000.000,119.629,-1000.000
1741777900.908,-812.012,-873.047,425.781,-772.949
1741777900.911,662.109,587.891,502.441,680.176
1741777900.915,999.512,999.512,105.957,999.512
1741777900.919,894.531,893.066,-377.441,898.926
1741777900.923,992.676,990.723,-133.301,991.699
1741777900.927,932.129,937.988,324.219,934.570
1741777900.931,963.867,954.102,719.238,962.891
1741777900.935,999.512,999.512,359.863,999.512
1741777900.938,-304.199,-242.676,-477.051,-280.273
1741777900.942,-1000.000,-1000.000,-624.023,-1000.000
1741777900.946,-932.617,-936.035,-173.828,-936.523
1741777900.950,-1000.000,-1000.000,83.984,-1000.000
1741777900.954,-1000.000,-1000.000,-44.922,-1000.000
1741777900.911,662.109,587.891,502.441,680.176
1741777900.915,999.512,999.512,105.957,999.512
1741777900.919,894.531,893.066,-377.441,898.926
1741777900.923,992.676,990.723,-133.301,991.699
1741777900.927,932.129,937.988,324.219,934.570
1741777900.931,963.867,954.102,719.238,962.891
1741777900.935,999.512,999.512,359.863,999.512
1741777900.938,-304.199,-242.676,-477.051,-280.273
1741777900.942,-1000.000,-1000.000,-624.023,-1000.000
1741777900.946,-932.617,-936.035,-173.828,-936.523
1741777900.950,-1000.000,-1000.000,83.984,-1000.000
1741777900.954,-1000.000,-1000.000,-44.922,-1000.000
1741777900.955,-1000.000,-1000.000,-230.469,-1000.000
1741777900.959,-941.406,-942.383,-189.453,-939.453
1741777900.963,-1000.000,-1000.000,-68.848,-1000.000
1741777900.967,-878.418,-891.113,136.719,-835.449
1741777900.971,580.078,564.453,283.203,622.070
1741777900.975,999.512,999.512,84.473,999.512
1741777900.979,892.090,892.090,-131.836,895.020
1741777900.982,982.422,982.422,-218.750,982.910
1741777900.986,966.309,967.773,-173.828,966.797
1741777900.990,966.309,965.820,-93.750,966.797
1741777900.994,966.309,963.379,-352.051,966.797
1741777900.998,968.750,968.262,-74.707,968.262
1741777900.955,-1000.000,-1000.000,-230.469,-1000.000
1741777900.959,-941.406,-942.383,-189.453,-939.453
1741777900.963,-1000.000,-1000.000,-68.848,-1000.000
1741777900.967,-878.418,-891.113,136.719,-835.449
1741777900.971,580.078,564.453,283.203,622.070
1741777900.975,999.512,999.512,84.473,999.512
1741777900.979,892.090,892.090,-131.836,895.020
1741777900.982,982.422,982.422,-218.750,982.910
1741777900.986,966.309,967.773,-173.828,966.797
1741777900.990,966.309,965.820,-93.750,966.797
1741777900.994,966.309,963.379,-352.051,966.797
1741777900.998,968.750,968.262,-74.707,968.262
1741777901.001,961.426,968.750,247.559,968.262
1741777901.005,915.527,907.715,316.895,908.691
1741777901.009,999.512,999.512,332.520,999.512
1741777901.013,143.555,263.184,-247.070,266.602
1741777901.017,-1000.000,-1000.000,-928.711,-1000.000
1741777901.021,-985.352,-1000.000,-582.520,-1000.000
1741777901.025,-975.098,-965.820,-129.395,-965.332
1741777901.028,-1000.000,-1000.000,-96.191,-1000.000
1741777901.032,-1000.000,-1000.000,-557.129,-1000.000
1741777901.036,-930.176,-934.570,-904.785,-933.105
1741777901.040,-1000.000,-1000.000,-433.594,-1000.000
1741777901.044,-724.121,-803.711,198.242,-719.727
1741777901.001,961.426,968.750,247.559,968.262
1741777901.005,915.527,907.715,316.895,908.691
1741777901.009,999.512,999.512,332.520,999.512
1741777901.013,143.555,263.184,-247.070,266.602
1741777901.017,-1000.000,-1000.000,-928.711,-1000.000
1741777901.021,-985.352,-1000.000,-582.520,-1000.000
1741777901.025,-975.098,-965.820,-129.395,-965.332
1741777901.028,-1000.000,-1000.000,-96.191,-1000.000
1741777901.032,-1000.000,-1000.000,-557.129,-1000.000
1741777901.036,-930.176,-934.570,-904.785,-933.105
1741777901.040,-1000.000,-1000.000,-433.594,-1000.000
1741777901.044,-724.121,-803.711,198.242,-719.727
1741777901.045,752.930,673.340,564.941,738.770
1741777901.049,999.512,999.512,94.238,999.512
1741777901.053,899.414,895.508,-615.234,901.367
1741777901.057,983.887,984.375,-329.102,984.375
1741777901.061,979.492,982.422,162.598,977.051
1741777901.065,893.555,894.043,407.227,899.902
1741777901.069,999.512,999.512,107.910,999.512
1741777901.072,508.301,572.266,-497.070,462.891
1741777901.076,-915.527,-878.906,-775.879,-921.387
1741777901.080,-1000.000,-1000.000,-368.164,-1000.000
1741777901.084,-946.777,-941.895,86.914,-950.195
1741777901.088,-1000.000,-1000.000,328.125,-1000.000
1741777901.045,752.930,673.340,564.941,738.770
1741777901.049,999.512,999.512,94.238,999.512
1741777901.053,899.414,895.508,-615.234,901.367
1741777901.057,983.887,984.375,-329.102,984.375
1741777901.061,979.492,982.422,162.598,977.051
1741777901.065,893.555,894.043,407.227,899.902
1741777901.069,999.512,999.512,107.910,999.512
1741777901.072,508.301,572.266,-497.070,462.891
1741777901.076,-915.527,-878.906,-775.879,-921.387
1741777901.080,-1000.000,-1000.000,-368.164,-1000.000
1741777901.084,-946.777,-941.895,86.914,-950.195
1741777901.088,-1000.000,-1000.000,328.125,-1000.000
1741777901.090,-1000.000,-1000.000,-149.902,-1000.000
1741777901.094,-928.223,-927.246,-269.531,-935.547
1741777901.098,-1000.000,-1000.000,180.176,-1000.000
1741777901.102,-573.242,-661.621,346.191,-489.746
1741777901.106,861.816,809.082,401.855,881.348
1741777901.110,999.512,999.512,104.492,999.512
1741777901.114,916.504,910.156,-20.996,922.852
1741777901.117,959.961,961.914,-117.188,960.938
1741777901.121,941.406,942.871,-252.930,939.941
1741777901.125,999.512,999.512,-389.648,999.512
1741777901.129,-135.254,-133.789,-819.336,-97.168
1741777901.133,-1000.000,-1000.000,-984.863,-1000.000
1741777901.090,-1000.000,-1000.000,-149.902,-1000.000
1741777901.094,-928.223,-927.246,-269.531,-935.547
1741777901.098,-1000.000,-1000.000,180.176,-1000.000
1741777901.102,-573.242,-661.621,346.191,-489.746
1741777901.106,861.816,809.082,401.855,881.348
1741777901.110,999.512,999.512,104.492,999.512
1741777901.114,916.504,910.156,-20.996,922.852
1741777901.117,959.961,961.914,-117.188,960.938
1741777901.121,941.406,942.871,-252.930,939.941
1741777901.125,999.512,999.512,-389.648,999.512
1741777901.129,-135.254,-133.789,-819.336,-97.168
1741777901.133,-1000.000,-1000.000,-984.863,-1000.000
1741777901.135,-948.730,-949.707,-509.277,-955.078
1741777901.139,-995.117,-995.605,104.980,-991.699
1741777901.143,-1000.000,-1000.000,312.500,-1000.000
1741777901.147,-927.246,-935.547,-115.723,-928.711
1741777901.151,-1000.000,-1000.000,-273.926,-1000.000
1741777901.155,-618.652,-421.875,323.730,-669.434
1741777901.159,835.938,925.293,890.137,795.898
1741777901.162,999.512,992.188,652.344,999.512
1741777901.166,907.227,922.852,-104.980,904.297
1741777901.170,982.422,979.492,-359.375,983.887
1741777901.174,982.422,984.375,322.754,982.422
1741777901.178,893.555,895.508,639.648,896.973
1741777901.135,-948.730,-949.707,-509.277,-955.078
1741777901.139,-995.117,-995.605,104.980,-991.699
1741777901.143,-1000.000,-1000.000,312.500,-1000.000
1741777901.147,-927.246,-935.547,-115.723,-928.711
1741777901.151,-1000.000,-1000.000,-273.926,-1000.000
1741777901.155,-618.652,-421.875,323.730,-669.434
1741777901.159,835.938,925.293,890.137,795.898
1741777901.162,999.512,992.188,652.344,999.512
1741777901.166,907.227,922.852,-104.980,904.297
1741777901.170,982.422,979.492,-359.375,983.887
1741777901.174,982.422,984.375,322.754,982.422
1741777901.178,893.555,895.508,639.648,896.973
1741777901.180,999.512,999.512,166.992,999.512
1741777901.184,599.121,662.598,-429.688,618.652
1741777901.188,-859.375,-812.012,-913.086,-832.520
1741777901.192,-1000.000,-1000.000,-408.691,-1000.000
1741777901.196,-939.941,-935.547,400.391,-938.965
1741777901.200,-1000.000,-1000.000,733.887,-1000.000
1741777901.204,-1000.000,-1000.000,287.109,-1000.000
1741777901.207,-979.004,-986.328,-493.652,-979.004
1741777901.211,-974.609,-963.379,-201.172,-976.562
1741777901.215,-1000.000,-1000.000,195.801,-1000.000
1741777901.219,91.797,-20.996,322.266,77.148
1741777901.223,999.512,999.512,519.531,999.512
1741777901.180,999.512,999.512,166.992,999.512
1741777901.184,599.121,662.598,-429.688,618.652
1741777901.188,-859.375,-812.012,-913.086,-832.520
1741777901.192,-1000.000,-1000.000,-408.691,-1000.000
1741777901.196,-939.941,-935.547,400.391,-938.965
1741777901.200,-1000.000,-1000.000,733.887,-1000.000
1741777901.204,-1000.000,-1000.000,287.109,-1000.000
1741777901.207,-979.004,-986.328,-493.652,-979.004
1741777901.211,-974.609,-963.379,-201.172,-976.562
1741777901.215,-1000.000,-1000.000,195.801,-1000.000
1741777901.219,91.797,-20.996,322.266,77.148
1741777901.223,999.512,999.512,519.531,999.512
1741777901.244,915.527,930.176,232.910,921.875
1741777901.248,959.961,953.125,-6.836,958.984
1741777901.252,968.262,970.703,-47.852,969.727
1741777901.256,966.309,966.797,44.434,966.797
1741777901.260,966.309,967.285,-75.684,966.797
1741777901.264,981.445,983.398,-168.945,979.492
1741777901.268,912.598,908.203,116.211,922.852
1741777901.271,999.512,999.512,112.793,987.305
1741777901.275,888.672,845.703,79.102,952.148
1741777901.279,-547.852,-611.328,-311.035,-430.664
1741777901.283,-1000.000,-1000.000,-895.508,-1000.000
1741777901.287,-925.781,-926.270,-494.629,-927.734
1741777901.288,-1000.000,-1000.000,-161.621,-1000.000
1741777901.292,-1000.000,-1000.000,-157.715,-1000.000
1741777901.296,-1000.000,-1000.000,-243.164,-1000.000
1741777901.300,-942.383,-940.918,-391.113,-942.383
1741777901.304,-1000.000,-1000.000,-521.484,-1000.000
1741777901.308,-891.113,-875.000,-119.141,-889.648
1741777901.312,563.477,584.473,776.367,566.406
1741777901.315,999.512,999.512,700.684,999.512
1741777901.319,891.602,893.066,-299.805,892.090
1741777901.323,981.934,983.398,-567.871,982.910
1741777901.327,982.422,983.398,-277.832,983.398
1741777901.331,908.691,909.180,52.734,909.180
1741777901.288,-1000.000,-1000.000,-161.621,-1000.000
1741777901.292,-1000.000,-1000.000,-157.715,-1000.000
1741777901.296,-1000.000,-1000.000,-243.164,-1000.000
1741777901.300,-942.383,-940.918,-391.113,-942.383
1741777901.304,-1000.000,-1000.000,-521.484,-1000.000
1741777901.308,-891.113,-875.000,-119.141,-889.648
1741777901.312,563.477,584.473,776.367,566.406
1741777901.315,999.512,999.512,700.684,999.512
1741777901.319,891.602,893.066,-299.805,892.090
1741777901.323,981.934,983.398,-567.871,982.910
1741777901.327,982.422,983.398,-277.832,983.398
1741777901.331,908.691,909.180,52.734,909.180
1741777901.336,999.512,999.512,109.863,999.512
1741777901.340,856.934,857.910,-363.281,856.445
1741777901.344,-597.656,-597.656,-851.562,-599.609
1741777901.348,-1000.000,-1000.000,-531.250,-1000.000
1741777901.352,-925.781,-925.781,95.215,-925.781
1741777901.356,-1000.000,-1000.000,299.316,-1000.000
1741777901.360,-1000.000,-1000.000,-15.137,-1000.000
1741777901.363,-1000.000,-1000.000,-152.344,-1000.000
1741777901.367,-938.965,-935.547,76.660,-939.453
1741777901.371,-1000.000,-1000.000,35.645,-1000.000
1741777901.375,-854.004,-810.059,84.473,-854.980
1741777901.379,611.816,663.574,457.031,608.398
1741777901.336,999.512,999.512,109.863,999.512
1741777901.340,856.934,857.910,-363.281,856.445
1741777901.344,-597.656,-597.656,-851.562,-599.609
1741777901.348,-1000.000,-1000.000,-531.250,-1000.000
1741777901.352,-925.781,-925.781,95.215,-925.781
1741777901.356,-1000.000,-1000.000,299.316,-1000.000
1741777901.360,-1000.000,-1000.000,-15.137,-1000.000
1741777901.363,-1000.000,-1000.000,-152.344,-1000.000
1741777901.367,-938.965,-935.547,76.660,-939.453
1741777901.371,-1000.000,-1000.000,35.645,-1000.000
1741777901.375,-854.004,-810.059,84.473,-854.980
1741777901.379,611.816,663.574,457.031,608.398
1741777901.375,999.512,999.512,84.961,999.512
1741777901.379,892.578,895.508,-160.156,893.555
1741777901.383,982.910,984.375,74.219,983.398
1741777901.387,966.309,967.285,154.785,966.797
1741777901.391,983.398,978.027,65.430,984.375
1741777901.395,893.066,897.949,-17.090,896.973
1741777901.399,999.512,999.512,176.758,999.512
1741777901.402,625.000,473.633,1.465,693.359
1741777901.406,-844.238,-922.852,-858.887,-782.715
1741777901.410,-1000.000,-1000.000,-679.199,-1000.000
1741777901.414,-937.988,-949.707,178.223,-933.594
1741777901.418,-1000.000,-1000.000,467.773,-1000.000
1741777901.375,999.512,999.512,84.961,999.512
1741777901.379,892.578,895.508,-160.156,893.555
1741777901.383,982.910,984.375,74.219,983.398
1741777901.387,966.309,967.285,154.785,966.797
1741777901.391,983.398,978.027,65.430,984.375
1741777901.395,893.066,897.949,-17.090,896.973
1741777901.399,999.512,999.512,176.758,999.512
1741777901.402,625.000,473.633,1.465,693.359
1741777901.406,-844.238,-922.852,-858.887,-782.715
1741777901.410,-1000.000,-1000.000,-679.199,-1000.000
1741777901.414,-937.988,-949.707,178.223,-933.594
1741777901.418,-1000.000,-1000.000,467.773,-1000.000
1741777901.435,-1000.000,-1000.000,233.398,-1000.000
1741777901.439,-1000.000,-1000.000,-246.582,-1000.000
1741777901.443,-942.383,-942.383,-230.957,-942.871
1741777901.447,-1000.000,-1000.000,211.426,-1000.000
1741777901.451,-891.113,-891.113,280.273,-895.020
1741777901.455,563.965,564.453,693.848,558.105
1741777901.459,999.512,999.512,808.105,999.512
1741777901.462,891.602,892.090,204.590,892.090
1741777901.466,998.535,999.023,258.301,999.512
1741777901.470,908.691,909.180,686.523,907.227
1741777901.474,999.512,999.512,385.742,999.512
1741777901.478,856.934,857.422,-296.387,833.496
1741777901.435,-1000.000,-1000.000,233.398,-1000.000
1741777901.439,-1000.000,-1000.000,-246.582,-1000.000
1741777901.443,-942.383,-942.383,-230.957,-942.871
1741777901.447,-1000.000,-1000.000,211.426,-1000.000
1741777901.451,-891.113,-891.113,280.273,-895.020
1741777901.455,563.965,564.453,693.848,558.105
1741777901.459,999.512,999.512,808.105,999.512
1741777901.462,891.602,892.090,204.590,892.090
1741777901.466,998.535,999.023,258.301,999.512
1741777901.470,908.691,909.180,686.523,907.227
1741777901.474,999.512,999.512,385.742,999.512
1741777901.478,856.934,857.422,-296.387,833.496
1741777901.480,-597.656,-597.656,-755.371,-625.977
1741777901.484,-1000.000,-1000.000,-410.156,-1000.000
1741777901.488,-925.781,-925.781,352.539,-926.758
1741777901.492,-1000.000,-1000.000,511.230,-1000.000
1741777901.496,-1000.000,-1000.000,-101.562,-1000.000
1741777901.500,-1000.000,-1000.000,-139.648,-1000.000
1741777901.504,-1000.000,-1000.000,370.605,-1000.000
1741777901.507,-1000.000,-1000.000,321.777,-1000.000
1741777901.511,-942.383,-940.430,219.238,-943.848
1741777901.515,-1000.000,-1000.000,-22.949,-1000.000
1741777901.519,-891.113,-869.141,-257.812,-901.855
1741777901.523,563.477,591.309,361.816,546.875
1741777901.480,-597.656,-597.656,-755.371,-625.977
1741777901.484,-1000.000,-1000.000,-410.156,-1000.000
1741777901.488,-925.781,-925.781,352.539,-926.758
1741777901.492,-1000.000,-1000.000,511.230,-1000.000
1741777901.496,-1000.000,-1000.000,-101.562,-1000.000
1741777901.500,-1000.000,-1000.000,-139.648,-1000.000
1741777901.504,-1000.000,-1000.000,370.605,-1000.000
1741777901.507,-1000.000,-1000.000,321.777,-1000.000
1741777901.511,-942.383,-940.430,219.238,-943.848
1741777901.515,-1000.000,-1000.000,-22.949,-1000.000
1741777901.519,-891.113,-869.141,-257.812,-901.855
1741777901.523,563.477,591.309,361.816,546.875
1741777901.525,999.512,999.512,546.875,999.512
1741777901.529,891.602,893.066,296.875,892.090
1741777901.533,981.934,983.398,70.312,982.422
1741777901.537,966.309,966.797,-314.453,966.797
1741777901.541,979.004,976.562,-214.844,978.027
1741777901.545,920.898,932.129,406.250,926.270
1741777901.549,988.770,966.797,701.172,979.980
1741777901.552,946.289,999.512,157.227,969.727
1741777901.556,-443.848,-317.383,-362.305,-387.695
1741777901.560,-1000.000,-1000.000,-295.898,-1000.000
1741777901.564,-927.246,-931.641,-100.586,-929.688
1741777901.568,-1000.000,-1000.000,-61.523,-1000.000
1741777901.525,999.512,999.512,546.875,999.512
1741777901.529,891.602,893.066,296.875,892.090
1741777901.533,981.934,983.398,70.312,982.422
1741777901.537,966.309,966.797,-314.453,966.797
1741777901.541,979.004,976.562,-214.844,978.027
1741777901.545,920.898,932.129,406.250,926.270
1741777901.549,988.770,966.797,701.172,979.980
1741777901.552,946.289,999.512,157.227,969.727
1741777901.556,-443.848,-317.383,-362.305,-387.695
1741777901.560,-1000.000,-1000.000,-295.898,-1000.000
1741777901.564,-927.246,-931.641,-100.586,-929.688
1741777901.568,-1000.000,-1000.000,-61.523,-1000.000
1741777901.571,-1000.000,-1000.000,-253.906,-1000.000
1741777901.575,-1000.000,-1000.000,-419.434,-1000.000
1741777901.579,-940.918,-942.383,-256.836,-938.965
1741777901.583,-1000.000,-1000.000,84.473,-1000.000
1741777901.587,-875.000,-891.113,285.645,-841.797
1741777901.591,584.961,564.453,647.461,618.652
1741777901.595,999.512,999.512,503.418,999.512
1741777901.598,892.090,892.090,-94.238,894.531
1741777901.602,989.746,989.258,-234.375,991.211
1741777901.606,936.523,943.359,19.043,937.500
1741777901.610,954.102,945.312,-7.324,957.031
1741777901.614,999.512,999.512,-370.117,999.512
1741777901.571,-1000.000,-1000.000,-253.906,-1000.000
1741777901.575,-1000.000,-1000.000,-419.434,-1000.000
1741777901.579,-940.918,-942.383,-256.836,-938.965
1741777901.583,-1000.000,-1000.000,84.473,-1000.000
1741777901.587,-875.000,-891.113,285.645,-841.797
1741777901.591,584.961,564.453,647.461,618.652
1741777901.595,999.512,999.512,503.418,999.512
1741777901.598,892.090,892.090,-94.238,894.531
1741777901.602,989.746,989.258,-234.375,991.211
1741777901.606,936.523,943.359,19.043,937.500
1741777901.610,954.102,945.312,-7.324,957.031
1741777901.614,999.512,999.512,-370.117,999.512
1741777901.615,-248.535,-161.621,-468.750,-230.469
1741777901.619,-1000.000,-1000.000,-364.746,-1000.000
1741777901.623,-936.035,-945.801,-11.230,-942.383
1741777901.627,-1000.000,-996.582,216.309,-1000.000
1741777901.631,-1000.000,-1000.000,-193.848,-1000.000
1741777901.635,-1000.000,-1000.000,-404.297,-1000.000
1741777901.639,-956.055,-945.312,132.812,-960.449
1741777901.642,-1000.000,-1000.000,85.938,-1000.000
1741777901.646,-988.770,-913.574,-294.922,-1000.000
1741777901.650,395.508,529.297,-263.184,340.820
1741777901.654,999.512,999.512,-249.023,999.512
1741777901.658,893.066,892.090,-218.750,896.484
1741777901.615,-248.535,-161.621,-468.750,-230.469
1741777901.619,-1000.000,-1000.000,-364.746,-1000.000
1741777901.623,-936.035,-945.801,-11.230,-942.383
1741777901.627,-1000.000,-996.582,216.309,-1000.000
1741777901.631,-1000.000,-1000.000,-193.848,-1000.000
1741777901.635,-1000.000,-1000.000,-404.297,-1000.000
1741777901.639,-956.055,-945.312,132.812,-960.449
1741777901.642,-1000.000,-1000.000,85.938,-1000.000
1741777901.646,-988.770,-913.574,-294.922,-1000.000
1741777901.650,395.508,529.297,-263.184,340.820
1741777901.654,999.512,999.512,-249.023,999.512
1741777901.658,893.066,892.090,-218.750,896.484
1741777901.660,977.051,981.934,-359.863,974.609
1741777901.664,966.309,966.797,-346.680,966.797
1741777901.668,966.309,967.285,-338.379,967.285
1741777901.672,966.309,967.285,-534.668,966.797
1741777901.676,982.910,983.887,-231.934,983.398
1741777901.680,906.738,904.785,465.332,908.203
1741777901.684,999.512,999.512,711.914,999.512
1741777901.687,842.285,808.105,132.812,849.609
1741777901.691,-617.188,-657.227,-864.258,-608.398
1741777901.695,-1000.000,-1000.000,-769.531,-1000.000
1741777901.699,-926.270,-927.734,-29.785,-925.781
1741777901.703,-1000.000,-1000.000,177.246,-1000.000
1741777901.660,977.051,981.934,-359.863,974.609
1741777901.664,966.309,966.797,-346.680,966.797
1741777901.668,966.309,967.285,-338.379,967.285
1741777901.672,966.309,967.285,-534.668,966.797
1741777901.676,982.910,983.887,-231.934,983.398
1741777901.680,906.738,904.785,465.332,908.203
1741777901.684,999.512,999.512,711.914,999.512
1741777901.687,842.285,808.105,132.812,849.609
1741777901.691,-617.188,-657.227,-864.258,-608.398
1741777901.695,-1000.000,-1000.000,-769.531,-1000.000
1741777901.699,-926.270,-927.734,-29.785,-925.781
1741777901.703,-1000.000,-1000.000,177.246,-1000.000
1741777901.705,-1000.000,-1000.000,-177.734,-1000.000
1741777901.709,-1000.000,-1000.000,-665.527,-1000.000
1741777901.713,-955.078,-952.637,-431.152,-957.031
1741777901.717,-1000.000,-1000.000,41.992,-1000.000
1741777901.721,-982.422,-965.332,-66.406,-991.211
1741777901.725,408.203,438.965,220.703,384.277
1741777901.729,999.512,999.512,445.801,999.512
1741777901.732,894.043,893.555,-102.051,896.973
1741777901.736,979.492,988.281,-19.531,978.027
1741777901.740,906.738,898.926,341.309,910.156
1741777901.744,999.512,999.512,-86.914,999.512
1741777901.748,268.555,418.945,-900.391,268.066
1741777901.705,-1000.000,-1000.000,-177.734,-1000.000
1741777901.709,-1000.000,-1000.000,-665.527,-1000.000
1741777901.713,-955.078,-952.637,-431.152,-957.031
1741777901.717,-1000.000,-1000.000,41.992,-1000.000
1741777901.721,-982.422,-965.332,-66.406,-991.211
1741777901.725,408.203,438.965,220.703,384.277
1741777901.729,999.512,999.512,445.801,999.512
1741777901.732,894.043,893.555,-102.051,896.973
1741777901.736,979.492,988.281,-19.531,978.027
1741777901.740,906.738,898.926,341.309,910.156
1741777901.744,999.512,999.512,-86.914,999.512
1741777901.748,268.555,418.945,-900.391,268.066
1741777901.750,-1000.000,-953.125,-980.469,-1000.000
1741777901.754,-1000.000,-1000.000,-266.602,-1000.000
1741777901.758,-967.285,-958.984,365.234,-966.309
1741777901.762,-1000.000,-996.582,213.867,-1000.000
1741777901.766,-944.824,-969.238,-470.215,-937.988
1741777901.770,-1000.000,-1000.000,-312.988,-1000.000
1741777901.774,-244.629,7.324,381.836,-361.816
1741777901.777,995.605,999.512,668.457,951.660
1741777901.781,961.426,930.176,370.117,981.445
1741777901.785,935.547,954.102,-356.934,927.246
1741777901.789,974.609,971.191,-579.590,978.027
1741777901.793,966.309,966.797,85.938,966.797
1741777901.750,-1000.000,-953.125,-980.469,-1000.000
1741777901.754,-1000.000,-1000.000,-266.602,-1000.000
1741777901.758,-967.285,-958.984,365.234,-966.309
1741777901.762,-1000.000,-996.582,213.867,-1000.000
1741777901.766,-944.824,-969.238,-470.215,-937.988
1741777901.770,-1000.000,-1000.000,-312.988,-1000.000
1741777901.774,-244.629,7.324,381.836,-361.816
1741777901.777,995.605,999.512,668.457,951.660
1741777901.781,961.426,930.176,370.117,981.445
1741777901.785,935.547,954.102,-356.934,927.246
1741777901.789,974.609,971.191,-579.590,978.027
1741777901.793,966.309,966.797,85.938,966.797
1741777901.810,966.309,973.633,318.359,966.797
1741777901.814,979.980,943.848,330.078,982.422
1741777901.818,894.531,947.266,188.477,896.484
1741777901.822,999.512,999.512,111.328,999.512
1741777901.826,524.902,-141.113,427.734,604.980
1741777901.830,-902.832,-1000.000,583.496,-844.238
1741777901.834,-1000.000,-952.148,620.605,-1000.000
1741777901.837,-945.801,-994.141,120.605,-939.941
1741777901.841,-1000.000,-1000.000,-181.152,-1000.000
1741777901.845,-1000.000,-1000.000,432.129,-1000.000
1741777901.849,-1000.000,-1000.000,521.973,-1000.000
1741777901.853,-939.941,-944.824,394.043,-942.383
1741777901.810,966.309,973.633,318.359,966.797
1741777901.814,979.980,943.848,330.078,982.422
1741777901.818,894.531,947.266,188.477,896.484
1741777901.822,999.512,999.512,111.328,999.512
1741777901.826,524.902,-141.113,427.734,604.980
1741777901.830,-902.832,-1000.000,583.496,-844.238
1741777901.834,-1000.000,-952.148,620.605,-1000.000
1741777901.837,-945.801,-994.141,120.605,-939.941
1741777901.841,-1000.000,-1000.000,-181.152,-1000.000
1741777901.845,-1000.000,-1000.000,432.129,-1000.000
1741777901.849,-1000.000,-1000.000,521.973,-1000.000
1741777901.853,-939.941,-944.824,394.043,-942.383
1741777901.855,-1000.000,-1000.000,221.680,-1000.000
1741777901.859,-861.328,-299.316,56.152,-891.113
1741777901.863,600.098,963.867,519.043,563.965
1741777901.867,999.512,974.121,803.711,999.512
1741777901.871,893.066,933.105,609.863,892.090
1741777901.875,982.422,970.703,481.934,982.910
1741777901.879,966.309,975.586,88.867,966.797
1741777901.882,968.750,958.496,-17.090,969.727
1741777901.886,959.473,852.539,39.062,962.402
1741777901.890,918.457,866.211,194.336,917.480
1741777901.894,999.512,999.512,267.090,999.512
1741777901.898,105.957,274.414,-178.711,161.621
1741777901.855,-1000.000,-1000.000,221.680,-1000.000
1741777901.859,-861.328,-299.316,56.152,-891.113
1741777901.863,600.098,963.867,519.043,563.965
1741777901.867,999.512,974.121,803.711,999.512
1741777901.871,893.066,933.105,609.863,892.090
1741777901.875,982.422,970.703,481.934,982.910
1741777901.879,966.309,975.586,88.867,966.797
1741777901.882,968.750,958.496,-17.090,969.727
1741777901.886,959.473,852.539,39.062,962.402
1741777901.890,918.457,866.211,194.336,917.480
1741777901.894,999.512,999.512,267.090,999.512
1741777901.898,105.957,274.414,-178.711,161.621
1741777901.855,-1000.000,-1000.000,221.680,-1000.000
1741777901.859,-861.328,-299.316,56.152,-891.113
1741777901.863,600.098,963.867,519.043,563.965
1741777901.867,999.512,974.121,803.711,999.512
1741777901.871,893.066,933.105,609.863,892.090
1741777901.875,982.422,970.703,481.934,982.910
1741777901.879,966.309,975.586,88.867,966.797
1741777901.882,968.750,958.496,-17.090,969.727
1741777901.886,959.473,852.539,39.062,962.402
1741777901.890,918.457,866.211,194.336,917.480
1741777901.894,999.512,999.512,267.090,999.512
1741777901.898,105.957,274.414,-178.711,161.621
1741777901.900,-1000.000,-1000.000,-622.559,-1000.000
1741777901.904,-979.980,-1000.000,-36.133,-990.234
1741777901.908,-977.539,-964.355,563.965,-973.145
1741777901.912,-1000.000,-1000.000,458.984,-1000.000
1741777901.916,-1000.000,-1000.000,-31.250,-1000.000
1741777901.920,-1000.000,-1000.000,19.531,-1000.000
1741777901.924,-953.613,-942.383,681.152,-960.938
1741777901.927,-1000.000,-1000.000,565.918,-1000.000
1741777901.931,-972.656,-891.113,-21.973,-1000.000
1741777901.935,425.781,564.453,-77.637,336.914
1741777901.939,999.512,999.512,-57.129,999.512
1741777901.943,892.578,892.578,-86.914,897.461
1741777901.900,-1000.000,-1000.000,-622.559,-1000.000
1741777901.904,-979.980,-1000.000,-36.133,-990.234
1741777901.908,-977.539,-964.355,563.965,-973.145
1741777901.912,-1000.000,-1000.000,458.984,-1000.000
1741777901.916,-1000.000,-1000.000,-31.250,-1000.000
1741777901.920,-1000.000,-1000.000,19.531,-1000.000
1741777901.924,-953.613,-942.383,681.152,-960.938
1741777901.927,-1000.000,-1000.000,565.918,-1000.000
1741777901.931,-972.656,-891.113,-21.973,-1000.000
1741777901.935,425.781,564.453,-77.637,336.914
1741777901.939,999.512,999.512,-57.129,999.512
1741777901.943,892.578,892.578,-86.914,897.461
1741777901.960,995.117,999.512,-64.453,983.887
1741777901.964,895.020,900.391,-84.961,905.273
1741777901.968,999.512,999.512,-393.555,999.512
1741777901.972,672.852,754.395,-665.039,503.418
1741777901.976,-801.758,-723.633,-583.984,-870.605
1741777901.980,-1000.000,-1000.000,-116.699,-1000.000
1741777901.984,-934.570,-929.688,536.621,-947.266
1741777901.987,-1000.000,-1000.000,293.945,-1000.000
1741777901.991,-946.777,-955.078,-546.875,-948.730
1741777901.995,-1000.000,-1000.000,-267.578,-1000.000
1741777901.999,-922.852,-980.957,245.605,-936.523
1741777902.003,514.160,412.109,487.305,488.770
1741777901.990,999.512,999.512,471.680,999.512
1741777901.994,891.602,893.555,-72.754,893.066
1741777901.998,980.957,978.027,24.902,980.469
1741777902.002,978.027,976.562,336.914,978.027
1741777902.006,924.316,931.152,322.266,926.270
1741777902.010,980.957,968.750,151.855,980.469
1741777902.014,967.285,999.512,-112.305,967.285
1741777902.017,-400.879,-328.613,-462.402,-391.113
1741777902.021,-1000.000,-1000.000,-737.793,-1000.000
1741777902.025,-928.223,-931.152,-54.688,-929.688
1741777902.029,-1000.000,-1000.000,104.980,-1000.000
1741777902.033,-1000.000,-1000.000,-629.395,-1000.000
1741777901.990,999.512,999.512,471.680,999.512
1741777901.994,891.602,893.555,-72.754,893.066
1741777901.998,980.957,978.027,24.902,980.469
1741777902.002,978.027,976.562,336.914,978.027
1741777902.006,924.316,931.152,322.266,926.270
1741777902.010,980.957,968.750,151.855,980.469
1741777902.014,967.285,999.512,-112.305,967.285
1741777902.017,-400.879,-328.613,-462.402,-391.113
1741777902.021,-1000.000,-1000.000,-737.793,-1000.000
1741777902.025,-928.223,-931.152,-54.688,-929.688
1741777902.029,-1000.000,-1000.000,104.980,-1000.000
1741777902.033,-1000.000,-1000.000,-629.395,-1000.000
1741777902.035,-931.152,-936.523,-590.820,-935.059
1741777902.039,-1000.000,-1000.000,-33.691,-1000.000
1741777902.043,-750.977,-828.125,279.297,-667.969
1741777902.047,727.539,644.531,428.711,763.184
1741777902.051,999.512,999.512,-60.059,999.512
1741777902.055,897.949,894.531,-27.832,904.785
1741777902.059,992.676,991.211,481.934,992.188
1741777902.062,933.105,938.965,325.195,930.664
1741777902.066,962.402,952.148,-67.871,970.215
1741777902.070,999.512,999.512,-307.129,989.258
1741777902.074,-297.363,-225.098,-364.258,-327.148
1741777902.078,-1000.000,-1000.000,-165.527,-1000.000
1741777902.035,-931.152,-936.523,-590.820,-935.059
1741777902.039,-1000.000,-1000.000,-33.691,-1000.000
1741777902.043,-750.977,-828.125,279.297,-667.969
1741777902.047,727.539,644.531,428.711,763.184
1741777902.051,999.512,999.512,-60.059,999.512
1741777902.055,897.949,894.531,-27.832,904.785
1741777902.059,992.676,991.211,481.934,992.188
1741777902.062,933.105,938.965,325.195,930.664
1741777902.066,962.402,952.148,-67.871,970.215
1741777902.070,999.512,999.512,-307.129,989.258
1741777902.074,-297.363,-225.098,-364.258,-327.148
1741777902.078,-1000.000,-1000.000,-165.527,-1000.000
1741777902.081,-933.105,-937.988,106.445,-934.082
1741777902.085,-1000.000,-1000.000,20.020,-1000.000
1741777902.089,-980.957,-981.445,-299.805,-982.422
1741777902.093,-971.680,-971.191,-387.695,-970.703
1741777902.097,-1000.000,-1000.000,-1.465,-1000.000
1741777902.101,67.383,61.523,596.680,37.598
1741777902.105,999.512,999.512,987.793,999.512
1741777902.108,917.969,919.922,274.902,924.316
1741777902.112,958.496,958.984,-465.332,957.031
1741777902.116,984.863,984.375,58.594,986.328
1741777902.120,908.691,913.086,356.445,911.133
1741777902.124,999.512,999.512,161.133,999.512
1741777902.081,-933.105,-937.988,106.445,-934.082
1741777902.085,-1000.000,-1000.000,20.020,-1000.000
1741777902.089,-980.957,-981.445,-299.805,-982.422
1741777902.093,-971.680,-971.191,-387.695,-970.703
1741777902.097,-1000.000,-1000.000,-1.465,-1000.000
1741777902.101,67.383,61.523,596.680,37.598
1741777902.105,999.512,999.512,987.793,999.512
1741777902.108,917.969,919.922,274.902,924.316
1741777902.112,958.496,958.984,-465.332,957.031
1741777902.116,984.863,984.375,58.594,986.328
1741777902.120,908.691,913.086,356.445,911.133
1741777902.124,999.512,999.512,161.133,999.512
1741777902.127,856.934,887.207,-247.070,875.000
1741777902.131,-597.656,-551.270,-567.383,-570.312
1741777902.135,-1000.000,-1000.000,-347.656,-1000.000
1741777902.139,-925.781,-925.781,-59.570,-925.781
1741777902.143,-1000.000,-1000.000,46.387,-1000.000
1741777902.147,-1000.000,-1000.000,163.574,-1000.000
1741777902.151,-1000.000,-1000.000,91.309,-1000.000
1741777902.154,-1000.000,-1000.000,-46.875,-999.023
1741777902.158,-1000.000,-1000.000,118.164,-1000.000
1741777902.162,-1000.000,-1000.000,251.953,-1000.000
1741777902.166,-980.469,-987.793,26.367,-974.121
1741777902.170,-972.168,-960.938,-426.758,-954.590
1741777902.127,856.934,887.207,-247.070,875.000
1741777902.131,-597.656,-551.270,-567.383,-570.312
1741777902.135,-1000.000,-1000.000,-347.656,-1000.000
1741777902.139,-925.781,-925.781,-59.570,-925.781
1741777902.143,-1000.000,-1000.000,46.387,-1000.000
1741777902.147,-1000.000,-1000.000,163.574,-1000.000
1741777902.151,-1000.000,-1000.000,91.309,-1000.000
1741777902.154,-1000.000,-1000.000,-46.875,-999.023
1741777902.158,-1000.000,-1000.000,118.164,-1000.000
1741777902.162,-1000.000,-1000.000,251.953,-1000.000
1741777902.166,-980.469,-987.793,26.367,-974.121
1741777902.170,-972.168,-960.938,-426.758,-954.590
1741777902.185,-1000.000,-1000.000,-496.582,-1000.000
1741777902.189,69.336,-47.363,99.609,-89.355
1741777902.193,999.512,999.512,862.793,999.512
1741777902.197,918.457,934.082,504.395,940.918
1741777902.201,958.496,951.172,-472.168,947.754
1741777902.205,968.750,971.191,-316.406,972.168
1741777902.209,983.887,983.887,80.566,983.887
1741777902.212,900.391,906.250,-260.254,902.832
1741777902.216,999.512,999.512,-489.258,999.512
1741777902.220,763.184,827.148,-765.137,774.902
1741777902.224,-713.379,-637.695,-1000.000,-693.848
1741777902.228,-1000.000,-1000.000,-945.312,-1000.000
1741777902.185,-1000.000,-1000.000,-496.582,-1000.000
1741777902.189,69.336,-47.363,99.609,-89.355
1741777902.193,999.512,999.512,862.793,999.512
1741777902.197,918.457,934.082,504.395,940.918
1741777902.201,958.496,951.172,-472.168,947.754
1741777902.205,968.750,971.191,-316.406,972.168
1741777902.209,983.887,983.887,80.566,983.887
1741777902.212,900.391,906.250,-260.254,902.832
1741777902.216,999.512,999.512,-489.258,999.512
1741777902.220,763.184,827.148,-765.137,774.902
1741777902.224,-713.379,-637.695,-1000.000,-693.848
1741777902.228,-1000.000,-1000.000,-945.312,-1000.000
1741777902.230,-929.199,-926.758,-624.023,-929.199
1741777902.234,-1000.000,-1000.000,-367.676,-1000.000
1741777902.238,-960.449,-960.938,-662.109,-959.961
1741777902.242,-1000.000,-1000.000,-656.250,-1000.000
1741777902.246,-1000.000,-1000.000,-234.863,-1000.000
1741777902.250,341.797,338.867,245.117,348.145
1741777902.254,999.512,999.512,707.031,999.512
1741777902.257,895.020,895.996,109.375,895.996
1741777902.261,974.609,978.027,-630.371,975.098
1741777902.265,981.934,960.938,-350.098,983.887
1741777902.269,893.066,920.410,101.074,895.508
1741777902.273,999.512,999.512,127.441,999.512
1741777902.230,-929.199,-926.758,-624.023,-929.199
1741777902.234,-1000.000,-1000.000,-367.676,-1000.000
1741777902.238,-960.449,-960.938,-662.109,-959.961
1741777902.242,-1000.000,-1000.000,-656.250,-1000.000
1741777902.246,-1000.000,-1000.000,-234.863,-1000.000
1741777902.250,341.797,338.867,245.117,348.145
1741777902.254,999.512,999.512,707.031,999.512
1741777902.257,895.020,895.996,109.375,895.996
1741777902.261,974.609,978.027,-630.371,975.098
1741777902.265,981.934,960.938,-350.098,983.887
1741777902.269,893.066,920.410,101.074,895.508
1741777902.273,999.512,999.512,127.441,999.512
1741777902.275,584.961,141.113,-380.859,651.855
1741777902.279,-869.629,-1000.000,-849.609,-816.406
1741777902.283,-1000.000,-988.770,-248.047,-1000.000
1741777902.287,-940.918,-974.121,429.688,-936.523
1741777902.291,-1000.000,-1000.000,434.082,-1000.000
1741777902.295,-1000.000,-1000.000,275.879,-1000.000
1741777902.299,-940.918,-941.895,185.547,-937.988
1741777902.302,-1000.000,-1000.000,182.129,-1000.000
1741777902.306,-872.070,-885.254,202.637,-834.473
1741777902.310,588.867,572.266,758.301,629.395
1741777902.314,999.512,999.512,416.016,999.512
1741777902.318,892.578,892.578,-596.191,895.020
1741777902.275,584.961,141.113,-380.859,651.855
1741777902.279,-869.629,-1000.000,-849.609,-816.406
1741777902.283,-1000.000,-988.770,-248.047,-1000.000
1741777902.287,-940.918,-974.121,429.688,-936.523
1741777902.291,-1000.000,-1000.000,434.082,-1000.000
1741777902.295,-1000.000,-1000.000,275.879,-1000.000
1741777902.299,-940.918,-941.895,185.547,-937.988
1741777902.302,-1000.000,-1000.000,182.129,-1000.000
1741777902.306,-872.070,-885.254,202.637,-834.473
1741777902.310,588.867,572.266,758.301,629.395
1741777902.314,999.512,999.512,416.016,999.512
1741777902.318,892.578,892.578,-596.191,895.020
1741777902.320,991.211,993.652,-436.523,990.234
1741777902.324,934.082,927.246,196.289,941.406
1741777902.328,959.961,976.562,440.918,949.219
1741777902.332,999.512,978.516,217.773,999.512
1741777902.336,-281.250,-371.094,-510.254,-189.453
1741777902.340,-1000.000,-1000.000,-601.562,-1000.000
1741777902.344,-934.082,-930.176,-41.992,-943.359
1741777902.347,-1000.000,-1000.000,-74.219,-998.535
1741777902.351,-1000.000,-1000.000,-328.613,-1000.000
1741777902.355,-927.246,-927.246,-515.625,-931.152
1741777902.359,-1000.000,-1000.000,-337.891,-1000.000
1741777902.363,-591.309,-607.422,313.965,-554.199
1741777902.320,991.211,993.652,-436.523,990.234
1741777902.324,934.082,927.246,196.289,941.406
1741777902.328,959.961,976.562,440.918,949.219
1741777902.332,999.512,978.516,217.773,999.512
1741777902.336,-281.250,-371.094,-510.254,-189.453
1741777902.340,-1000.000,-1000.000,-601.562,-1000.000
1741777902.344,-934.082,-930.176,-41.992,-943.359
1741777902.347,-1000.000,-1000.000,-74.219,-998.535
1741777902.351,-1000.000,-1000.000,-328.613,-1000.000
1741777902.355,-927.246,-927.246,-515.625,-931.152
1741777902.359,-1000.000,-1000.000,-337.891,-1000.000
1741777902.363,-591.309,-607.422,313.965,-554.199
1741777902.861,906.250,909.180,376.953,906.250
1741777902.865,999.512,999.512,693.359,999.512
1741777902.869,835.938,854.980,249.023,824.219
1741777902.873,-625.488,-601.562,-666.992,-637.695
1741777902.877,-1000.000,-1000.000,-505.371,-1000.000
1741777902.881,-926.270,-925.781,401.367,-927.246
1741777902.885,-1000.000,-1000.000,773.438,-1000.000
1741777902.888,-1000.000,-1000.000,118.652,-1000.000
1741777902.892,-941.895,-942.383,-363.770,-939.941
1741777902.896,-1000.000,-1000.000,103.516,-1000.000
1741777902.900,-883.301,-891.113,612.793,-856.445
1741777902.904,574.219,564.453,855.957,604.004
1741777902.365,854.004,842.773,903.809,861.328
1741777902.369,999.512,999.512,643.555,999.512
1741777902.373,909.180,908.691,-240.234,912.598
1741777902.377,982.422,983.398,-591.309,982.422
1741777902.381,980.469,983.887,-333.496,980.957
1741777902.385,894.043,893.555,281.250,896.973
1741777902.389,999.512,999.512,347.656,999.512
1741777902.392,540.527,621.094,-500.000,564.941
1741777902.396,-895.508,-847.656,-944.336,-869.141
1741777902.400,-1000.000,-1000.000,-373.047,-1000.000
1741777902.404,-944.336,-938.477,-100.098,-942.871
1741777902.408,-1000.000,-1000.000,-304.688,-1000.000
1741777902.365,854.004,842.773,903.809,861.328
1741777902.369,999.512,999.512,643.555,999.512
1741777902.373,909.180,908.691,-240.234,912.598
1741777902.377,982.422,983.398,-591.309,982.422
1741777902.381,980.469,983.887,-333.496,980.957
1741777902.385,894.043,893.555,281.250,896.973
1741777902.389,999.512,999.512,347.656,999.512
1741777902.392,540.527,621.094,-500.000,564.941
1741777902.396,-895.508,-847.656,-944.336,-869.141
1741777902.400,-1000.000,-1000.000,-373.047,-1000.000
1741777902.404,-944.336,-938.477,-100.098,-942.871
1741777902.408,-1000.000,-1000.000,-304.688,-1000.000
1741777902.411,-1000.000,-1000.000,-531.738,-1000.000
1741777902.415,-1000.000,-1000.000,-481.934,-1000.000
1741777902.419,-973.145,-968.262,103.516,-979.004
1741777902.423,-984.863,-993.652,150.879,-975.586
1741777902.427,-1000.000,-1000.000,-211.914,-1000.000
1741777902.431,184.570,245.117,5.371,87.402
1741777902.435,999.512,999.512,455.078,999.512
1741777902.438,904.785,900.879,289.062,918.457
1741777902.442,966.309,970.703,168.457,959.961
1741777902.446,966.797,967.285,137.695,969.238
1741777902.450,966.309,966.797,-270.996,966.797
1741777902.454,966.309,967.285,-587.891,966.797
1741777902.411,-1000.000,-1000.000,-531.738,-1000.000
1741777902.415,-1000.000,-1000.000,-481.934,-1000.000
1741777902.419,-973.145,-968.262,103.516,-979.004
1741777902.423,-984.863,-993.652,150.879,-975.586
1741777902.427,-1000.000,-1000.000,-211.914,-1000.000
1741777902.431,184.570,245.117,5.371,87.402
1741777902.435,999.512,999.512,455.078,999.512
1741777902.438,904.785,900.879,289.062,918.457
1741777902.442,966.309,970.703,168.457,959.961
1741777902.446,966.797,967.285,137.695,969.238
1741777902.450,966.309,966.797,-270.996,966.797
1741777902.454,966.309,967.285,-587.891,966.797
1741777902.411,-1000.000,-1000.000,-531.738,-1000.000
1741777902.415,-1000.000,-1000.000,-481.934,-1000.000
1741777902.419,-973.145,-968.262,103.516,-979.004
1741777902.423,-984.863,-993.652,150.879,-975.586
1741777902.427,-1000.000,-1000.000,-211.914,-1000.000
1741777902.431,184.570,245.117,5.371,87.402
1741777902.435,999.512,999.512,455.078,999.512
1741777902.438,904.785,900.879,289.062,918.457
1741777902.442,966.309,970.703,168.457,959.961
1741777902.446,966.797,967.285,137.695,969.238
1741777902.450,966.309,966.797,-270.996,966.797
1741777902.454,966.309,967.285,-587.891,966.797
1741777902.455,982.422,983.398,-263.672,983.398
1741777902.459,908.691,909.180,311.523,908.691
1741777902.463,999.512,999.512,414.062,999.512
1741777902.467,856.934,857.910,-15.137,854.004
1741777902.471,-598.145,-597.656,-717.773,-602.539
1741777902.475,-1000.000,-1000.000,-621.582,-1000.000
1741777902.479,-925.781,-925.781,-92.773,-925.781
1741777902.482,-1000.000,-1000.000,-229.980,-1000.000
1741777902.486,-1000.000,-1000.000,-416.992,-1000.000
1741777902.490,-1000.000,-1000.000,-497.070,-1000.000
1741777902.494,-1000.000,-1000.000,-359.863,-1000.000
1741777902.498,-1000.000,-1000.000,79.102,-1000.000
1741777902.455,982.422,983.398,-263.672,983.398
1741777902.459,908.691,909.180,311.523,908.691
1741777902.463,999.512,999.512,414.062,999.512
1741777902.467,856.934,857.910,-15.137,854.004
1741777902.471,-598.145,-597.656,-717.773,-602.539
1741777902.475,-1000.000,-1000.000,-621.582,-1000.000
1741777902.479,-925.781,-925.781,-92.773,-925.781
1741777902.482,-1000.000,-1000.000,-229.980,-1000.000
1741777902.486,-1000.000,-1000.000,-416.992,-1000.000
1741777902.490,-1000.000,-1000.000,-497.070,-1000.000
1741777902.494,-1000.000,-1000.000,-359.863,-1000.000
1741777902.498,-1000.000,-1000.000,79.102,-1000.000
1741777902.515,-1000.000,-1000.000,124.512,-1000.000
1741777902.519,-991.211,-1000.000,78.125,-1000.000
1741777902.523,-957.520,-936.523,-187.988,-933.105
1741777902.527,-1000.000,-1000.000,-188.965,-1000.000
1741777902.531,-115.234,-373.535,189.453,-449.707
1741777902.535,999.512,951.660,821.777,918.457
1741777902.539,944.824,982.422,888.184,995.605
1741777902.542,944.824,926.758,-43.457,920.898
1741777902.546,975.098,984.863,-657.715,981.934
1741777902.550,960.449,944.336,-136.719,964.844
1741777902.554,916.992,945.801,336.426,913.574
1741777902.558,999.512,999.512,192.871,999.512
1741777902.515,-1000.000,-1000.000,124.512,-1000.000
1741777902.519,-991.211,-1000.000,78.125,-1000.000
1741777902.523,-957.520,-936.523,-187.988,-933.105
1741777902.527,-1000.000,-1000.000,-188.965,-1000.000
1741777902.531,-115.234,-373.535,189.453,-449.707
1741777902.535,999.512,951.660,821.777,918.457
1741777902.539,944.824,982.422,888.184,995.605
1741777902.542,944.824,926.758,-43.457,920.898
1741777902.546,975.098,984.863,-657.715,981.934
1741777902.550,960.449,944.336,-136.719,964.844
1741777902.554,916.992,945.801,336.426,913.574
1741777902.558,999.512,999.512,192.871,999.512
1741777902.560,126.953,-136.230,-318.848,198.730
1741777902.564,-1000.000,-1000.000,-703.125,-1000.000
1741777902.568,-982.910,-951.660,-332.031,-994.629
1741777902.572,-976.074,-994.141,-2.441,-970.703
1741777902.576,-1000.000,-1000.000,-16.602,-1000.000
1741777902.580,-1000.000,-1000.000,-137.695,-1000.000
1741777902.584,-942.383,-941.895,-121.094,-942.383
1741777902.587,-1000.000,-1000.000,-114.258,-1000.000
1741777902.591,-891.113,-881.836,-148.926,-891.113
1741777902.595,563.965,576.660,534.668,564.453
1741777902.599,999.512,999.512,374.512,999.512
1741777902.603,891.602,892.578,-615.723,892.578
1741777902.560,126.953,-136.230,-318.848,198.730
1741777902.564,-1000.000,-1000.000,-703.125,-1000.000
1741777902.568,-982.910,-951.660,-332.031,-994.629
1741777902.572,-976.074,-994.141,-2.441,-970.703
1741777902.576,-1000.000,-1000.000,-16.602,-1000.000
1741777902.580,-1000.000,-1000.000,-137.695,-1000.000
1741777902.584,-942.383,-941.895,-121.094,-942.383
1741777902.587,-1000.000,-1000.000,-114.258,-1000.000
1741777902.591,-891.113,-881.836,-148.926,-891.113
1741777902.595,563.965,576.660,534.668,564.453
1741777902.599,999.512,999.512,374.512,999.512
1741777902.603,891.602,892.578,-615.723,892.578
1741777902.605,998.535,999.512,-600.098,999.512
1741777902.609,908.203,909.180,-242.188,907.715
1741777902.613,999.512,999.512,-262.695,999.512
1741777902.617,856.934,857.910,-710.938,841.797
1741777902.621,-597.656,-597.656,-1000.000,-617.188
1741777902.625,-1000.000,-1000.000,-584.961,-1000.000
1741777902.629,-925.781,-925.781,41.504,-926.270
1741777902.632,-1000.000,-1000.000,-108.887,-1000.000
1741777902.636,-1000.000,-1000.000,-753.418,-1000.000
1741777902.640,-933.105,-934.570,-973.145,-936.035
1741777902.644,-1000.000,-1000.000,-477.051,-1000.000
1741777902.648,-778.320,-801.758,214.844,-812.988
1741777902.605,998.535,999.512,-600.098,999.512
1741777902.609,908.203,909.180,-242.188,907.715
1741777902.613,999.512,999.512,-262.695,999.512
1741777902.617,856.934,857.910,-710.938,841.797
1741777902.621,-597.656,-597.656,-1000.000,-617.188
1741777902.625,-1000.000,-1000.000,-584.961,-1000.000
1741777902.629,-925.781,-925.781,41.504,-926.270
1741777902.632,-1000.000,-1000.000,-108.887,-1000.000
1741777902.636,-1000.000,-1000.000,-753.418,-1000.000
1741777902.640,-933.105,-934.570,-973.145,-936.035
1741777902.644,-1000.000,-1000.000,-477.051,-1000.000
1741777902.648,-778.320,-801.758,214.844,-812.988
1741777902.650,698.730,674.805,818.848,658.203
1741777902.654,999.512,999.512,451.660,999.512
1741777902.658,896.484,895.996,-283.691,895.508
1741777902.662,986.328,985.840,-234.863,986.816
1741777902.666,960.449,967.773,9.277,960.938
1741777902.670,916.992,908.691,365.723,918.945
1741777902.674,999.512,999.512,393.555,999.512
1741777902.677,122.559,251.953,-450.684,134.277
1741777902.681,-1000.000,-1000.000,-883.301,-1000.000
1741777902.685,-982.422,-1000.000,-38.086,-986.328
1741777902.689,-976.562,-966.797,356.445,-975.098
1741777902.693,-1000.000,-1000.000,114.258,-1000.000
1741777902.650,698.730,674.805,818.848,658.203
1741777902.654,999.512,999.512,451.660,999.512
1741777902.658,896.484,895.996,-283.691,895.508
1741777902.662,986.328,985.840,-234.863,986.816
1741777902.666,960.449,967.773,9.277,960.938
1741777902.670,916.992,908.691,365.723,918.945
1741777902.674,999.512,999.512,393.555,999.512
1741777902.677,122.559,251.953,-450.684,134.277
1741777902.681,-1000.000,-1000.000,-883.301,-1000.000
1741777902.685,-982.422,-1000.000,-38.086,-986.328
1741777902.689,-976.562,-966.797,356.445,-975.098
1741777902.693,-1000.000,-1000.000,114.258,-1000.000
1741777902.725,-941.406,-942.383,-273.926,-941.895
1741777902.729,-1000.000,-1000.000,-276.855,-1000.000
1741777902.733,-880.371,-891.113,532.715,-880.859
1741777902.737,578.125,564.453,980.469,577.148
1741777902.741,999.512,999.512,913.574,999.512
1741777902.745,891.602,892.090,735.352,892.578
1741777902.749,982.422,982.910,585.449,983.398
1741777902.752,965.820,968.262,484.863,964.844
1741777902.756,951.172,953.613,328.613,955.078
1741777902.760,999.512,999.512,80.566,999.512
1741777902.764,706.055,784.668,-172.363,690.430
1741777902.768,702.637,763.184,648.926,709.473
1741777902.725,-941.406,-942.383,-273.926,-941.895
1741777902.729,-1000.000,-1000.000,-276.855,-1000.000
1741777902.733,-880.371,-891.113,532.715,-880.859
1741777902.737,578.125,564.453,980.469,577.148
1741777902.741,999.512,999.512,913.574,999.512
1741777902.745,891.602,892.090,735.352,892.578
1741777902.749,982.422,982.910,585.449,983.398
1741777902.752,965.820,968.262,484.863,964.844
1741777902.756,951.172,953.613,328.613,955.078
1741777902.760,999.512,999.512,80.566,999.512
1741777902.764,706.055,784.668,-172.363,690.430
1741777902.768,702.637,763.184,648.926,709.473
1741777902.770,999.512,999.512,958.984,999.512
1741777902.774,951.660,958.008,333.008,951.172
1741777902.778,965.332,965.332,210.938,966.797
1741777902.782,982.422,983.398,219.238,983.398
1741777902.786,907.715,909.668,83.984,906.250
1741777902.790,999.512,999.512,226.074,999.512
1741777902.794,849.121,857.422,28.320,818.848
1741777902.797,-608.398,-597.656,-651.855,-642.578
1741777902.801,-1000.000,-1000.000,-574.219,-1000.000
1741777902.805,-925.781,-925.781,50.781,-927.246
1741777902.809,-1000.000,-1000.000,119.141,-1000.000
1741777902.813,-1000.000,-1000.000,-81.543,-1000.000
1741777902.770,999.512,999.512,958.984,999.512
1741777902.774,951.660,958.008,333.008,951.172
1741777902.778,965.332,965.332,210.938,966.797
1741777902.782,982.422,983.398,219.238,983.398
1741777902.786,907.715,909.668,83.984,906.250
1741777902.790,999.512,999.512,226.074,999.512
1741777902.794,849.121,857.422,28.320,818.848
1741777902.797,-608.398,-597.656,-651.855,-642.578
1741777902.801,-1000.000,-1000.000,-574.219,-1000.000
1741777902.805,-925.781,-925.781,50.781,-927.246
1741777902.809,-1000.000,-1000.000,119.141,-1000.000
1741777902.813,-1000.000,-1000.000,-81.543,-1000.000
1741777902.815,-1000.000,-1000.000,-189.453,-1000.000
1741777902.819,-1000.000,-1000.000,-65.918,-1000.000
1741777902.823,-990.723,-966.309,109.863,-1000.000
1741777902.827,-957.031,-998.047,52.734,-937.012
1741777902.831,-1000.000,-1000.000,-444.336,-1000.000
1741777902.835,-92.773,269.531,-118.164,-375.000
1741777902.839,999.512,999.512,885.254,947.754
1741777902.842,939.453,899.902,727.051,983.398
1741777902.846,946.777,971.680,113.770,926.758
1741777902.850,971.680,966.797,-209.473,978.027
1741777902.854,966.309,967.285,-200.195,966.797
1741777902.858,982.910,983.398,157.227,983.398
1741777902.815,-1000.000,-1000.000,-189.453,-1000.000
1741777902.819,-1000.000,-1000.000,-65.918,-1000.000
1741777902.823,-990.723,-966.309,109.863,-1000.000
1741777902.827,-957.031,-998.047,52.734,-937.012
1741777902.831,-1000.000,-1000.000,-444.336,-1000.000
1741777902.835,-92.773,269.531,-118.164,-375.000
1741777902.839,999.512,999.512,885.254,947.754
1741777902.842,939.453,899.902,727.051,983.398
1741777902.846,946.777,971.680,113.770,926.758
1741777902.850,971.680,966.797,-209.473,978.027
1741777902.854,966.309,967.285,-200.195,966.797
1741777902.858,982.910,983.398,157.227,983.398
1741777902.920,999.512,999.512,434.082,999.512
1741777902.924,892.090,892.578,-136.719,893.555
1741777902.928,982.422,982.910,135.254,983.398
1741777902.932,981.934,984.375,396.973,980.957
1741777902.936,893.555,896.484,483.398,897.461
1741777902.940,999.512,999.512,354.980,999.512
1741777902.944,590.820,689.453,-258.789,571.289
1741777902.947,-865.234,-789.062,-883.789,-862.305
1741777902.951,-1000.000,-1000.000,-770.020,-1000.000
1741777902.955,-940.430,-934.082,-351.562,-942.383
1741777902.959,-1000.000,-1000.000,-479.980,-1000.000
1741777902.963,-941.406,-941.895,-827.148,-940.918
1741777902.920,999.512,999.512,434.082,999.512
1741777902.924,892.090,892.578,-136.719,893.555
1741777902.928,982.422,982.910,135.254,983.398
1741777902.932,981.934,984.375,396.973,980.957
1741777902.936,893.555,896.484,483.398,897.461
1741777902.940,999.512,999.512,354.980,999.512
1741777902.944,590.820,689.453,-258.789,571.289
1741777902.947,-865.234,-789.062,-883.789,-862.305
1741777902.951,-1000.000,-1000.000,-770.020,-1000.000
1741777902.955,-940.430,-934.082,-351.562,-942.383
1741777902.959,-1000.000,-1000.000,-479.980,-1000.000
1741777902.963,-941.406,-941.895,-827.148,-940.918
1741777902.920,999.512,999.512,434.082,999.512
1741777902.924,892.090,892.578,-136.719,893.555
1741777902.928,982.422,982.910,135.254,983.398
1741777902.932,981.934,984.375,396.973,980.957
1741777902.936,893.555,896.484,483.398,897.461
1741777902.940,999.512,999.512,354.980,999.512
1741777902.944,590.820,689.453,-258.789,571.289
1741777902.947,-865.234,-789.062,-883.789,-862.305
1741777902.951,-1000.000,-1000.000,-770.020,-1000.000
1741777902.955,-940.430,-934.082,-351.562,-942.383
1741777902.959,-1000.000,-1000.000,-479.980,-1000.000
1741777902.963,-941.406,-941.895,-827.148,-940.918
1741777902.965,-1000.000,-1000.000,-709.473,-1000.000
1741777902.969,-878.418,-699.707,2.441,-870.605
1741777902.973,580.078,703.613,441.406,588.867
1741777902.977,999.512,999.512,251.465,999.512
1741777902.981,892.090,904.297,-342.285,893.066
1741777902.985,983.398,981.934,-225.586,984.375
1741777902.989,973.633,979.004,358.887,973.145
1741777902.992,899.902,895.996,417.969,904.297
1741777902.996,999.512,999.512,-87.402,999.512
1741777903.000,383.789,482.910,-583.496,370.605
1741777903.004,-966.797,-926.270,-785.645,-962.891
1741777903.008,-1000.000,-1000.000,-309.082,-1000.000
1741777902.965,-1000.000,-1000.000,-709.473,-1000.000
1741777902.969,-878.418,-699.707,2.441,-870.605
1741777902.973,580.078,703.613,441.406,588.867
1741777902.977,999.512,999.512,251.465,999.512
1741777902.981,892.090,904.297,-342.285,893.066
1741777902.985,983.398,981.934,-225.586,984.375
1741777902.989,973.633,979.004,358.887,973.145
1741777902.992,899.902,895.996,417.969,904.297
1741777902.996,999.512,999.512,-87.402,999.512
1741777903.000,383.789,482.910,-583.496,370.605
1741777903.004,-966.797,-926.270,-785.645,-962.891
1741777903.008,-1000.000,-1000.000,-309.082,-1000.000
1741777903.010,-956.543,-948.730,168.457,-957.520
1741777903.014,-1000.000,-1000.000,199.707,-1000.000
1741777903.018,-979.004,-977.539,-119.141,-981.934
1741777903.022,-974.121,-977.051,-208.008,-970.215
1741777903.026,-1000.000,-1000.000,149.902,-1000.000
1741777903.030,91.309,111.816,537.109,39.062
1741777903.034,999.512,999.512,945.801,999.512
1741777903.037,915.527,914.551,231.934,923.828
1741777903.041,960.449,962.402,-546.387,957.031
1741777903.045,968.262,968.750,38.086,970.215
1741777903.049,982.422,983.398,404.785,983.398
1741777903.053,908.691,909.180,208.984,908.203
1741777903.010,-956.543,-948.730,168.457,-957.520
1741777903.014,-1000.000,-1000.000,199.707,-1000.000
1741777903.018,-979.004,-977.539,-119.141,-981.934
1741777903.022,-974.121,-977.051,-208.008,-970.215
1741777903.026,-1000.000,-1000.000,149.902,-1000.000
1741777903.030,91.309,111.816,537.109,39.062
1741777903.034,999.512,999.512,945.801,999.512
1741777903.037,915.527,914.551,231.934,923.828
1741777903.041,960.449,962.402,-546.387,957.031
1741777903.045,968.262,968.750,38.086,970.215
1741777903.049,982.422,983.398,404.785,983.398
1741777903.053,908.691,909.180,208.984,908.203
1741777903.055,999.512,999.512,-164.551,999.512
1741777903.059,856.934,857.910,-149.902,849.609
1741777903.063,-597.656,-597.656,-157.227,-607.910
1741777903.067,-1000.000,-1000.000,-270.508,-1000.000
1741777903.071,-925.781,-925.781,-43.457,-925.781
1741777903.075,-1000.000,-1000.000,107.910,-1000.000
1741777903.079,-1000.000,-1000.000,-286.621,-1000.000
1741777903.082,-966.797,-976.074,-473.633,-966.797
1741777903.086,-996.582,-979.004,-146.484,-998.535
1741777903.090,-1000.000,-1000.000,219.238,-1000.000
1741777903.094,263.184,134.766,269.043,255.859
1741777903.098,999.512,999.512,443.359,999.512
1741777903.055,999.512,999.512,-164.551,999.512
1741777903.059,856.934,857.910,-149.902,849.609
1741777903.063,-597.656,-597.656,-157.227,-607.910
1741777903.067,-1000.000,-1000.000,-270.508,-1000.000
1741777903.071,-925.781,-925.781,-43.457,-925.781
1741777903.075,-1000.000,-1000.000,107.910,-1000.000
1741777903.079,-1000.000,-1000.000,-286.621,-1000.000
1741777903.082,-966.797,-976.074,-473.633,-966.797
1741777903.086,-996.582,-979.004,-146.484,-998.535
1741777903.090,-1000.000,-1000.000,219.238,-1000.000
1741777903.094,263.184,134.766,269.043,255.859
1741777903.098,999.512,999.512,443.359,999.512
1741777903.100,904.297,918.457,522.461,909.180
1741777903.104,951.172,936.035,390.137,952.148
1741777903.108,937.500,955.078,341.309,937.500
1741777903.112,999.512,999.512,100.586,999.512
1741777903.116,-101.562,-214.355,-538.574,-67.383
1741777903.120,-1000.000,-1000.000,-620.117,-1000.000
1741777903.124,-952.148,-942.383,138.184,-958.496
1741777903.127,-992.676,-999.512,294.922,-989.746
1741777903.131,-1000.000,-1000.000,-8.789,-1000.000
1741777903.135,-1000.000,-1000.000,-338.379,-1000.000
1741777903.139,-935.547,-933.594,-331.055,-937.500
1741777903.143,-1000.000,-1000.000,-158.691,-1000.000
1741777903.100,904.297,918.457,522.461,909.180
1741777903.104,951.172,936.035,390.137,952.148
1741777903.108,937.500,955.078,341.309,937.500
1741777903.112,999.512,999.512,100.586,999.512
1741777903.116,-101.562,-214.355,-538.574,-67.383
1741777903.120,-1000.000,-1000.000,-620.117,-1000.000
1741777903.124,-952.148,-942.383,138.184,-958.496
1741777903.127,-992.676,-999.512,294.922,-989.746
1741777903.131,-1000.000,-1000.000,-8.789,-1000.000
1741777903.135,-1000.000,-1000.000,-338.379,-1000.000
1741777903.139,-935.547,-933.594,-331.055,-937.500
1741777903.143,-1000.000,-1000.000,-158.691,-1000.000
1741777903.610,687.988,774.902,-221.680,640.137
1741777903.614,-789.062,-702.148,-405.273,-801.270
1741777903.618,-1000.000,-1000.000,-170.898,-1000.000
1741777903.622,-933.594,-928.711,13.672,-937.988
1741777903.626,-1000.000,-1000.000,-53.223,-1000.000
1741777903.630,-1000.000,-1000.000,-215.820,-1000.000
1741777903.634,-1000.000,-1000.000,-334.473,-1000.000
1741777903.637,-1000.000,-1000.000,-440.430,-1000.000
1741777903.641,-1000.000,-1000.000,-334.473,-1000.000
1741777903.645,-965.820,-954.590,-130.371,-976.562
1741777903.649,-998.535,-1000.000,-411.621,-979.004
1741777903.653,-1000.000,-975.586,-759.766,-1000.000
1741777903.146,-815.918,-782.227,-79.590,-830.078
1741777903.150,659.180,694.336,510.254,638.184
1741777903.154,999.512,999.512,129.395,999.512
1741777903.158,894.043,896.973,-606.934,894.531
1741777903.162,998.535,997.559,-517.578,997.559
1741777903.166,913.086,920.898,-51.758,916.992
1741777903.170,999.512,991.211,224.609,999.512
1741777903.173,895.020,943.848,-392.578,916.992
1741777903.177,-538.574,-452.148,-865.723,-497.559
1741777903.181,-1000.000,-1000.000,-568.359,-1000.000
1741777903.185,-925.781,-926.758,-71.777,-926.270
1741777903.189,-1000.000,-1000.000,80.566,-1000.000
1741777903.146,-815.918,-782.227,-79.590,-830.078
1741777903.150,659.180,694.336,510.254,638.184
1741777903.154,999.512,999.512,129.395,999.512
1741777903.158,894.043,896.973,-606.934,894.531
1741777903.162,998.535,997.559,-517.578,997.559
1741777903.166,913.086,920.898,-51.758,916.992
1741777903.170,999.512,991.211,224.609,999.512
1741777903.173,895.020,943.848,-392.578,916.992
1741777903.177,-538.574,-452.148,-865.723,-497.559
1741777903.181,-1000.000,-1000.000,-568.359,-1000.000
1741777903.185,-925.781,-926.758,-71.777,-926.270
1741777903.189,-1000.000,-1000.000,80.566,-1000.000
1741777903.190,-942.383,-942.383,-208.984,-942.383
1741777903.194,-1000.000,-1000.000,-170.410,-1000.000
1741777903.198,-891.113,-891.113,401.367,-887.207
1741777903.202,563.477,564.453,845.703,569.336
1741777903.206,999.512,999.512,976.074,999.512
1741777903.210,891.602,892.578,564.941,892.090
1741777903.214,981.934,982.910,-112.305,982.910
1741777903.217,968.262,968.262,-437.500,968.750
1741777903.221,964.844,971.191,-238.281,967.773
1741777903.225,911.133,904.785,2.930,910.156
1741777903.229,999.512,999.512,-103.516,999.512
1741777903.233,210.938,309.570,-486.816,267.578
1741777903.190,-942.383,-942.383,-208.984,-942.383
1741777903.194,-1000.000,-1000.000,-170.410,-1000.000
1741777903.198,-891.113,-891.113,401.367,-887.207
1741777903.202,563.477,564.453,845.703,569.336
1741777903.206,999.512,999.512,976.074,999.512
1741777903.210,891.602,892.578,564.941,892.090
1741777903.214,981.934,982.910,-112.305,982.910
1741777903.217,968.262,968.262,-437.500,968.750
1741777903.221,964.844,971.191,-238.281,967.773
1741777903.225,911.133,904.785,2.930,910.156
1741777903.229,999.512,999.512,-103.516,999.512
1741777903.233,210.938,309.570,-486.816,267.578
1741777903.235,-1000.000,-997.070,-635.742,-1000.000
1741777903.239,-996.094,-1000.000,94.238,-1000.000
1741777903.243,-969.727,-962.402,298.340,-965.332
1741777903.247,-1000.000,-1000.000,-362.305,-1000.000
1741777903.251,-942.383,-942.383,-893.066,-942.383
1741777903.255,-1000.000,-1000.000,-538.086,-1000.000
1741777903.259,-891.113,-890.137,-13.672,-889.160
1741777903.262,563.965,565.430,118.164,567.383
1741777903.266,999.512,999.512,-299.316,999.512
1741777903.270,891.602,892.578,-967.285,892.090
1741777903.274,982.422,982.910,-806.641,982.910
1741777903.278,966.309,966.797,-464.355,966.797
1741777903.235,-1000.000,-997.070,-635.742,-1000.000
1741777903.239,-996.094,-1000.000,94.238,-1000.000
1741777903.243,-969.727,-962.402,298.340,-965.332
1741777903.247,-1000.000,-1000.000,-362.305,-1000.000
1741777903.251,-942.383,-942.383,-893.066,-942.383
1741777903.255,-1000.000,-1000.000,-538.086,-1000.000
1741777903.259,-891.113,-890.137,-13.672,-889.160
1741777903.262,563.965,565.430,118.164,567.383
1741777903.266,999.512,999.512,-299.316,999.512
1741777903.270,891.602,892.578,-967.285,892.090
1741777903.274,982.422,982.910,-806.641,982.910
1741777903.278,966.309,966.797,-464.355,966.797
1741777903.295,967.773,976.074,-375.977,967.773
1741777903.299,967.285,933.105,-364.258,975.586
1741777903.303,907.715,965.820,-663.086,900.391
1741777903.307,999.512,999.512,-612.793,999.512
1741777903.311,254.883,-294.922,-325.684,416.992
1741777903.315,-1000.000,-1000.000,-207.031,-948.242
1741777903.319,-1000.000,-936.523,-130.859,-1000.000
1741777903.322,-966.309,-1000.000,-715.820,-954.102
1741777903.326,-1000.000,-1000.000,-911.133,-1000.000
1741777903.330,-1000.000,-1000.000,-86.426,-1000.000
1741777903.334,-977.539,-956.543,184.570,-991.699
1741777903.338,-977.051,-1000.000,-86.426,-955.566
1741777903.295,967.773,976.074,-375.977,967.773
1741777903.299,967.285,933.105,-364.258,975.586
1741777903.303,907.715,965.820,-663.086,900.391
1741777903.307,999.512,999.512,-612.793,999.512
1741777903.311,254.883,-294.922,-325.684,416.992
1741777903.315,-1000.000,-1000.000,-207.031,-948.242
1741777903.319,-1000.000,-936.523,-130.859,-1000.000
1741777903.322,-966.309,-1000.000,-715.820,-954.102
1741777903.326,-1000.000,-1000.000,-911.133,-1000.000
1741777903.330,-1000.000,-1000.000,-86.426,-1000.000
1741777903.334,-977.539,-956.543,184.570,-991.699
1741777903.338,-977.051,-1000.000,-86.426,-955.566
1741777903.340,-1000.000,-985.352,-550.293,-1000.000
1741777903.344,113.770,394.531,-247.070,-116.211
1741777903.348,999.512,999.512,606.934,999.512
1741777903.352,913.086,895.020,658.203,944.336
1741777903.356,961.426,977.539,390.137,945.801
1741777903.360,967.773,966.797,334.473,972.656
1741777903.364,966.309,966.797,178.223,966.797
1741777903.367,979.004,977.051,38.574,978.516
1741777903.371,921.387,930.664,92.285,924.316
1741777903.375,987.793,969.727,331.543,983.887
1741777903.379,949.707,997.070,245.117,960.449
1741777903.383,-437.500,-335.938,-175.781,-408.691
1741777903.340,-1000.000,-985.352,-550.293,-1000.000
1741777903.344,113.770,394.531,-247.070,-116.211
1741777903.348,999.512,999.512,606.934,999.512
1741777903.352,913.086,895.020,658.203,944.336
1741777903.356,961.426,977.539,390.137,945.801
1741777903.360,967.773,966.797,334.473,972.656
1741777903.364,966.309,966.797,178.223,966.797
1741777903.367,979.004,977.051,38.574,978.516
1741777903.371,921.387,930.664,92.285,924.316
1741777903.375,987.793,969.727,331.543,983.887
1741777903.379,949.707,997.070,245.117,960.449
1741777903.383,-437.500,-335.938,-175.781,-408.691
1741777903.385,-1000.000,-1000.000,-349.121,-1000.000
1741777903.389,-927.246,-930.664,-140.625,-928.711
1741777903.393,-1000.000,-1000.000,-62.012,-1000.000
1741777903.397,-1000.000,-1000.000,-399.902,-1000.000
1741777903.401,-936.523,-941.406,-797.363,-937.500
1741777903.405,-1000.000,-1000.000,-93.750,-1000.000
1741777903.409,-826.172,-876.953,559.082,-801.758
1741777903.412,644.531,583.008,657.227,654.785
1741777903.416,999.512,999.512,322.754,999.512
1741777903.420,894.043,892.578,-381.348,896.973
1741777903.424,983.398,983.398,-371.094,982.910
1741777903.428,982.422,983.398,-64.941,983.398
1741777903.385,-1000.000,-1000.000,-349.121,-1000.000
1741777903.389,-927.246,-930.664,-140.625,-928.711
1741777903.393,-1000.000,-1000.000,-62.012,-1000.000
1741777903.397,-1000.000,-1000.000,-399.902,-1000.000
1741777903.401,-936.523,-941.406,-797.363,-937.500
1741777903.405,-1000.000,-1000.000,-93.750,-1000.000
1741777903.409,-826.172,-876.953,559.082,-801.758
1741777903.412,644.531,583.008,657.227,654.785
1741777903.416,999.512,999.512,322.754,999.512
1741777903.420,894.043,892.578,-381.348,896.973
1741777903.424,983.398,983.398,-371.094,982.910
1741777903.428,982.422,983.398,-64.941,983.398
1741777903.447,908.691,909.180,96.680,907.227
1741777903.451,999.512,999.512,183.105,999.512
1741777903.455,856.934,857.910,-227.051,834.961
1741777903.459,-597.656,-597.656,-615.723,-623.535
1741777903.463,-1000.000,-1000.000,-477.539,-1000.000
1741777903.467,-925.781,-925.781,293.457,-926.758
1741777903.471,-1000.000,-1000.000,579.590,-1000.000
1741777903.474,-1000.000,-1000.000,-247.559,-1000.000
1741777903.478,-942.383,-942.383,-598.145,-941.895
1741777903.482,-1000.000,-1000.000,-31.250,-1000.000
1741777903.486,-891.113,-891.113,328.125,-880.859
1741777903.490,563.477,564.453,464.844,577.148
1741777903.475,999.512,999.512,28.320,999.512
1741777903.479,891.602,892.578,-309.082,892.578
1741777903.483,981.934,982.910,44.434,982.910
1741777903.487,982.422,983.398,191.895,982.422
1741777903.491,908.691,909.180,227.051,907.715
1741777903.495,999.512,999.512,-49.316,999.512
1741777903.499,856.934,857.910,-292.480,799.805
1741777903.502,-597.656,-597.656,-433.594,-646.973
1741777903.506,-1000.000,-1000.000,-413.574,-1000.000
1741777903.510,-930.664,-928.223,15.625,-934.082
1741777903.514,-997.070,-1000.000,-80.566,-1000.000
1741777903.518,-971.680,-953.125,-395.020,-967.285
1741777903.520,-1000.000,-1000.000,88.867,-1000.000
1741777903.524,63.965,-136.719,799.805,-1.953
1741777903.528,999.512,999.512,957.031,999.512
1741777903.532,918.945,946.289,308.105,930.176
1741777903.536,969.238,958.496,-454.102,962.402
1741777903.540,929.199,923.340,11.230,937.988
1741777903.544,975.586,999.512,902.344,962.891
1741777903.547,980.469,917.969,804.199,999.512
1741777903.551,-373.047,-496.094,-341.309,-294.922
1741777903.555,-1000.000,-1000.000,-1000.000,-1000.000
1741777903.559,-929.199,-926.270,-422.363,-933.105
1741777903.563,-1000.000,-1000.000,365.723,-1000.000
1741777903.520,-1000.000,-1000.000,88.867,-1000.000
1741777903.524,63.965,-136.719,799.805,-1.953
1741777903.528,999.512,999.512,957.031,999.512
1741777903.532,918.945,946.289,308.105,930.176
1741777903.536,969.238,958.496,-454.102,962.402
1741777903.540,929.199,923.340,11.230,937.988
1741777903.544,975.586,999.512,902.344,962.891
1741777903.547,980.469,917.969,804.199,999.512
1741777903.551,-373.047,-496.094,-341.309,-294.922
1741777903.555,-1000.000,-1000.000,-1000.000,-1000.000
1741777903.559,-929.199,-926.270,-422.363,-933.105
1741777903.563,-1000.000,-1000.000,365.723,-1000.000
1741777903.565,-1000.000,-1000.000,556.641,-1000.000
1741777903.569,-1000.000,-1000.000,383.301,-1000.000
1741777903.573,-959.961,-961.426,-74.707,-960.449
1741777903.577,-1000.000,-1000.000,-47.852,-1000.000
1741777903.581,-1000.000,-1000.000,318.848,-1000.000
1741777903.585,350.098,332.031,634.277,344.238
1741777903.589,999.512,999.512,857.422,999.512
1741777903.592,895.020,895.996,-145.020,896.484
1741777903.596,975.098,975.098,-763.672,975.098
1741777903.600,983.887,984.375,20.020,981.934
1741777903.604,895.508,901.367,584.961,899.902
1741777903.608,999.512,999.512,350.586,999.512
1741777903.565,-1000.000,-1000.000,556.641,-1000.000
1741777903.569,-1000.000,-1000.000,383.301,-1000.000
1741777903.573,-959.961,-961.426,-74.707,-960.449
1741777903.577,-1000.000,-1000.000,-47.852,-1000.000
1741777903.581,-1000.000,-1000.000,318.848,-1000.000
1741777903.585,350.098,332.031,634.277,344.238
1741777903.589,999.512,999.512,857.422,999.512
1741777903.592,895.020,895.996,-145.020,896.484
1741777903.596,975.098,975.098,-763.672,975.098
1741777903.600,983.887,984.375,20.020,981.934
1741777903.604,895.508,901.367,584.961,899.902
1741777903.608,999.512,999.512,350.586,999.512
1741777903.656,274.414,416.992,-208.008,127.441
1741777903.660,999.512,999.512,435.547,999.512
1741777903.664,898.438,894.043,331.543,912.598
1741777903.668,971.680,978.027,-160.156,963.379
1741777903.672,966.797,971.191,-642.578,968.750
1741777903.676,979.980,956.055,-62.012,982.422
1741777903.680,893.555,927.246,549.316,895.020
1741777903.683,999.512,999.512,227.051,999.512
1741777903.687,512.207,62.988,-325.195,595.215
1741777903.691,-913.574,-1000.000,-899.902,-857.910
1741777903.695,-1000.000,-978.027,-593.262,-1000.000
1741777903.699,-946.777,-979.980,9.277,-940.430
1741777903.656,274.414,416.992,-208.008,127.441
1741777903.660,999.512,999.512,435.547,999.512
1741777903.664,898.438,894.043,331.543,912.598
1741777903.668,971.680,978.027,-160.156,963.379
1741777903.672,966.797,971.191,-642.578,968.750
1741777903.676,979.980,956.055,-62.012,982.422
1741777903.680,893.555,927.246,549.316,895.020
1741777903.683,999.512,999.512,227.051,999.512
1741777903.687,512.207,62.988,-325.195,595.215
1741777903.691,-913.574,-1000.000,-899.902,-857.910
1741777903.695,-1000.000,-978.027,-593.262,-1000.000
1741777903.699,-946.777,-979.980,9.277,-940.430
1741777903.716,-1000.000,-1000.000,209.961,-1000.000
1741777903.720,-1000.000,-1000.000,104.492,-1000.000
1741777903.724,-947.266,-949.707,-238.281,-949.707
1741777903.728,-1000.000,-1000.000,-96.680,-1000.000
1741777903.732,-930.664,-944.824,27.832,-945.312
1741777903.736,501.953,477.051,633.301,474.121
1741777903.740,999.512,999.512,945.801,999.512
1741777903.743,891.602,892.578,-120.117,892.578
1741777903.747,991.211,992.676,-595.215,990.234
1741777903.751,926.758,923.340,-85.938,930.664
1741777903.755,975.098,986.328,210.938,969.727
1741777903.759,981.445,954.590,-23.438,995.117
1741777903.716,-1000.000,-1000.000,209.961,-1000.000
1741777903.720,-1000.000,-1000.000,104.492,-1000.000
1741777903.724,-947.266,-949.707,-238.281,-949.707
1741777903.728,-1000.000,-1000.000,-96.680,-1000.000
1741777903.732,-930.664,-944.824,27.832,-945.312
1741777903.736,501.953,477.051,633.301,474.121
1741777903.740,999.512,999.512,945.801,999.512
1741777903.743,891.602,892.578,-120.117,892.578
1741777903.747,991.211,992.676,-595.215,990.234
1741777903.751,926.758,923.340,-85.938,930.664
1741777903.755,975.098,986.328,210.938,969.727
1741777903.759,981.445,954.590,-23.438,995.117
1741777903.760,-370.605,-425.781,-753.906,-334.473
1741777903.764,-1000.000,-1000.000,-946.289,-1000.000
1741777903.768,-929.199,-927.734,-166.992,-931.641
1741777903.772,-1000.000,-1000.000,367.188,-1000.000
1741777903.776,-1000.000,-1000.000,350.586,-1000.000
1741777903.780,-1000.000,-1000.000,278.809,-1000.000
1741777903.784,-1000.000,-1000.000,235.840,-1000.000
1741777903.787,-1000.000,-1000.000,158.203,-1000.000
1741777903.791,-1000.000,-1000.000,74.219,-1000.000
1741777903.795,-1000.000,-1000.000,-41.016,-1000.000
1741777903.799,-937.500,-932.617,-433.105,-940.430
1741777903.803,-1000.000,-1000.000,-563.965,-1000.000
1741777903.760,-370.605,-425.781,-753.906,-334.473
1741777903.764,-1000.000,-1000.000,-946.289,-1000.000
1741777903.768,-929.199,-927.734,-166.992,-931.641
1741777903.772,-1000.000,-1000.000,367.188,-1000.000
1741777903.776,-1000.000,-1000.000,350.586,-1000.000
1741777903.780,-1000.000,-1000.000,278.809,-1000.000
1741777903.784,-1000.000,-1000.000,235.840,-1000.000
1741777903.787,-1000.000,-1000.000,158.203,-1000.000
1741777903.791,-1000.000,-1000.000,74.219,-1000.000
1741777903.795,-1000.000,-1000.000,-41.016,-1000.000
1741777903.799,-937.500,-932.617,-433.105,-940.430
1741777903.803,-1000.000,-1000.000,-563.965,-1000.000
1741777903.805,-834.473,-766.113,-192.871,-870.605
1741777903.809,636.230,708.984,669.434,590.820
1741777903.813,999.512,999.512,805.176,999.512
1741777903.817,893.555,897.949,-40.527,893.066
1741777903.821,991.699,995.605,-753.418,990.234
1741777903.825,934.570,927.246,-478.027,940.918
1741777903.829,959.473,978.027,-99.121,949.707
1741777903.832,999.512,975.586,-290.039,999.512
1741777903.836,-277.344,-378.418,-813.965,-191.895
1741777903.840,-1000.000,-1000.000,-1000.000,-1000.000
1741777903.844,-934.082,-929.688,-609.863,-943.359
1741777903.848,-1000.000,-1000.000,-77.148,-998.535
1741777903.805,-834.473,-766.113,-192.871,-870.605
1741777903.809,636.230,708.984,669.434,590.820
1741777903.813,999.512,999.512,805.176,999.512
1741777903.817,893.555,897.949,-40.527,893.066
1741777903.821,991.699,995.605,-753.418,990.234
1741777903.825,934.570,927.246,-478.027,940.918
1741777903.829,959.473,978.027,-99.121,949.707
1741777903.832,999.512,975.586,-290.039,999.512
1741777903.836,-277.344,-378.418,-813.965,-191.895
1741777903.840,-1000.000,-1000.000,-1000.000,-1000.000
1741777903.844,-934.082,-929.688,-609.863,-943.359
1741777903.848,-1000.000,-1000.000,-77.148,-998.535
1741777903.850,-1000.000,-1000.000,119.629,-1000.000
1741777903.854,-1000.000,-1000.000,31.250,-1000.000
1741777903.858,-942.383,-945.312,-343.750,-944.824
1741777903.862,-1000.000,-1000.000,-198.242,-1000.000
1741777903.866,-891.113,-913.574,143.066,-910.156
1741777903.870,563.477,529.297,588.379,534.180
1741777903.874,999.512,999.512,668.457,999.512
1741777903.877,891.602,892.578,-435.059,892.090
1741777903.881,989.746,989.258,-999.023,989.258
1741777903.885,937.500,940.430,-460.449,940.430
1741777903.889,953.125,950.195,5.371,951.660
1741777903.893,999.512,999.512,-219.727,999.512
1741777903.895,-240.234,-200.684,-654.297,-198.730
1741777903.899,-1000.000,-1000.000,-625.488,-1000.000
1741777903.903,-936.523,-941.895,-210.449,-943.848
1741777903.907,-1000.000,-999.023,302.734,-998.535
1741777903.911,-1000.000,-1000.000,569.824,-1000.000
1741777903.915,-1000.000,-1000.000,399.902,-1000.000
1741777903.919,-1000.000,-1000.000,587.402,-1000.000
1741777903.922,-1000.000,-1000.000,768.555,-1000.000
1741777903.926,-1000.000,-1000.000,546.875,-1000.000
1741777903.930,-979.980,-969.727,483.887,-994.629
1741777903.934,-973.145,-991.699,98.633,-951.660
1741777903.938,-1000.000,-1000.000,-129.395,-1000.000
1741777903.895,-240.234,-200.684,-654.297,-198.730
1741777903.899,-1000.000,-1000.000,-625.488,-1000.000
1741777903.903,-936.523,-941.895,-210.449,-943.848
1741777903.907,-1000.000,-999.023,302.734,-998.535
1741777903.911,-1000.000,-1000.000,569.824,-1000.000
1741777903.915,-1000.000,-1000.000,399.902,-1000.000
1741777903.919,-1000.000,-1000.000,587.402,-1000.000
1741777903.922,-1000.000,-1000.000,768.555,-1000.000
1741777903.926,-1000.000,-1000.000,546.875,-1000.000
1741777903.930,-979.980,-969.727,483.887,-994.629
1741777903.934,-973.145,-991.699,98.633,-951.660
1741777903.938,-1000.000,-1000.000,-129.395,-1000.000
1741777903.941,78.613,226.562,491.211,-164.062
1741777903.945,999.512,999.512,986.328,999.512
1741777903.949,916.992,903.320,857.910,950.684
1741777903.953,959.473,969.238,155.273,942.383
1741777903.957,979.004,979.004,-288.086,983.398
1741777903.961,928.223,925.781,268.066,931.152
1741777903.965,972.656,980.469,686.523,968.750
1741777903.968,987.793,970.215,272.461,997.070
1741777903.972,-356.934,-393.555,-451.172,-329.102
1741777903.976,-1000.000,-1000.000,-951.660,-1000.000
1741777903.980,-929.688,-928.711,-376.953,-931.641
1741777903.984,-1000.000,-1000.000,170.410,-1000.000
1741777903.941,78.613,226.562,491.211,-164.062
1741777903.945,999.512,999.512,986.328,999.512
1741777903.949,916.992,903.320,857.910,950.684
1741777903.953,959.473,969.238,155.273,942.383
1741777903.957,979.004,979.004,-288.086,983.398
1741777903.961,928.223,925.781,268.066,931.152
1741777903.965,972.656,980.469,686.523,968.750
1741777903.968,987.793,970.215,272.461,997.070
1741777903.972,-356.934,-393.555,-451.172,-329.102
1741777903.976,-1000.000,-1000.000,-951.660,-1000.000
1741777903.980,-929.688,-928.711,-376.953,-931.641
1741777903.984,-1000.000,-1000.000,170.410,-1000.000
1741777903.985,-1000.000,-1000.000,334.473,-1000.000
1741777903.989,-1000.000,-1000.000,113.281,-1000.000
1741777903.993,-985.352,-965.820,-631.836,-1000.000
1741777903.997,-964.355,-999.023,-596.680,-943.848
1741777904.001,-1000.000,-1000.000,-460.938,-1000.000
1741777904.005,-27.832,270.508,60.059,-305.664
1741777904.009,999.512,999.512,471.680,999.512
1741777904.012,999.512,999.512,-381.836,965.332
1741777904.016,-125.977,113.770,-780.273,-420.410
1741777904.020,-1000.000,-1000.000,-538.574,-1000.000
1741777904.024,-950.684,-980.469,-138.672,-930.176
1741777904.028,-993.652,-977.539,-124.512,-1000.000
1741777903.985,-1000.000,-1000.000,334.473,-1000.000
1741777903.989,-1000.000,-1000.000,113.281,-1000.000
1741777903.993,-985.352,-965.820,-631.836,-1000.000
1741777903.997,-964.355,-999.023,-596.680,-943.848
1741777904.001,-1000.000,-1000.000,-460.938,-1000.000
1741777904.005,-27.832,270.508,60.059,-305.664
1741777904.009,999.512,999.512,471.680,999.512
1741777904.012,999.512,999.512,-381.836,965.332
1741777904.016,-125.977,113.770,-780.273,-420.410
1741777904.020,-1000.000,-1000.000,-538.574,-1000.000
1741777904.024,-950.684,-980.469,-138.672,-930.176
1741777904.028,-993.652,-977.539,-124.512,-1000.000
1741777904.045,-1000.000,-1000.000,-550.781,-1000.000
1741777904.049,-1000.000,-1000.000,-565.918,-1000.000
1741777904.053,-1000.000,-975.586,-256.348,-1000.000
1741777904.057,-935.547,-981.445,-140.625,-1000.000
1741777904.061,-1000.000,-1000.000,-418.945,-1000.000
1741777904.065,-398.438,142.578,-396.484,-1000.000
1741777904.069,938.965,999.512,284.668,-1000.000
1741777904.072,999.512,928.711,533.691,-1000.000
1741777904.076,865.234,906.250,103.027,-1000.000
1741777904.080,999.512,999.512,-210.938,-1000.000
1741777904.084,844.238,857.910,-415.527,-1000.000
1741777904.088,-614.258,-597.656,-623.047,-1000.000
1741777904.045,-1000.000,-1000.000,-550.781,-1000.000
1741777904.049,-1000.000,-1000.000,-565.918,-1000.000
1741777904.053,-1000.000,-975.586,-256.348,-1000.000
1741777904.057,-935.547,-981.445,-140.625,-1000.000
1741777904.061,-1000.000,-1000.000,-418.945,-1000.000
1741777904.065,-398.438,142.578,-396.484,-1000.000
1741777904.069,938.965,999.512,284.668,-1000.000
1741777904.072,999.512,928.711,533.691,-1000.000
1741777904.076,865.234,906.250,103.027,-1000.000
1741777904.080,999.512,999.512,-210.938,-1000.000
1741777904.084,844.238,857.910,-415.527,-1000.000
1741777904.088,-614.258,-597.656,-623.047,-1000.000
1741777904.091,-1000.000,-1000.000,-228.027,-1000.000
1741777904.095,-934.082,-937.500,473.633,-1000.000
1741777904.099,-985.840,-974.121,278.809,-1000.000
1741777904.103,-991.211,-1000.000,-233.398,-934.082
1741777904.107,-1000.000,-996.582,-379.883,-1000.000
1741777904.111,247.070,388.672,326.172,-456.055
1741777904.115,999.512,999.512,928.711,840.332
1741777904.118,954.590,941.406,573.242,999.512
1741777904.122,859.863,891.113,-35.645,788.574
1741777904.126,-597.656,-560.547,-513.184,-609.863
1741777904.130,-1000.000,-1000.000,-271.973,-1000.000
1741777904.134,-925.781,-925.781,323.730,-926.758
1741777904.091,-1000.000,-1000.000,-228.027,-1000.000
1741777904.095,-934.082,-937.500,473.633,-1000.000
1741777904.099,-985.840,-974.121,278.809,-1000.000
1741777904.103,-991.211,-1000.000,-233.398,-934.082
1741777904.107,-1000.000,-996.582,-379.883,-1000.000
1741777904.111,247.070,388.672,326.172,-456.055
1741777904.115,999.512,999.512,928.711,840.332
1741777904.118,954.590,941.406,573.242,999.512
1741777904.122,859.863,891.113,-35.645,788.574
1741777904.126,-597.656,-560.547,-513.184,-609.863
1741777904.130,-1000.000,-1000.000,-271.973,-1000.000
1741777904.134,-925.781,-925.781,323.730,-926.758
1741777904.135,-1000.000,-1000.000,521.973,-1000.000
1741777904.139,-1000.000,-1000.000,213.867,-1000.000
1741777904.143,-1000.000,-966.797,-149.902,-1000.000
1741777904.147,-941.895,-997.070,92.285,-929.199
1741777904.151,-1000.000,-1000.000,182.129,-1000.000
1741777904.155,-295.898,261.719,218.262,-659.668
1741777904.159,976.562,999.512,381.836,799.805
1741777904.162,969.727,900.879,-315.430,999.512
1741777904.166,947.266,986.328,-646.484,920.410
1741777904.170,920.410,914.062,-218.262,928.711
1741777904.174,999.512,999.512,110.840,999.512
1741777904.178,877.930,894.531,-254.883,879.395
1741777904.135,-1000.000,-1000.000,521.973,-1000.000
1741777904.139,-1000.000,-1000.000,213.867,-1000.000
1741777904.143,-1000.000,-966.797,-149.902,-1000.000
1741777904.147,-941.895,-997.070,92.285,-929.199
1741777904.151,-1000.000,-1000.000,182.129,-1000.000
1741777904.155,-295.898,261.719,218.262,-659.668
1741777904.159,976.562,999.512,381.836,799.805
1741777904.162,969.727,900.879,-315.430,999.512
1741777904.166,947.266,986.328,-646.484,920.410
1741777904.170,920.410,914.062,-218.262,928.711
1741777904.174,999.512,999.512,110.840,999.512
1741777904.178,877.930,894.531,-254.883,879.395
1741777904.180,-565.430,-540.039,-912.109,-563.477
1741777904.184,-1000.000,-1000.000,-838.867,-1000.000
1741777904.188,-925.781,-925.781,-447.754,-925.781
1741777904.192,-1000.000,-1000.000,-181.641,-1000.000
1741777904.196,-1000.000,-1000.000,-226.562,-1000.000
1741777904.200,-968.262,-988.770,-592.773,-974.121
1741777904.204,-994.141,-959.473,-462.402,-985.352
1741777904.207,-1000.000,-1000.000,-221.680,-1000.000
1741777904.211,247.070,-63.477,-131.348,157.227
1741777904.215,999.512,999.512,395.020,999.512
1741777904.219,900.391,936.035,29.297,912.598
1741777904.223,969.727,950.195,-226.074,963.867
1741777904.180,-565.430,-540.039,-912.109,-563.477
1741777904.184,-1000.000,-1000.000,-838.867,-1000.000
1741777904.188,-925.781,-925.781,-447.754,-925.781
1741777904.192,-1000.000,-1000.000,-181.641,-1000.000
1741777904.196,-1000.000,-1000.000,-226.562,-1000.000
1741777904.200,-968.262,-988.770,-592.773,-974.121
1741777904.204,-994.141,-959.473,-462.402,-985.352
1741777904.207,-1000.000,-1000.000,-221.680,-1000.000
1741777904.211,247.070,-63.477,-131.348,157.227
1741777904.215,999.512,999.512,395.020,999.512
1741777904.219,900.391,936.035,29.297,912.598
1741777904.223,969.727,950.195,-226.074,963.867
1741777904.225,966.309,971.680,195.312,968.750
1741777904.229,966.309,967.285,212.402,966.797
1741777904.233,966.309,966.797,-184.570,966.797
1741777904.237,966.309,968.262,-661.133,966.797
1741777904.241,982.910,972.656,-658.691,982.422
1741777904.245,906.250,904.785,-98.633,911.621
1741777904.249,999.512,999.512,392.578,999.512
1741777904.252,830.566,355.469,76.660,874.023
1741777904.256,-634.277,-985.352,-831.055,-553.223
1741777904.260,-1000.000,-947.266,-979.492,-1000.000
1741777904.264,-1000.000,-1000.000,-198.730,-1000.000
1741777904.268,-372.070,-645.996,391.113,-81.543
1741777904.270,958.496,826.660,798.340,999.512
1741777904.274,978.516,999.512,516.602,939.941
1741777904.278,927.246,906.738,-232.910,948.730
1741777904.282,988.770,997.559,-41.504,978.516
1741777904.286,924.316,917.480,73.242,942.383
1741777904.290,981.445,999.512,218.750,947.266
1741777904.294,965.332,918.457,203.125,999.512
1741777904.297,-421.875,-512.207,-672.363,-185.059
1741777904.301,-1000.000,-1000.000,-980.469,-1000.000
1741777904.305,-990.723,-979.980,-351.562,-1000.000
1741777904.309,-870.117,-903.809,178.711,-637.207
1741777904.313,603.516,564.453,415.527,784.668
1741777904.270,958.496,826.660,798.340,999.512
1741777904.274,978.516,999.512,516.602,939.941
1741777904.278,927.246,906.738,-232.910,948.730
1741777904.282,988.770,997.559,-41.504,978.516
1741777904.286,924.316,917.480,73.242,942.383
1741777904.290,981.445,999.512,218.750,947.266
1741777904.294,965.332,918.457,203.125,999.512
1741777904.297,-421.875,-512.207,-672.363,-185.059
1741777904.301,-1000.000,-1000.000,-980.469,-1000.000
1741777904.305,-990.723,-979.980,-351.562,-1000.000
1741777904.309,-870.117,-903.809,178.711,-637.207
1741777904.313,603.516,564.453,415.527,784.668
1741777904.315,999.512,999.512,231.934,999.512
1741777904.319,892.578,892.090,183.105,906.738
1741777904.323,982.910,982.910,484.375,982.422
1741777904.327,966.309,966.797,520.996,967.285
1741777904.331,970.215,980.957,164.062,966.797
1741777904.335,952.148,916.992,-64.453,966.797
1741777904.339,929.688,999.512,311.035,966.797
1741777904.342,999.512,916.016,598.633,967.285
1741777904.346,-10.742,-500.977,309.082,966.797
1741777904.350,-1000.000,-1000.000,172.852,966.797
1741777904.354,-943.848,-855.469,90.820,967.285
1741777904.358,-1000.000,-1000.000,345.703,966.797
1741777904.315,999.512,999.512,231.934,999.512
1741777904.319,892.578,892.090,183.105,906.738
1741777904.323,982.910,982.910,484.375,982.422
1741777904.327,966.309,966.797,520.996,967.285
1741777904.331,970.215,980.957,164.062,966.797
1741777904.335,952.148,916.992,-64.453,966.797
1741777904.339,929.688,999.512,311.035,966.797
1741777904.342,999.512,916.016,598.633,967.285
1741777904.346,-10.742,-500.977,309.082,966.797
1741777904.350,-1000.000,-1000.000,172.852,966.797
1741777904.354,-943.848,-855.469,90.820,967.285
1741777904.358,-1000.000,-1000.000,345.703,966.797
1741777904.360,107.422,-507.324,885.254,967.285
1741777904.364,999.512,849.121,989.746,981.934
1741777904.368,906.738,999.512,795.898,890.137
1741777904.372,999.512,908.691,199.219,999.512
1741777904.376,-234.863,-304.199,-275.879,670.898
1741777904.380,-1000.000,-1000.000,-103.516,-727.539
1741777904.384,-40.527,-417.969,406.738,320.801
1741777904.387,999.512,894.531,559.570,999.512
1741777904.391,946.289,999.512,132.324,878.906
1741777904.395,931.152,870.605,-335.449,977.539
1741777904.399,936.523,999.512,-58.105,966.797
1741777904.403,999.512,935.547,335.938,967.285
1741777904.360,107.422,-507.324,885.254,967.285
1741777904.364,999.512,849.121,989.746,981.934
1741777904.368,906.738,999.512,795.898,890.137
1741777904.372,999.512,908.691,199.219,999.512
1741777904.376,-234.863,-304.199,-275.879,670.898
1741777904.380,-1000.000,-1000.000,-103.516,-727.539
1741777904.384,-40.527,-417.969,406.738,320.801
1741777904.387,999.512,894.531,559.570,999.512
1741777904.391,946.289,999.512,132.324,878.906
1741777904.395,931.152,870.605,-335.449,977.539
1741777904.399,936.523,999.512,-58.105,966.797
1741777904.403,999.512,935.547,335.938,967.285
1741777904.420,-18.066,-463.867,148.438,967.285
1741777904.424,-1000.000,-1000.000,-189.453,966.797
1741777904.428,-920.410,-896.973,-245.117,966.797
1741777904.432,-1000.000,-1000.000,35.645,966.797
1741777904.436,-990.723,-1000.000,199.707,966.797
1741777904.440,392.090,218.262,565.918,966.797
1741777904.444,999.512,999.512,763.184,966.797
1741777904.447,894.043,902.832,158.691,966.797
1741777904.451,989.746,983.887,74.219,974.609
1741777904.455,918.457,915.039,451.172,938.477
1741777904.459,994.629,999.512,647.949,954.590
1741777904.463,931.152,899.902,282.715,999.512
1741777904.420,-18.066,-463.867,148.438,967.285
1741777904.424,-1000.000,-1000.000,-189.453,966.797
1741777904.428,-920.410,-896.973,-245.117,966.797
1741777904.432,-1000.000,-1000.000,35.645,966.797
1741777904.436,-990.723,-1000.000,199.707,966.797
1741777904.440,392.090,218.262,565.918,966.797
1741777904.444,999.512,999.512,763.184,966.797
1741777904.447,894.043,902.832,158.691,966.797
1741777904.451,989.746,983.887,74.219,974.609
1741777904.455,918.457,915.039,451.172,938.477
1741777904.459,994.629,999.512,647.949,954.590
1741777904.463,931.152,899.902,282.715,999.512
1741777904.465,-473.145,-529.785,-342.773,-229.004
1741777904.469,-1000.000,-1000.000,-255.859,-1000.000
1741777904.473,-868.652,-868.164,37.598,-889.160
1741777904.477,-1000.000,-1000.000,248.047,-1000.000
1741777904.481,-891.113,-894.043,82.031,-618.652
1741777904.485,563.965,559.570,138.184,727.051
1741777904.489,999.512,999.512,533.203,999.512
1741777904.492,891.602,892.090,260.742,909.668
1741777904.496,985.352,992.188,-148.438,980.469
1741777904.500,957.031,931.641,-232.422,980.957
1741777904.504,922.852,967.773,-569.336,897.461
1741777904.508,999.512,999.023,-627.441,999.512
1741777904.465,-473.145,-529.785,-342.773,-229.004
1741777904.469,-1000.000,-1000.000,-255.859,-1000.000
1741777904.473,-868.652,-868.164,37.598,-889.160
1741777904.477,-1000.000,-1000.000,248.047,-1000.000
1741777904.481,-891.113,-894.043,82.031,-618.652
1741777904.485,563.965,559.570,138.184,727.051
1741777904.489,999.512,999.512,533.203,999.512
1741777904.492,891.602,892.090,260.742,909.668
1741777904.496,985.352,992.188,-148.438,980.469
1741777904.500,957.031,931.641,-232.422,980.957
1741777904.504,922.852,967.773,-569.336,897.461
1741777904.508,999.512,999.023,-627.441,999.512
1741777904.975,-996.094,-1000.000,67.871,-1000.000
1741777904.979,-950.195,-935.059,-483.887,-928.711
1741777904.983,-1000.000,-1000.000,-516.602,-1000.000
1741777904.987,-197.754,-407.715,28.320,-580.566
1741777904.991,999.512,937.012,468.750,854.980
1741777904.995,956.055,988.281,530.273,999.512
1741777904.999,938.965,923.828,-4.395,910.645
1741777905.002,973.633,979.004,-531.250,982.422
1741777905.006,982.422,983.398,-559.082,983.398
1741777905.010,907.715,909.180,-383.789,906.738
1741777905.014,999.512,999.512,-244.629,999.512
1741777905.018,850.098,857.910,-482.422,826.172
1741777905.020,-606.934,-597.656,-925.293,-635.254
1741777905.024,-1000.000,-1000.000,-611.816,-1000.000
1741777905.028,-925.781,-925.781,-189.941,-927.246
1741777905.032,-1000.000,-1000.000,-71.289,-1000.000
1741777905.036,-1000.000,-1000.000,-409.668,-1000.000
1741777905.040,-1000.000,-1000.000,-330.566,-1000.000
1741777905.044,-1000.000,-929.199,254.883,-1000.000
1741777905.047,-1000.000,-969.727,38.574,-1000.000
1741777905.051,-973.145,-972.656,-271.484,-995.117
1741777905.055,-984.863,-1000.000,-460.449,-950.684
1741777905.059,-1000.000,-1000.000,-635.742,-1000.000
1741777905.063,178.223,356.934,-131.348,-176.270
1741777905.020,-606.934,-597.656,-925.293,-635.254
1741777905.024,-1000.000,-1000.000,-611.816,-1000.000
1741777905.028,-925.781,-925.781,-189.941,-927.246
1741777905.032,-1000.000,-1000.000,-71.289,-1000.000
1741777905.036,-1000.000,-1000.000,-409.668,-1000.000
1741777905.040,-1000.000,-1000.000,-330.566,-1000.000
1741777905.044,-1000.000,-929.199,254.883,-1000.000
1741777905.047,-1000.000,-969.727,38.574,-1000.000
1741777905.051,-973.145,-972.656,-271.484,-995.117
1741777905.055,-984.863,-1000.000,-460.449,-950.684
1741777905.059,-1000.000,-1000.000,-635.742,-1000.000
1741777905.063,178.223,356.934,-131.348,-176.270
1741777905.066,999.512,999.512,375.977,999.512
1741777905.070,906.250,896.973,451.660,952.637
1741777905.074,965.820,975.586,-82.520,941.406
1741777905.078,966.797,967.285,-794.922,974.121
1741777905.082,982.422,983.398,-528.809,983.398
1741777905.086,908.691,909.180,170.410,909.180
1741777905.090,999.512,999.512,368.652,999.512
1741777905.093,856.934,857.910,-266.113,857.422
1741777905.097,-597.656,-597.656,-950.684,-597.656
1741777905.101,-1000.000,-1000.000,-991.699,-1000.000
1741777905.105,-925.781,-925.781,-615.723,-925.781
1741777905.109,-1000.000,-1000.000,-495.117,-1000.000
1741777905.066,999.512,999.512,375.977,999.512
1741777905.070,906.250,896.973,451.660,952.637
1741777905.074,965.820,975.586,-82.520,941.406
1741777905.078,966.797,967.285,-794.922,974.121
1741777905.082,982.422,983.398,-528.809,983.398
1741777905.086,908.691,909.180,170.410,909.180
1741777905.090,999.512,999.512,368.652,999.512
1741777905.093,856.934,857.910,-266.113,857.422
1741777905.097,-597.656,-597.656,-950.684,-597.656
1741777905.101,-1000.000,-1000.000,-991.699,-1000.000
1741777905.105,-925.781,-925.781,-615.723,-925.781
1741777905.109,-1000.000,-1000.000,-495.117,-1000.000
1741777905.066,999.512,999.512,375.977,999.512
1741777905.070,906.250,896.973,451.660,952.637
1741777905.074,965.820,975.586,-82.520,941.406
1741777905.078,966.797,967.285,-794.922,974.121
1741777905.082,982.422,983.398,-528.809,983.398
1741777905.086,908.691,909.180,170.410,909.180
1741777905.090,999.512,999.512,368.652,999.512
1741777905.093,856.934,857.910,-266.113,857.422
1741777905.097,-597.656,-597.656,-950.684,-597.656
1741777905.101,-1000.000,-1000.000,-991.699,-1000.000
1741777905.105,-925.781,-925.781,-615.723,-925.781
1741777905.109,-1000.000,-1000.000,-495.117,-1000.000
1741777905.110,-1000.000,-1000.000,-689.941,-1000.000
1741777905.114,-993.652,-1000.000,-658.691,-997.559
1741777905.118,-952.637,-940.918,-627.441,-948.730
1741777905.122,-1000.000,-1000.000,-348.633,-1000.000
1741777905.126,-145.020,-306.152,160.156,-224.121
1741777905.130,999.512,975.586,558.594,995.117
1741777905.134,946.777,972.168,58.594,961.426
1741777905.137,943.359,932.129,-683.105,937.500
1741777905.141,990.234,993.652,-619.141,991.699
1741777905.145,898.438,903.320,-265.625,899.902
1741777905.149,999.512,999.512,-332.520,999.512
1741777905.153,731.445,797.363,-810.547,697.754
1741777905.110,-1000.000,-1000.000,-689.941,-1000.000
1741777905.114,-993.652,-1000.000,-658.691,-997.559
1741777905.118,-952.637,-940.918,-627.441,-948.730
1741777905.122,-1000.000,-1000.000,-348.633,-1000.000
1741777905.126,-145.020,-306.152,160.156,-224.121
1741777905.130,999.512,975.586,558.594,995.117
1741777905.134,946.777,972.168,58.594,961.426
1741777905.137,943.359,932.129,-683.105,937.500
1741777905.141,990.234,993.652,-619.141,991.699
1741777905.145,898.438,903.320,-265.625,899.902
1741777905.149,999.512,999.512,-332.520,999.512
1741777905.153,731.445,797.363,-810.547,697.754
1741777905.170,-746.094,-674.316,-1000.000,-763.184
1741777905.174,-1000.000,-1000.000,-629.883,-1000.000
1741777905.178,-931.152,-927.734,-117.188,-934.082
1741777905.182,-1000.000,-1000.000,-75.195,-1000.000
1741777905.186,-942.383,-937.012,-441.406,-942.383
