timestamps,TP9,AF7,AF8,TP10
1742115416.467,956.543,191.406,213.867,999.512
1742115416.471,-152.832,147.949,202.148,86.426
1742115416.475,-1000.000,123.535,111.328,-1000.000
1742115416.479,-872.070,127.441,160.645,-952.637
1742115416.483,-1000.000,105.957,133.301,-1000.000
1742115416.487,0.488,114.258,31.738,350.586
1742115416.491,290.527,119.141,-128.906,484.863
1742115416.494,-1000.000,81.055,-309.570,-1000.000
1742115416.498,-933.105,70.801,-425.293,-957.031
1742115416.502,-1000.000,86.426,-500.488,-1000.000
1742115416.506,-544.922,101.074,-547.363,-461.914
1742115416.510,999.512,95.215,-579.590,999.512
1742115416.512,204.590,65.430,-564.941,155.762
1742115416.516,-1000.000,61.523,-554.199,-1000.000
1742115416.520,-896.973,82.031,-612.305,-905.273
1742115416.524,-1000.000,64.453,-662.109,-1000.000
1742115416.528,-219.727,56.641,-617.188,-143.066
1742115416.532,999.512,52.734,-633.301,999.512
1742115416.536,-300.781,37.598,-626.953,-320.801
1742115416.539,-1000.000,77.148,-500.488,-1000.000
1742115416.543,-148.926,134.277,-442.871,-144.043
1742115416.547,999.512,161.133,-456.055,999.512
1742115416.551,869.141,159.180,-474.609,907.715
1742115416.555,999.512,169.434,-457.520,999.512
1742115416.512,204.590,65.430,-564.941,155.762
1742115416.516,-1000.000,61.523,-554.199,-1000.000
1742115416.520,-896.973,82.031,-612.305,-905.273
1742115416.524,-1000.000,64.453,-662.109,-1000.000
1742115416.528,-219.727,56.641,-617.188,-143.066
1742115416.532,999.512,52.734,-633.301,999.512
1742115416.536,-300.781,37.598,-626.953,-320.801
1742115416.539,-1000.000,77.148,-500.488,-1000.000
1742115416.543,-148.926,134.277,-442.871,-144.043
1742115416.547,999.512,161.133,-456.055,999.512
1742115416.551,869.141,159.180,-474.609,907.715
1742115416.555,999.512,169.434,-457.520,999.512
1742115416.571,242.188,162.598,-443.848,60.059
1742115416.575,-907.715,153.809,-469.727,-1000.000
1742115416.579,480.469,162.598,-490.723,206.543
1742115416.583,999.512,152.344,-458.984,999.512
1742115416.587,981.445,134.766,-403.809,585.938
1742115416.591,-183.594,108.398,-417.480,-896.484
1742115416.595,71.777,114.258,-431.641,-301.270
1742115416.598,999.512,133.789,-424.805,999.512
1742115416.602,917.480,119.141,-419.434,754.883
1742115416.606,712.402,103.516,-395.508,-756.836
1742115416.610,848.145,109.863,-373.047,-648.926
1742115416.614,999.512,131.348,-305.176,878.418
1742115416.571,242.188,162.598,-443.848,60.059
1742115416.575,-907.715,153.809,-469.727,-1000.000
1742115416.579,480.469,162.598,-490.723,206.543
1742115416.583,999.512,152.344,-458.984,999.512
1742115416.587,981.445,134.766,-403.809,585.938
1742115416.591,-183.594,108.398,-417.480,-896.484
1742115416.595,71.777,114.258,-431.641,-301.270
1742115416.598,999.512,133.789,-424.805,999.512
1742115416.602,917.480,119.141,-419.434,754.883
1742115416.606,712.402,103.516,-395.508,-756.836
1742115416.610,848.145,109.863,-373.047,-648.926
1742115416.614,999.512,131.348,-305.176,878.418
1742115416.615,946.289,140.625,-231.445,980.957
1742115416.619,915.039,144.043,-244.141,905.273
1742115416.623,999.512,149.902,-233.887,999.512
1742115416.627,59.082,124.023,-160.645,-360.352
1742115416.631,-186.523,98.633,-85.449,-449.707
1742115416.635,999.512,108.887,-103.027,999.512
1742115416.639,999.512,101.562,-176.758,999.512
1742115416.642,41.992,55.664,-133.789,-300.293
1742115416.646,-281.250,41.504,-96.191,-744.141
1742115416.650,999.512,51.758,-112.305,741.211
1742115416.654,913.574,2.441,-106.445,999.512
1742115416.658,999.512,-48.828,-158.203,810.059
1742115416.615,946.289,140.625,-231.445,980.957
1742115416.619,915.039,144.043,-244.141,905.273
1742115416.623,999.512,149.902,-233.887,999.512
1742115416.627,59.082,124.023,-160.645,-360.352
1742115416.631,-186.523,98.633,-85.449,-449.707
1742115416.635,999.512,108.887,-103.027,999.512
1742115416.639,999.512,101.562,-176.758,999.512
1742115416.642,41.992,55.664,-133.789,-300.293
1742115416.646,-281.250,41.504,-96.191,-744.141
1742115416.650,999.512,51.758,-112.305,741.211
1742115416.654,913.574,2.441,-106.445,999.512
1742115416.658,999.512,-48.828,-158.203,810.059
1742115416.660,43.945,-69.824,-167.969,-530.762
1742115416.664,-349.609,-77.637,-137.695,-473.145
1742115416.668,999.512,-82.520,-114.258,999.512
1742115416.672,985.352,-122.559,-133.301,984.863
1742115416.676,928.223,-146.484,-181.641,923.340
1742115416.680,974.609,-148.926,-173.340,978.516
1742115416.684,966.309,-166.016,-175.781,966.797
1742115416.687,966.309,-218.262,-240.234,968.262
1742115416.691,966.309,-258.789,-241.211,961.426
1742115416.695,893.066,-259.766,-217.773,905.762
1742115416.699,999.512,-272.949,-226.562,999.512
1742115416.703,154.785,-291.016,-220.703,53.711
1742115416.660,43.945,-69.824,-167.969,-530.762
1742115416.664,-349.609,-77.637,-137.695,-473.145
1742115416.668,999.512,-82.520,-114.258,999.512
1742115416.672,985.352,-122.559,-133.301,984.863
1742115416.676,928.223,-146.484,-181.641,923.340
1742115416.680,974.609,-148.926,-173.340,978.516
1742115416.684,966.309,-166.016,-175.781,966.797
1742115416.687,966.309,-218.262,-240.234,968.262
1742115416.691,966.309,-258.789,-241.211,961.426
1742115416.695,893.066,-259.766,-217.773,905.762
1742115416.699,999.512,-272.949,-226.562,999.512
1742115416.703,154.785,-291.016,-220.703,53.711
1742115416.706,-1000.000,-278.320,-206.055,-966.309
1742115416.710,426.270,-234.375,-91.797,501.953
1742115416.714,999.512,-200.195,42.969,999.512
1742115416.718,941.406,-176.758,126.465,919.434
1742115416.722,872.559,-170.898,242.676,937.500
1742115416.726,-739.746,-184.082,224.609,-582.520
1742115416.730,-593.262,-166.504,106.934,-502.930
1742115416.733,932.617,-144.043,95.215,951.172
1742115416.737,999.512,-142.090,60.059,999.512
1742115416.741,118.164,-149.902,74.219,229.980
1742115416.745,-1000.000,-146.484,163.574,-1000.000
1742115416.749,-231.445,-115.234,130.859,-107.910
1742115416.706,-1000.000,-278.320,-206.055,-966.309
1742115416.710,426.270,-234.375,-91.797,501.953
1742115416.714,999.512,-200.195,42.969,999.512
1742115416.718,941.406,-176.758,126.465,919.434
1742115416.722,872.559,-170.898,242.676,937.500
1742115416.726,-739.746,-184.082,224.609,-582.520
1742115416.730,-593.262,-166.504,106.934,-502.930
1742115416.733,932.617,-144.043,95.215,951.172
1742115416.737,999.512,-142.090,60.059,999.512
1742115416.741,118.164,-149.902,74.219,229.980
1742115416.745,-1000.000,-146.484,163.574,-1000.000
1742115416.749,-231.445,-115.234,130.859,-107.910
1742115416.751,999.512,-109.375,26.855,999.512
1742115416.755,47.363,-124.023,20.996,242.676
1742115416.759,-1000.000,-117.188,81.543,-1000.000
1742115416.763,-236.816,-104.980,172.363,-157.227
1742115416.767,999.512,-96.680,219.727,999.512
1742115416.771,140.137,-86.426,158.691,315.918
1742115416.775,-1000.000,-69.824,129.883,-1000.000
1742115416.778,-911.133,-62.012,167.480,-958.496
1742115416.782,-1000.000,-71.289,134.277,-1000.000
1742115416.786,-293.945,-59.082,90.820,-173.828
1742115416.790,999.512,-61.035,181.152,999.512
1742115416.794,615.234,-77.637,360.352,895.996
1742115416.825,-776.367,-71.777,466.797,-418.457
1742115416.829,-1000.000,-47.363,547.363,-1000.000
1742115416.833,-87.891,-20.020,625.977,87.891
1742115416.837,999.512,-8.789,710.449,999.512
1742115416.841,207.031,-20.020,756.348,366.211
1742115416.845,-1000.000,-12.695,715.332,-1000.000
1742115416.849,-480.957,13.184,855.469,-424.316
1742115416.852,999.512,19.043,967.773,999.512
1742115416.856,680.176,14.648,871.582,841.309
1742115416.860,-1000.000,12.207,880.371,-771.973
1742115416.864,-333.984,40.039,18.066,-370.117
1742115416.868,999.512,53.711,-932.617,999.512
1742115416.825,-776.367,-71.777,466.797,-418.457
1742115416.829,-1000.000,-47.363,547.363,-1000.000
1742115416.833,-87.891,-20.020,625.977,87.891
1742115416.837,999.512,-8.789,710.449,999.512
1742115416.841,207.031,-20.020,756.348,366.211
1742115416.845,-1000.000,-12.695,715.332,-1000.000
1742115416.849,-480.957,13.184,855.469,-424.316
1742115416.852,999.512,19.043,967.773,999.512
1742115416.856,680.176,14.648,871.582,841.309
1742115416.860,-1000.000,12.207,880.371,-771.973
1742115416.864,-333.984,40.039,18.066,-370.117
1742115416.868,999.512,53.711,-932.617,999.512
1742115416.872,155.762,8.301,-719.727,193.359
1742115416.876,-1000.000,-9.766,-646.973,-1000.000
1742115416.880,-1000.000,12.207,-710.449,-1000.000
1742115416.884,-631.836,14.648,-695.801,-776.367
1742115416.888,965.332,15.137,-585.938,776.855
1742115416.892,562.012,5.371,-544.434,529.785
1742115416.896,-942.383,-6.836,-590.332,-989.746
1742115416.899,-1000.000,-5.371,-572.754,-963.867
1742115416.903,-1000.000,-10.254,-565.430,-1000.000
1742115416.907,271.973,5.859,-588.379,-2.930
1742115416.911,999.512,18.066,-595.703,836.914
1742115416.915,-508.789,-1.465,-588.379,-674.316
1742115416.872,155.762,8.301,-719.727,193.359
1742115416.876,-1000.000,-9.766,-646.973,-1000.000
1742115416.880,-1000.000,12.207,-710.449,-1000.000
1742115416.884,-631.836,14.648,-695.801,-776.367
1742115416.888,965.332,15.137,-585.938,776.855
1742115416.892,562.012,5.371,-544.434,529.785
1742115416.896,-942.383,-6.836,-590.332,-989.746
1742115416.899,-1000.000,-5.371,-572.754,-963.867
1742115416.903,-1000.000,-10.254,-565.430,-1000.000
1742115416.907,271.973,5.859,-588.379,-2.930
1742115416.911,999.512,18.066,-595.703,836.914
1742115416.915,-508.789,-1.465,-588.379,-674.316
1742115416.915,-1000.000,-17.578,-523.438,-1000.000
1742115416.919,-1000.000,-25.879,-444.824,-1000.000
1742115416.923,13.672,-17.578,-424.805,-229.004
1742115416.927,999.512,-7.324,-405.762,999.512
1742115416.931,-1.465,-18.555,-358.887,-143.066
1742115416.935,-1000.000,-25.879,-305.664,-1000.000
1742115416.939,-1000.000,-30.762,-324.219,-1000.000
1742115416.942,-589.355,-25.879,-412.598,-749.023
1742115416.946,999.512,-7.324,-465.820,844.727
1742115416.950,292.969,-15.625,-488.770,319.336
1742115416.954,-1000.000,-37.598,-446.289,-1000.000
1742115416.958,-1000.000,-55.664,-408.691,-1000.000
1742115416.915,-1000.000,-17.578,-523.438,-1000.000
1742115416.919,-1000.000,-25.879,-444.824,-1000.000
1742115416.923,13.672,-17.578,-424.805,-229.004
1742115416.927,999.512,-7.324,-405.762,999.512
1742115416.931,-1.465,-18.555,-358.887,-143.066
1742115416.935,-1000.000,-25.879,-305.664,-1000.000
1742115416.939,-1000.000,-30.762,-324.219,-1000.000
1742115416.942,-589.355,-25.879,-412.598,-749.023
1742115416.946,999.512,-7.324,-465.820,844.727
1742115416.950,292.969,-15.625,-488.770,319.336
1742115416.954,-1000.000,-37.598,-446.289,-1000.000
1742115416.958,-1000.000,-55.664,-408.691,-1000.000
1742115416.976,-226.562,-31.738,-360.352,-193.359
1742115416.980,999.512,-17.578,-328.613,999.512
1742115416.984,199.219,-36.133,-357.422,159.668
1742115416.988,-1000.000,-34.180,-327.637,-1000.000
1742115416.992,-1000.000,-32.715,-297.363,-966.309
1742115416.996,243.164,-35.645,-275.391,290.039
1742115417.000,999.512,-45.898,-245.117,999.512
1742115417.003,-116.699,-78.125,-196.289,-88.867
1742115417.007,-1000.000,-88.867,-176.270,-1000.000
1742115417.011,-902.344,-91.797,-199.707,-779.785
1742115417.015,356.445,-96.680,-217.773,479.492
1742115417.019,999.512,-100.586,-194.824,999.512
1742115416.976,-226.562,-31.738,-360.352,-193.359
1742115416.980,999.512,-17.578,-328.613,999.512
1742115416.984,199.219,-36.133,-357.422,159.668
1742115416.988,-1000.000,-34.180,-327.637,-1000.000
1742115416.992,-1000.000,-32.715,-297.363,-966.309
1742115416.996,243.164,-35.645,-275.391,290.039
1742115417.000,999.512,-45.898,-245.117,999.512
1742115417.003,-116.699,-78.125,-196.289,-88.867
1742115417.007,-1000.000,-88.867,-176.270,-1000.000
1742115417.011,-902.344,-91.797,-199.707,-779.785
1742115417.015,356.445,-96.680,-217.773,479.492
1742115417.019,999.512,-100.586,-194.824,999.512
1742115417.021,84.473,-123.535,-180.176,138.672
1742115417.025,-1000.000,-142.578,-182.129,-1000.000
1742115417.029,-475.586,-120.117,-143.066,-354.980
1742115417.033,999.512,-106.445,-80.566,999.512
1742115417.037,688.477,-125.488,-32.227,878.418
1742115417.041,-766.602,-123.047,-9.766,-439.941
1742115417.045,-1000.000,-117.676,-41.992,-1000.000
1742115417.048,-1000.000,-127.441,-91.309,-813.965
1742115417.052,153.320,-130.371,-115.234,372.559
1742115417.056,999.512,-135.254,-133.301,999.512
1742115417.060,-145.508,-149.414,-136.719,59.082
1742115417.064,-1000.000,-146.973,-150.879,-1000.000
1742115417.021,84.473,-123.535,-180.176,138.672
1742115417.025,-1000.000,-142.578,-182.129,-1000.000
1742115417.029,-475.586,-120.117,-143.066,-354.980
1742115417.033,999.512,-106.445,-80.566,999.512
1742115417.037,688.477,-125.488,-32.227,878.418
1742115417.041,-766.602,-123.047,-9.766,-439.941
1742115417.045,-1000.000,-117.676,-41.992,-1000.000
1742115417.048,-1000.000,-127.441,-91.309,-813.965
1742115417.052,153.320,-130.371,-115.234,372.559
1742115417.056,999.512,-135.254,-133.301,999.512
1742115417.060,-145.508,-149.414,-136.719,59.082
1742115417.064,-1000.000,-146.973,-150.879,-1000.000
1742115417.066,-1000.000,-133.789,-181.152,-1000.000
1742115417.070,-151.855,-119.629,-187.988,26.855
1742115417.074,999.512,-124.512,-159.668,999.512
1742115417.078,153.809,-149.414,-129.883,247.559
1742115417.082,-1000.000,-143.066,-123.535,-994.629
1742115417.086,-1000.000,-123.535,-133.301,-1000.000
1742115417.090,-242.676,-123.047,-121.582,-145.020
1742115417.093,999.512,-129.395,-113.770,999.512
1742115417.097,178.711,-143.066,-149.902,281.738
1742115417.101,-1000.000,-154.297,-169.922,-1000.000
1742115417.105,-1000.000,-164.551,-139.648,-1000.000
1742115417.109,-83.984,-143.555,-77.148,110.352
1742115417.066,-1000.000,-133.789,-181.152,-1000.000
1742115417.070,-151.855,-119.629,-187.988,26.855
1742115417.074,999.512,-124.512,-159.668,999.512
1742115417.078,153.809,-149.414,-129.883,247.559
1742115417.082,-1000.000,-143.066,-123.535,-994.629
1742115417.086,-1000.000,-123.535,-133.301,-1000.000
1742115417.090,-242.676,-123.047,-121.582,-145.020
1742115417.093,999.512,-129.395,-113.770,999.512
1742115417.097,178.711,-143.066,-149.902,281.738
1742115417.101,-1000.000,-154.297,-169.922,-1000.000
1742115417.105,-1000.000,-164.551,-139.648,-1000.000
1742115417.109,-83.984,-143.555,-77.148,110.352
1742115417.576,51.270,-52.734,-108.398,-943.359
1742115417.580,293.945,-40.527,-114.746,-239.258
1742115417.584,999.512,-53.223,-163.086,999.512
1742115417.588,914.062,-74.707,-177.246,999.512
1742115417.592,970.703,-84.961,-166.016,100.586
1742115417.596,966.309,-104.980,-178.223,-1000.000
1742115417.600,966.309,-129.883,-206.543,-342.285
1742115417.603,966.309,-137.695,-192.383,996.582
1742115417.607,966.309,-143.066,-151.855,913.086
1742115417.611,966.309,-125.977,-136.719,999.512
1742115417.615,966.309,-109.375,-119.629,347.168
1742115417.619,966.309,-119.629,-115.723,-1000.000
1742115417.127,999.512,-139.160,-15.625,999.512
1742115417.131,203.125,-173.340,56.152,418.457
1742115417.135,-1000.000,-172.852,100.586,-1000.000
1742115417.139,-1000.000,-162.109,142.090,-818.848
1742115417.143,306.641,-141.602,159.668,536.621
1742115417.147,999.512,-123.535,137.695,999.512
1742115417.151,-164.062,-131.348,135.254,185.059
1742115417.154,-1000.000,-127.441,159.180,-1000.000
1742115417.158,-908.691,-118.164,152.344,-701.172
1742115417.162,371.094,-125.000,103.027,608.398
1742115417.166,999.512,-123.047,59.570,999.512
1742115417.170,-25.879,-140.625,-13.672,157.227
1742115417.157,-1000.000,-155.762,-3.418,-1000.000
1742115417.161,-240.723,-127.441,66.895,-101.074
1742115417.165,999.512,-103.516,23.926,999.512
1742115417.169,216.309,-127.441,2.930,422.363
1742115417.173,-1000.000,-154.785,-1.953,-1000.000
1742115417.177,-314.453,-144.043,-34.668,-305.664
1742115417.181,999.512,-133.789,-70.801,999.512
1742115417.184,341.797,-149.902,-108.398,470.215
1742115417.188,-1000.000,-158.691,-120.605,-1000.000
1742115417.192,-272.949,-131.348,-128.418,-258.789
1742115417.196,999.512,-104.980,-66.895,999.512
1742115417.200,796.875,-113.770,37.598,866.699
1742115417.157,-1000.000,-155.762,-3.418,-1000.000
1742115417.161,-240.723,-127.441,66.895,-101.074
1742115417.165,999.512,-103.516,23.926,999.512
1742115417.169,216.309,-127.441,2.930,422.363
1742115417.173,-1000.000,-154.785,-1.953,-1000.000
1742115417.177,-314.453,-144.043,-34.668,-305.664
1742115417.181,999.512,-133.789,-70.801,999.512
1742115417.184,341.797,-149.902,-108.398,470.215
1742115417.188,-1000.000,-158.691,-120.605,-1000.000
1742115417.192,-272.949,-131.348,-128.418,-258.789
1742115417.196,999.512,-104.980,-66.895,999.512
1742115417.200,796.875,-113.770,37.598,866.699
1742115417.200,-592.773,-144.043,65.918,-492.676
1742115417.204,-1000.000,-155.762,16.602,-1000.000
1742115417.208,69.336,-134.766,-28.809,224.121
1742115417.212,999.512,-104.980,-41.992,999.512
1742115417.216,201.172,-106.445,-49.805,218.262
1742115417.220,-1000.000,-135.742,-36.621,-1000.000
1742115417.224,-330.566,-131.348,32.715,-310.059
1742115417.227,999.512,-120.117,40.039,999.512
1742115417.231,539.062,-133.301,7.324,741.211
1742115417.235,-849.609,-119.629,78.125,-653.320
1742115417.239,-1000.000,-104.980,73.730,-1000.000
1742115417.243,-217.285,-116.211,-17.578,36.133
1742115417.200,-592.773,-144.043,65.918,-492.676
1742115417.204,-1000.000,-155.762,16.602,-1000.000
1742115417.208,69.336,-134.766,-28.809,224.121
1742115417.212,999.512,-104.980,-41.992,999.512
1742115417.216,201.172,-106.445,-49.805,218.262
1742115417.220,-1000.000,-135.742,-36.621,-1000.000
1742115417.224,-330.566,-131.348,32.715,-310.059
1742115417.227,999.512,-120.117,40.039,999.512
1742115417.231,539.062,-133.301,7.324,741.211
1742115417.235,-849.609,-119.629,78.125,-653.320
1742115417.239,-1000.000,-104.980,73.730,-1000.000
1742115417.243,-217.285,-116.211,-17.578,36.133
1742115417.246,999.512,-114.746,89.844,999.512
1742115417.250,459.473,-103.516,212.891,720.215
1742115417.254,-899.414,-111.816,153.320,-586.914
1742115417.258,-1000.000,-125.977,46.387,-1000.000
1742115417.262,-204.102,-117.188,19.043,-177.734
1742115417.266,999.512,-112.305,36.133,999.512
1742115417.270,960.938,-116.211,-9.277,971.680
1742115417.273,-264.160,-110.352,-56.641,-187.012
1742115417.277,-1000.000,-104.004,-99.121,-1000.000
1742115417.281,-315.430,-87.402,-120.605,-299.316
1742115417.285,949.707,-83.008,-80.078,953.125
1742115417.289,999.512,-91.797,31.250,999.512
1742115417.246,999.512,-114.746,89.844,999.512
1742115417.250,459.473,-103.516,212.891,720.215
1742115417.254,-899.414,-111.816,153.320,-586.914
1742115417.258,-1000.000,-125.977,46.387,-1000.000
1742115417.262,-204.102,-117.188,19.043,-177.734
1742115417.266,999.512,-112.305,36.133,999.512
1742115417.270,960.938,-116.211,-9.277,971.680
1742115417.273,-264.160,-110.352,-56.641,-187.012
1742115417.277,-1000.000,-104.004,-99.121,-1000.000
1742115417.281,-315.430,-87.402,-120.605,-299.316
1742115417.285,949.707,-83.008,-80.078,953.125
1742115417.289,999.512,-91.797,31.250,999.512
1742115417.291,-105.957,-99.609,34.668,-15.137
1742115417.295,-1000.000,-109.863,-130.859,-1000.000
1742115417.299,-964.844,-117.676,-199.219,-887.207
1742115417.303,230.957,-112.305,-128.418,334.473
1742115417.307,999.512,-104.492,-86.426,999.512
1742115417.311,106.445,-107.422,-90.332,84.961
1742115417.315,-1000.000,-102.539,-128.418,-1000.000
1742115417.318,-1000.000,-106.934,-139.648,-1000.000
1742115417.322,-251.953,-115.234,-101.562,-157.715
1742115417.326,999.512,-95.215,-106.934,999.512
1742115417.330,157.227,-103.516,-143.555,165.527
1742115417.334,-1000.000,-136.719,-164.062,-1000.000
1742115417.291,-105.957,-99.609,34.668,-15.137
1742115417.295,-1000.000,-109.863,-130.859,-1000.000
1742115417.299,-964.844,-117.676,-199.219,-887.207
1742115417.303,230.957,-112.305,-128.418,334.473
1742115417.307,999.512,-104.492,-86.426,999.512
1742115417.311,106.445,-107.422,-90.332,84.961
1742115417.315,-1000.000,-102.539,-128.418,-1000.000
1742115417.318,-1000.000,-106.934,-139.648,-1000.000
1742115417.322,-251.953,-115.234,-101.562,-157.715
1742115417.326,999.512,-95.215,-106.934,999.512
1742115417.330,157.227,-103.516,-143.555,165.527
1742115417.334,-1000.000,-136.719,-164.062,-1000.000
1742115417.351,-1000.000,-126.953,-164.551,-1000.000
1742115417.355,-318.848,-107.422,-137.207,-273.438
1742115417.359,999.512,-96.191,-131.836,999.512
1742115417.363,188.965,-92.773,-74.707,296.387
1742115417.367,-1000.000,-82.520,42.969,-1000.000
1742115417.371,-1000.000,-77.637,99.609,-1000.000
1742115417.375,-251.465,-70.801,109.375,-127.441
1742115417.378,999.512,-59.570,90.332,999.512
1742115417.382,127.441,-60.547,53.711,125.000
1742115417.386,-1000.000,-48.828,17.090,-1000.000
1742115417.390,-1000.000,-44.922,34.180,-1000.000
1742115417.394,-220.215,-45.898,70.801,-162.598
1742115417.351,-1000.000,-126.953,-164.551,-1000.000
1742115417.355,-318.848,-107.422,-137.207,-273.438
1742115417.359,999.512,-96.191,-131.836,999.512
1742115417.363,188.965,-92.773,-74.707,296.387
1742115417.367,-1000.000,-82.520,42.969,-1000.000
1742115417.371,-1000.000,-77.637,99.609,-1000.000
1742115417.375,-251.465,-70.801,109.375,-127.441
1742115417.378,999.512,-59.570,90.332,999.512
1742115417.382,127.441,-60.547,53.711,125.000
1742115417.386,-1000.000,-48.828,17.090,-1000.000
1742115417.390,-1000.000,-44.922,34.180,-1000.000
1742115417.394,-220.215,-45.898,70.801,-162.598
1742115417.395,999.512,-34.668,53.711,999.512
1742115417.399,232.422,-41.504,33.691,249.023
1742115417.403,-1000.000,-47.363,-47.363,-1000.000
1742115417.407,-1000.000,-47.852,-54.688,-1000.000
1742115417.411,-47.363,-37.109,-5.371,-90.820
1742115417.415,999.512,-22.949,-47.852,999.512
1742115417.419,715.332,-48.828,-66.895,583.496
1742115417.422,-787.109,-71.289,-53.223,-845.703
1742115417.426,-948.730,-64.941,-29.297,-1000.000
1742115417.430,585.938,-74.707,-30.762,400.879
1742115417.434,995.117,-87.402,39.551,999.512
1742115417.438,999.512,-81.543,90.820,999.512
1742115417.395,999.512,-34.668,53.711,999.512
1742115417.399,232.422,-41.504,33.691,249.023
1742115417.403,-1000.000,-47.363,-47.363,-1000.000
1742115417.407,-1000.000,-47.852,-54.688,-1000.000
1742115417.411,-47.363,-37.109,-5.371,-90.820
1742115417.415,999.512,-22.949,-47.852,999.512
1742115417.419,715.332,-48.828,-66.895,583.496
1742115417.422,-787.109,-71.289,-53.223,-845.703
1742115417.426,-948.730,-64.941,-29.297,-1000.000
1742115417.430,585.938,-74.707,-30.762,400.879
1742115417.434,995.117,-87.402,39.551,999.512
1742115417.438,999.512,-81.543,90.820,999.512
1742115417.442,250.977,-85.938,44.434,171.387
1742115417.446,-1000.000,-72.266,13.184,-1000.000
1742115417.450,-99.121,-44.434,-54.688,-111.328
1742115417.454,999.512,-28.809,-107.910,999.512
1742115417.458,928.711,-16.602,-124.023,929.688
1742115417.462,946.777,-13.184,-162.109,945.801
1742115417.466,970.215,-26.367,-178.223,985.840
1742115417.469,966.309,-23.438,-179.688,770.996
1742115417.473,966.309,-11.230,-169.434,807.617
1742115417.477,966.309,-23.926,-122.559,996.094
1742115417.481,966.309,-26.855,-112.305,958.984
1742115417.485,966.309,-16.113,-122.559,965.820
1742115417.442,250.977,-85.938,44.434,171.387
1742115417.446,-1000.000,-72.266,13.184,-1000.000
1742115417.450,-99.121,-44.434,-54.688,-111.328
1742115417.454,999.512,-28.809,-107.910,999.512
1742115417.458,928.711,-16.602,-124.023,929.688
1742115417.462,946.777,-13.184,-162.109,945.801
1742115417.466,970.215,-26.367,-178.223,985.840
1742115417.469,966.309,-23.438,-179.688,770.996
1742115417.473,966.309,-11.230,-169.434,807.617
1742115417.477,966.309,-23.926,-122.559,996.094
1742115417.481,966.309,-26.855,-112.305,958.984
1742115417.485,966.309,-16.113,-122.559,965.820
1742115417.486,966.309,-17.090,-33.691,967.285
1742115417.490,966.309,-35.156,-1.465,966.797
1742115417.494,966.309,-41.992,-109.375,967.285
1742115417.498,966.309,-21.484,-176.758,966.797
1742115417.502,966.309,-9.277,-190.918,967.285
1742115417.506,970.215,-28.809,-145.996,971.680
1742115417.510,946.289,-40.527,-126.953,920.410
1742115417.513,938.477,-35.645,-180.176,999.512
1742115417.517,999.512,-31.250,-211.914,683.594
1742115417.521,-247.559,-24.902,-250.977,-781.738
1742115417.525,-292.969,-24.414,-246.582,-263.672
1742115417.529,999.512,-31.738,-217.773,999.512
1742115417.486,966.309,-17.090,-33.691,967.285
1742115417.490,966.309,-35.156,-1.465,966.797
1742115417.494,966.309,-41.992,-109.375,967.285
1742115417.498,966.309,-21.484,-176.758,966.797
1742115417.502,966.309,-9.277,-190.918,967.285
1742115417.506,970.215,-28.809,-145.996,971.680
1742115417.510,946.289,-40.527,-126.953,920.410
1742115417.513,938.477,-35.645,-180.176,999.512
1742115417.517,999.512,-31.250,-211.914,683.594
1742115417.521,-247.559,-24.902,-250.977,-781.738
1742115417.525,-292.969,-24.414,-246.582,-263.672
1742115417.529,999.512,-31.738,-217.773,999.512
1742115417.546,879.883,-24.414,-221.680,915.527
1742115417.550,999.512,-15.137,-219.238,999.512
1742115417.554,117.188,-31.250,-194.824,-238.770
1742115417.558,-305.176,-19.043,-191.895,-651.367
1742115417.562,999.512,-18.555,-200.195,875.488
1742115417.566,901.855,-54.688,-157.227,967.773
1742115417.570,999.512,-42.480,-106.934,999.512
1742115417.573,392.090,-34.180,-78.613,126.953
1742115417.577,-459.473,-57.617,-80.566,-1000.000
1742115417.581,807.617,-50.293,-97.168,205.566
1742115417.585,999.512,-41.016,-112.793,999.512
1742115417.589,979.980,-53.711,-121.582,551.270
1742115417.621,966.309,-119.141,-105.469,-757.812
1742115417.625,966.309,-103.027,-59.570,606.934
1742115417.629,966.309,-93.262,-4.395,999.512
1742115417.633,966.309,-91.797,42.480,59.082
1742115417.637,966.309,-95.215,85.938,-1000.000
1742115417.641,966.797,-71.777,108.887,-17.090
1742115417.645,962.891,-65.430,104.980,999.512
1742115417.648,975.586,-82.031,84.961,999.512
1742115417.652,932.617,-73.730,42.480,229.492
1742115417.656,920.410,-68.359,23.438,-1000.000
1742115417.660,986.328,-58.594,7.324,-810.059
1742115417.664,891.113,-33.691,10.254,464.844
1742115417.621,966.309,-119.141,-105.469,-757.812
1742115417.625,966.309,-103.027,-59.570,606.934
1742115417.629,966.309,-93.262,-4.395,999.512
1742115417.633,966.309,-91.797,42.480,59.082
1742115417.637,966.309,-95.215,85.938,-1000.000
1742115417.641,966.797,-71.777,108.887,-17.090
1742115417.645,962.891,-65.430,104.980,999.512
1742115417.648,975.586,-82.031,84.961,999.512
1742115417.652,932.617,-73.730,42.480,229.492
1742115417.656,920.410,-68.359,23.438,-1000.000
1742115417.660,986.328,-58.594,7.324,-810.059
1742115417.664,891.113,-33.691,10.254,464.844
1742115417.667,999.512,-21.484,40.039,999.512
1742115417.671,463.867,-31.738,50.781,167.969
1742115417.675,-161.133,-39.551,45.898,-1000.000
1742115417.679,930.176,-30.273,23.926,-65.918
1742115417.683,999.512,-18.555,-25.879,999.512
1742115417.687,915.039,-10.742,-34.180,226.074
1742115417.691,976.562,-27.832,-1.465,-1000.000
1742115417.694,966.309,-37.598,0.000,-984.375
1742115417.698,980.957,-28.320,-3.418,142.090
1742115417.702,882.324,-7.324,-24.902,976.562
1742115417.706,999.512,8.301,-41.504,999.512
1742115417.710,455.078,-9.277,-33.203,166.016
1742115417.667,999.512,-21.484,40.039,999.512
1742115417.671,463.867,-31.738,50.781,167.969
1742115417.675,-161.133,-39.551,45.898,-1000.000
1742115417.679,930.176,-30.273,23.926,-65.918
1742115417.683,999.512,-18.555,-25.879,999.512
1742115417.687,915.039,-10.742,-34.180,226.074
1742115417.691,976.562,-27.832,-1.465,-1000.000
1742115417.694,966.309,-37.598,0.000,-984.375
1742115417.698,980.957,-28.320,-3.418,142.090
1742115417.702,882.324,-7.324,-24.902,976.562
1742115417.706,999.512,8.301,-41.504,999.512
1742115417.710,455.078,-9.277,-33.203,166.016
1742115417.667,999.512,-21.484,40.039,999.512
1742115417.671,463.867,-31.738,50.781,167.969
1742115417.675,-161.133,-39.551,45.898,-1000.000
1742115417.679,930.176,-30.273,23.926,-65.918
1742115417.683,999.512,-18.555,-25.879,999.512
1742115417.687,915.039,-10.742,-34.180,226.074
1742115417.691,976.562,-27.832,-1.465,-1000.000
1742115417.694,966.309,-37.598,0.000,-984.375
1742115417.698,980.957,-28.320,-3.418,142.090
1742115417.702,882.324,-7.324,-24.902,976.562
1742115417.706,999.512,8.301,-41.504,999.512
1742115417.710,455.078,-9.277,-33.203,166.016
1742115417.726,-383.301,-24.414,-28.320,-1000.000
1742115417.730,843.750,-4.883,-30.762,217.285
1742115417.734,999.512,7.812,-21.973,999.512
1742115417.738,949.219,2.441,3.906,999.512
1742115417.742,836.914,-5.859,27.832,472.656
1742115417.746,-485.352,-18.555,9.277,-815.430
1742115417.750,-1000.000,-24.902,-33.691,-1000.000
1742115417.753,-420.410,-4.395,-21.484,-456.055
1742115417.757,999.512,6.836,0.000,999.512
1742115417.761,142.578,-15.137,12.207,286.133
1742115417.765,-1000.000,-3.906,-7.324,-1000.000
1742115417.769,-962.891,6.836,-6.836,-1000.000
1742115417.726,-383.301,-24.414,-28.320,-1000.000
1742115417.730,843.750,-4.883,-30.762,217.285
1742115417.734,999.512,7.812,-21.973,999.512
1742115417.738,949.219,2.441,3.906,999.512
1742115417.742,836.914,-5.859,27.832,472.656
1742115417.746,-485.352,-18.555,9.277,-815.430
1742115417.750,-1000.000,-24.902,-33.691,-1000.000
1742115417.753,-420.410,-4.395,-21.484,-456.055
1742115417.757,999.512,6.836,0.000,999.512
1742115417.761,142.578,-15.137,12.207,286.133
1742115417.765,-1000.000,-3.906,-7.324,-1000.000
1742115417.769,-962.891,6.836,-6.836,-1000.000
1742115417.771,-978.027,-3.418,-5.859,-10.254
1742115417.775,-1000.000,-10.254,-19.043,999.512
1742115417.779,-1000.000,-5.371,23.926,994.629
1742115417.783,-1000.000,4.883,19.043,-69.824
1742115417.787,-1000.000,-4.395,-12.695,-1000.000
1742115417.791,-1000.000,13.672,-15.625,83.496
1742115417.795,-1000.000,6.348,-22.461,999.512
1742115417.798,-1000.000,-24.902,-12.207,876.953
1742115417.802,-1000.000,-20.020,-13.672,-286.621
1742115417.806,-1000.000,-13.184,-31.738,-1000.000
1742115417.810,-1000.000,1.465,-25.391,23.438
1742115417.814,-1000.000,11.230,8.301,999.512
1742115417.771,-978.027,-3.418,-5.859,-10.254
1742115417.775,-1000.000,-10.254,-19.043,999.512
1742115417.779,-1000.000,-5.371,23.926,994.629
1742115417.783,-1000.000,4.883,19.043,-69.824
1742115417.787,-1000.000,-4.395,-12.695,-1000.000
1742115417.791,-1000.000,13.672,-15.625,83.496
1742115417.795,-1000.000,6.348,-22.461,999.512
1742115417.798,-1000.000,-24.902,-12.207,876.953
1742115417.802,-1000.000,-20.020,-13.672,-286.621
1742115417.806,-1000.000,-13.184,-31.738,-1000.000
1742115417.810,-1000.000,1.465,-25.391,23.438
1742115417.814,-1000.000,11.230,8.301,999.512
1742115417.816,-1000.000,-2.930,30.762,999.512
1742115417.820,-1000.000,0.488,11.719,113.281
1742115417.824,-1000.000,-0.488,2.441,-1000.000
1742115417.828,-1000.000,8.301,13.672,-587.402
1742115417.832,-1000.000,15.625,23.438,723.633
1742115417.836,-1000.000,-10.742,29.297,999.512
1742115417.840,-1000.000,-28.809,21.484,169.922
1742115417.843,-1000.000,-33.691,1.953,-1000.000
1742115417.847,-1000.000,-17.090,-2.441,-686.523
1742115417.851,-1000.000,-13.184,28.320,613.770
1742115417.855,-1000.000,-13.672,67.871,999.512
1742115417.859,-979.492,-12.695,87.402,213.379
1742115417.816,-1000.000,-2.930,30.762,999.512
1742115417.820,-1000.000,0.488,11.719,113.281
1742115417.824,-1000.000,-0.488,2.441,-1000.000
1742115417.828,-1000.000,8.301,13.672,-587.402
1742115417.832,-1000.000,15.625,23.438,723.633
1742115417.836,-1000.000,-10.742,29.297,999.512
1742115417.840,-1000.000,-28.809,21.484,169.922
1742115417.843,-1000.000,-33.691,1.953,-1000.000
1742115417.847,-1000.000,-17.090,-2.441,-686.523
1742115417.851,-1000.000,-13.184,28.320,613.770
1742115417.855,-1000.000,-13.672,67.871,999.512
1742115417.859,-979.492,-12.695,87.402,213.379
1742115417.860,-977.539,-12.207,97.656,-1000.000
1742115417.864,-1000.000,-2.930,98.633,-706.543
1742115417.868,189.453,0.488,91.797,872.070
1742115417.872,266.602,-10.742,62.988,432.617
1742115417.876,-1000.000,-22.949,64.941,-1000.000
1742115417.880,-589.844,-11.719,70.312,-364.258
1742115417.884,766.602,-11.719,60.059,999.512
1742115417.887,-290.039,-37.109,78.613,102.539
1742115417.891,-1000.000,-45.898,95.703,-1000.000
1742115417.895,-227.051,-19.531,103.516,-167.480
1742115417.899,999.512,3.906,119.629,999.512
1742115417.903,-96.680,-20.020,131.836,125.977
1742115417.860,-977.539,-12.207,97.656,-1000.000
1742115417.864,-1000.000,-2.930,98.633,-706.543
1742115417.868,189.453,0.488,91.797,872.070
1742115417.872,266.602,-10.742,62.988,432.617
1742115417.876,-1000.000,-22.949,64.941,-1000.000
1742115417.880,-589.844,-11.719,70.312,-364.258
1742115417.884,766.602,-11.719,60.059,999.512
1742115417.887,-290.039,-37.109,78.613,102.539
1742115417.891,-1000.000,-45.898,95.703,-1000.000
1742115417.895,-227.051,-19.531,103.516,-167.480
1742115417.899,999.512,3.906,119.629,999.512
1742115417.903,-96.680,-20.020,131.836,125.977
1742115417.905,-1000.000,-37.598,120.605,-1000.000
1742115417.909,-916.992,-13.672,118.164,-722.168
1742115417.913,608.398,-13.672,138.672,806.641
1742115417.917,560.059,-38.086,172.363,666.992
1742115417.921,-964.844,-40.527,123.535,-844.727
1742115417.925,-1000.000,-35.156,110.352,-1000.000
1742115417.929,-215.332,-19.043,130.859,-48.828
1742115417.932,999.512,-9.766,122.559,999.512
1742115417.936,183.594,-24.414,116.699,197.266
1742115417.940,-1000.000,-33.203,108.398,-1000.000
1742115417.944,-1000.000,-29.785,108.887,-1000.000
1742115417.948,-0.488,-8.301,114.258,126.465
1742115417.952,999.512,-15.625,158.203,999.512
1742115417.956,146.973,-49.805,152.832,164.551
1742115417.960,-1000.000,-56.641,100.098,-1000.000
1742115417.964,-1000.000,-48.340,132.812,-1000.000
1742115417.968,-113.770,-24.902,171.387,-99.121
1742115417.972,999.512,3.906,150.391,999.512
1742115417.976,302.246,-6.836,143.555,297.363
1742115417.979,-987.793,-18.066,135.742,-986.816
1742115417.983,-1000.000,1.953,99.609,-1000.000
1742115417.987,-167.969,34.668,97.656,-168.945
1742115417.991,999.512,31.250,143.066,999.512
1742115417.995,446.777,-8.301,207.520,368.164
1742115417.952,999.512,-15.625,158.203,999.512
1742115417.956,146.973,-49.805,152.832,164.551
1742115417.960,-1000.000,-56.641,100.098,-1000.000
1742115417.964,-1000.000,-48.340,132.812,-1000.000
1742115417.968,-113.770,-24.902,171.387,-99.121
1742115417.972,999.512,3.906,150.391,999.512
1742115417.976,302.246,-6.836,143.555,297.363
1742115417.979,-987.793,-18.066,135.742,-986.816
1742115417.983,-1000.000,1.953,99.609,-1000.000
1742115417.987,-167.969,34.668,97.656,-168.945
1742115417.991,999.512,31.250,143.066,999.512
1742115417.995,446.777,-8.301,207.520,368.164
1742115417.996,-915.039,-13.184,229.980,-944.824
1742115418.000,-1000.000,-16.602,261.719,-1000.000
1742115418.004,-228.516,-23.438,353.516,-271.973
1742115418.008,999.512,-9.766,468.262,999.512
1742115418.012,393.066,-3.906,535.645,297.852
1742115418.016,-938.477,-1.953,527.832,-973.633
1742115418.020,-1000.000,-3.418,509.277,-1000.000
1742115418.023,-288.574,10.742,515.137,-479.980
1742115418.027,999.512,29.297,467.773,999.512
1742115418.031,548.828,11.230,407.227,459.473
1742115418.035,-844.238,-4.883,413.086,-912.109
1742115418.039,-1000.000,-7.324,375.977,-1000.000
1742115417.996,-915.039,-13.184,229.980,-944.824
1742115418.000,-1000.000,-16.602,261.719,-1000.000
1742115418.004,-228.516,-23.438,353.516,-271.973
1742115418.008,999.512,-9.766,468.262,999.512
1742115418.012,393.066,-3.906,535.645,297.852
1742115418.016,-938.477,-1.953,527.832,-973.633
1742115418.020,-1000.000,-3.418,509.277,-1000.000
1742115418.023,-288.574,10.742,515.137,-479.980
1742115418.027,999.512,29.297,467.773,999.512
1742115418.031,548.828,11.230,407.227,459.473
1742115418.035,-844.238,-4.883,413.086,-912.109
1742115418.039,-1000.000,-7.324,375.977,-1000.000
1742115418.041,-242.676,-2.441,350.098,-412.598
1742115418.045,999.512,7.812,322.266,998.535
1742115418.049,904.785,3.906,268.066,782.227
1742115418.053,-397.949,-2.930,226.074,-559.570
1742115418.057,-1000.000,2.441,213.379,-1000.000
1742115418.061,-206.543,13.184,240.723,-234.863
1742115418.065,999.512,26.367,269.531,999.512
1742115418.068,831.055,25.391,282.715,732.910
1742115418.072,-503.906,-16.113,314.453,-589.844
1742115418.076,-1000.000,-27.344,310.059,-1000.000
1742115418.080,-206.055,-5.371,333.496,-217.285
1742115418.084,999.512,-12.695,327.148,999.512
1742115418.041,-242.676,-2.441,350.098,-412.598
1742115418.045,999.512,7.812,322.266,998.535
1742115418.049,904.785,3.906,268.066,782.227
1742115418.053,-397.949,-2.930,226.074,-559.570
1742115418.057,-1000.000,2.441,213.379,-1000.000
1742115418.061,-206.543,13.184,240.723,-234.863
1742115418.065,999.512,26.367,269.531,999.512
1742115418.068,831.055,25.391,282.715,732.910
1742115418.072,-503.906,-16.113,314.453,-589.844
1742115418.076,-1000.000,-27.344,310.059,-1000.000
1742115418.080,-206.055,-5.371,333.496,-217.285
1742115418.084,999.512,-12.695,327.148,999.512
1742115418.101,814.941,-38.086,310.059,728.516
1742115418.105,-498.047,-41.016,393.555,-560.059
1742115418.109,-1000.000,-32.227,419.922,-1000.000
1742115418.113,-451.660,-11.230,390.625,-529.297
1742115418.117,946.289,-7.812,390.137,895.996
1742115418.121,919.922,-15.137,375.000,858.887
1742115418.125,-421.875,-26.855,383.301,-498.047
1742115418.128,-1000.000,-31.738,358.398,-1000.000
1742115418.132,-508.789,4.883,301.758,-556.641
1742115418.136,792.969,25.879,304.199,729.492
1742115418.140,999.512,-4.883,325.684,999.512
1742115418.144,121.094,-29.297,314.453,64.941
1742115418.101,814.941,-38.086,310.059,728.516
1742115418.105,-498.047,-41.016,393.555,-560.059
1742115418.109,-1000.000,-32.227,419.922,-1000.000
1742115418.113,-451.660,-11.230,390.625,-529.297
1742115418.117,946.289,-7.812,390.137,895.996
1742115418.121,919.922,-15.137,375.000,858.887
1742115418.125,-421.875,-26.855,383.301,-498.047
1742115418.128,-1000.000,-31.738,358.398,-1000.000
1742115418.132,-508.789,4.883,301.758,-556.641
1742115418.136,792.969,25.879,304.199,729.492
1742115418.140,999.512,-4.883,325.684,999.512
1742115418.144,121.094,-29.297,314.453,64.941
1742115418.176,-1000.000,-24.902,264.648,-1000.000
1742115418.180,-1000.000,-13.672,239.746,-1000.000
1742115418.184,2.930,-5.371,282.715,24.902
1742115418.188,999.512,6.836,280.762,999.512
1742115418.192,215.820,-5.371,232.910,287.109
1742115418.196,-993.164,-2.930,236.816,-983.887
1742115418.200,-1000.000,26.855,202.148,-1000.000
1742115418.203,-216.309,11.230,125.977,-92.285
1742115418.207,999.512,-26.367,100.586,999.512
1742115418.211,378.418,-44.434,95.215,436.035
1742115418.215,-1000.000,-35.156,92.773,-1000.000
1742115418.219,-1000.000,-6.836,111.816,-890.625
1742115418.176,-1000.000,-24.902,264.648,-1000.000
1742115418.180,-1000.000,-13.672,239.746,-1000.000
1742115418.184,2.930,-5.371,282.715,24.902
1742115418.188,999.512,6.836,280.762,999.512
1742115418.192,215.820,-5.371,232.910,287.109
1742115418.196,-993.164,-2.930,236.816,-983.887
1742115418.200,-1000.000,26.855,202.148,-1000.000
1742115418.203,-216.309,11.230,125.977,-92.285
1742115418.207,999.512,-26.367,100.586,999.512
1742115418.211,378.418,-44.434,95.215,436.035
1742115418.215,-1000.000,-35.156,92.773,-1000.000
1742115418.219,-1000.000,-6.836,111.816,-890.625
1742115418.190,314.453,-7.812,111.328,472.656
1742115418.194,999.512,-8.789,37.598,999.512
1742115418.198,928.223,1.953,6.836,997.070
1742115418.202,-264.648,-7.324,66.406,-121.094
1742115418.206,-1000.000,-12.207,77.637,-1000.000
1742115418.210,70.312,10.254,19.043,236.816
1742115418.214,999.512,16.113,42.480,999.512
1742115418.217,999.512,-14.648,119.141,999.512
1742115418.221,208.984,-39.551,150.879,324.707
1742115418.225,-1000.000,-34.180,145.996,-1000.000
1742115418.229,-190.918,-5.859,161.621,-159.180
1742115418.233,990.234,-7.812,71.777,999.512
1742115418.190,314.453,-7.812,111.328,472.656
1742115418.194,999.512,-8.789,37.598,999.512
1742115418.198,928.223,1.953,6.836,997.070
1742115418.202,-264.648,-7.324,66.406,-121.094
1742115418.206,-1000.000,-12.207,77.637,-1000.000
1742115418.210,70.312,10.254,19.043,236.816
1742115418.214,999.512,16.113,42.480,999.512
1742115418.217,999.512,-14.648,119.141,999.512
1742115418.221,208.984,-39.551,150.879,324.707
1742115418.225,-1000.000,-34.180,145.996,-1000.000
1742115418.229,-190.918,-5.859,161.621,-159.180
1742115418.233,990.234,-7.812,71.777,999.512
1742115418.701,-1000.000,-30.762,55.664,-1000.000
1742115418.705,-964.844,-26.855,94.238,-1000.000
1742115418.709,187.500,-26.367,163.574,88.867
1742115418.713,999.512,-24.414,182.617,999.512
1742115418.717,77.148,-47.363,188.477,-38.574
1742115418.721,-1000.000,-29.785,186.035,-1000.000
1742115418.725,-916.504,-14.160,120.117,-895.508
1742115418.728,-1000.000,-23.438,-20.508,-1000.000
1742115418.732,-257.812,-10.742,-159.180,-304.199
1742115418.736,999.512,-3.906,-208.496,999.512
1742115418.740,107.422,-18.066,-219.238,-96.191
1742115418.744,-1000.000,-22.949,-223.145,-1000.000
1742115418.190,314.453,-7.812,111.328,472.656
1742115418.194,999.512,-8.789,37.598,999.512
1742115418.198,928.223,1.953,6.836,997.070
1742115418.202,-264.648,-7.324,66.406,-121.094
1742115418.206,-1000.000,-12.207,77.637,-1000.000
1742115418.210,70.312,10.254,19.043,236.816
1742115418.214,999.512,16.113,42.480,999.512
1742115418.217,999.512,-14.648,119.141,999.512
1742115418.221,208.984,-39.551,150.879,324.707
1742115418.225,-1000.000,-34.180,145.996,-1000.000
1742115418.229,-190.918,-5.859,161.621,-159.180
1742115418.233,990.234,-7.812,71.777,999.512
1742115418.237,999.512,-18.066,4.883,999.512
1742115418.241,399.902,-3.418,57.617,604.980
1742115418.245,-997.559,-14.160,52.246,-869.629
1742115418.249,-982.910,-15.625,54.688,-907.715
1742115418.253,331.055,10.254,66.406,486.816
1742115418.257,999.512,10.742,70.801,999.512
1742115418.261,651.855,-3.418,58.105,790.527
1742115418.264,-659.668,-25.391,22.949,-483.398
1742115418.268,-1000.000,-24.414,-28.809,-1000.000
1742115418.272,-109.375,-1.465,-55.664,27.832
1742115418.276,999.512,11.719,-31.738,999.512
1742115418.280,411.133,-9.277,-61.035,486.816
1742115418.237,999.512,-18.066,4.883,999.512
1742115418.241,399.902,-3.418,57.617,604.980
1742115418.245,-997.559,-14.160,52.246,-869.629
1742115418.249,-982.910,-15.625,54.688,-907.715
1742115418.253,331.055,10.254,66.406,486.816
1742115418.257,999.512,10.742,70.801,999.512
1742115418.261,651.855,-3.418,58.105,790.527
1742115418.264,-659.668,-25.391,22.949,-483.398
1742115418.268,-1000.000,-24.414,-28.809,-1000.000
1742115418.272,-109.375,-1.465,-55.664,27.832
1742115418.276,999.512,11.719,-31.738,999.512
1742115418.280,411.133,-9.277,-61.035,486.816
1742115418.281,-932.129,-43.945,-107.422,-863.281
1742115418.285,-1000.000,-43.945,-105.469,-1000.000
1742115418.289,-118.652,-14.648,-90.820,-47.363
1742115418.293,999.512,-0.488,-63.477,999.512
1742115418.297,372.070,-29.297,-37.109,429.688
1742115418.301,-993.652,-42.480,-1.953,-994.141
1742115418.305,-1000.000,-24.902,-39.551,-926.270
1742115418.308,139.648,-19.043,-161.621,348.633
1742115418.312,999.512,-20.996,-161.133,999.512
1742115418.316,561.523,-12.207,-145.508,697.754
1742115418.320,-761.719,0.000,-143.555,-596.680
1742115418.324,-1000.000,5.371,-130.859,-1000.000
1742115418.281,-932.129,-43.945,-107.422,-863.281
1742115418.285,-1000.000,-43.945,-105.469,-1000.000
1742115418.289,-118.652,-14.648,-90.820,-47.363
1742115418.293,999.512,-0.488,-63.477,999.512
1742115418.297,372.070,-29.297,-37.109,429.688
1742115418.301,-993.652,-42.480,-1.953,-994.141
1742115418.305,-1000.000,-24.902,-39.551,-926.270
1742115418.308,139.648,-19.043,-161.621,348.633
1742115418.312,999.512,-20.996,-161.133,999.512
1742115418.316,561.523,-12.207,-145.508,697.754
1742115418.320,-761.719,0.000,-143.555,-596.680
1742115418.324,-1000.000,5.371,-130.859,-1000.000
1742115418.325,-116.211,0.488,-185.059,22.461
1742115418.329,973.145,-9.277,-206.055,991.211
1742115418.333,999.512,-17.090,-182.617,999.512
1742115418.337,199.707,-13.184,-163.086,198.242
1742115418.341,-1000.000,-15.625,-164.551,-1000.000
1742115418.345,-216.309,6.348,-194.824,-175.781
1742115418.349,999.512,12.207,-202.637,999.512
1742115418.352,999.512,-26.367,-174.316,999.512
1742115418.356,-65.918,-42.480,-224.609,-11.230
1742115418.360,-1000.000,-18.555,-246.582,-1000.000
1742115418.364,223.145,11.719,-183.594,425.293
1742115418.368,999.512,6.836,-166.504,999.512
1742115418.325,-116.211,0.488,-185.059,22.461
1742115418.329,973.145,-9.277,-206.055,991.211
1742115418.333,999.512,-17.090,-182.617,999.512
1742115418.337,199.707,-13.184,-163.086,198.242
1742115418.341,-1000.000,-15.625,-164.551,-1000.000
1742115418.345,-216.309,6.348,-194.824,-175.781
1742115418.349,999.512,12.207,-202.637,999.512
1742115418.352,999.512,-26.367,-174.316,999.512
1742115418.356,-65.918,-42.480,-224.609,-11.230
1742115418.360,-1000.000,-18.555,-246.582,-1000.000
1742115418.364,223.145,11.719,-183.594,425.293
1742115418.368,999.512,6.836,-166.504,999.512
1742115418.370,999.512,0.488,-169.922,999.512
1742115418.374,249.512,-22.461,-137.695,417.969
1742115418.378,-1000.000,-42.480,-121.582,-1000.000
1742115418.382,-345.215,-28.809,-41.016,-343.750
1742115418.386,943.848,-17.090,-17.578,961.426
1742115418.390,999.512,-9.277,-55.664,999.512
1742115418.394,248.535,-39.551,-30.762,333.496
1742115418.397,-1000.000,-52.246,-47.852,-1000.000
1742115418.401,-846.680,2.441,-31.738,-830.078
1742115418.405,502.441,21.973,55.176,503.906
1742115418.409,999.512,9.766,59.082,999.512
1742115418.413,172.363,-2.930,-40.527,246.582
1742115418.370,999.512,0.488,-169.922,999.512
1742115418.374,249.512,-22.461,-137.695,417.969
1742115418.378,-1000.000,-42.480,-121.582,-1000.000
1742115418.382,-345.215,-28.809,-41.016,-343.750
1742115418.386,943.848,-17.090,-17.578,961.426
1742115418.390,999.512,-9.277,-55.664,999.512
1742115418.394,248.535,-39.551,-30.762,333.496
1742115418.397,-1000.000,-52.246,-47.852,-1000.000
1742115418.401,-846.680,2.441,-31.738,-830.078
1742115418.405,502.441,21.973,55.176,503.906
1742115418.409,999.512,9.766,59.082,999.512
1742115418.413,172.363,-2.930,-40.527,246.582
1742115418.416,-988.770,-11.719,-97.656,-965.820
1742115418.420,-1000.000,-11.230,-55.664,-1000.000
1742115418.424,-164.551,-6.836,-39.062,-134.277
1742115418.428,999.512,14.160,-109.863,999.512
1742115418.432,171.875,-13.184,-150.391,172.852
1742115418.436,-1000.000,-49.316,-117.188,-1000.000
1742115418.440,-1000.000,-43.945,-64.453,-1000.000
1742115418.443,2.930,-26.367,-29.297,-2.441
1742115418.447,999.512,-23.926,-51.270,999.512
1742115418.451,995.117,-29.785,-50.781,958.984
1742115418.455,-158.691,-30.273,15.137,-179.688
1742115418.459,-1000.000,-14.648,48.828,-1000.000
1742115418.416,-988.770,-11.719,-97.656,-965.820
1742115418.420,-1000.000,-11.230,-55.664,-1000.000
1742115418.424,-164.551,-6.836,-39.062,-134.277
1742115418.428,999.512,14.160,-109.863,999.512
1742115418.432,171.875,-13.184,-150.391,172.852
1742115418.436,-1000.000,-49.316,-117.188,-1000.000
1742115418.440,-1000.000,-43.945,-64.453,-1000.000
1742115418.443,2.930,-26.367,-29.297,-2.441
1742115418.447,999.512,-23.926,-51.270,999.512
1742115418.451,995.117,-29.785,-50.781,958.984
1742115418.455,-158.691,-30.273,15.137,-179.688
1742115418.459,-1000.000,-14.648,48.828,-1000.000
1742115418.475,-11.230,13.184,-3.906,105.469
1742115418.479,999.512,8.789,9.766,999.512
1742115418.483,999.512,2.441,76.172,999.512
1742115418.487,32.715,-4.883,25.391,70.801
1742115418.491,-1000.000,-23.438,-27.344,-1000.000
1742115418.495,-291.992,-28.809,17.578,-325.195
1742115418.499,999.512,-26.367,44.434,999.512
1742115418.502,558.105,-34.668,39.551,551.270
1742115418.506,-834.961,-32.227,45.898,-806.641
1742115418.510,-1000.000,-30.762,57.129,-1000.000
1742115418.514,-162.598,-18.555,-17.090,-197.754
1742115418.518,944.336,-7.324,-112.793,940.430
1742115418.475,-11.230,13.184,-3.906,105.469
1742115418.479,999.512,8.789,9.766,999.512
1742115418.483,999.512,2.441,76.172,999.512
1742115418.487,32.715,-4.883,25.391,70.801
1742115418.491,-1000.000,-23.438,-27.344,-1000.000
1742115418.495,-291.992,-28.809,17.578,-325.195
1742115418.499,999.512,-26.367,44.434,999.512
1742115418.502,558.105,-34.668,39.551,551.270
1742115418.506,-834.961,-32.227,45.898,-806.641
1742115418.510,-1000.000,-30.762,57.129,-1000.000
1742115418.514,-162.598,-18.555,-17.090,-197.754
1742115418.518,944.336,-7.324,-112.793,940.430
1742115418.521,999.512,-27.344,-134.277,999.512
1742115418.525,428.223,-66.406,-127.930,521.973
1742115418.529,-864.258,-82.031,-62.500,-769.043
1742115418.533,-1000.000,-73.730,-43.457,-1000.000
1742115418.537,-555.176,-55.176,-66.895,-689.941
1742115418.541,989.258,-23.926,-50.781,829.102
1742115418.545,636.719,-28.320,-42.969,598.633
1742115418.548,-836.426,-53.223,-35.156,-868.164
1742115418.552,-1000.000,-52.246,-20.996,-1000.000
1742115418.556,-214.355,-22.461,-20.508,-203.125
1742115418.560,999.512,-5.859,26.367,999.512
1742115418.564,837.891,-21.484,64.941,822.266
1742115418.521,999.512,-27.344,-134.277,999.512
1742115418.525,428.223,-66.406,-127.930,521.973
1742115418.529,-864.258,-82.031,-62.500,-769.043
1742115418.533,-1000.000,-73.730,-43.457,-1000.000
1742115418.537,-555.176,-55.176,-66.895,-689.941
1742115418.541,989.258,-23.926,-50.781,829.102
1742115418.545,636.719,-28.320,-42.969,598.633
1742115418.548,-836.426,-53.223,-35.156,-868.164
1742115418.552,-1000.000,-52.246,-20.996,-1000.000
1742115418.556,-214.355,-22.461,-20.508,-203.125
1742115418.560,999.512,-5.859,26.367,999.512
1742115418.564,837.891,-21.484,64.941,822.266
1742115418.566,-541.016,-30.273,59.082,-521.973
1742115418.570,-1000.000,-4.395,95.215,-1000.000
1742115418.574,29.785,21.973,111.816,80.078
1742115418.578,999.512,20.996,83.984,999.512
1742115418.582,439.453,4.395,38.574,491.211
1742115418.586,-907.715,-14.648,38.574,-860.352
1742115418.590,-1000.000,-14.648,122.559,-1000.000
1742115418.593,-44.434,-16.602,185.059,8.301
1742115418.597,999.512,-0.977,206.543,999.512
1742115418.601,554.688,6.836,278.809,553.223
1742115418.605,-797.363,-11.719,315.430,-769.043
1742115418.609,-1000.000,-29.785,261.230,-1000.000
1742115418.566,-541.016,-30.273,59.082,-521.973
1742115418.570,-1000.000,-4.395,95.215,-1000.000
1742115418.574,29.785,21.973,111.816,80.078
1742115418.578,999.512,20.996,83.984,999.512
1742115418.582,439.453,4.395,38.574,491.211
1742115418.586,-907.715,-14.648,38.574,-860.352
1742115418.590,-1000.000,-14.648,122.559,-1000.000
1742115418.593,-44.434,-16.602,185.059,8.301
1742115418.597,999.512,-0.977,206.543,999.512
1742115418.601,554.688,6.836,278.809,553.223
1742115418.605,-797.363,-11.719,315.430,-769.043
1742115418.609,-1000.000,-29.785,261.230,-1000.000
1742115418.610,-203.125,0.977,247.559,-155.762
1742115418.614,999.512,26.855,277.344,999.512
1742115418.618,563.477,11.230,270.020,532.227
1742115418.622,-812.012,1.953,209.961,-789.062
1742115418.626,-1000.000,7.324,159.180,-1000.000
1742115418.630,-291.016,20.508,113.281,-401.855
1742115418.634,999.512,15.137,111.816,999.512
1742115418.637,625.000,-0.977,101.074,605.957
1742115418.641,-779.785,-28.809,42.480,-791.016
1742115418.645,-1000.000,-9.766,-21.973,-1000.000
1742115418.649,-223.145,3.418,-69.336,-203.125
1742115418.653,999.512,-24.414,-97.168,999.512
1742115418.610,-203.125,0.977,247.559,-155.762
1742115418.614,999.512,26.855,277.344,999.512
1742115418.618,563.477,11.230,270.020,532.227
1742115418.622,-812.012,1.953,209.961,-789.062
1742115418.626,-1000.000,7.324,159.180,-1000.000
1742115418.630,-291.016,20.508,113.281,-401.855
1742115418.634,999.512,15.137,111.816,999.512
1742115418.637,625.000,-0.977,101.074,605.957
1742115418.641,-779.785,-28.809,42.480,-791.016
1742115418.645,-1000.000,-9.766,-21.973,-1000.000
1742115418.649,-223.145,3.418,-69.336,-203.125
1742115418.653,999.512,-24.414,-97.168,999.512
1742115418.656,163.086,-36.621,-132.324,158.203
1742115418.660,-1000.000,-51.270,-102.539,-1000.000
1742115418.664,-1000.000,-38.086,-36.133,-1000.000
1742115418.668,-406.738,-10.254,-54.688,-548.340
1742115418.672,999.512,-17.578,-72.266,953.125
1742115418.676,791.016,-26.367,-94.727,725.586
1742115418.680,-581.543,-45.410,-145.508,-684.082
1742115418.683,-1000.000,-40.527,-92.285,-1000.000
1742115418.687,-596.680,-13.672,35.156,-783.203
1742115418.691,826.660,-4.883,65.918,641.602
1742115418.695,977.539,1.465,18.555,866.211
1742115418.699,-438.965,-26.855,29.297,-609.863
1742115418.746,-1000.000,-16.113,-235.352,-1000.000
1742115418.750,-250.977,9.277,-213.379,-272.461
1742115418.754,999.512,18.066,-153.809,999.512
1742115418.758,171.875,2.441,-138.672,11.719
1742115418.762,-1000.000,0.000,-161.621,-1000.000
1742115418.766,-1000.000,7.812,-172.363,-1000.000
1742115418.770,369.141,6.836,-44.434,187.012
1742115418.773,831.055,-10.742,54.688,690.918
1742115418.777,-760.742,-20.508,-51.758,-861.816
1742115418.781,-1000.000,-14.160,-112.793,-1000.000
1742115418.785,-1000.000,0.488,-79.102,-1000.000
1742115418.789,81.055,20.996,-29.297,-95.703
1742115418.746,-1000.000,-16.113,-235.352,-1000.000
1742115418.750,-250.977,9.277,-213.379,-272.461
1742115418.754,999.512,18.066,-153.809,999.512
1742115418.758,171.875,2.441,-138.672,11.719
1742115418.762,-1000.000,0.000,-161.621,-1000.000
1742115418.766,-1000.000,7.812,-172.363,-1000.000
1742115418.770,369.141,6.836,-44.434,187.012
1742115418.773,831.055,-10.742,54.688,690.918
1742115418.777,-760.742,-20.508,-51.758,-861.816
1742115418.781,-1000.000,-14.160,-112.793,-1000.000
1742115418.785,-1000.000,0.488,-79.102,-1000.000
1742115418.789,81.055,20.996,-29.297,-95.703
1742115418.746,-1000.000,-16.113,-235.352,-1000.000
1742115418.750,-250.977,9.277,-213.379,-272.461
1742115418.754,999.512,18.066,-153.809,999.512
1742115418.758,171.875,2.441,-138.672,11.719
1742115418.762,-1000.000,0.000,-161.621,-1000.000
1742115418.766,-1000.000,7.812,-172.363,-1000.000
1742115418.770,369.141,6.836,-44.434,187.012
1742115418.773,831.055,-10.742,54.688,690.918
1742115418.777,-760.742,-20.508,-51.758,-861.816
1742115418.781,-1000.000,-14.160,-112.793,-1000.000
1742115418.785,-1000.000,0.488,-79.102,-1000.000
1742115418.789,81.055,20.996,-29.297,-95.703
1742115418.792,999.512,3.418,23.438,958.496
1742115418.796,-304.688,-20.508,1.465,-490.723
1742115418.800,-1000.000,-15.625,-26.367,-1000.000
1742115418.804,-1000.000,-26.367,-18.066,-1000.000
1742115418.808,-317.383,-20.996,-41.992,-460.938
1742115418.812,999.512,-0.977,-64.453,999.512
1742115418.816,169.922,-18.066,-74.707,137.207
1742115418.819,-1000.000,-26.855,-92.285,-1000.000
1742115418.823,-1000.000,-32.715,-101.562,-1000.000
1742115418.827,-357.422,-28.809,-84.473,-499.512
1742115418.831,999.512,-11.230,-50.293,999.512
1742115418.835,193.359,-41.504,-7.324,209.473
1742115418.792,999.512,3.418,23.438,958.496
1742115418.796,-304.688,-20.508,1.465,-490.723
1742115418.800,-1000.000,-15.625,-26.367,-1000.000
1742115418.804,-1000.000,-26.367,-18.066,-1000.000
1742115418.808,-317.383,-20.996,-41.992,-460.938
1742115418.812,999.512,-0.977,-64.453,999.512
1742115418.816,169.922,-18.066,-74.707,137.207
1742115418.819,-1000.000,-26.855,-92.285,-1000.000
1742115418.823,-1000.000,-32.715,-101.562,-1000.000
1742115418.827,-357.422,-28.809,-84.473,-499.512
1742115418.831,999.512,-11.230,-50.293,999.512
1742115418.835,193.359,-41.504,-7.324,209.473
1742115418.850,-1000.000,-60.059,45.898,-1000.000
1742115418.854,-1000.000,-58.105,33.203,-1000.000
1742115418.858,-397.461,-81.055,13.672,-496.582
1742115418.862,999.512,-39.062,104.004,999.512
1742115418.866,527.832,-20.508,163.086,486.328
1742115418.870,-869.141,-48.340,176.758,-894.043
1742115418.874,-1000.000,-37.109,181.152,-1000.000
1742115418.877,-458.496,-9.277,245.117,-564.453
1742115418.881,999.512,52.246,331.055,965.820
1742115418.885,586.914,21.973,272.949,561.035
1742115418.889,-864.258,-17.090,156.738,-889.160
1742115418.893,-1000.000,28.809,130.859,-1000.000
1742115418.850,-1000.000,-60.059,45.898,-1000.000
1742115418.854,-1000.000,-58.105,33.203,-1000.000
1742115418.858,-397.461,-81.055,13.672,-496.582
1742115418.862,999.512,-39.062,104.004,999.512
1742115418.866,527.832,-20.508,163.086,486.328
1742115418.870,-869.141,-48.340,176.758,-894.043
1742115418.874,-1000.000,-37.109,181.152,-1000.000
1742115418.877,-458.496,-9.277,245.117,-564.453
1742115418.881,999.512,52.246,331.055,965.820
1742115418.885,586.914,21.973,272.949,561.035
1742115418.889,-864.258,-17.090,156.738,-889.160
1742115418.893,-1000.000,28.809,130.859,-1000.000
1742115418.895,-176.758,37.109,156.250,-131.348
1742115418.899,999.512,33.691,151.855,999.512
1742115418.903,163.574,46.875,146.484,133.789
1742115418.907,-1000.000,36.621,179.688,-1000.000
1742115418.911,-1000.000,-21.973,105.957,-1000.000
1742115418.915,-242.676,-4.395,41.016,-210.449
1742115418.919,999.512,50.781,113.281,999.512
1742115418.922,230.469,46.387,167.969,230.469
1742115418.926,-1000.000,84.473,107.422,-1000.000
1742115418.930,-1000.000,105.469,96.191,-1000.000
1742115418.934,-81.543,148.926,244.629,-93.750
1742115418.938,999.512,209.961,395.508,999.512
1742115418.895,-176.758,37.109,156.250,-131.348
1742115418.899,999.512,33.691,151.855,999.512
1742115418.903,163.574,46.875,146.484,133.789
1742115418.907,-1000.000,36.621,179.688,-1000.000
1742115418.911,-1000.000,-21.973,105.957,-1000.000
1742115418.915,-242.676,-4.395,41.016,-210.449
1742115418.919,999.512,50.781,113.281,999.512
1742115418.922,230.469,46.387,167.969,230.469
1742115418.926,-1000.000,84.473,107.422,-1000.000
1742115418.930,-1000.000,105.469,96.191,-1000.000
1742115418.934,-81.543,148.926,244.629,-93.750
1742115418.938,999.512,209.961,395.508,999.512
1742115418.956,435.059,206.055,411.133,436.035
1742115418.960,-884.766,208.008,437.988,-863.281
1742115418.964,-1000.000,211.426,465.332,-1000.000
1742115418.968,-355.469,184.570,405.762,-410.156
1742115418.972,999.512,129.395,358.398,999.512
1742115418.976,413.086,41.504,258.789,420.898
1742115418.980,-1000.000,-12.695,222.168,-1000.000
1742115418.983,-965.332,-22.949,211.914,-962.402
1742115418.987,-1000.000,-32.715,136.719,-1000.000
1742115418.991,-2.441,-41.992,108.398,-25.391
1742115418.995,999.512,-58.594,48.828,999.023
1742115418.999,-375.000,-72.754,-65.430,-455.078
1742115418.956,435.059,206.055,411.133,436.035
1742115418.960,-884.766,208.008,437.988,-863.281
1742115418.964,-1000.000,211.426,465.332,-1000.000
1742115418.968,-355.469,184.570,405.762,-410.156
1742115418.972,999.512,129.395,358.398,999.512
1742115418.976,413.086,41.504,258.789,420.898
1742115418.980,-1000.000,-12.695,222.168,-1000.000
1742115418.983,-965.332,-22.949,211.914,-962.402
1742115418.987,-1000.000,-32.715,136.719,-1000.000
1742115418.991,-2.441,-41.992,108.398,-25.391
1742115418.995,999.512,-58.594,48.828,999.023
1742115418.999,-375.000,-72.754,-65.430,-455.078
1742115418.986,-1000.000,-69.824,-123.535,-1000.000
1742115418.990,-982.422,-89.844,-118.164,-938.477
1742115418.994,-899.902,-89.844,-106.445,-1000.000
1742115418.998,711.426,-55.176,-77.637,449.219
1742115419.002,560.059,-64.941,-144.531,512.207
1742115419.006,-1000.000,-64.941,-231.445,-1000.000
1742115419.010,-962.402,-51.270,-286.621,-957.031
1742115419.013,-1000.000,-73.242,-287.109,-1000.000
1742115419.017,-222.656,-52.734,-287.598,-193.848
1742115419.021,999.512,-37.109,-263.184,999.512
1742115419.025,57.617,-51.270,-175.781,-112.305
1742115419.029,-1000.000,-56.152,-188.477,-1000.000
1742115418.986,-1000.000,-69.824,-123.535,-1000.000
1742115418.990,-982.422,-89.844,-118.164,-938.477
1742115418.994,-899.902,-89.844,-106.445,-1000.000
1742115418.998,711.426,-55.176,-77.637,449.219
1742115419.002,560.059,-64.941,-144.531,512.207
1742115419.006,-1000.000,-64.941,-231.445,-1000.000
1742115419.010,-962.402,-51.270,-286.621,-957.031
1742115419.013,-1000.000,-73.242,-287.109,-1000.000
1742115419.017,-222.656,-52.734,-287.598,-193.848
1742115419.021,999.512,-37.109,-263.184,999.512
1742115419.025,57.617,-51.270,-175.781,-112.305
1742115419.029,-1000.000,-56.152,-188.477,-1000.000
1742115418.986,-1000.000,-69.824,-123.535,-1000.000
1742115418.990,-982.422,-89.844,-118.164,-938.477
1742115418.994,-899.902,-89.844,-106.445,-1000.000
1742115418.998,711.426,-55.176,-77.637,449.219
1742115419.002,560.059,-64.941,-144.531,512.207
1742115419.006,-1000.000,-64.941,-231.445,-1000.000
1742115419.010,-962.402,-51.270,-286.621,-957.031
1742115419.013,-1000.000,-73.242,-287.109,-1000.000
1742115419.017,-222.656,-52.734,-287.598,-193.848
1742115419.021,999.512,-37.109,-263.184,999.512
1742115419.025,57.617,-51.270,-175.781,-112.305
1742115419.029,-1000.000,-56.152,-188.477,-1000.000
1742115419.030,-781.738,-41.992,-247.070,-762.695
1742115419.034,746.094,2.930,-306.152,682.617
1742115419.038,841.309,3.906,-363.281,863.770
1742115419.042,-665.527,-31.738,-418.945,-589.844
1742115419.046,-1000.000,-32.227,-534.668,-1000.000
1742115419.050,-214.355,-11.230,-558.105,-170.898
1742115419.054,999.512,32.715,-469.238,999.512
1742115419.057,752.441,50.293,-462.891,911.621
1742115419.061,-612.793,55.664,-553.711,-378.418
1742115419.065,-1000.000,67.871,-545.898,-1000.000
1742115419.069,-146.484,74.219,-545.898,21.484
1742115419.073,999.512,86.426,-549.805,999.512
1742115419.030,-781.738,-41.992,-247.070,-762.695
1742115419.034,746.094,2.930,-306.152,682.617
1742115419.038,841.309,3.906,-363.281,863.770
1742115419.042,-665.527,-31.738,-418.945,-589.844
1742115419.046,-1000.000,-32.227,-534.668,-1000.000
1742115419.050,-214.355,-11.230,-558.105,-170.898
1742115419.054,999.512,32.715,-469.238,999.512
1742115419.057,752.441,50.293,-462.891,911.621
1742115419.061,-612.793,55.664,-553.711,-378.418
1742115419.065,-1000.000,67.871,-545.898,-1000.000
1742115419.069,-146.484,74.219,-545.898,21.484
1742115419.073,999.512,86.426,-549.805,999.512
1742115419.077,896.484,79.590,-506.348,999.512
1742115419.081,-375.488,66.406,-476.562,-108.398
1742115419.085,-1000.000,65.430,-430.176,-1000.000
1742115419.089,-212.402,79.590,-395.020,-56.641
1742115419.093,999.512,107.910,-327.637,999.512
1742115419.097,263.184,104.492,-394.043,322.754
1742115419.101,-984.375,85.449,-575.195,-942.383
1742115419.104,-1000.000,87.891,-657.715,-1000.000
1742115419.108,-471.680,84.473,-689.941,-420.410
1742115419.112,902.344,84.961,-693.359,890.625
1742115419.116,999.512,59.570,-669.922,999.512
1742115419.120,-198.242,34.180,-717.285,-68.359
1742115419.077,896.484,79.590,-506.348,999.512
1742115419.081,-375.488,66.406,-476.562,-108.398
1742115419.085,-1000.000,65.430,-430.176,-1000.000
1742115419.089,-212.402,79.590,-395.020,-56.641
1742115419.093,999.512,107.910,-327.637,999.512
1742115419.097,263.184,104.492,-394.043,322.754
1742115419.101,-984.375,85.449,-575.195,-942.383
1742115419.104,-1000.000,87.891,-657.715,-1000.000
1742115419.108,-471.680,84.473,-689.941,-420.410
1742115419.112,902.344,84.961,-693.359,890.625
1742115419.116,999.512,59.570,-669.922,999.512
1742115419.120,-198.242,34.180,-717.285,-68.359
1742115419.121,-1000.000,28.320,-760.254,-1000.000
1742115419.125,-310.547,16.113,-754.883,-274.902
1742115419.129,921.387,11.719,-759.277,940.430
1742115419.133,999.512,12.695,-737.305,999.512
1742115419.137,191.895,-16.602,-670.898,260.742
1742115419.141,-1000.000,-55.664,-422.852,-1000.000
1742115419.145,-383.301,-57.617,-306.641,-285.156
1742115419.148,999.512,-50.781,-389.160,986.816
1742115419.152,938.477,-57.129,-389.648,999.512
1742115419.156,-340.820,-74.707,-444.336,126.465
1742115419.160,-1000.000,-82.520,-521.973,-1000.000
1742115419.164,-186.523,-81.543,-528.320,-134.766
1742115419.121,-1000.000,28.320,-760.254,-1000.000
1742115419.125,-310.547,16.113,-754.883,-274.902
1742115419.129,921.387,11.719,-759.277,940.430
1742115419.133,999.512,12.695,-737.305,999.512
1742115419.137,191.895,-16.602,-670.898,260.742
1742115419.141,-1000.000,-55.664,-422.852,-1000.000
1742115419.145,-383.301,-57.617,-306.641,-285.156
1742115419.148,999.512,-50.781,-389.160,986.816
1742115419.152,938.477,-57.129,-389.648,999.512
1742115419.156,-340.820,-74.707,-444.336,126.465
1742115419.160,-1000.000,-82.520,-521.973,-1000.000
1742115419.164,-186.523,-81.543,-528.320,-134.766
1742115419.165,999.512,-79.590,-532.715,999.512
1742115419.169,999.512,-68.848,-486.816,999.512
1742115419.173,-194.824,-81.055,-467.285,170.898
1742115419.177,-1000.000,-96.191,-355.469,-1000.000
1742115419.181,-73.242,-59.570,-159.180,196.777
1742115419.185,999.512,-47.852,-104.492,999.512
1742115419.189,449.707,-58.105,-6.836,999.512
1742115419.192,-873.535,-40.039,98.633,-64.453
1742115419.196,-1000.000,-32.227,134.766,-1000.000
1742115419.200,-152.832,-17.090,127.930,118.164
1742115419.204,999.512,28.809,90.332,999.512
1742115419.208,142.090,48.340,126.953,399.414
1742115419.165,999.512,-79.590,-532.715,999.512
1742115419.169,999.512,-68.848,-486.816,999.512
1742115419.173,-194.824,-81.055,-467.285,170.898
1742115419.177,-1000.000,-96.191,-355.469,-1000.000
1742115419.181,-73.242,-59.570,-159.180,196.777
1742115419.185,999.512,-47.852,-104.492,999.512
1742115419.189,449.707,-58.105,-6.836,999.512
1742115419.192,-873.535,-40.039,98.633,-64.453
1742115419.196,-1000.000,-32.227,134.766,-1000.000
1742115419.200,-152.832,-17.090,127.930,118.164
1742115419.204,999.512,28.809,90.332,999.512
1742115419.208,142.090,48.340,126.953,399.414
1742115419.226,-1000.000,58.105,198.242,-1000.000
1742115419.230,-913.574,87.891,208.008,-613.770
1742115419.234,547.363,123.535,225.098,760.254
1742115419.238,958.008,123.535,280.762,999.512
1742115419.242,-516.113,110.840,230.957,33.691
1742115419.246,-1000.000,111.816,65.430,-1000.000
1742115419.250,-196.289,107.910,-109.863,7.812
1742115419.253,999.512,102.051,-101.562,999.512
1742115419.257,311.523,83.008,-32.227,429.688
1742115419.261,-1000.000,60.547,38.574,-1000.000
1742115419.265,-307.617,63.965,172.852,-332.031
1742115419.269,999.512,70.801,186.035,999.512
1742115419.272,229.492,40.527,5.859,265.625
1742115419.276,-1000.000,41.992,-238.281,-1000.000
1742115419.280,-187.012,62.012,-321.777,-153.809
1742115419.284,999.512,37.598,-380.859,999.512
1742115419.288,952.637,25.391,-506.836,976.074
1742115419.292,979.004,20.020,-545.898,806.641
1742115419.296,-525.879,9.277,-571.777,-685.547
1742115419.299,-474.121,10.254,-599.609,-528.809
1742115419.303,999.512,-1.953,-595.703,958.496
1742115419.307,937.012,-25.391,-635.742,988.281
1742115419.311,999.512,-34.180,-626.465,904.297
1742115419.315,-283.203,-40.527,-609.375,-418.457
1742115419.272,229.492,40.527,5.859,265.625
1742115419.276,-1000.000,41.992,-238.281,-1000.000
1742115419.280,-187.012,62.012,-321.777,-153.809
1742115419.284,999.512,37.598,-380.859,999.512
1742115419.288,952.637,25.391,-506.836,976.074
1742115419.292,979.004,20.020,-545.898,806.641
1742115419.296,-525.879,9.277,-571.777,-685.547
1742115419.299,-474.121,10.254,-599.609,-528.809
1742115419.303,999.512,-1.953,-595.703,958.496
1742115419.307,937.012,-25.391,-635.742,988.281
1742115419.311,999.512,-34.180,-626.465,904.297
1742115419.315,-283.203,-40.527,-609.375,-418.457
1742115419.316,-888.672,-46.875,-680.176,-858.398
1742115419.320,648.438,-55.664,-729.004,613.770
1742115419.324,999.512,-64.941,-756.836,999.512
1742115419.328,682.617,-62.988,-787.598,657.715
1742115419.332,-872.070,-47.852,-729.980,-849.121
1742115419.336,-298.340,-1.953,-672.852,-270.020
1742115419.340,999.512,18.555,-674.805,999.512
1742115419.343,999.512,12.207,-660.645,999.512
1742115419.347,229.004,8.789,-607.422,306.152
1742115419.351,-1000.000,6.836,-568.359,-1000.000
1742115419.355,-205.078,27.344,-534.180,-160.645
1742115419.359,999.512,43.457,-500.488,999.512
1742115419.316,-888.672,-46.875,-680.176,-858.398
1742115419.320,648.438,-55.664,-729.004,613.770
1742115419.324,999.512,-64.941,-756.836,999.512
1742115419.328,682.617,-62.988,-787.598,657.715
1742115419.332,-872.070,-47.852,-729.980,-849.121
1742115419.336,-298.340,-1.953,-672.852,-270.020
1742115419.340,999.512,18.555,-674.805,999.512
1742115419.343,999.512,12.207,-660.645,999.512
1742115419.347,229.004,8.789,-607.422,306.152
1742115419.351,-1000.000,6.836,-568.359,-1000.000
1742115419.355,-205.078,27.344,-534.180,-160.645
1742115419.359,999.512,43.457,-500.488,999.512
1742115419.362,999.512,35.645,-494.629,999.512
1742115419.366,222.168,2.441,-488.770,320.312
1742115419.370,-1000.000,-26.367,-395.508,-1000.000
1742115419.374,-203.125,0.488,-323.730,-179.199
1742115419.378,999.512,14.648,27.344,999.512
1742115419.382,999.512,-7.324,441.895,999.512
1742115419.386,244.141,-22.949,337.402,294.434
1742115419.389,-1000.000,-20.996,256.348,-1000.000
1742115419.393,-389.648,-20.020,303.223,-396.484
1742115419.397,934.570,-26.855,278.320,938.965
1742115419.401,999.512,3.906,133.301,999.512
1742115419.405,177.246,13.184,-49.316,148.926
1742115419.362,999.512,35.645,-494.629,999.512
1742115419.366,222.168,2.441,-488.770,320.312
1742115419.370,-1000.000,-26.367,-395.508,-1000.000
1742115419.374,-203.125,0.488,-323.730,-179.199
1742115419.378,999.512,14.648,27.344,999.512
1742115419.382,999.512,-7.324,441.895,999.512
1742115419.386,244.141,-22.949,337.402,294.434
1742115419.389,-1000.000,-20.996,256.348,-1000.000
1742115419.393,-389.648,-20.020,303.223,-396.484
1742115419.397,934.570,-26.855,278.320,938.965
1742115419.401,999.512,3.906,133.301,999.512
1742115419.405,177.246,13.184,-49.316,148.926
1742115419.406,-1000.000,-3.906,-147.461,-1000.000
1742115419.410,-368.652,10.742,-155.762,-383.789
1742115419.414,931.152,16.113,-224.609,918.945
1742115419.418,999.512,-7.812,-298.828,999.512
1742115419.422,218.750,-8.301,-291.504,216.797
1742115419.426,-1000.000,27.832,-225.586,-1000.000
1742115419.430,-205.566,44.434,-196.777,-281.738
1742115419.433,999.512,11.719,-177.246,996.094
1742115419.437,999.512,-5.859,-168.457,999.512
1742115419.441,221.680,4.883,-193.848,90.820
1742115419.445,-1000.000,-1.465,-208.984,-1000.000
1742115419.449,-220.215,-17.090,-248.535,-323.730
1742115419.406,-1000.000,-3.906,-147.461,-1000.000
1742115419.410,-368.652,10.742,-155.762,-383.789
1742115419.414,931.152,16.113,-224.609,918.945
1742115419.418,999.512,-7.812,-298.828,999.512
1742115419.422,218.750,-8.301,-291.504,216.797
1742115419.426,-1000.000,27.832,-225.586,-1000.000
1742115419.430,-205.566,44.434,-196.777,-281.738
1742115419.433,999.512,11.719,-177.246,996.094
1742115419.437,999.512,-5.859,-168.457,999.512
1742115419.441,221.680,4.883,-193.848,90.820
1742115419.445,-1000.000,-1.465,-208.984,-1000.000
1742115419.449,-220.215,-17.090,-248.535,-323.730
1742115419.466,999.512,-50.293,-292.969,999.512
1742115419.470,999.512,-73.730,-301.758,861.328
1742115419.474,-137.695,-88.867,-268.555,-386.230
1742115419.478,-1000.000,-112.793,-247.559,-1000.000
1742115419.482,229.004,-136.719,-257.324,-86.426
1742115419.486,999.512,-154.297,-278.320,959.961
1742115419.490,205.566,-181.152,-266.113,-136.719
1742115419.493,569.336,-220.703,-212.402,-142.090
1742115419.497,-288.574,-242.676,-197.754,-648.926
1742115419.501,-466.797,-243.652,-197.266,-1000.000
1742115419.505,999.512,-198.242,-202.148,449.707
1742115419.509,302.246,-187.012,-174.316,312.500
1742115419.466,999.512,-50.293,-292.969,999.512
1742115419.470,999.512,-73.730,-301.758,861.328
1742115419.474,-137.695,-88.867,-268.555,-386.230
1742115419.478,-1000.000,-112.793,-247.559,-1000.000
1742115419.482,229.004,-136.719,-257.324,-86.426
1742115419.486,999.512,-154.297,-278.320,959.961
1742115419.490,205.566,-181.152,-266.113,-136.719
1742115419.493,569.336,-220.703,-212.402,-142.090
1742115419.497,-288.574,-242.676,-197.754,-648.926
1742115419.501,-466.797,-243.652,-197.266,-1000.000
1742115419.505,999.512,-198.242,-202.148,449.707
1742115419.509,302.246,-187.012,-174.316,312.500
1742115419.511,-1000.000,-208.008,-96.680,-1000.000
1742115419.515,-129.883,-159.180,-52.246,-434.082
1742115419.519,999.512,-93.750,-50.293,999.512
1742115419.523,184.570,-97.168,-21.484,103.027
1742115419.527,-1000.000,-81.543,29.297,-1000.000
1742115419.531,-62.988,-1.465,66.406,-365.234
1742115419.535,999.512,41.504,78.125,999.512
1742115419.538,200.684,46.387,64.941,39.062
1742115419.542,-1000.000,78.125,44.434,-1000.000
1742115419.546,-348.145,117.188,25.391,-862.305
1742115419.550,999.512,159.668,16.602,645.020
1742115419.554,362.793,144.043,9.766,347.656
1742115419.511,-1000.000,-208.008,-96.680,-1000.000
1742115419.515,-129.883,-159.180,-52.246,-434.082
1742115419.519,999.512,-93.750,-50.293,999.512
1742115419.523,184.570,-97.168,-21.484,103.027
1742115419.527,-1000.000,-81.543,29.297,-1000.000
1742115419.531,-62.988,-1.465,66.406,-365.234
1742115419.535,999.512,41.504,78.125,999.512
1742115419.538,200.684,46.387,64.941,39.062
1742115419.542,-1000.000,78.125,44.434,-1000.000
1742115419.546,-348.145,117.188,25.391,-862.305
1742115419.550,999.512,159.668,16.602,645.020
1742115419.554,362.793,144.043,9.766,347.656
1742115419.556,-1000.000,112.793,-16.113,-1000.000
1742115419.560,-877.930,129.395,-51.270,-1000.000
1742115419.564,708.008,145.020,-49.805,288.574
1742115419.568,786.621,122.559,-29.297,635.742
1742115419.572,-947.754,98.633,-4.395,-984.375
1742115419.576,-828.613,109.863,21.484,-1000.000
1742115419.580,828.125,104.980,100.098,565.430
1742115419.583,879.883,84.473,229.004,734.863
1742115419.587,-583.984,78.613,291.504,-746.582
1742115419.591,-1000.000,52.246,183.594,-1000.000
1742115419.595,-191.406,28.809,312.500,-200.195
1742115419.599,999.512,35.645,652.832,999.512
1742115419.556,-1000.000,112.793,-16.113,-1000.000
1742115419.560,-877.930,129.395,-51.270,-1000.000
1742115419.564,708.008,145.020,-49.805,288.574
1742115419.568,786.621,122.559,-29.297,635.742
1742115419.572,-947.754,98.633,-4.395,-984.375
1742115419.576,-828.613,109.863,21.484,-1000.000
1742115419.580,828.125,104.980,100.098,565.430
1742115419.583,879.883,84.473,229.004,734.863
1742115419.587,-583.984,78.613,291.504,-746.582
1742115419.591,-1000.000,52.246,183.594,-1000.000
1742115419.595,-191.406,28.809,312.500,-200.195
1742115419.599,999.512,35.645,652.832,999.512
1742115419.602,165.527,32.227,513.672,82.031
1742115419.606,-1000.000,4.395,189.941,-1000.000
1742115419.610,-1000.000,-19.531,-76.172,-1000.000
1742115419.614,-249.023,-18.066,-113.281,-393.555
1742115419.618,999.512,-11.719,237.793,999.512
1742115419.622,864.746,-12.207,453.613,776.367
1742115419.626,-457.520,-39.062,83.496,-570.801
1742115419.629,-1000.000,-69.824,-156.250,-1000.000
1742115419.633,-228.516,-62.500,-27.832,-301.758
1742115419.637,999.512,-59.082,-35.156,999.512
1742115419.641,514.648,-70.801,-72.266,432.617
1742115419.645,-1000.000,-79.102,-178.711,-999.023
1742115419.647,-848.633,-64.453,-195.801,-1000.000
1742115419.651,577.637,-40.527,-148.438,232.422
1742115419.655,999.512,-36.621,-48.340,999.512
1742115419.659,880.371,-54.688,221.191,627.441
1742115419.663,-367.188,-81.543,239.258,-592.285
1742115419.667,-1000.000,-80.078,144.531,-1000.000
1742115419.671,59.570,-64.941,66.895,-142.578
1742115419.674,999.512,-63.477,6.348,975.586
1742115419.678,74.219,-60.547,209.961,-327.148
1742115419.682,-1000.000,-58.105,106.934,-1000.000
1742115419.686,-1000.000,-40.039,-283.691,-1000.000
1742115419.690,-98.633,-32.227,-287.598,-292.480
1742115419.647,-848.633,-64.453,-195.801,-1000.000
1742115419.651,577.637,-40.527,-148.438,232.422
1742115419.655,999.512,-36.621,-48.340,999.512
1742115419.659,880.371,-54.688,221.191,627.441
1742115419.663,-367.188,-81.543,239.258,-592.285
1742115419.667,-1000.000,-80.078,144.531,-1000.000
1742115419.671,59.570,-64.941,66.895,-142.578
1742115419.674,999.512,-63.477,6.348,975.586
1742115419.678,74.219,-60.547,209.961,-327.148
1742115419.682,-1000.000,-58.105,106.934,-1000.000
1742115419.686,-1000.000,-40.039,-283.691,-1000.000
1742115419.690,-98.633,-32.227,-287.598,-292.480
1742115419.690,999.512,-42.480,-33.691,999.512
1742115419.694,393.555,-40.039,-165.527,375.000
1742115419.698,-989.746,-37.598,-414.551,-996.094
1742115419.702,-1000.000,-29.785,-438.477,-1000.000
1742115419.706,180.664,-36.621,-175.293,73.730
1742115419.710,999.512,-36.621,232.422,999.512
1742115419.714,287.109,-45.898,154.785,280.762
1742115419.717,-933.594,-57.617,-23.926,-1000.000
1742115419.721,-1000.000,-32.227,153.809,-974.609
1742115419.725,-474.609,-23.926,221.191,-1000.000
1742115419.729,999.512,-40.039,175.781,-77.148
1742115419.733,277.344,-57.129,230.957,71.289
1742115419.690,999.512,-42.480,-33.691,999.512
1742115419.694,393.555,-40.039,-165.527,375.000
1742115419.698,-989.746,-37.598,-414.551,-996.094
1742115419.702,-1000.000,-29.785,-438.477,-1000.000
1742115419.706,180.664,-36.621,-175.293,73.730
1742115419.710,999.512,-36.621,232.422,999.512
1742115419.714,287.109,-45.898,154.785,280.762
1742115419.717,-933.594,-57.617,-23.926,-1000.000
1742115419.721,-1000.000,-32.227,153.809,-974.609
1742115419.725,-474.609,-23.926,221.191,-1000.000
1742115419.729,999.512,-40.039,175.781,-77.148
1742115419.733,277.344,-57.129,230.957,71.289
1742115419.736,-1000.000,-56.152,251.465,-1000.000
1742115419.740,-1000.000,-51.270,248.535,-1000.000
1742115419.744,-339.844,-34.668,207.520,-633.789
1742115419.748,999.512,-34.668,60.547,948.730
1742115419.752,315.430,-62.500,-125.000,371.094
1742115419.756,-1000.000,-62.500,-251.465,-1000.000
1742115419.760,-941.895,-57.129,-438.965,-938.965
1742115419.763,-1000.000,-70.801,-564.941,-1000.000
1742115419.767,-208.008,-65.918,-545.898,-197.266
1742115419.771,999.512,-72.266,-622.070,999.512
1742115419.775,176.758,-102.051,-687.500,116.699
1742115419.779,-1000.000,-103.516,-707.031,-1000.000
1742115419.736,-1000.000,-56.152,251.465,-1000.000
1742115419.740,-1000.000,-51.270,248.535,-1000.000
1742115419.744,-339.844,-34.668,207.520,-633.789
1742115419.748,999.512,-34.668,60.547,948.730
1742115419.752,315.430,-62.500,-125.000,371.094
1742115419.756,-1000.000,-62.500,-251.465,-1000.000
1742115419.760,-941.895,-57.129,-438.965,-938.965
1742115419.763,-1000.000,-70.801,-564.941,-1000.000
1742115419.767,-208.008,-65.918,-545.898,-197.266
1742115419.771,999.512,-72.266,-622.070,999.512
1742115419.775,176.758,-102.051,-687.500,116.699
1742115419.779,-1000.000,-103.516,-707.031,-1000.000
1742115419.796,-995.117,-69.824,-716.309,-962.402
1742115419.800,283.203,-62.012,-688.477,271.484
1742115419.804,999.512,-98.145,-671.387,999.512
1742115419.808,-38.574,-114.746,-670.898,-54.688
1742115419.812,-1000.000,-103.027,-644.043,-1000.000
1742115419.816,-915.527,-77.148,-607.422,-906.738
1742115419.820,333.984,-66.406,-577.148,304.199
1742115419.823,999.512,-85.449,-548.828,999.512
1742115419.827,97.656,-101.562,-546.875,38.086
1742115419.831,-1000.000,-114.258,-523.438,-1000.000
1742115419.835,-1000.000,-106.934,-485.840,-1000.000
1742115419.839,-266.602,-74.707,-472.168,-298.340
1742115419.796,-995.117,-69.824,-716.309,-962.402
1742115419.800,283.203,-62.012,-688.477,271.484
1742115419.804,999.512,-98.145,-671.387,999.512
1742115419.808,-38.574,-114.746,-670.898,-54.688
1742115419.812,-1000.000,-103.027,-644.043,-1000.000
1742115419.816,-915.527,-77.148,-607.422,-906.738
1742115419.820,333.984,-66.406,-577.148,304.199
1742115419.823,999.512,-85.449,-548.828,999.512
1742115419.827,97.656,-101.562,-546.875,38.086
1742115419.831,-1000.000,-114.258,-523.438,-1000.000
1742115419.835,-1000.000,-106.934,-485.840,-1000.000
1742115419.839,-266.602,-74.707,-472.168,-298.340
1742115419.841,999.512,-47.852,-462.891,999.512
1742115419.845,566.406,-79.102,-440.918,632.812
1742115419.849,-806.152,-119.141,-422.852,-709.473
1742115419.853,-1000.000,-115.234,-414.062,-1000.000
1742115419.857,-368.652,-91.309,-407.715,-370.117
1742115419.861,999.512,-61.035,-401.855,999.512
1742115419.865,641.113,-66.895,-388.184,686.523
1742115419.868,-775.879,-108.398,-384.277,-696.777
1742115419.872,-1000.000,-122.070,-367.188,-1000.000
1742115419.876,-828.613,-115.234,-336.914,-778.320
1742115419.880,602.051,-105.957,-329.102,600.586
1742115419.884,922.852,-102.051,-322.754,925.293
1742115419.841,999.512,-47.852,-462.891,999.512
1742115419.845,566.406,-79.102,-440.918,632.812
1742115419.849,-806.152,-119.141,-422.852,-709.473
1742115419.853,-1000.000,-115.234,-414.062,-1000.000
1742115419.857,-368.652,-91.309,-407.715,-370.117
1742115419.861,999.512,-61.035,-401.855,999.512
1742115419.865,641.113,-66.895,-388.184,686.523
1742115419.868,-775.879,-108.398,-384.277,-696.777
1742115419.872,-1000.000,-122.070,-367.188,-1000.000
1742115419.876,-828.613,-115.234,-336.914,-778.320
1742115419.880,602.051,-105.957,-329.102,600.586
1742115419.884,922.852,-102.051,-322.754,925.293
1742115419.886,-600.586,-67.871,-310.547,-524.902
1742115419.890,-1000.000,-60.059,-302.734,-1000.000
1742115419.894,-1000.000,-109.863,-301.758,-935.547
1742115419.898,167.969,-105.469,-294.434,242.188
1742115419.902,999.512,-86.914,-277.832,999.512
1742115419.906,-150.391,-100.098,-276.367,-155.273
1742115419.910,-1000.000,-91.309,-254.883,-1000.000
1742115419.913,-1000.000,-88.379,-230.957,-1000.000
1742115419.917,-125.977,-108.887,-205.078,-77.148
1742115419.921,999.512,-106.934,-170.410,999.512
1742115419.925,173.828,-102.051,-162.598,143.555
1742115419.929,-1000.000,-105.957,-171.387,-1000.000
1742115419.886,-600.586,-67.871,-310.547,-524.902
1742115419.890,-1000.000,-60.059,-302.734,-1000.000
1742115419.894,-1000.000,-109.863,-301.758,-935.547
1742115419.898,167.969,-105.469,-294.434,242.188
1742115419.902,999.512,-86.914,-277.832,999.512
1742115419.906,-150.391,-100.098,-276.367,-155.273
1742115419.910,-1000.000,-91.309,-254.883,-1000.000
1742115419.913,-1000.000,-88.379,-230.957,-1000.000
1742115419.917,-125.977,-108.887,-205.078,-77.148
1742115419.921,999.512,-106.934,-170.410,999.512
1742115419.925,173.828,-102.051,-162.598,143.555
1742115419.929,-1000.000,-105.957,-171.387,-1000.000
1742115419.931,-1000.000,-105.957,-168.945,-991.211
1742115419.935,106.445,-95.215,-166.016,167.480
1742115419.939,999.512,-99.609,-166.016,999.512
1742115419.943,124.512,-111.328,-166.504,92.773
1742115419.947,-1000.000,-110.840,-167.480,-1000.000
1742115419.951,-1000.000,-100.586,-165.039,-976.074
1742115419.955,205.566,-93.750,-166.992,280.762
1742115419.958,999.512,-99.609,-157.227,999.512
1742115419.962,-211.426,-117.676,-149.414,-261.230
1742115419.966,-1000.000,-133.789,-145.996,-1000.000
1742115419.970,-1000.000,-125.488,-133.301,-1000.000
1742115419.974,-251.953,-106.934,-124.512,-193.848
1742115419.931,-1000.000,-105.957,-168.945,-991.211
1742115419.935,106.445,-95.215,-166.016,167.480
1742115419.939,999.512,-99.609,-166.016,999.512
1742115419.943,124.512,-111.328,-166.504,92.773
1742115419.947,-1000.000,-110.840,-167.480,-1000.000
1742115419.951,-1000.000,-100.586,-165.039,-976.074
1742115419.955,205.566,-93.750,-166.992,280.762
1742115419.958,999.512,-99.609,-157.227,999.512
1742115419.962,-211.426,-117.676,-149.414,-261.230
1742115419.966,-1000.000,-133.789,-145.996,-1000.000
1742115419.970,-1000.000,-125.488,-133.301,-1000.000
1742115419.974,-251.953,-106.934,-124.512,-193.848
1742115419.976,999.512,-92.773,-128.906,999.512
1742115419.980,222.656,-86.914,-143.066,259.277
1742115419.984,-997.070,-121.582,-155.762,-981.934
1742115419.988,-1000.000,-139.160,-156.250,-1000.000
1742115419.992,-577.148,-111.328,-140.625,-651.855
1742115419.996,999.512,-78.613,-128.418,905.273
1742115420.000,515.625,-89.844,-134.277,490.723
1742115420.003,-999.023,-113.770,-145.020,-1000.000
1742115420.007,-956.543,-93.750,-146.973,-944.336
1742115420.011,-1000.000,-76.660,-146.484,-1000.000
1742115420.015,-323.242,-78.125,-138.184,-432.129
1742115420.019,999.512,-91.797,-130.859,999.512
1742115419.976,999.512,-92.773,-128.906,999.512
1742115419.980,222.656,-86.914,-143.066,259.277
1742115419.984,-997.070,-121.582,-155.762,-981.934
1742115419.988,-1000.000,-139.160,-156.250,-1000.000
1742115419.992,-577.148,-111.328,-140.625,-651.855
1742115419.996,999.512,-78.613,-128.418,905.273
1742115420.000,515.625,-89.844,-134.277,490.723
1742115420.003,-999.023,-113.770,-145.020,-1000.000
1742115420.007,-956.543,-93.750,-146.973,-944.336
1742115420.011,-1000.000,-76.660,-146.484,-1000.000
1742115420.015,-323.242,-78.125,-138.184,-432.129
1742115420.019,999.512,-91.797,-130.859,999.512
1742115420.021,153.320,-107.422,-143.066,64.453
1742115420.025,-1000.000,-103.027,-157.227,-1000.000
1742115420.029,-1000.000,-92.773,-152.344,-997.559
1742115420.033,-691.406,-82.520,-146.973,-888.672
1742115420.037,885.742,-67.383,-151.855,625.977
1742115420.041,677.246,-84.961,-141.113,630.859
1742115420.045,-847.168,-106.934,-135.742,-896.973
1742115420.048,-1000.000,-101.074,-147.949,-1000.000
1742115420.052,-996.094,-100.586,-157.227,-1000.000
1742115420.056,290.039,-89.844,-146.973,200.195
1742115420.060,999.512,-82.031,-131.348,923.340
1742115420.064,-427.734,-87.402,-140.137,-520.020
1742115420.021,153.320,-107.422,-143.066,64.453
1742115420.025,-1000.000,-103.027,-157.227,-1000.000
1742115420.029,-1000.000,-92.773,-152.344,-997.559
1742115420.033,-691.406,-82.520,-146.973,-888.672
1742115420.037,885.742,-67.383,-151.855,625.977
1742115420.041,677.246,-84.961,-141.113,630.859
1742115420.045,-847.168,-106.934,-135.742,-896.973
1742115420.048,-1000.000,-101.074,-147.949,-1000.000
1742115420.052,-996.094,-100.586,-157.227,-1000.000
1742115420.056,290.039,-89.844,-146.973,200.195
1742115420.060,999.512,-82.031,-131.348,923.340
1742115420.064,-427.734,-87.402,-140.137,-520.020
1742115420.066,-1000.000,-74.219,-147.461,-1000.000
1742115420.070,-669.922,-58.594,-134.277,-758.301
1742115420.074,894.531,-52.246,-125.000,745.605
1742115420.078,572.266,-83.008,-126.465,559.570
1742115420.082,-921.875,-111.816,-121.094,-908.691
1742115420.086,-1000.000,-104.492,-120.605,-1000.000
1742115420.090,-250.000,-90.820,-126.465,-316.406
1742115420.093,999.512,-80.078,-122.070,999.512
1742115420.097,248.047,-79.590,-118.164,278.809
1742115420.101,-1000.000,-88.379,-110.840,-993.652
1742115420.105,-1000.000,-110.352,-120.605,-1000.000
1742115420.109,-380.371,-106.934,-128.418,-437.012
1742115420.066,-1000.000,-74.219,-147.461,-1000.000
1742115420.070,-669.922,-58.594,-134.277,-758.301
1742115420.074,894.531,-52.246,-125.000,745.605
1742115420.078,572.266,-83.008,-126.465,559.570
1742115420.082,-921.875,-111.816,-121.094,-908.691
1742115420.086,-1000.000,-104.492,-120.605,-1000.000
1742115420.090,-250.000,-90.820,-126.465,-316.406
1742115420.093,999.512,-80.078,-122.070,999.512
1742115420.097,248.047,-79.590,-118.164,278.809
1742115420.101,-1000.000,-88.379,-110.840,-993.652
1742115420.105,-1000.000,-110.352,-120.605,-1000.000
1742115420.109,-380.371,-106.934,-128.418,-437.012
1742115420.111,999.512,-87.402,-117.188,999.512
1742115420.115,479.980,-93.750,-114.746,484.375
1742115420.119,-901.855,-93.262,-104.004,-886.719
1742115420.123,-1000.000,-84.961,-107.422,-1000.000
1742115420.127,-444.336,-87.402,-92.773,-496.094
1742115420.131,999.512,-66.406,-87.402,999.512
1742115420.135,585.449,-71.289,-114.746,583.496
1742115420.138,-862.793,-99.609,-113.281,-852.539
1742115420.142,-1000.000,-93.750,-107.910,-1000.000
1742115420.146,-806.152,-79.102,-114.258,-831.543
1742115420.150,569.824,-49.805,-95.215,508.301
1742115420.154,999.512,-48.340,-68.359,997.070
1742115420.111,999.512,-87.402,-117.188,999.512
1742115420.115,479.980,-93.750,-114.746,484.375
1742115420.119,-901.855,-93.262,-104.004,-886.719
1742115420.123,-1000.000,-84.961,-107.422,-1000.000
1742115420.127,-444.336,-87.402,-92.773,-496.094
1742115420.131,999.512,-66.406,-87.402,999.512
1742115420.135,585.449,-71.289,-114.746,583.496
1742115420.138,-862.793,-99.609,-113.281,-852.539
1742115420.142,-1000.000,-93.750,-107.910,-1000.000
1742115420.146,-806.152,-79.102,-114.258,-831.543
1742115420.150,569.824,-49.805,-95.215,508.301
1742115420.154,999.512,-48.340,-68.359,997.070
1742115420.170,-365.723,-63.965,-67.383,-409.668
1742115420.174,-1000.000,-54.688,-87.891,-1000.000
1742115420.178,-836.426,-36.621,-99.609,-838.379
1742115420.182,410.645,-30.762,-96.680,378.906
1742115420.186,999.512,-45.898,-88.867,999.512
1742115420.190,108.398,-51.270,-100.098,50.293
1742115420.194,-1000.000,-48.828,-111.328,-1000.000
1742115420.197,-1000.000,-34.180,-104.980,-1000.000
1742115420.201,-174.805,-26.367,-86.426,-143.555
1742115420.205,999.512,-36.133,-56.641,999.512
1742115420.209,179.199,-48.340,-40.039,181.641
1742115420.213,-1000.000,-57.617,-36.133,-1000.000
1742115420.170,-365.723,-63.965,-67.383,-409.668
1742115420.174,-1000.000,-54.688,-87.891,-1000.000
1742115420.178,-836.426,-36.621,-99.609,-838.379
1742115420.182,410.645,-30.762,-96.680,378.906
1742115420.186,999.512,-45.898,-88.867,999.512
1742115420.190,108.398,-51.270,-100.098,50.293
1742115420.194,-1000.000,-48.828,-111.328,-1000.000
1742115420.197,-1000.000,-34.180,-104.980,-1000.000
1742115420.201,-174.805,-26.367,-86.426,-143.555
1742115420.205,999.512,-36.133,-56.641,999.512
1742115420.209,179.199,-48.340,-40.039,181.641
1742115420.213,-1000.000,-57.617,-36.133,-1000.000
1742115420.216,-1000.000,-46.387,-52.246,-1000.000
1742115420.220,68.359,-35.645,-42.480,103.516
1742115420.224,999.512,-46.875,-33.203,999.512
1742115420.228,65.918,-70.312,-64.453,22.461
1742115420.232,-1000.000,-69.824,-50.293,-1000.000
1742115420.236,-861.816,-46.875,-44.434,-844.238
1742115420.240,498.047,-32.715,-42.969,473.633
1742115420.243,999.512,-18.555,2.930,999.512
1742115420.247,-177.734,-0.488,29.785,-251.953
1742115420.251,-1000.000,34.180,38.574,-1000.000
1742115420.255,-1000.000,40.527,33.691,-1000.000
1742115420.259,-95.215,-40.527,-20.020,-81.055
1742115420.216,-1000.000,-46.387,-52.246,-1000.000
1742115420.220,68.359,-35.645,-42.480,103.516
1742115420.224,999.512,-46.875,-33.203,999.512
1742115420.228,65.918,-70.312,-64.453,22.461
1742115420.232,-1000.000,-69.824,-50.293,-1000.000
1742115420.236,-861.816,-46.875,-44.434,-844.238
1742115420.240,498.047,-32.715,-42.969,473.633
1742115420.243,999.512,-18.555,2.930,999.512
1742115420.247,-177.734,-0.488,29.785,-251.953
1742115420.251,-1000.000,34.180,38.574,-1000.000
1742115420.255,-1000.000,40.527,33.691,-1000.000
1742115420.259,-95.215,-40.527,-20.020,-81.055
1742115420.260,999.512,-98.633,-47.852,999.512
1742115420.264,175.781,-79.102,-29.297,156.250
1742115420.268,-1000.000,-62.500,-23.438,-1000.000
1742115420.272,-1000.000,-60.547,-31.738,-980.957
1742115420.276,176.270,-45.898,-35.645,196.289
1742115420.280,999.512,-35.645,-34.668,999.512
1742115420.284,145.508,-54.199,-51.758,154.297
1742115420.287,-1000.000,-60.059,-48.340,-1000.000
1742115420.291,-1000.000,-18.066,-24.902,-1000.000
1742115420.295,40.039,1.953,-13.672,118.164
1742115420.299,999.512,-6.836,-0.977,999.512
1742115420.303,586.914,-8.789,0.000,690.430
1742115420.260,999.512,-98.633,-47.852,999.512
1742115420.264,175.781,-79.102,-29.297,156.250
1742115420.268,-1000.000,-62.500,-23.438,-1000.000
1742115420.272,-1000.000,-60.547,-31.738,-980.957
1742115420.276,176.270,-45.898,-35.645,196.289
1742115420.280,999.512,-35.645,-34.668,999.512
1742115420.284,145.508,-54.199,-51.758,154.297
1742115420.287,-1000.000,-60.059,-48.340,-1000.000
1742115420.291,-1000.000,-18.066,-24.902,-1000.000
1742115420.295,40.039,1.953,-13.672,118.164
1742115420.299,999.512,-6.836,-0.977,999.512
1742115420.303,586.914,-8.789,0.000,690.430
1742115420.305,-903.809,-11.719,-15.625,-786.133
1742115420.309,-933.105,-16.602,-30.762,-829.590
1742115420.313,582.031,-2.441,-48.828,697.266
1742115420.317,989.258,-0.488,-53.223,975.098
1742115420.321,999.512,-9.277,-44.434,986.328
1742115420.325,412.598,1.465,-31.738,717.773
1742115420.329,-1000.000,-20.996,-23.926,-793.945
1742115420.332,-984.375,-48.340,-31.738,-919.434
1742115420.336,395.996,-41.992,-17.578,544.434
1742115420.340,999.512,-26.367,1.465,990.723
1742115420.344,999.512,-18.555,-11.719,999.512
1742115420.348,86.914,-2.930,-0.977,128.906
1742115420.351,-1000.000,18.555,-5.371,-1000.000
1742115420.355,85.938,20.020,-33.203,274.902
1742115420.359,999.512,30.762,-29.297,999.512
1742115420.363,999.512,82.031,-18.555,999.512
1742115420.367,173.340,107.422,17.578,463.379
1742115420.371,-1000.000,123.047,50.293,-871.094
1742115420.375,75.195,171.875,70.312,285.645
1742115420.378,999.512,183.594,101.562,999.512
1742115420.382,999.512,205.078,105.957,999.512
1742115420.386,166.016,217.773,89.844,367.676
1742115420.390,-1000.000,209.961,83.008,-1000.000
1742115420.394,-188.477,238.281,75.684,-41.504
1742115420.395,999.512,231.445,53.223,999.512
1742115420.399,999.512,193.359,48.340,999.512
1742115420.403,-135.254,156.250,62.988,39.551
1742115420.407,-1000.000,114.258,85.449,-1000.000
1742115420.411,-214.355,98.633,93.262,-252.930
1742115420.415,999.512,95.215,58.594,999.512
1742115420.419,999.512,80.566,21.484,998.047
1742115420.422,-208.496,44.922,12.207,-190.918
1742115420.426,-1000.000,24.902,16.113,-1000.000
1742115420.430,-143.066,32.227,-8.789,-14.648
1742115420.434,999.512,20.020,-41.504,999.512
1742115420.438,999.512,-2.441,-46.875,994.141
1742115420.395,999.512,231.445,53.223,999.512
1742115420.399,999.512,193.359,48.340,999.512
1742115420.403,-135.254,156.250,62.988,39.551
1742115420.407,-1000.000,114.258,85.449,-1000.000
1742115420.411,-214.355,98.633,93.262,-252.930
1742115420.415,999.512,95.215,58.594,999.512
1742115420.419,999.512,80.566,21.484,998.047
1742115420.422,-208.496,44.922,12.207,-190.918
1742115420.426,-1000.000,24.902,16.113,-1000.000
1742115420.430,-143.066,32.227,-8.789,-14.648
1742115420.434,999.512,20.020,-41.504,999.512
1742115420.438,999.512,-2.441,-46.875,994.141
1742115420.440,-160.156,-28.320,-72.266,-82.520
1742115420.444,-1000.000,-47.363,-120.117,-1000.000
1742115420.448,-168.457,-42.969,-133.789,-143.066
1742115420.452,985.840,-43.945,-123.535,999.512
1742115420.456,999.512,-62.012,-115.234,999.512
1742115420.460,123.047,-103.027,-100.586,99.121
1742115420.464,-1000.000,-137.695,-102.051,-1000.000
1742115420.467,-316.895,-110.840,-121.582,-337.402
1742115420.471,999.512,-85.938,-141.113,999.512
1742115420.475,838.379,-106.934,-159.668,810.059
1742115420.479,-496.582,-139.648,-169.434,-477.539
1742115420.483,-1000.000,-165.527,-193.848,-1000.000
1742115420.440,-160.156,-28.320,-72.266,-82.520
1742115420.444,-1000.000,-47.363,-120.117,-1000.000
1742115420.448,-168.457,-42.969,-133.789,-143.066
1742115420.452,985.840,-43.945,-123.535,999.512
1742115420.456,999.512,-62.012,-115.234,999.512
1742115420.460,123.047,-103.027,-100.586,99.121
1742115420.464,-1000.000,-137.695,-102.051,-1000.000
1742115420.467,-316.895,-110.840,-121.582,-337.402
1742115420.471,999.512,-85.938,-141.113,999.512
1742115420.475,838.379,-106.934,-159.668,810.059
1742115420.479,-496.582,-139.648,-169.434,-477.539
1742115420.483,-1000.000,-165.527,-193.848,-1000.000
1742115420.487,-271.484,-151.855,-201.172,-344.727
1742115420.491,990.723,-152.344,-204.102,984.375
1742115420.495,994.629,-168.457,-193.848,916.992
1742115420.499,-240.723,-167.969,-163.574,-321.777
1742115420.503,-1000.000,-149.414,-150.879,-1000.000
1742115420.507,-286.133,-118.164,-126.953,-365.723
1742115420.511,999.512,-122.070,-125.000,999.512
1742115420.514,725.098,-149.414,-123.047,683.594
1742115420.518,-661.621,-144.043,-120.117,-695.801
1742115420.522,-1000.000,-134.766,-134.277,-1000.000
1742115420.526,-812.500,-129.883,-149.414,-899.414
1742115420.530,448.730,-112.305,-162.598,320.312
1742115420.487,-271.484,-151.855,-201.172,-344.727
1742115420.491,990.723,-152.344,-204.102,984.375
1742115420.495,994.629,-168.457,-193.848,916.992
1742115420.499,-240.723,-167.969,-163.574,-321.777
1742115420.503,-1000.000,-149.414,-150.879,-1000.000
1742115420.507,-286.133,-118.164,-126.953,-365.723
1742115420.511,999.512,-122.070,-125.000,999.512
1742115420.514,725.098,-149.414,-123.047,683.594
1742115420.518,-661.621,-144.043,-120.117,-695.801
1742115420.522,-1000.000,-134.766,-134.277,-1000.000
1742115420.526,-812.500,-129.883,-149.414,-899.414
1742115420.530,448.730,-112.305,-162.598,320.312
1742115420.545,999.512,-124.023,-161.133,999.512
1742115420.549,28.320,-131.836,-140.137,-94.727
1742115420.553,-1000.000,-107.910,-121.094,-1000.000
1742115420.557,-1000.000,-108.887,-134.766,-1000.000
1742115420.561,-153.809,-115.723,-129.883,-189.941
1742115420.565,999.512,-108.398,-97.168,999.512
1742115420.569,231.445,-105.469,-101.562,251.465
1742115420.572,-1000.000,-85.938,-107.422,-1000.000
1742115420.576,-1000.000,-80.078,-102.539,-1000.000
1742115420.580,-223.145,-68.848,-83.008,-197.266
1742115420.584,999.512,-64.453,-55.176,999.512
1742115420.588,187.988,-96.191,-76.660,202.637
1742115420.545,999.512,-124.023,-161.133,999.512
1742115420.549,28.320,-131.836,-140.137,-94.727
1742115420.553,-1000.000,-107.910,-121.094,-1000.000
1742115420.557,-1000.000,-108.887,-134.766,-1000.000
1742115420.561,-153.809,-115.723,-129.883,-189.941
1742115420.565,999.512,-108.398,-97.168,999.512
1742115420.569,231.445,-105.469,-101.562,251.465
1742115420.572,-1000.000,-85.938,-107.422,-1000.000
1742115420.576,-1000.000,-80.078,-102.539,-1000.000
1742115420.580,-223.145,-68.848,-83.008,-197.266
1742115420.584,999.512,-64.453,-55.176,999.512
1742115420.588,187.988,-96.191,-76.660,202.637
1742115421.086,-962.891,-37.109,-102.539,-950.195
1742115421.090,-1000.000,-36.133,-105.469,-1000.000
1742115421.094,-406.738,-20.508,-108.887,-486.328
1742115421.098,900.879,-11.719,-107.422,862.305
1742115421.102,999.512,-18.066,-101.074,999.512
1742115421.106,-76.660,-27.832,-74.707,-174.805
1742115421.110,-1000.000,-42.480,-69.336,-1000.000
1742115421.113,-1000.000,-37.109,-94.238,-1000.000
1742115421.117,-31.250,-27.344,-111.328,-66.895
1742115421.121,999.512,-34.180,-106.934,999.512
1742115421.125,168.945,-43.457,-92.773,201.660
1742115421.129,-1000.000,-33.203,-85.938,-1000.000
1742115420.591,-1000.000,-99.121,-114.258,-1000.000
1742115420.595,-1000.000,-86.426,-125.977,-1000.000
1742115420.599,-255.371,-77.148,-114.746,-229.492
1742115420.603,999.512,-65.918,-96.680,999.512
1742115420.607,296.387,-79.590,-96.680,296.387
1742115420.611,-987.793,-87.402,-104.004,-981.445
1742115420.615,-1000.000,-80.566,-101.074,-1000.000
1742115420.618,-253.418,-76.660,-101.562,-249.512
1742115420.622,999.512,-62.988,-124.512,999.512
1742115420.626,304.688,-82.031,-144.043,312.012
1742115420.630,-985.352,-99.609,-127.441,-977.051
1742115420.634,-1000.000,-91.797,-116.211,-1000.000
1742115420.591,-1000.000,-99.121,-114.258,-1000.000
1742115420.595,-1000.000,-86.426,-125.977,-1000.000
1742115420.599,-255.371,-77.148,-114.746,-229.492
1742115420.603,999.512,-65.918,-96.680,999.512
1742115420.607,296.387,-79.590,-96.680,296.387
1742115420.611,-987.793,-87.402,-104.004,-981.445
1742115420.615,-1000.000,-80.566,-101.074,-1000.000
1742115420.618,-253.418,-76.660,-101.562,-249.512
1742115420.622,999.512,-62.988,-124.512,999.512
1742115420.626,304.688,-82.031,-144.043,312.012
1742115420.630,-985.352,-99.609,-127.441,-977.051
1742115420.634,-1000.000,-91.797,-116.211,-1000.000
1742115420.635,-249.023,-71.777,-122.559,-250.488
1742115420.639,999.512,-53.711,-121.582,999.512
1742115420.643,656.738,-50.781,-109.863,620.117
1742115420.647,-727.051,-59.570,-118.652,-723.145
1742115420.651,-1000.000,-58.594,-124.023,-1000.000
1742115420.655,-229.004,-52.246,-89.355,-212.402
1742115420.659,999.512,-44.434,-67.383,999.512
1742115420.662,349.121,-63.965,-62.988,342.285
1742115420.666,-964.844,-83.008,-34.668,-959.473
1742115420.670,-1000.000,-69.824,-24.902,-1000.000
1742115420.674,-235.840,-62.012,-11.230,-239.746
1742115420.678,999.512,-69.336,13.184,999.512
1742115420.635,-249.023,-71.777,-122.559,-250.488
1742115420.639,999.512,-53.711,-121.582,999.512
1742115420.643,656.738,-50.781,-109.863,620.117
1742115420.647,-727.051,-59.570,-118.652,-723.145
1742115420.651,-1000.000,-58.594,-124.023,-1000.000
1742115420.655,-229.004,-52.246,-89.355,-212.402
1742115420.659,999.512,-44.434,-67.383,999.512
1742115420.662,349.121,-63.965,-62.988,342.285
1742115420.666,-964.844,-83.008,-34.668,-959.473
1742115420.670,-1000.000,-69.824,-24.902,-1000.000
1742115420.674,-235.840,-62.012,-11.230,-239.746
1742115420.678,999.512,-69.336,13.184,999.512
1742115420.680,761.230,-75.195,6.836,717.285
1742115420.684,-571.289,-61.035,12.695,-586.914
1742115420.688,-1000.000,-56.641,31.250,-1000.000
1742115420.692,-562.500,-76.172,35.156,-663.574
1742115420.696,735.840,-76.660,27.344,607.422
1742115420.700,999.512,-67.871,0.488,999.512
1742115420.704,174.805,-74.219,-3.906,100.586
1742115420.707,-1000.000,-67.383,3.418,-1000.000
1742115420.711,-846.191,-65.430,19.531,-877.441
1742115420.715,491.211,-67.383,56.641,390.625
1742115420.719,999.512,-63.477,93.262,999.512
1742115420.723,123.047,-57.129,101.562,109.375
1742115420.725,-1000.000,-52.734,84.473,-1000.000
1742115420.729,-1000.000,-64.453,43.457,-1000.000
1742115420.733,-219.727,-67.383,18.555,-186.523
1742115420.737,999.512,-47.852,-10.254,999.512
1742115420.741,270.508,-62.988,-42.969,295.410
1742115420.745,-993.164,-96.191,-62.500,-975.586
1742115420.749,-1000.000,-109.863,-66.895,-1000.000
1742115420.752,-251.953,-109.863,-75.195,-254.883
1742115420.756,999.512,-89.844,-99.121,999.512
1742115420.760,646.484,-83.008,-90.820,636.719
1742115420.764,-737.793,-90.820,-90.820,-708.496
1742115420.768,-1000.000,-89.844,-57.617,-1000.000
1742115420.725,-1000.000,-52.734,84.473,-1000.000
1742115420.729,-1000.000,-64.453,43.457,-1000.000
1742115420.733,-219.727,-67.383,18.555,-186.523
1742115420.737,999.512,-47.852,-10.254,999.512
1742115420.741,270.508,-62.988,-42.969,295.410
1742115420.745,-993.164,-96.191,-62.500,-975.586
1742115420.749,-1000.000,-109.863,-66.895,-1000.000
1742115420.752,-251.953,-109.863,-75.195,-254.883
1742115420.756,999.512,-89.844,-99.121,999.512
1742115420.760,646.484,-83.008,-90.820,636.719
1742115420.764,-737.793,-90.820,-90.820,-708.496
1742115420.768,-1000.000,-89.844,-57.617,-1000.000
1742115420.804,-232.422,-77.637,-17.578,-209.473
1742115420.808,999.512,-74.219,-39.062,999.512
1742115420.812,522.949,-95.215,-56.152,541.992
1742115420.816,-860.840,-106.934,-91.309,-803.223
1742115420.820,-1000.000,-94.727,-151.855,-1000.000
1742115420.824,-232.422,-71.777,-171.387,-229.980
1742115420.828,999.512,-58.594,-143.066,999.512
1742115420.831,642.578,-82.520,-113.281,636.230
1742115420.835,-729.492,-92.285,-125.977,-682.617
1742115420.839,-1000.000,-81.055,-145.996,-1000.000
1742115420.843,-290.527,-62.988,-129.883,-355.957
1742115420.847,994.141,-51.270,-115.723,980.957
1742115420.804,-232.422,-77.637,-17.578,-209.473
1742115420.808,999.512,-74.219,-39.062,999.512
1742115420.812,522.949,-95.215,-56.152,541.992
1742115420.816,-860.840,-106.934,-91.309,-803.223
1742115420.820,-1000.000,-94.727,-151.855,-1000.000
1742115420.824,-232.422,-71.777,-171.387,-229.980
1742115420.828,999.512,-58.594,-143.066,999.512
1742115420.831,642.578,-82.520,-113.281,636.230
1742115420.835,-729.492,-92.285,-125.977,-682.617
1742115420.839,-1000.000,-81.055,-145.996,-1000.000
1742115420.843,-290.527,-62.988,-129.883,-355.957
1742115420.847,994.141,-51.270,-115.723,980.957
1742115420.847,999.512,-59.570,-104.492,999.512
1742115420.851,35.645,-73.730,-76.172,-15.137
1742115420.855,598.633,-50.293,17.578,612.793
1742115420.859,364.746,-44.922,26.855,374.512
1742115420.863,-1000.000,-73.730,-26.367,-1000.000
1742115420.867,-1000.000,-75.195,-23.926,-1000.000
1742115420.871,65.918,-59.082,-18.555,76.172
1742115420.874,999.512,-45.410,0.488,999.512
1742115420.878,128.418,-78.125,24.414,59.570
1742115420.882,-1000.000,-94.238,30.762,-1000.000
1742115420.886,-1000.000,-82.520,28.320,-1000.000
1742115420.890,-188.477,-68.359,11.719,-182.617
1742115420.847,999.512,-59.570,-104.492,999.512
1742115420.851,35.645,-73.730,-76.172,-15.137
1742115420.855,598.633,-50.293,17.578,612.793
1742115420.859,364.746,-44.922,26.855,374.512
1742115420.863,-1000.000,-73.730,-26.367,-1000.000
1742115420.867,-1000.000,-75.195,-23.926,-1000.000
1742115420.871,65.918,-59.082,-18.555,76.172
1742115420.874,999.512,-45.410,0.488,999.512
1742115420.878,128.418,-78.125,24.414,59.570
1742115420.882,-1000.000,-94.238,30.762,-1000.000
1742115420.886,-1000.000,-82.520,28.320,-1000.000
1742115420.890,-188.477,-68.359,11.719,-182.617
1742115420.906,999.512,-45.410,-4.883,999.512
1742115420.910,208.496,-55.664,-21.484,227.051
1742115420.914,-1000.000,-63.477,-41.504,-1000.000
1742115420.918,-1000.000,-40.527,-13.672,-1000.000
1742115420.922,-246.094,-25.391,4.395,-215.820
1742115420.926,999.512,-54.199,-28.320,999.512
1742115420.930,721.191,-75.195,-15.137,696.289
1742115420.933,-645.996,-58.105,-7.812,-613.281
1742115420.937,-1000.000,-44.434,9.277,-1000.000
1742115420.941,-262.207,-27.832,21.484,-333.984
1742115420.945,999.512,-4.395,19.531,999.512
1742115420.949,690.430,-20.020,37.109,675.293
1742115420.906,999.512,-45.410,-4.883,999.512
1742115420.910,208.496,-55.664,-21.484,227.051
1742115420.914,-1000.000,-63.477,-41.504,-1000.000
1742115420.918,-1000.000,-40.527,-13.672,-1000.000
1742115420.922,-246.094,-25.391,4.395,-215.820
1742115420.926,999.512,-54.199,-28.320,999.512
1742115420.930,721.191,-75.195,-15.137,696.289
1742115420.933,-645.996,-58.105,-7.812,-613.281
1742115420.937,-1000.000,-44.434,9.277,-1000.000
1742115420.941,-262.207,-27.832,21.484,-333.984
1742115420.945,999.512,-4.395,19.531,999.512
1742115420.949,690.430,-20.020,37.109,675.293
1742115420.951,-693.359,-50.293,6.348,-681.152
1742115420.955,-1000.000,-51.270,-12.207,-1000.000
1742115420.959,-210.938,-39.062,3.906,-293.457
1742115420.963,960.449,-29.297,28.320,951.172
1742115420.967,999.512,-34.668,50.781,999.512
1742115420.971,60.059,-54.199,54.199,-41.016
1742115420.975,-1000.000,-52.246,48.340,-1000.000
1742115420.978,-715.332,-19.531,36.133,-736.816
1742115420.982,671.875,-32.227,13.184,604.492
1742115420.986,999.512,-63.477,4.883,999.512
1742115420.990,-67.383,-60.059,-22.949,-133.789
1742115420.994,-1000.000,-41.504,-39.551,-1000.000
1742115420.951,-693.359,-50.293,6.348,-681.152
1742115420.955,-1000.000,-51.270,-12.207,-1000.000
1742115420.959,-210.938,-39.062,3.906,-293.457
1742115420.963,960.449,-29.297,28.320,951.172
1742115420.967,999.512,-34.668,50.781,999.512
1742115420.971,60.059,-54.199,54.199,-41.016
1742115420.975,-1000.000,-52.246,48.340,-1000.000
1742115420.978,-715.332,-19.531,36.133,-736.816
1742115420.982,671.875,-32.227,13.184,604.492
1742115420.986,999.512,-63.477,4.883,999.512
1742115420.990,-67.383,-60.059,-22.949,-133.789
1742115420.994,-1000.000,-41.504,-39.551,-1000.000
1742115420.995,-623.047,-30.273,-20.996,-707.520
1742115420.999,852.051,-20.996,-56.152,739.258
1742115421.003,938.477,-25.391,-103.516,879.395
1742115421.007,-461.914,-30.762,-90.332,-532.715
1742115421.011,-1000.000,-31.738,-61.523,-1000.000
1742115421.015,-725.586,-42.480,-86.914,-828.613
1742115421.019,668.457,-38.086,-119.629,535.156
1742115421.022,999.512,-41.016,-119.629,952.148
1742115421.026,-352.051,-34.668,-131.348,-471.191
1742115421.030,-1000.000,-22.949,-138.184,-1000.000
1742115421.034,-827.148,-13.672,-121.094,-894.043
1742115421.038,423.340,5.859,-111.328,298.340
1742115420.995,-623.047,-30.273,-20.996,-707.520
1742115420.999,852.051,-20.996,-56.152,739.258
1742115421.003,938.477,-25.391,-103.516,879.395
1742115421.007,-461.914,-30.762,-90.332,-532.715
1742115421.011,-1000.000,-31.738,-61.523,-1000.000
1742115421.015,-725.586,-42.480,-86.914,-828.613
1742115421.019,668.457,-38.086,-119.629,535.156
1742115421.022,999.512,-41.016,-119.629,952.148
1742115421.026,-352.051,-34.668,-131.348,-471.191
1742115421.030,-1000.000,-22.949,-138.184,-1000.000
1742115421.034,-827.148,-13.672,-121.094,-894.043
1742115421.038,423.340,5.859,-111.328,298.340
1742115421.041,999.512,0.977,-103.516,999.512
1742115421.045,114.258,-24.902,-93.750,41.504
1742115421.049,-1000.000,-54.688,-85.449,-1000.000
1742115421.053,-1000.000,-54.199,-71.777,-1000.000
1742115421.057,-83.008,-20.508,-48.340,-127.441
1742115421.061,999.512,0.000,-58.105,999.512
1742115421.065,187.500,-32.715,-65.918,213.867
1742115421.068,-1000.000,-65.918,-41.016,-1000.000
1742115421.072,-1000.000,-42.969,-29.785,-1000.000
1742115421.076,-253.418,-11.230,-20.020,-222.168
1742115421.080,999.512,-28.320,-45.898,999.512
1742115421.084,319.336,-46.387,-100.098,331.055
1742115421.132,-1000.000,-26.855,-77.637,-1000.000
1742115421.136,124.023,-21.973,-47.363,132.812
1742115421.140,999.512,-28.809,-60.059,999.512
1742115421.144,189.453,-39.062,-74.219,122.559
1742115421.148,-1000.000,-31.250,-33.691,-1000.000
1742115421.152,-556.641,-30.762,-5.371,-582.520
1742115421.156,999.512,-26.855,-13.672,941.895
1742115421.159,758.301,-25.879,-54.688,746.094
1742115421.163,-668.457,-32.715,-98.633,-648.926
1742115421.167,-1000.000,-26.855,-110.352,-1000.000
1742115421.171,-349.609,-33.691,-95.703,-423.340
1742115421.175,902.344,-48.340,-115.234,866.211
1742115421.175,999.512,-40.527,-134.766,999.512
1742115421.179,38.086,-36.621,-114.746,-8.301
1742115421.183,-1000.000,-38.574,-107.422,-1000.000
1742115421.187,-800.293,-30.273,-125.977,-829.590
1742115421.191,515.625,-33.203,-124.512,444.824
1742115421.195,999.512,-41.504,-100.098,999.512
1742115421.199,144.531,-40.039,-124.512,113.281
1742115421.202,-1000.000,-33.203,-169.434,-1000.000
1742115421.206,-1000.000,-20.996,-150.879,-996.094
1742115421.210,96.191,-16.113,-126.465,122.070
1742115421.214,999.512,-17.090,-117.188,999.512
1742115421.218,249.023,-51.758,-76.660,300.781
1742115421.175,999.512,-40.527,-134.766,999.512
1742115421.179,38.086,-36.621,-114.746,-8.301
1742115421.183,-1000.000,-38.574,-107.422,-1000.000
1742115421.187,-800.293,-30.273,-125.977,-829.590
1742115421.191,515.625,-33.203,-124.512,444.824
1742115421.195,999.512,-41.504,-100.098,999.512
1742115421.199,144.531,-40.039,-124.512,113.281
1742115421.202,-1000.000,-33.203,-169.434,-1000.000
1742115421.206,-1000.000,-20.996,-150.879,-996.094
1742115421.210,96.191,-16.113,-126.465,122.070
1742115421.214,999.512,-17.090,-117.188,999.512
1742115421.218,249.023,-51.758,-76.660,300.781
1742115421.221,-977.539,-61.523,-47.363,-965.820
1742115421.225,-1000.000,-26.367,-50.781,-1000.000
1742115421.229,-164.062,-28.809,-44.922,-115.234
1742115421.233,999.512,-41.504,-52.246,999.512
1742115421.237,334.961,-45.410,-75.684,356.934
1742115421.241,-960.938,-59.570,-86.914,-948.242
1742115421.245,-1000.000,-60.547,-87.402,-1000.000
1742115421.248,-229.980,-30.273,-76.172,-179.688
1742115421.252,999.512,-11.230,-65.918,999.512
1742115421.256,473.633,-33.203,-64.941,496.582
1742115421.260,-895.508,-48.340,-79.102,-841.797
1742115421.264,-1000.000,-31.250,-94.727,-1000.000
1742115421.221,-977.539,-61.523,-47.363,-965.820
1742115421.225,-1000.000,-26.367,-50.781,-1000.000
1742115421.229,-164.062,-28.809,-44.922,-115.234
1742115421.233,999.512,-41.504,-52.246,999.512
1742115421.237,334.961,-45.410,-75.684,356.934
1742115421.241,-960.938,-59.570,-86.914,-948.242
1742115421.245,-1000.000,-60.547,-87.402,-1000.000
1742115421.248,-229.980,-30.273,-76.172,-179.688
1742115421.252,999.512,-11.230,-65.918,999.512
1742115421.256,473.633,-33.203,-64.941,496.582
1742115421.260,-895.508,-48.340,-79.102,-841.797
1742115421.264,-1000.000,-31.250,-94.727,-1000.000
1742115421.281,-220.215,-29.785,-101.562,-178.223
1742115421.285,999.512,-35.156,-77.637,999.512
1742115421.289,829.102,-37.598,-54.688,835.449
1742115421.293,-503.418,-57.129,-63.477,-432.617
1742115421.297,-1000.000,-50.293,-82.031,-1000.000
1742115421.301,-229.004,-21.973,-75.195,-188.477
1742115421.305,999.512,-20.508,-64.453,999.512
1742115421.308,497.559,-47.852,-94.238,548.340
1742115421.312,-883.789,-53.223,-118.164,-799.805
1742115421.316,-1000.000,-43.457,-118.652,-1000.000
1742115421.320,-205.078,-27.344,-115.234,-187.012
1742115421.324,999.512,-20.020,-108.398,999.512
1742115421.281,-220.215,-29.785,-101.562,-178.223
1742115421.285,999.512,-35.156,-77.637,999.512
1742115421.289,829.102,-37.598,-54.688,835.449
1742115421.293,-503.418,-57.129,-63.477,-432.617
1742115421.297,-1000.000,-50.293,-82.031,-1000.000
1742115421.301,-229.004,-21.973,-75.195,-188.477
1742115421.305,999.512,-20.508,-64.453,999.512
1742115421.308,497.559,-47.852,-94.238,548.340
1742115421.312,-883.789,-53.223,-118.164,-799.805
1742115421.316,-1000.000,-43.457,-118.652,-1000.000
1742115421.320,-205.078,-27.344,-115.234,-187.012
1742115421.324,999.512,-20.020,-108.398,999.512
1742115421.314,930.176,-37.598,-94.238,876.465
1742115421.318,-313.477,-38.574,-94.727,-330.078
1742115421.322,-1000.000,-38.574,-93.750,-1000.000
1742115421.326,-387.207,-19.043,-77.637,-441.895
1742115421.330,879.883,-12.695,-95.215,854.004
1742115421.334,999.512,-35.156,-101.562,999.512
1742115421.338,108.887,-55.176,-81.055,20.996
1742115421.341,-1000.000,-70.801,-86.426,-1000.000
1742115421.345,-1000.000,-57.617,-78.613,-1000.000
1742115421.349,53.711,-35.645,-63.965,51.270
1742115421.353,999.512,-26.367,-75.195,999.512
1742115421.357,239.746,-31.738,-104.004,276.855
1742115421.314,930.176,-37.598,-94.238,876.465
1742115421.318,-313.477,-38.574,-94.727,-330.078
1742115421.322,-1000.000,-38.574,-93.750,-1000.000
1742115421.326,-387.207,-19.043,-77.637,-441.895
1742115421.330,879.883,-12.695,-95.215,854.004
1742115421.334,999.512,-35.156,-101.562,999.512
1742115421.338,108.887,-55.176,-81.055,20.996
1742115421.341,-1000.000,-70.801,-86.426,-1000.000
1742115421.345,-1000.000,-57.617,-78.613,-1000.000
1742115421.349,53.711,-35.645,-63.965,51.270
1742115421.353,999.512,-26.367,-75.195,999.512
1742115421.357,239.746,-31.738,-104.004,276.855
1742115421.371,-974.121,-32.715,-105.469,-964.844
1742115421.375,-1000.000,-41.504,-85.449,-1000.000
1742115421.379,-259.277,-37.109,-85.938,-216.309
1742115421.383,999.512,-29.297,-85.449,999.512
1742115421.387,471.191,-48.340,-67.383,490.723
1742115421.391,-881.836,-44.434,-61.523,-830.078
1742115421.395,-1000.000,-52.246,-70.801,-1000.000
1742115421.398,-488.281,-57.617,-67.383,-570.312
1742115421.402,858.887,-36.621,-65.430,781.738
1742115421.406,999.512,-41.504,-81.055,999.512
1742115421.410,-119.629,-54.199,-83.008,-203.125
1742115421.414,-1000.000,-55.664,-77.637,-1000.000
1742115421.371,-974.121,-32.715,-105.469,-964.844
1742115421.375,-1000.000,-41.504,-85.449,-1000.000
1742115421.379,-259.277,-37.109,-85.938,-216.309
1742115421.383,999.512,-29.297,-85.449,999.512
1742115421.387,471.191,-48.340,-67.383,490.723
1742115421.391,-881.836,-44.434,-61.523,-830.078
1742115421.395,-1000.000,-52.246,-70.801,-1000.000
1742115421.398,-488.281,-57.617,-67.383,-570.312
1742115421.402,858.887,-36.621,-65.430,781.738
1742115421.406,999.512,-41.504,-81.055,999.512
1742115421.410,-119.629,-54.199,-83.008,-203.125
1742115421.414,-1000.000,-55.664,-77.637,-1000.000
1742115421.417,-775.391,-50.781,-95.215,-820.801
1742115421.421,540.527,-40.527,-109.863,459.961
1742115421.425,999.512,-41.992,-105.957,999.512
1742115421.429,59.570,-44.922,-118.164,-10.742
1742115421.433,-1000.000,-35.645,-135.742,-1000.000
1742115421.437,-189.941,-33.691,-127.441,-209.473
1742115421.441,996.582,-41.992,-99.121,994.141
1742115421.444,999.512,-62.012,-93.262,999.512
1742115421.448,188.965,-71.777,-105.469,137.695
1742115421.452,-1000.000,-62.988,-114.258,-1000.000
1742115421.456,-454.102,-50.781,-119.141,-454.590
1742115421.460,889.160,-37.109,-123.535,867.188
1742115421.417,-775.391,-50.781,-95.215,-820.801
1742115421.421,540.527,-40.527,-109.863,459.961
1742115421.425,999.512,-41.992,-105.957,999.512
1742115421.429,59.570,-44.922,-118.164,-10.742
1742115421.433,-1000.000,-35.645,-135.742,-1000.000
1742115421.437,-189.941,-33.691,-127.441,-209.473
1742115421.441,996.582,-41.992,-99.121,994.141
1742115421.444,999.512,-62.012,-93.262,999.512
1742115421.448,188.965,-71.777,-105.469,137.695
1742115421.452,-1000.000,-62.988,-114.258,-1000.000
1742115421.456,-454.102,-50.781,-119.141,-454.590
1742115421.460,889.160,-37.109,-123.535,867.188
1742115421.460,999.512,-42.480,-125.488,999.512
1742115421.464,212.891,-76.660,-119.629,208.008
1742115421.468,-1000.000,-93.262,-119.141,-1000.000
1742115421.472,-509.766,-69.824,-112.305,-488.281
1742115421.476,909.180,-48.340,-91.797,906.250
1742115421.480,961.426,-54.199,-69.824,946.289
1742115421.484,999.512,-64.453,-62.500,999.512
1742115421.487,-18.555,-79.102,-33.691,67.871
1742115421.491,-1000.000,-74.707,13.184,-1000.000
1742115421.495,5.859,-52.246,23.926,138.672
1742115421.499,999.512,-48.828,14.648,999.512
1742115421.503,826.172,-50.293,-9.277,912.598
1742115421.460,999.512,-42.480,-125.488,999.512
1742115421.464,212.891,-76.660,-119.629,208.008
1742115421.468,-1000.000,-93.262,-119.141,-1000.000
1742115421.472,-509.766,-69.824,-112.305,-488.281
1742115421.476,909.180,-48.340,-91.797,906.250
1742115421.480,961.426,-54.199,-69.824,946.289
1742115421.484,999.512,-64.453,-62.500,999.512
1742115421.487,-18.555,-79.102,-33.691,67.871
1742115421.491,-1000.000,-74.707,13.184,-1000.000
1742115421.495,5.859,-52.246,23.926,138.672
1742115421.499,999.512,-48.828,14.648,999.512
1742115421.503,826.172,-50.293,-9.277,912.598
1742115421.505,-522.949,-58.105,-20.508,-351.562
1742115421.509,-1000.000,-65.430,-1.953,-1000.000
1742115421.513,203.613,-57.617,6.348,331.543
1742115421.517,999.512,-65.430,0.488,999.512
1742115421.521,988.281,-77.148,-14.648,986.816
1742115421.525,-84.961,-79.102,-28.809,-4.395
1742115421.529,-1000.000,-72.754,-42.480,-1000.000
1742115421.532,-223.633,-63.965,-76.172,-175.781
1742115421.536,999.512,-65.430,-81.055,999.512
1742115421.540,770.996,-66.406,-53.711,774.414
1742115421.544,-585.449,-69.824,-54.688,-526.855
1742115421.548,-1000.000,-80.078,-75.195,-1000.000
1742115421.550,-207.031,-66.895,-77.148,-146.484
1742115421.554,999.512,-54.688,-74.219,999.512
1742115421.558,595.703,-79.590,-63.477,584.473
1742115421.562,-788.574,-85.938,-51.758,-732.422
1742115421.566,-1000.000,-68.848,-70.801,-1000.000
1742115421.570,-252.930,-49.805,-87.891,-310.059
1742115421.574,999.512,-48.340,-100.098,999.512
1742115421.577,416.992,-70.801,-129.395,426.758
1742115421.581,-916.992,-59.570,-146.484,-909.668
1742115421.585,-1000.000,-43.457,-148.438,-1000.000
1742115421.589,-466.309,-43.945,-147.949,-524.902
1742115421.593,883.301,-45.410,-125.488,841.309
1742115421.550,-207.031,-66.895,-77.148,-146.484
1742115421.554,999.512,-54.688,-74.219,999.512
1742115421.558,595.703,-79.590,-63.477,584.473
1742115421.562,-788.574,-85.938,-51.758,-732.422
1742115421.566,-1000.000,-68.848,-70.801,-1000.000
1742115421.570,-252.930,-49.805,-87.891,-310.059
1742115421.574,999.512,-48.340,-100.098,999.512
1742115421.577,416.992,-70.801,-129.395,426.758
1742115421.581,-916.992,-59.570,-146.484,-909.668
1742115421.585,-1000.000,-43.457,-148.438,-1000.000
1742115421.589,-466.309,-43.945,-147.949,-524.902
1742115421.593,883.301,-45.410,-125.488,841.309
1742115421.596,999.512,-62.988,-118.164,999.512
1742115421.600,-175.781,-70.801,-125.977,-249.512
1742115421.604,-1000.000,-68.848,-111.328,-1000.000
1742115421.608,-910.156,-52.734,-96.191,-923.340
1742115421.612,307.617,-38.086,-97.656,257.324
1742115421.616,999.512,-43.945,-113.770,999.512
1742115421.620,124.023,-65.430,-116.211,100.586
1742115421.623,-1000.000,-80.078,-115.234,-1000.000
1742115421.627,-1000.000,-65.430,-107.910,-1000.000
1742115421.631,-215.332,-47.363,-116.699,-180.176
1742115421.635,999.512,-27.344,-118.164,999.512
1742115421.639,388.184,-40.039,-105.957,388.672
1742115421.596,999.512,-62.988,-118.164,999.512
1742115421.600,-175.781,-70.801,-125.977,-249.512
1742115421.604,-1000.000,-68.848,-111.328,-1000.000
1742115421.608,-910.156,-52.734,-96.191,-923.340
1742115421.612,307.617,-38.086,-97.656,257.324
1742115421.616,999.512,-43.945,-113.770,999.512
1742115421.620,124.023,-65.430,-116.211,100.586
1742115421.623,-1000.000,-80.078,-115.234,-1000.000
1742115421.627,-1000.000,-65.430,-107.910,-1000.000
1742115421.631,-215.332,-47.363,-116.699,-180.176
1742115421.635,999.512,-27.344,-118.164,999.512
1742115421.639,388.184,-40.039,-105.957,388.672
1742115421.642,-938.965,-70.801,-119.629,-916.992
1742115421.646,-1000.000,-75.195,-134.277,-1000.000
1742115421.650,-203.125,-63.477,-136.719,-257.324
1742115421.654,999.512,-55.664,-122.559,992.188
1742115421.658,999.512,-50.781,-107.422,965.820
1742115421.662,-156.250,-35.645,-109.863,-188.965
1742115421.666,-1000.000,-34.668,-122.559,-1000.000
1742115421.669,-917.480,-49.316,-125.000,-908.203
1742115421.673,296.387,-53.711,-121.094,287.598
1742115421.677,999.512,-59.082,-108.887,999.512
1742115421.681,191.895,-62.012,-94.727,137.207
1742115421.685,-1000.000,-56.152,-88.867,-1000.000
1742115421.642,-938.965,-70.801,-119.629,-916.992
1742115421.646,-1000.000,-75.195,-134.277,-1000.000
