timestamps,TP9,AF7,AF8,TP10
1742117127.955,-1000.000,-1000.000,-28.320,-1000.000
1742117127.959,-220.703,59.570,-22.461,-254.395
1742117127.963,999.512,999.512,-26.367,999.512
1742117127.967,949.707,921.875,-20.508,956.055
1742117127.971,948.242,915.039,-15.625,946.289
1742117127.975,900.879,880.371,-17.578,902.832
1742117127.979,999.512,999.512,-17.090,999.512
1742117127.982,361.816,257.812,-35.645,371.094
1742117127.986,-1000.000,-1000.000,-48.340,-997.559
1742117127.990,-1000.000,-945.312,-33.203,-1000.000
1742117127.994,-958.984,-1000.000,-17.578,-958.008
1742117127.998,-1000.000,-855.957,-20.996,-1000.000
1742117128.002,-1000.000,533.203,-32.715,-1000.000
1742117128.006,-1000.000,999.512,-32.227,-1000.000
1742117128.010,-1000.000,999.512,-34.180,-1000.000
1742117128.014,-936.035,647.461,-35.156,-932.129
1742117128.018,-1000.000,-962.891,-31.250,-1000.000
1742117128.022,-227.051,-264.160,-36.133,-302.246
1742117128.026,960.449,999.512,-49.805,934.570
1742117128.029,999.512,999.512,-54.199,999.512
1742117128.033,606.445,130.859,-39.551,456.055
1742117128.037,-802.734,-1000.000,-33.203,-896.484
1742117128.041,-1000.000,-990.234,-38.574,-1000.000
1742117128.045,-894.043,-903.809,-37.109,-919.922
1742117128.002,-1000.000,533.203,-32.715,-1000.000
1742117128.006,-1000.000,999.512,-32.227,-1000.000
1742117128.010,-1000.000,999.512,-34.180,-1000.000
1742117128.014,-936.035,647.461,-35.156,-932.129
1742117128.018,-1000.000,-962.891,-31.250,-1000.000
1742117128.022,-227.051,-264.160,-36.133,-302.246
1742117128.026,960.449,999.512,-49.805,934.570
1742117128.029,999.512,999.512,-54.199,999.512
1742117128.033,606.445,130.859,-39.551,456.055
1742117128.037,-802.734,-1000.000,-33.203,-896.484
1742117128.041,-1000.000,-990.234,-38.574,-1000.000
1742117128.045,-894.043,-903.809,-37.109,-919.922
1742117128.045,-1000.000,-1000.000,-33.691,-1000.000
1742117128.049,-932.617,-440.918,-30.273,-1000.000
1742117128.053,427.734,943.848,-21.973,223.145
1742117128.057,999.512,990.234,-36.621,999.512
1742117128.061,900.879,912.109,-56.152,907.227
1742117128.065,968.262,935.059,-61.035,963.867
1742117128.069,913.574,979.980,-58.105,911.621
1742117128.072,999.512,951.660,-48.828,999.512
1742117128.076,70.801,-349.121,-61.523,113.281
1742117128.080,-1000.000,-1000.000,-56.641,-1000.000
1742117128.084,-968.750,-916.504,-43.457,-974.121
1742117128.088,-918.945,-978.516,-49.805,-916.504
1742117128.092,-1000.000,-1000.000,-41.992,-1000.000
1742117128.096,-220.703,109.863,-30.273,-210.449
1742117128.100,999.512,999.512,-34.180,999.512
1742117128.104,950.195,913.086,-35.156,949.219
1742117128.108,939.453,960.449,-25.879,941.406
1742117128.112,910.156,909.668,-10.254,910.645
1742117128.116,999.512,999.512,-3.906,999.512
1742117128.119,186.523,131.836,-12.695,188.477
1742117128.123,-1000.000,-1000.000,-11.230,-1000.000
1742117128.127,-921.387,-995.605,0.000,-922.852
1742117128.131,-1000.000,-938.477,6.348,-1000.000
1742117128.135,-227.539,351.074,10.254,-211.426
1742117128.135,999.512,999.512,10.254,999.512
1742117128.139,950.684,906.250,6.836,949.219
1742117128.143,937.012,908.203,4.883,938.477
1742117128.147,914.551,999.512,2.441,916.016
1742117128.151,999.512,213.867,7.324,999.512
1742117128.155,140.137,-1000.000,8.789,137.695
1742117128.159,-1000.000,-988.281,6.836,-1000.000
1742117128.162,-978.027,-979.004,2.441,-979.004
1742117128.166,-977.051,-973.633,4.883,-976.074
1742117128.170,-943.848,-1000.000,14.160,-944.824
1742117128.174,-1000.000,-988.770,6.348,-1000.000
1742117128.178,-213.867,280.273,14.648,-205.078
1742117128.135,999.512,999.512,10.254,999.512
1742117128.139,950.684,906.250,6.836,949.219
1742117128.143,937.012,908.203,4.883,938.477
1742117128.147,914.551,999.512,2.441,916.016
1742117128.151,999.512,213.867,7.324,999.512
1742117128.155,140.137,-1000.000,8.789,137.695
1742117128.159,-1000.000,-988.281,6.836,-1000.000
1742117128.162,-978.027,-979.004,2.441,-979.004
1742117128.166,-977.051,-973.633,4.883,-976.074
1742117128.170,-943.848,-1000.000,14.160,-944.824
1742117128.174,-1000.000,-988.770,6.348,-1000.000
1742117128.178,-213.867,280.273,14.648,-205.078
1742117128.184,999.512,999.512,19.531,999.512
1742117128.188,954.102,908.691,29.297,956.055
1742117128.192,871.582,907.227,34.180,870.605
1742117128.196,999.512,999.512,15.625,999.512
1742117128.200,273.438,171.387,14.160,333.008
1742117128.204,-1000.000,-1000.000,14.648,-1000.000
1742117128.208,-1000.000,-982.910,3.418,-1000.000
1742117128.211,-915.527,-912.598,5.371,-916.016
1742117128.215,-1000.000,-1000.000,4.883,-1000.000
1742117128.219,-887.695,-239.746,0.000,-913.574
1742117128.223,497.559,999.512,5.859,433.105
1742117128.227,999.512,958.984,3.418,999.512
1742117128.184,999.512,999.512,19.531,999.512
1742117128.188,954.102,908.691,29.297,956.055
1742117128.192,871.582,907.227,34.180,870.605
1742117128.196,999.512,999.512,15.625,999.512
1742117128.200,273.438,171.387,14.160,333.008
1742117128.204,-1000.000,-1000.000,14.648,-1000.000
1742117128.208,-1000.000,-982.910,3.418,-1000.000
1742117128.211,-915.527,-912.598,5.371,-916.016
1742117128.215,-1000.000,-1000.000,4.883,-1000.000
1742117128.219,-887.695,-239.746,0.000,-913.574
1742117128.223,497.559,999.512,5.859,433.105
1742117128.227,999.512,958.984,3.418,999.512
1742117128.226,900.391,924.805,4.395,903.809
1742117128.230,914.062,936.035,6.836,911.621
1742117128.234,999.512,999.512,-0.977,999.512
1742117128.238,171.875,-18.555,-7.324,173.340
1742117128.242,-1000.000,-1000.000,0.488,-1000.000
1742117128.246,-1000.000,-1000.000,10.742,-1000.000
1742117128.250,-720.703,-208.008,15.625,-667.480
1742117128.253,678.711,999.512,13.184,715.332
1742117128.257,999.512,961.426,11.719,999.512
1742117128.261,867.676,868.164,22.461,879.883
1742117128.265,983.398,999.512,33.203,966.797
1742117128.269,981.934,408.203,33.691,999.512
1742117128.226,900.391,924.805,4.395,903.809
1742117128.230,914.062,936.035,6.836,911.621
1742117128.234,999.512,999.512,-0.977,999.512
1742117128.238,171.875,-18.555,-7.324,173.340
1742117128.242,-1000.000,-1000.000,0.488,-1000.000
1742117128.246,-1000.000,-1000.000,10.742,-1000.000
1742117128.250,-720.703,-208.008,15.625,-667.480
1742117128.253,678.711,999.512,13.184,715.332
1742117128.257,999.512,961.426,11.719,999.512
1742117128.261,867.676,868.164,22.461,879.883
1742117128.265,983.398,999.512,33.203,966.797
1742117128.269,981.934,408.203,33.691,999.512
1742117128.287,-320.312,-975.586,22.461,-217.285
1742117128.291,-1000.000,-1000.000,20.996,-1000.000
1742117128.295,-918.945,-917.969,32.715,-926.758
1742117128.299,-968.750,-1000.000,35.645,-961.914
1742117128.303,-1000.000,-862.305,23.926,-1000.000
1742117128.307,45.898,434.082,16.113,26.367
1742117128.311,999.512,999.512,7.812,999.512
1742117128.314,916.504,999.512,-0.977,919.922
1742117128.318,962.402,173.828,4.395,963.867
1742117128.322,900.879,-1000.000,4.883,899.902
1742117128.326,999.512,-980.957,-2.930,999.512
1742117128.330,253.906,-975.586,-7.324,302.734
1742117128.287,-320.312,-975.586,22.461,-217.285
1742117128.291,-1000.000,-1000.000,20.996,-1000.000
1742117128.295,-918.945,-917.969,32.715,-926.758
1742117128.299,-968.750,-1000.000,35.645,-961.914
1742117128.303,-1000.000,-862.305,23.926,-1000.000
1742117128.307,45.898,434.082,16.113,26.367
1742117128.311,999.512,999.512,7.812,999.512
1742117128.314,916.504,999.512,-0.977,919.922
1742117128.318,962.402,173.828,4.395,963.867
1742117128.322,900.879,-1000.000,4.883,899.902
1742117128.326,999.512,-980.957,-2.930,999.512
1742117128.330,253.906,-975.586,-7.324,302.734
1742117128.330,-1000.000,-1000.000,-13.672,-1000.000
1742117128.334,-925.293,-944.824,-6.348,-937.500
1742117128.338,-1000.000,-1000.000,-0.977,-1000.000
1742117128.342,-679.688,-153.809,-13.184,-670.410
1742117128.346,773.926,999.512,-15.625,757.812
1742117128.350,999.512,934.082,-10.742,999.512
1742117128.354,841.309,895.996,-4.395,841.309
1742117128.357,999.512,999.512,0.977,999.512
1742117128.361,209.473,38.574,-10.742,269.043
1742117128.365,-1000.000,-1000.000,-15.625,-1000.000
1742117128.369,-988.281,-960.938,-23.438,-998.535
1742117128.373,-908.691,-927.734,-31.738,-903.809
1742117128.330,-1000.000,-1000.000,-13.672,-1000.000
1742117128.334,-925.293,-944.824,-6.348,-937.500
1742117128.338,-1000.000,-1000.000,-0.977,-1000.000
1742117128.342,-679.688,-153.809,-13.184,-670.410
1742117128.346,773.926,999.512,-15.625,757.812
1742117128.350,999.512,934.082,-10.742,999.512
1742117128.354,841.309,895.996,-4.395,841.309
1742117128.357,999.512,999.512,0.977,999.512
1742117128.361,209.473,38.574,-10.742,269.043
1742117128.365,-1000.000,-1000.000,-15.625,-1000.000
1742117128.369,-988.281,-960.938,-23.438,-998.535
1742117128.373,-908.691,-927.734,-31.738,-903.809
1742117128.377,-1000.000,-1000.000,-27.344,-1000.000
1742117128.381,-220.703,-149.902,-20.508,-220.703
1742117128.385,999.512,985.840,-6.836,999.512
1742117128.389,949.707,999.512,-12.695,950.684
1742117128.393,953.613,62.988,-17.090,952.637
1742117128.397,914.062,-397.949,-9.277,920.410
1742117128.401,999.512,999.512,-12.207,999.512
1742117128.404,774.414,476.562,-29.297,823.730
1742117128.408,-660.645,-991.699,-40.039,-583.984
1742117128.412,-1000.000,-959.473,-30.762,-1000.000
1742117128.416,-1000.000,-1000.000,-21.973,-1000.000
1742117128.420,-784.180,-275.879,-22.461,-757.324
1742117128.377,-1000.000,-1000.000,-27.344,-1000.000
1742117128.381,-220.703,-149.902,-20.508,-220.703
1742117128.385,999.512,985.840,-6.836,999.512
1742117128.389,949.707,999.512,-12.695,950.684
1742117128.393,953.613,62.988,-17.090,952.637
1742117128.397,914.062,-397.949,-9.277,920.410
1742117128.401,999.512,999.512,-12.207,999.512
1742117128.404,774.414,476.562,-29.297,823.730
1742117128.408,-660.645,-991.699,-40.039,-583.984
1742117128.412,-1000.000,-959.473,-30.762,-1000.000
1742117128.416,-1000.000,-1000.000,-21.973,-1000.000
1742117128.420,-784.180,-275.879,-22.461,-757.324
1742117128.420,657.715,999.512,-18.555,668.945
1742117128.424,999.512,957.520,-17.578,999.512
1742117128.428,916.992,874.512,-12.207,917.969
1742117128.432,912.598,999.512,-8.301,921.387
1742117128.436,999.512,179.199,-15.625,999.512
1742117128.440,661.133,-1000.000,-23.438,730.469
1742117128.444,-778.809,-982.910,-38.574,-669.922
1742117128.447,-1000.000,-981.934,-41.992,-1000.000
1742117128.451,-901.855,-936.523,-37.598,-903.320
1742117128.455,-1000.000,-1000.000,-39.551,-1000.000
1742117128.459,-1000.000,-385.742,-44.922,-997.070
1742117128.463,311.035,969.238,-51.270,293.945
1742117128.420,657.715,999.512,-18.555,668.945
1742117128.424,999.512,957.520,-17.578,999.512
1742117128.428,916.992,874.512,-12.207,917.969
1742117128.432,912.598,999.512,-8.301,921.387
1742117128.436,999.512,179.199,-15.625,999.512
1742117128.440,661.133,-1000.000,-23.438,730.469
1742117128.444,-778.809,-982.910,-38.574,-669.922
1742117128.447,-1000.000,-981.934,-41.992,-1000.000
1742117128.451,-901.855,-936.523,-37.598,-903.320
1742117128.455,-1000.000,-1000.000,-39.551,-1000.000
1742117128.459,-1000.000,-385.742,-44.922,-997.070
1742117128.463,311.035,969.238,-51.270,293.945
1742117128.469,999.512,989.258,-43.945,999.512
1742117128.473,876.953,855.469,-24.902,882.812
1742117128.477,949.707,999.512,-18.066,947.266
1742117128.481,999.512,387.695,-32.227,999.512
1742117128.485,-179.688,-983.887,-43.457,-153.809
1742117128.489,-1000.000,-1000.000,-31.738,-1000.000
1742117128.493,-943.848,-969.727,-21.973,-948.242
1742117128.496,-989.258,-951.172,-25.391,-991.699
1742117128.500,-952.148,-1000.000,-29.297,-945.801
1742117128.504,-1000.000,-713.867,-30.273,-1000.000
1742117128.508,-68.848,687.500,-33.691,-146.484
1742117128.512,999.512,999.512,-35.156,999.512
1742117128.510,934.570,906.738,-27.344,947.266
1742117128.514,881.836,918.945,-35.156,876.465
1742117128.518,999.512,999.512,-46.875,999.512
1742117128.522,277.344,147.461,-51.270,300.781
1742117128.526,-1000.000,-996.094,-49.316,-1000.000
1742117128.530,-999.023,-1000.000,-42.969,-1000.000
1742117128.534,-965.820,-493.164,-52.246,-963.867
1742117128.537,-1000.000,776.367,-66.406,-1000.000
1742117128.541,-925.781,-336.426,-61.523,-929.199
1742117128.545,-1000.000,-1000.000,-35.156,-1000.000
1742117128.549,-571.289,-322.754,-23.926,-626.953
1742117128.553,874.023,956.055,-36.133,812.988
1742117128.557,999.512,982.422,-43.945,999.512
1742117128.561,917.480,924.805,-41.992,917.969
1742117128.565,912.109,917.480,-41.016,910.645
1742117128.569,999.512,999.512,-43.457,999.512
1742117128.573,312.988,171.875,-50.293,370.117
1742117128.577,-1000.000,-1000.000,-51.270,-997.070
1742117128.581,-1000.000,-992.188,-53.223,-1000.000
1742117128.584,-951.660,-930.176,-55.664,-949.219
1742117128.588,-965.820,-1000.000,-47.363,-964.355
1742117128.592,-1000.000,-912.109,-44.434,-1000.000
1742117128.596,-32.715,419.922,-49.316,-64.941
1742117128.600,999.512,999.512,-46.387,999.512
1742117128.557,999.512,982.422,-43.945,999.512
1742117128.561,917.480,924.805,-41.992,917.969
1742117128.565,912.109,917.480,-41.016,910.645
1742117128.569,999.512,999.512,-43.457,999.512
1742117128.573,312.988,171.875,-50.293,370.117
1742117128.577,-1000.000,-1000.000,-51.270,-997.070
1742117128.581,-1000.000,-992.188,-53.223,-1000.000
1742117128.584,-951.660,-930.176,-55.664,-949.219
1742117128.588,-965.820,-1000.000,-47.363,-964.355
1742117128.592,-1000.000,-912.109,-44.434,-1000.000
1742117128.596,-32.715,419.922,-49.316,-64.941
1742117128.600,999.512,999.512,-46.387,999.512
1742117128.557,999.512,982.422,-43.945,999.512
1742117128.561,917.480,924.805,-41.992,917.969
1742117128.565,912.109,917.480,-41.016,910.645
1742117128.569,999.512,999.512,-43.457,999.512
1742117128.573,312.988,171.875,-50.293,370.117
1742117128.577,-1000.000,-1000.000,-51.270,-997.070
1742117128.581,-1000.000,-992.188,-53.223,-1000.000
1742117128.584,-951.660,-930.176,-55.664,-949.219
1742117128.588,-965.820,-1000.000,-47.363,-964.355
1742117128.592,-1000.000,-912.109,-44.434,-1000.000
1742117128.596,-32.715,419.922,-49.316,-64.941
1742117128.600,999.512,999.512,-46.387,999.512
1742117128.601,929.688,913.086,-48.340,933.594
1742117128.605,932.129,903.320,-45.410,936.035
1742117128.609,947.266,999.512,-46.387,940.430
1742117128.613,999.512,351.074,-49.805,999.512
1742117128.617,-126.953,-997.070,-34.180,-36.621
1742117128.621,-1000.000,-959.961,-19.531,-1000.000
1742117128.625,-1000.000,-1000.000,-22.949,-1000.000
1742117128.628,-212.402,-134.766,-31.250,-205.078
1742117128.632,999.512,999.512,-31.250,999.512
1742117128.636,950.195,937.012,-39.551,950.684
1742117128.640,940.918,886.719,-57.617,939.941
1742117128.644,964.844,999.512,-42.480,971.680
1742117128.601,929.688,913.086,-48.340,933.594
1742117128.605,932.129,903.320,-45.410,936.035
1742117128.609,947.266,999.512,-46.387,940.430
1742117128.613,999.512,351.074,-49.805,999.512
1742117128.617,-126.953,-997.070,-34.180,-36.621
1742117128.621,-1000.000,-959.961,-19.531,-1000.000
1742117128.625,-1000.000,-1000.000,-22.949,-1000.000
1742117128.628,-212.402,-134.766,-31.250,-205.078
1742117128.632,999.512,999.512,-31.250,999.512
1742117128.636,950.195,937.012,-39.551,950.684
1742117128.640,940.918,886.719,-57.617,939.941
1742117128.644,964.844,999.512,-42.480,971.680
1742117128.661,916.992,155.273,-35.156,907.715
1742117128.665,999.512,-1000.000,-48.340,999.512
1742117128.669,46.387,-962.402,-51.270,145.020
1742117128.673,-1000.000,-940.918,-54.199,-1000.000
1742117128.677,-1000.000,-1000.000,-42.969,-1000.000
1742117128.681,-229.980,49.805,-27.832,-223.633
1742117128.685,959.961,999.512,-42.969,956.543
1742117128.688,999.512,999.512,-55.176,999.512
1742117128.692,177.246,153.320,-53.223,201.172
1742117128.696,-1000.000,-1000.000,-46.387,-1000.000
1742117128.700,-987.305,-1000.000,-37.598,-991.211
1742117128.704,-975.098,-756.348,-39.551,-972.656
1742117128.661,916.992,155.273,-35.156,907.715
1742117128.665,999.512,-1000.000,-48.340,999.512
1742117128.669,46.387,-962.402,-51.270,145.020
1742117128.673,-1000.000,-940.918,-54.199,-1000.000
1742117128.677,-1000.000,-1000.000,-42.969,-1000.000
1742117128.681,-229.980,49.805,-27.832,-223.633
1742117128.685,959.961,999.512,-42.969,956.543
1742117128.688,999.512,999.512,-55.176,999.512
1742117128.692,177.246,153.320,-53.223,201.172
1742117128.696,-1000.000,-1000.000,-46.387,-1000.000
1742117128.700,-987.305,-1000.000,-37.598,-991.211
1742117128.704,-975.098,-756.348,-39.551,-972.656
1742117128.706,-990.234,607.422,-41.992,-993.164
1742117128.710,-965.820,999.512,-39.062,-962.891
1742117128.714,-1000.000,904.785,-35.645,-1000.000
1742117128.718,52.246,979.492,-30.273,17.090
1742117128.722,999.512,966.309,-26.855,999.512
1742117128.726,844.238,906.738,-34.668,851.074
1742117128.730,999.512,999.512,-40.039,999.512
1742117128.733,350.098,162.598,-42.969,364.258
1742117128.737,-1000.000,-1000.000,-41.016,-1000.000
1742117128.741,-1000.000,-984.375,-43.945,-1000.000
1742117128.745,-959.473,-957.520,-46.875,-958.496
1742117128.749,-950.684,-973.633,-40.527,-950.684
1742117128.754,-1000.000,-1000.000,-35.645,-1000.000
1742117128.758,-200.684,53.223,-22.461,-202.148
1742117128.762,999.512,999.512,-23.438,999.512
1742117128.766,947.266,999.512,-39.551,947.754
1742117128.770,940.918,192.871,-43.945,941.406
1742117128.774,970.703,-1000.000,-40.039,972.656
1742117128.778,907.227,393.555,-35.645,906.250
1742117128.781,999.512,999.512,-42.969,999.512
1742117128.785,145.996,-407.715,-59.082,163.086
1742117128.789,-1000.000,-1000.000,-54.688,-1000.000
1742117128.793,-979.004,-927.734,-49.805,-980.957
1742117128.797,-913.574,-960.938,-53.223,-912.598
1742117128.754,-1000.000,-1000.000,-35.645,-1000.000
1742117128.758,-200.684,53.223,-22.461,-202.148
1742117128.762,999.512,999.512,-23.438,999.512
1742117128.766,947.266,999.512,-39.551,947.754
1742117128.770,940.918,192.871,-43.945,941.406
1742117128.774,970.703,-1000.000,-40.039,972.656
1742117128.778,907.227,393.555,-35.645,906.250
1742117128.781,999.512,999.512,-42.969,999.512
1742117128.785,145.996,-407.715,-59.082,163.086
1742117128.789,-1000.000,-1000.000,-54.688,-1000.000
1742117128.793,-979.004,-927.734,-49.805,-980.957
1742117128.797,-913.574,-960.938,-53.223,-912.598
1742117128.796,-1000.000,-1000.000,-53.711,-1000.000
1742117128.800,-220.703,-29.785,-57.129,-214.355
1742117128.804,999.512,999.512,-55.664,999.512
1742117128.808,949.707,927.734,-58.105,949.707
1742117128.812,946.777,966.309,-50.781,946.289
1742117128.816,942.871,915.527,-44.922,947.754
1742117128.820,957.031,999.512,-55.176,949.219
1742117128.823,999.512,807.129,-58.105,999.512
1742117128.827,-259.277,-590.332,-66.895,-201.172
1742117128.831,-1000.000,-1000.000,-54.688,-1000.000
1742117128.835,-947.754,-916.504,-38.086,-952.637
1742117128.839,-929.199,-983.887,-56.152,-926.758
1742117128.796,-1000.000,-1000.000,-53.711,-1000.000
1742117128.800,-220.703,-29.785,-57.129,-214.355
1742117128.804,999.512,999.512,-55.664,999.512
1742117128.808,949.707,927.734,-58.105,949.707
1742117128.812,946.777,966.309,-50.781,946.289
1742117128.816,942.871,915.527,-44.922,947.754
1742117128.820,957.031,999.512,-55.176,949.219
1742117128.823,999.512,807.129,-58.105,999.512
1742117128.827,-259.277,-590.332,-66.895,-201.172
1742117128.831,-1000.000,-1000.000,-54.688,-1000.000
1742117128.835,-947.754,-916.504,-38.086,-952.637
1742117128.839,-929.199,-983.887,-56.152,-926.758
1742117128.842,-1000.000,-1000.000,-63.965,-1000.000
1742117128.846,-440.430,64.941,-57.617,-463.379
1742117128.850,947.754,999.512,-42.480,930.176
1742117128.854,988.281,921.875,-41.504,994.629
1742117128.858,934.082,959.961,-49.805,933.594
1742117128.862,904.785,905.273,-44.922,907.227
1742117128.866,999.512,999.512,-45.898,999.512
1742117128.869,457.520,210.938,-53.711,514.648
1742117128.873,-955.566,-1000.000,-51.270,-910.645
1742117128.877,-1000.000,-995.117,-47.852,-1000.000
1742117128.881,-943.359,-941.406,-51.758,-940.918
1742117128.885,-963.867,-1000.000,-54.199,-962.402
1742117128.886,-1000.000,-1000.000,-51.270,-1000.000
1742117128.890,-82.031,217.285,-30.762,-108.398
1742117128.894,999.512,999.512,-37.109,999.512
1742117128.898,930.664,909.668,-54.688,935.547
1742117128.902,961.426,934.570,-55.176,957.031
1742117128.906,920.898,875.000,-50.781,935.547
1742117128.910,999.512,999.512,-39.062,973.633
1742117128.913,871.094,444.336,-47.852,967.285
1742117128.917,-505.859,-955.566,-61.523,-334.473
1742117128.921,-1000.000,-1000.000,-50.293,-1000.000
1742117128.925,-925.781,-924.805,-45.410,-930.176
1742117128.929,-959.473,-999.512,-38.086,-952.637
1742117128.886,-1000.000,-1000.000,-51.270,-1000.000
1742117128.890,-82.031,217.285,-30.762,-108.398
1742117128.894,999.512,999.512,-37.109,999.512
1742117128.898,930.664,909.668,-54.688,935.547
1742117128.902,961.426,934.570,-55.176,957.031
1742117128.906,920.898,875.000,-50.781,935.547
1742117128.910,999.512,999.512,-39.062,973.633
1742117128.913,871.094,444.336,-47.852,967.285
1742117128.917,-505.859,-955.566,-61.523,-334.473
1742117128.921,-1000.000,-1000.000,-50.293,-1000.000
1742117128.925,-925.781,-924.805,-45.410,-930.176
1742117128.929,-959.473,-999.512,-38.086,-952.637
1742117128.945,-1000.000,-1000.000,-36.133,-1000.000
1742117128.949,-84.961,189.453,-42.969,-102.539
1742117128.953,999.512,999.512,-43.457,999.512
1742117128.957,931.152,999.512,-43.457,935.059
1742117128.961,963.379,154.785,-29.785,963.379
1742117128.965,895.020,-445.312,-19.043,899.414
1742117128.969,999.512,999.512,-27.344,999.512
1742117128.972,504.883,290.039,-30.273,570.801
1742117128.976,-928.223,-1000.000,-29.297,-866.211
1742117128.980,-1000.000,-944.824,-22.461,-1000.000
1742117128.984,-888.672,-982.910,-21.484,-887.207
1742117128.988,-1000.000,-981.934,-30.273,-1000.000
1742117128.945,-1000.000,-1000.000,-36.133,-1000.000
1742117128.949,-84.961,189.453,-42.969,-102.539
1742117128.953,999.512,999.512,-43.457,999.512
1742117128.957,931.152,999.512,-43.457,935.059
1742117128.961,963.379,154.785,-29.785,963.379
1742117128.965,895.020,-445.312,-19.043,899.414
1742117128.969,999.512,999.512,-27.344,999.512
1742117128.972,504.883,290.039,-30.273,570.801
1742117128.976,-928.223,-1000.000,-29.297,-866.211
1742117128.980,-1000.000,-944.824,-22.461,-1000.000
1742117128.984,-888.672,-982.910,-21.484,-887.207
1742117128.988,-1000.000,-981.934,-30.273,-1000.000
1742117128.976,-172.852,346.191,-25.879,-151.855
1742117128.980,999.512,999.512,-28.320,999.512
1742117128.984,942.871,845.703,-25.879,941.406
1742117128.988,942.383,999.512,-25.391,944.824
1742117128.992,972.656,-13.672,-29.297,972.656
1742117128.996,962.891,-642.090,-22.949,964.844
1742117129.000,909.668,876.465,-32.715,907.715
1742117129.003,999.512,999.512,-46.387,999.512
1742117129.007,115.234,-299.805,-41.016,148.926
1742117129.011,-1000.000,-1000.000,-43.457,-1000.000
1742117129.015,-979.004,-942.871,-50.781,-985.352
1742117129.019,-910.645,-937.988,-47.852,-906.738
1742117128.976,-172.852,346.191,-25.879,-151.855
1742117128.980,999.512,999.512,-28.320,999.512
1742117128.984,942.871,845.703,-25.879,941.406
1742117128.988,942.383,999.512,-25.391,944.824
1742117128.992,972.656,-13.672,-29.297,972.656
1742117128.996,962.891,-642.090,-22.949,964.844
1742117129.000,909.668,876.465,-32.715,907.715
1742117129.003,999.512,999.512,-46.387,999.512
1742117129.007,115.234,-299.805,-41.016,148.926
1742117129.011,-1000.000,-1000.000,-43.457,-1000.000
1742117129.015,-979.004,-942.871,-50.781,-985.352
1742117129.019,-910.645,-937.988,-47.852,-906.738
1742117129.038,-1000.000,-1000.000,-43.457,-1000.000
1742117129.042,-301.758,-208.008,-36.621,-338.867
1742117129.046,999.512,999.512,-42.969,993.652
1742117129.050,964.844,963.379,-60.547,972.168
1742117129.054,922.852,873.047,-61.035,922.852
1742117129.058,927.734,999.512,-61.035,926.758
1742117129.062,999.512,626.953,-59.570,999.512
1742117129.065,22.949,-801.270,-56.152,66.406
1742117129.069,-1000.000,-1000.000,-54.688,-1000.000
1742117129.073,-961.914,-931.152,-53.711,-969.238
1742117129.077,-991.211,-1000.000,-59.082,-990.723
1742117129.081,-934.570,-936.035,-57.617,-933.594
1742117129.038,-1000.000,-1000.000,-43.457,-1000.000
1742117129.042,-301.758,-208.008,-36.621,-338.867
1742117129.046,999.512,999.512,-42.969,993.652
1742117129.050,964.844,963.379,-60.547,972.168
1742117129.054,922.852,873.047,-61.035,922.852
1742117129.058,927.734,999.512,-61.035,926.758
1742117129.062,999.512,626.953,-59.570,999.512
1742117129.065,22.949,-801.270,-56.152,66.406
1742117129.069,-1000.000,-1000.000,-54.688,-1000.000
1742117129.073,-961.914,-931.152,-53.711,-969.238
1742117129.077,-991.211,-1000.000,-59.082,-990.723
1742117129.081,-934.570,-936.035,-57.617,-933.594
1742117129.081,-1000.000,-853.027,-70.312,-1000.000
1742117129.085,-329.102,-7.324,-70.801,-395.508
1742117129.089,998.047,999.512,-58.105,968.262
1742117129.093,968.262,957.520,-55.176,980.957
1742117129.097,930.664,942.871,-52.246,926.270
1742117129.101,977.051,970.703,-50.781,977.051
1742117129.105,903.320,907.715,-52.734,907.227
1742117129.108,999.512,999.512,-47.852,999.512
1742117129.112,187.012,148.926,-58.105,153.320
1742117129.116,-1000.000,-1000.000,-57.129,-1000.000
1742117129.120,-984.375,-980.957,-42.969,-979.492
1742117129.124,-973.633,-965.332,-46.875,-978.027
1742117129.081,-1000.000,-853.027,-70.312,-1000.000
1742117129.085,-329.102,-7.324,-70.801,-395.508
1742117129.089,998.047,999.512,-58.105,968.262
1742117129.093,968.262,957.520,-55.176,980.957
1742117129.097,930.664,942.871,-52.246,926.270
1742117129.101,977.051,970.703,-50.781,977.051
1742117129.105,903.320,907.715,-52.734,907.227
1742117129.108,999.512,999.512,-47.852,999.512
1742117129.112,187.012,148.926,-58.105,153.320
1742117129.116,-1000.000,-1000.000,-57.129,-1000.000
1742117129.120,-984.375,-980.957,-42.969,-979.492
1742117129.124,-973.633,-965.332,-46.875,-978.027
1742117129.127,-944.336,-961.914,-46.387,-941.895
1742117129.131,-1000.000,-1000.000,-49.805,-1000.000
1742117129.135,-221.191,-51.270,-38.574,-250.488
1742117129.139,999.512,999.512,-30.273,999.512
1742117129.143,950.195,932.129,-37.598,955.566
1742117129.147,939.453,946.289,-36.621,940.430
1742117129.151,910.156,916.016,-35.645,908.691
1742117129.154,999.512,999.512,-28.320,999.512
1742117129.158,187.012,98.145,-36.621,234.375
1742117129.162,-1000.000,-1000.000,-44.922,-1000.000
1742117129.166,-984.863,-961.426,-36.133,-992.188
1742117129.170,-910.156,-935.059,-31.738,-906.738
1742117129.127,-944.336,-961.914,-46.387,-941.895
1742117129.131,-1000.000,-1000.000,-49.805,-1000.000
1742117129.135,-221.191,-51.270,-38.574,-250.488
1742117129.139,999.512,999.512,-30.273,999.512
1742117129.143,950.195,932.129,-37.598,955.566
1742117129.147,939.453,946.289,-36.621,940.430
1742117129.151,910.156,916.016,-35.645,908.691
1742117129.154,999.512,999.512,-28.320,999.512
1742117129.158,187.012,98.145,-36.621,234.375
1742117129.162,-1000.000,-1000.000,-44.922,-1000.000
1742117129.166,-984.863,-961.426,-36.133,-992.188
1742117129.170,-910.156,-935.059,-31.738,-906.738
1742117129.170,-1000.000,-1000.000,-35.645,-1000.000
1742117129.174,-214.355,-53.711,-33.203,-212.402
1742117129.178,999.512,999.512,-37.598,999.512
1742117129.182,935.547,999.512,-46.875,955.566
1742117129.186,999.512,115.234,-37.598,901.367
1742117129.190,-218.262,-1000.000,-32.715,-341.309
1742117129.194,-1000.000,-1000.000,-26.855,-1000.000
1742117129.197,-907.227,-899.902,-25.391,-915.039
1742117129.201,-997.070,-1000.000,-34.180,-987.305
1742117129.205,-1000.000,-475.098,-29.297,-1000.000
1742117129.209,252.441,926.758,-17.578,166.992
1742117129.213,999.512,999.512,-18.555,999.512
1742117129.217,895.508,881.836,-28.809,904.297
1742117129.221,917.480,994.141,-29.297,911.621
1742117129.225,999.512,916.992,-27.344,999.512
1742117129.229,44.434,-295.898,-26.855,73.730
1742117129.233,-1000.000,-1000.000,-19.531,-1000.000
1742117129.237,-1000.000,-509.277,-17.090,-1000.000
1742117129.241,-508.301,836.426,-19.531,-423.828
1742117129.244,897.461,999.512,-26.855,928.223
1742117129.248,999.512,913.574,-28.809,999.512
1742117129.252,840.332,918.945,-20.020,850.098
1742117129.256,999.512,999.512,-23.926,999.512
1742117129.260,459.961,175.781,-27.344,543.945
1742117129.262,-955.078,-1000.000,-30.273,-888.184
1742117129.266,-1000.000,-924.316,-29.297,-1000.000
1742117129.270,-902.832,-1000.000,-19.531,-897.949
1742117129.274,-1000.000,-770.508,-22.461,-1000.000
1742117129.278,-62.988,634.766,-21.973,-68.359
1742117129.282,999.512,999.512,-13.184,999.512
1742117129.286,938.477,872.070,-14.648,939.941
1742117129.289,910.645,999.512,-12.207,914.062
1742117129.293,985.352,-75.195,-13.184,980.957
1742117129.297,940.918,-1000.000,-19.531,943.848
1742117129.301,-395.020,-966.309,-19.043,-354.004
1742117129.305,-1000.000,-920.898,-19.043,-1000.000
1742117129.262,-955.078,-1000.000,-30.273,-888.184
1742117129.266,-1000.000,-924.316,-29.297,-1000.000
1742117129.270,-902.832,-1000.000,-19.531,-897.949
1742117129.274,-1000.000,-770.508,-22.461,-1000.000
1742117129.278,-62.988,634.766,-21.973,-68.359
1742117129.282,999.512,999.512,-13.184,999.512
1742117129.286,938.477,872.070,-14.648,939.941
1742117129.289,910.645,999.512,-12.207,914.062
1742117129.293,985.352,-75.195,-13.184,980.957
1742117129.297,940.918,-1000.000,-19.531,943.848
1742117129.301,-395.020,-966.309,-19.043,-354.004
1742117129.305,-1000.000,-920.898,-19.043,-1000.000
1742117129.307,-904.785,-1000.000,-17.578,-916.504
1742117129.311,-1000.000,-543.457,-17.090,-1000.000
1742117129.315,62.500,790.039,-18.066,83.984
1742117129.319,999.512,999.512,-22.461,999.512
1742117129.323,973.145,271.484,-27.832,883.301
1742117129.327,-228.027,-1000.000,-19.531,-364.746
1742117129.331,-1000.000,-1000.000,-15.137,-1000.000
1742117129.334,-940.430,-921.387,-22.461,-940.430
1742117129.338,-937.500,-1000.000,-24.902,-941.406
1742117129.342,-1000.000,-939.941,-29.297,-1000.000
1742117129.346,-220.215,375.488,-25.391,-220.703
1742117129.350,999.512,999.512,-15.137,999.512
1742117129.307,-904.785,-1000.000,-17.578,-916.504
1742117129.311,-1000.000,-543.457,-17.090,-1000.000
1742117129.315,62.500,790.039,-18.066,83.984
1742117129.319,999.512,999.512,-22.461,999.512
1742117129.323,973.145,271.484,-27.832,883.301
1742117129.327,-228.027,-1000.000,-19.531,-364.746
1742117129.331,-1000.000,-1000.000,-15.137,-1000.000
1742117129.334,-940.430,-921.387,-22.461,-940.430
1742117129.338,-937.500,-1000.000,-24.902,-941.406
1742117129.342,-1000.000,-939.941,-29.297,-1000.000
1742117129.346,-220.215,375.488,-25.391,-220.703
1742117129.350,999.512,999.512,-15.137,999.512
1742117129.350,962.891,912.598,-29.785,962.402
1742117129.354,885.742,903.320,-33.203,890.137
1742117129.358,999.512,999.512,-28.809,999.512
1742117129.362,830.566,318.359,-31.250,848.145
1742117129.366,-565.430,-1000.000,-29.785,-520.996
1742117129.370,-1000.000,-1000.000,-34.668,-1000.000
1742117129.374,-935.059,-964.844,-34.180,-937.500
1742117129.377,-1000.000,-998.047,-34.668,-1000.000
1742117129.381,-947.754,-958.496,-40.527,-949.707
1742117129.385,-1000.000,-1000.000,-29.785,-1000.000
1742117129.389,-102.051,-17.090,-25.879,-98.633
1742117129.393,999.512,999.512,-33.691,999.512
1742117129.350,962.891,912.598,-29.785,962.402
1742117129.354,885.742,903.320,-33.203,890.137
1742117129.358,999.512,999.512,-28.809,999.512
1742117129.362,830.566,318.359,-31.250,848.145
1742117129.366,-565.430,-1000.000,-29.785,-520.996
1742117129.370,-1000.000,-1000.000,-34.668,-1000.000
1742117129.374,-935.059,-964.844,-34.180,-937.500
1742117129.377,-1000.000,-998.047,-34.668,-1000.000
1742117129.381,-947.754,-958.496,-40.527,-949.707
1742117129.385,-1000.000,-1000.000,-29.785,-1000.000
1742117129.389,-102.051,-17.090,-25.879,-98.633
1742117129.393,999.512,999.512,-33.691,999.512
1742117129.412,933.594,926.270,-40.039,935.547
1742117129.416,948.730,951.172,-31.250,950.195
1742117129.420,907.227,912.598,-17.090,907.227
1742117129.424,999.512,999.512,-23.438,999.512
1742117129.428,187.012,124.023,-23.926,203.613
1742117129.432,-1000.000,-1000.000,-16.113,-1000.000
1742117129.436,-983.887,-977.539,-21.484,-986.816
1742117129.439,-973.145,-974.121,-17.578,-971.680
1742117129.443,-1000.000,-1000.000,-16.113,-1000.000
1742117129.447,-988.770,-961.914,-24.902,-993.652
1742117129.451,-956.055,-1000.000,-26.367,-948.730
1742117129.455,-1000.000,-973.633,-27.832,-1000.000
1742117129.412,933.594,926.270,-40.039,935.547
1742117129.416,948.730,951.172,-31.250,950.195
1742117129.420,907.227,912.598,-17.090,907.227
1742117129.424,999.512,999.512,-23.438,999.512
1742117129.428,187.012,124.023,-23.926,203.613
1742117129.432,-1000.000,-1000.000,-16.113,-1000.000
1742117129.436,-983.887,-977.539,-21.484,-986.816
1742117129.439,-973.145,-974.121,-17.578,-971.680
1742117129.443,-1000.000,-1000.000,-16.113,-1000.000
1742117129.447,-988.770,-961.914,-24.902,-993.652
1742117129.451,-956.055,-1000.000,-26.367,-948.730
1742117129.455,-1000.000,-973.633,-27.832,-1000.000
1742117129.456,-25.879,323.730,-7.324,-102.539
1742117129.460,999.512,999.512,-6.348,999.512
1742117129.464,854.492,843.262,-31.738,865.723
1742117129.468,999.512,999.512,-30.273,999.512
1742117129.472,308.105,179.688,-35.156,310.059
1742117129.476,-1000.000,-1000.000,-31.250,-1000.000
1742117129.480,-1000.000,-986.816,-23.438,-1000.000
1742117129.483,-964.355,-956.055,-37.598,-964.355
1742117129.487,-947.754,-973.633,-46.387,-947.754
1742117129.491,-1000.000,-1000.000,-51.270,-1000.000
1742117129.495,-220.703,59.082,-41.016,-220.703
1742117129.499,999.512,999.512,-34.180,999.512
1742117129.456,-25.879,323.730,-7.324,-102.539
1742117129.460,999.512,999.512,-6.348,999.512
1742117129.464,854.492,843.262,-31.738,865.723
1742117129.468,999.512,999.512,-30.273,999.512
1742117129.472,308.105,179.688,-35.156,310.059
1742117129.476,-1000.000,-1000.000,-31.250,-1000.000
1742117129.480,-1000.000,-986.816,-23.438,-1000.000
1742117129.483,-964.355,-956.055,-37.598,-964.355
1742117129.487,-947.754,-973.633,-46.387,-947.754
1742117129.491,-1000.000,-1000.000,-51.270,-1000.000
1742117129.495,-220.703,59.082,-41.016,-220.703
1742117129.499,999.512,999.512,-34.180,999.512
1742117129.502,940.430,891.602,-42.480,937.500
1742117129.506,891.113,943.848,-42.480,898.926
1742117129.510,999.512,999.512,-39.062,999.512
1742117129.514,22.461,-192.383,-40.527,-24.902
1742117129.518,-1000.000,-1000.000,-38.086,-1000.000
1742117129.522,-961.914,-1000.000,-32.227,-958.008
1742117129.526,-985.352,-250.977,-30.273,-988.281
1742117129.529,-1000.000,999.512,-39.062,-1000.000
1742117129.533,-962.891,164.062,-42.480,-970.215
1742117129.537,-1000.000,-1000.000,-33.203,-992.188
1742117129.541,-997.070,-539.062,-31.250,-1000.000
1742117129.545,321.289,854.492,-39.062,221.191
1742117129.502,940.430,891.602,-42.480,937.500
1742117129.506,891.113,943.848,-42.480,898.926
1742117129.510,999.512,999.512,-39.062,999.512
1742117129.514,22.461,-192.383,-40.527,-24.902
1742117129.518,-1000.000,-1000.000,-38.086,-1000.000
1742117129.522,-961.914,-1000.000,-32.227,-958.008
1742117129.526,-985.352,-250.977,-30.273,-988.281
1742117129.529,-1000.000,999.512,-39.062,-1000.000
1742117129.533,-962.891,164.062,-42.480,-970.215
1742117129.537,-1000.000,-1000.000,-33.203,-992.188
1742117129.541,-997.070,-539.062,-31.250,-1000.000
1742117129.545,321.289,854.492,-39.062,221.191
1742117129.546,999.512,999.512,-43.457,999.512
1742117129.550,896.484,874.512,-46.875,901.855
1742117129.554,916.504,998.535,-41.992,912.109
1742117129.558,999.512,920.410,-39.551,999.512
1742117129.562,101.562,-395.996,-42.480,112.305
1742117129.566,-1000.000,-1000.000,-34.180,-1000.000
1742117129.570,-909.180,-1000.000,-30.762,-924.805
1742117129.573,-1000.000,-389.160,-16.602,-1000.000
1742117129.577,-225.586,974.121,-14.648,-123.535
1742117129.581,999.512,967.285,-18.066,999.512
1742117129.585,887.207,889.160,-21.484,878.418
1742117129.589,999.512,999.512,-27.832,999.512
1742117129.592,193.359,-3.418,-22.949,192.383
1742117129.596,-1000.000,-1000.000,-21.973,-1000.000
1742117129.600,-988.281,-1000.000,-20.508,-991.211
1742117129.604,-906.250,-680.176,-21.484,-903.320
1742117129.608,-1000.000,-735.352,-29.297,-1000.000
1742117129.612,-270.508,-181.641,-18.555,-335.449
1742117129.616,944.824,977.051,-15.625,919.922
1742117129.619,999.512,999.512,-31.738,999.512
1742117129.623,591.797,161.621,-38.086,540.039
1742117129.627,-812.988,-1000.000,-35.645,-836.426
1742117129.631,-1000.000,-987.305,-21.973,-1000.000
1742117129.635,-939.941,-959.473,-11.230,-943.848
1742117129.592,193.359,-3.418,-22.949,192.383
1742117129.596,-1000.000,-1000.000,-21.973,-1000.000
1742117129.600,-988.281,-1000.000,-20.508,-991.211
1742117129.604,-906.250,-680.176,-21.484,-903.320
1742117129.608,-1000.000,-735.352,-29.297,-1000.000
1742117129.612,-270.508,-181.641,-18.555,-335.449
1742117129.616,944.824,977.051,-15.625,919.922
1742117129.619,999.512,999.512,-31.738,999.512
1742117129.623,591.797,161.621,-38.086,540.039
1742117129.627,-812.988,-1000.000,-35.645,-836.426
1742117129.631,-1000.000,-987.305,-21.973,-1000.000
1742117129.635,-939.941,-959.473,-11.230,-943.848
1742117129.636,-1000.000,-970.215,-15.137,-1000.000
1742117129.640,-927.246,-1000.000,-20.020,-932.129
1742117129.644,-1000.000,-6.348,-23.438,-1000.000
1742117129.648,-482.910,999.512,-14.160,-661.621
1742117129.652,923.340,930.176,-7.324,772.949
1742117129.656,997.559,944.336,-22.461,999.512
1742117129.660,854.980,921.875,-29.297,846.680
1742117129.663,999.512,999.512,-25.879,999.512
1742117129.667,187.012,31.738,-28.320,167.480
1742117129.671,-1000.000,-1000.000,-28.320,-1000.000
1742117129.675,-996.582,-974.121,-27.344,-991.699
1742117129.679,-922.363,-912.598,-27.832,-933.594
1742117129.636,-1000.000,-970.215,-15.137,-1000.000
1742117129.640,-927.246,-1000.000,-20.020,-932.129
1742117129.644,-1000.000,-6.348,-23.438,-1000.000
1742117129.648,-482.910,999.512,-14.160,-661.621
1742117129.652,923.340,930.176,-7.324,772.949
1742117129.656,997.559,944.336,-22.461,999.512
1742117129.660,854.980,921.875,-29.297,846.680
1742117129.663,999.512,999.512,-25.879,999.512
1742117129.667,187.012,31.738,-28.320,167.480
1742117129.671,-1000.000,-1000.000,-28.320,-1000.000
1742117129.675,-996.582,-974.121,-27.344,-991.699
1742117129.679,-922.363,-912.598,-27.832,-933.594
1742117129.682,-1000.000,-1000.000,-31.738,-1000.000
1742117129.686,-886.719,-455.566,-31.250,-966.797
1742117129.690,499.512,934.570,-27.344,366.699
1742117129.694,999.512,999.512,-33.203,999.512
1742117129.698,897.461,865.234,-41.992,898.438
1742117129.702,918.457,999.512,-42.480,916.992
1742117129.706,999.512,789.062,-43.945,999.512
1742117129.709,139.160,-605.469,-44.922,123.535
1742117129.713,-1000.000,-1000.000,-51.758,-1000.000
1742117129.717,-978.516,-939.453,-64.453,-977.051
1742117129.721,-970.215,-997.559,-62.988,-971.191
1742117129.725,-953.125,-960.938,-49.316,-953.613
1742117129.682,-1000.000,-1000.000,-31.738,-1000.000
1742117129.686,-886.719,-455.566,-31.250,-966.797
1742117129.690,499.512,934.570,-27.344,366.699
1742117129.694,999.512,999.512,-33.203,999.512
1742117129.698,897.461,865.234,-41.992,898.438
1742117129.702,918.457,999.512,-42.480,916.992
1742117129.706,999.512,789.062,-43.945,999.512
1742117129.709,139.160,-605.469,-44.922,123.535
1742117129.713,-1000.000,-1000.000,-51.758,-1000.000
1742117129.717,-978.516,-939.453,-64.453,-977.051
1742117129.721,-970.215,-997.559,-62.988,-971.191
1742117129.725,-953.125,-960.938,-49.316,-953.613
1742117129.725,-1000.000,-1000.000,-39.551,-1000.000
1742117129.729,-104.980,11.719,-38.086,-108.887
1742117129.733,999.512,999.512,-42.480,999.512
1742117129.737,933.594,999.512,-45.410,936.035
1742117129.741,957.031,291.504,-46.875,955.078
1742117129.745,934.570,-527.832,-39.062,941.895
1742117129.749,970.703,947.266,-42.969,958.008
1742117129.752,976.562,697.266,-56.641,999.512
1742117129.756,-339.355,-810.059,-62.988,-256.348
1742117129.760,-1000.000,-1000.000,-63.477,-1000.000
1742117129.764,-1000.000,-667.969,-47.363,-1000.000
1742117129.768,-383.789,628.906,-40.039,-335.938
1742117129.725,-1000.000,-1000.000,-39.551,-1000.000
1742117129.729,-104.980,11.719,-38.086,-108.887
1742117129.733,999.512,999.512,-42.480,999.512
1742117129.737,933.594,999.512,-45.410,936.035
1742117129.741,957.031,291.504,-46.875,955.078
1742117129.745,934.570,-527.832,-39.062,941.895
1742117129.749,970.703,947.266,-42.969,958.008
1742117129.752,976.562,697.266,-56.641,999.512
1742117129.756,-339.355,-810.059,-62.988,-256.348
1742117129.760,-1000.000,-1000.000,-63.477,-1000.000
1742117129.764,-1000.000,-667.969,-47.363,-1000.000
1742117129.768,-383.789,628.906,-40.039,-335.938
1742117129.787,977.539,999.512,-44.922,991.699
1742117129.791,991.699,910.156,-46.875,983.398
1742117129.795,856.445,915.039,-45.410,874.023
1742117129.799,999.512,999.512,-28.809,999.512
1742117129.803,611.328,182.129,-11.230,765.625
1742117129.807,-827.637,-1000.000,-17.090,-629.395
1742117129.811,-1000.000,-989.746,-23.438,-1000.000
1742117129.814,-866.699,-904.785,-15.625,-866.211
1742117129.818,-1000.000,-1000.000,-8.789,-1000.000
1742117129.822,-578.613,-336.426,-4.395,-610.840
1742117129.826,868.164,993.652,-6.836,825.195
1742117129.830,999.512,970.703,-14.160,999.512
1742117129.787,977.539,999.512,-44.922,991.699
1742117129.791,991.699,910.156,-46.875,983.398
1742117129.795,856.445,915.039,-45.410,874.023
1742117129.799,999.512,999.512,-28.809,999.512
1742117129.803,611.328,182.129,-11.230,765.625
1742117129.807,-827.637,-1000.000,-17.090,-629.395
1742117129.811,-1000.000,-989.746,-23.438,-1000.000
1742117129.814,-866.699,-904.785,-15.625,-866.211
1742117129.818,-1000.000,-1000.000,-8.789,-1000.000
1742117129.822,-578.613,-336.426,-4.395,-610.840
1742117129.826,868.164,993.652,-6.836,825.195
1742117129.830,999.512,970.703,-14.160,999.512
1742117129.830,924.805,927.246,-10.742,924.316
1742117129.834,907.715,912.598,-6.348,915.527
1742117129.838,999.512,999.512,2.441,999.512
1742117129.842,521.484,192.383,-5.371,654.297
1742117129.846,-930.664,-1000.000,-17.578,-788.574
1742117129.850,-970.703,-930.664,-11.719,-1000.000
1742117129.854,-1000.000,-1000.000,-8.301,-1000.000
1742117129.857,-559.570,-166.016,-4.395,-546.387
1742117129.861,890.137,999.512,-11.719,885.254
1742117129.865,999.512,946.289,-18.066,999.512
1742117129.869,912.598,880.371,-17.090,915.039
1742117129.873,988.770,999.512,-8.301,992.188
1742117129.830,924.805,927.246,-10.742,924.316
1742117129.834,907.715,912.598,-6.348,915.527
1742117129.838,999.512,999.512,2.441,999.512
1742117129.842,521.484,192.383,-5.371,654.297
1742117129.846,-930.664,-1000.000,-17.578,-788.574
1742117129.850,-970.703,-930.664,-11.719,-1000.000
1742117129.854,-1000.000,-1000.000,-8.301,-1000.000
1742117129.857,-559.570,-166.016,-4.395,-546.387
1742117129.861,890.137,999.512,-11.719,885.254
1742117129.865,999.512,946.289,-18.066,999.512
1742117129.869,912.598,880.371,-17.090,915.039
1742117129.873,988.770,999.512,-8.301,992.188
1742117129.877,896.484,183.594,-3.906,894.531
1742117129.881,999.512,-1000.000,-12.207,999.512
1742117129.885,303.223,-982.910,-22.461,411.621
1742117129.889,-949.219,-912.109,-23.926,-897.461
1742117129.893,-1000.000,-1000.000,-21.973,-1000.000
1742117129.897,-560.547,-202.148,-1.953,-500.977
1742117129.901,748.535,980.957,-0.977,772.949
1742117129.904,999.512,999.512,-20.508,999.512
1742117129.908,446.777,149.902,-24.902,448.730
1742117129.912,-912.109,-1000.000,-21.973,-897.461
1742117129.916,-1000.000,-994.141,-8.301,-1000.000
1742117129.920,-920.898,-903.320,-10.254,-926.758
1742117129.877,896.484,183.594,-3.906,894.531
1742117129.881,999.512,-1000.000,-12.207,999.512
1742117129.885,303.223,-982.910,-22.461,411.621
1742117129.889,-949.219,-912.109,-23.926,-897.461
1742117129.893,-1000.000,-1000.000,-21.973,-1000.000
1742117129.897,-560.547,-202.148,-1.953,-500.977
1742117129.901,748.535,980.957,-0.977,772.949
1742117129.904,999.512,999.512,-20.508,999.512
1742117129.908,446.777,149.902,-24.902,448.730
1742117129.912,-912.109,-1000.000,-21.973,-897.461
1742117129.916,-1000.000,-994.141,-8.301,-1000.000
1742117129.920,-920.898,-903.320,-10.254,-926.758
1742117129.921,-999.023,-1000.000,-25.391,-990.234
1742117129.925,-1000.000,-514.648,-26.855,-1000.000
1742117129.929,175.781,887.207,-21.484,115.234
1742117129.933,999.512,999.512,-13.184,999.512
1742117129.937,906.250,916.992,-12.207,913.574
1742117129.941,972.168,980.957,-19.531,971.191
1742117129.945,897.461,904.297,-20.508,896.973
1742117129.948,999.512,999.512,-13.184,999.512
1742117129.952,304.199,187.012,-10.742,357.422
1742117129.956,-1000.000,-1000.000,-20.020,-1000.000
1742117129.960,-1000.000,-991.699,-28.320,-1000.000
1742117129.964,-902.832,-903.320,-25.391,-903.809
1742117129.921,-999.023,-1000.000,-25.391,-990.234
1742117129.925,-1000.000,-514.648,-26.855,-1000.000
1742117129.929,175.781,887.207,-21.484,115.234
1742117129.933,999.512,999.512,-13.184,999.512
1742117129.937,906.250,916.992,-12.207,913.574
1742117129.941,972.168,980.957,-19.531,971.191
1742117129.945,897.461,904.297,-20.508,896.973
1742117129.948,999.512,999.512,-13.184,999.512
1742117129.952,304.199,187.012,-10.742,357.422
1742117129.956,-1000.000,-1000.000,-20.020,-1000.000
1742117129.960,-1000.000,-991.699,-28.320,-1000.000
1742117129.964,-902.832,-903.320,-25.391,-903.809
1742117129.967,-1000.000,-1000.000,-23.438,-1000.000
1742117129.971,-788.086,-366.699,-14.648,-832.031
1742117129.975,635.742,979.492,-7.324,568.848
1742117129.979,999.512,976.074,-16.602,999.512
1742117129.983,901.367,929.688,-16.602,901.855
1742117129.987,980.469,913.574,-16.602,979.492
1742117129.991,903.320,999.512,-7.324,904.297
1742117129.994,999.512,212.402,1.465,999.512
1742117129.998,187.012,-1000.000,-16.602,193.359
1742117130.002,-1000.000,-989.258,-17.578,-1000.000
1742117130.006,-984.863,-965.332,-17.090,-986.328
1742117130.010,-910.156,-954.590,-20.508,-909.668
1742117130.011,-1000.000,-1000.000,-14.160,-1000.000
1742117130.015,-221.191,-122.559,-13.672,-218.262
1742117130.019,999.512,999.512,-17.578,999.512
1742117130.023,949.707,937.988,-34.180,950.195
1742117130.027,954.590,954.590,-32.227,953.613
1742117130.031,903.809,901.855,-18.066,914.551
1742117130.035,999.512,999.512,-22.461,999.512
1742117130.038,629.883,318.848,-35.156,752.441
1742117130.042,-779.297,-943.848,-47.363,-614.258
1742117130.046,-1000.000,-1000.000,-37.109,-1000.000
1742117130.050,-997.559,-395.996,-20.508,-912.598
1742117130.054,186.523,934.570,-25.391,314.453
1742117130.011,-1000.000,-1000.000,-14.160,-1000.000
1742117130.015,-221.191,-122.559,-13.672,-218.262
1742117130.019,999.512,999.512,-17.578,999.512
1742117130.023,949.707,937.988,-34.180,950.195
1742117130.027,954.590,954.590,-32.227,953.613
1742117130.031,903.809,901.855,-18.066,914.551
1742117130.035,999.512,999.512,-22.461,999.512
1742117130.038,629.883,318.848,-35.156,752.441
1742117130.042,-779.297,-943.848,-47.363,-614.258
1742117130.046,-1000.000,-1000.000,-37.109,-1000.000
1742117130.050,-997.559,-395.996,-20.508,-912.598
1742117130.054,186.523,934.570,-25.391,314.453
1742117130.057,999.512,989.258,-34.180,999.512
1742117130.061,908.203,921.875,-35.645,914.062
1742117130.065,900.391,918.457,-36.133,899.902
1742117130.069,999.512,999.512,-26.855,999.512
1742117130.073,246.582,168.457,-31.738,368.164
1742117130.077,-1000.000,-1000.000,-38.086,-998.047
1742117130.081,-997.070,-993.652,-31.738,-1000.000
1742117130.084,-951.660,-919.434,-27.344,-943.359
1742117130.088,-973.145,-1000.000,-20.020,-974.609
1742117130.092,-1000.000,-802.246,-15.625,-1000.000
1742117130.096,45.898,580.566,-23.438,22.949
1742117130.100,999.512,999.512,-26.855,999.512
1742117130.057,999.512,989.258,-34.180,999.512
1742117130.061,908.203,921.875,-35.645,914.062
1742117130.065,900.391,918.457,-36.133,899.902
1742117130.069,999.512,999.512,-26.855,999.512
1742117130.073,246.582,168.457,-31.738,368.164
1742117130.077,-1000.000,-1000.000,-38.086,-998.047
1742117130.081,-997.070,-993.652,-31.738,-1000.000
1742117130.084,-951.660,-919.434,-27.344,-943.359
1742117130.088,-973.145,-1000.000,-20.020,-974.609
1742117130.092,-1000.000,-802.246,-15.625,-1000.000
1742117130.096,45.898,580.566,-23.438,22.949
1742117130.100,999.512,999.512,-26.855,999.512
1742117130.101,923.340,883.789,-31.738,929.688
1742117130.105,888.184,957.031,-33.691,885.742
1742117130.109,999.512,999.512,-38.574,999.512
1742117130.113,314.941,-141.113,-40.039,365.234
1742117130.117,-1000.000,-1000.000,-34.668,-983.398
1742117130.121,-958.496,-1000.000,-29.785,-978.027
1742117130.125,-1000.000,-241.211,-15.137,-1000.000
1742117130.128,-52.246,999.512,-17.578,2.441
1742117130.132,999.512,889.648,-30.762,999.512
1742117130.136,999.512,999.512,-25.391,999.512
1742117130.140,496.094,241.699,-22.461,509.277
1742117130.144,-920.898,-1000.000,-16.602,-902.344
1742117130.101,923.340,883.789,-31.738,929.688
1742117130.105,888.184,957.031,-33.691,885.742
1742117130.109,999.512,999.512,-38.574,999.512
1742117130.113,314.941,-141.113,-40.039,365.234
1742117130.117,-1000.000,-1000.000,-34.668,-983.398
1742117130.121,-958.496,-1000.000,-29.785,-978.027
1742117130.125,-1000.000,-241.211,-15.137,-1000.000
1742117130.128,-52.246,999.512,-17.578,2.441
1742117130.132,999.512,889.648,-30.762,999.512
1742117130.136,999.512,999.512,-25.391,999.512
1742117130.140,496.094,241.699,-22.461,509.277
1742117130.144,-920.898,-1000.000,-16.602,-902.344
1742117130.162,-1000.000,-973.145,-6.836,-1000.000
1742117130.166,-950.195,-944.336,-15.137,-949.707
1742117130.170,-999.023,-1000.000,-21.973,-1000.000
1742117130.174,-964.844,119.629,-14.160,-960.449
1742117130.178,-1000.000,802.734,-22.949,-1000.000
1742117130.182,57.129,630.859,-17.578,15.625
1742117130.186,999.512,968.262,-16.113,999.512
1742117130.189,999.512,999.512,-32.715,999.512
1742117130.193,401.367,-22.461,-40.527,348.145
1742117130.197,-979.980,-1000.000,-35.645,-998.535
1742117130.201,-1000.000,-935.547,-22.949,-1000.000
1742117130.205,-892.578,-969.238,-23.438,-896.973
1742117130.162,-1000.000,-973.145,-6.836,-1000.000
1742117130.166,-950.195,-944.336,-15.137,-949.707
1742117130.170,-999.023,-1000.000,-21.973,-1000.000
1742117130.174,-964.844,119.629,-14.160,-960.449
1742117130.178,-1000.000,802.734,-22.949,-1000.000
1742117130.182,57.129,630.859,-17.578,15.625
1742117130.186,999.512,968.262,-16.113,999.512
1742117130.189,999.512,999.512,-32.715,999.512
1742117130.193,401.367,-22.461,-40.527,348.145
1742117130.197,-979.980,-1000.000,-35.645,-998.535
1742117130.201,-1000.000,-935.547,-22.949,-1000.000
1742117130.205,-892.578,-969.238,-23.438,-896.973
1742117130.206,-1000.000,-1000.000,-28.809,-1000.000
1742117130.210,-220.703,168.945,-28.320,-212.402
1742117130.214,999.512,999.512,-31.250,999.512
1742117130.218,949.707,999.512,-32.715,949.219
1742117130.222,938.965,485.840,-29.785,940.430
1742117130.226,973.633,-1000.000,-37.598,974.121
1742117130.230,961.914,-619.629,-47.363,965.332
1742117130.233,910.645,927.734,-45.898,907.227
1742117130.237,999.512,952.148,-45.898,999.512
1742117130.241,105.957,-458.008,-52.246,152.832
1742117130.245,-1000.000,-1000.000,-54.199,-1000.000
1742117130.249,-939.941,-867.188,-47.852,-946.777
1742117130.206,-1000.000,-1000.000,-28.809,-1000.000
1742117130.210,-220.703,168.945,-28.320,-212.402
1742117130.214,999.512,999.512,-31.250,999.512
1742117130.218,949.707,999.512,-32.715,949.219
1742117130.222,938.965,485.840,-29.785,940.430
1742117130.226,973.633,-1000.000,-37.598,974.121
1742117130.230,961.914,-619.629,-47.363,965.332
1742117130.233,910.645,927.734,-45.898,907.227
1742117130.237,999.512,952.148,-45.898,999.512
1742117130.241,105.957,-458.008,-52.246,152.832
1742117130.245,-1000.000,-1000.000,-54.199,-1000.000
1742117130.249,-939.941,-867.188,-47.852,-946.777
1742117130.252,-976.562,-1000.000,-46.875,-973.633
1742117130.256,-1000.000,-541.016,-32.715,-1000.000
1742117130.260,258.789,866.699,-30.273,253.418
1742117130.264,999.512,999.512,-34.668,999.512
1742117130.268,916.504,915.527,-30.273,919.434
1742117130.272,896.484,918.945,-29.785,903.809
1742117130.276,999.512,999.512,-21.484,999.512
1742117130.279,554.199,179.199,-16.602,668.945
1742117130.283,-884.766,-1000.000,-21.484,-756.348
1742117130.287,-1000.000,-983.887,-28.809,-1000.000
1742117130.291,-945.312,-970.215,-23.926,-942.871
1742117130.295,-952.637,-950.684,-14.648,-948.730
1742117130.252,-976.562,-1000.000,-46.875,-973.633
1742117130.256,-1000.000,-541.016,-32.715,-1000.000
1742117130.260,258.789,866.699,-30.273,253.418
1742117130.264,999.512,999.512,-34.668,999.512
1742117130.268,916.504,915.527,-30.273,919.434
1742117130.272,896.484,918.945,-29.785,903.809
1742117130.276,999.512,999.512,-21.484,999.512
1742117130.279,554.199,179.199,-16.602,668.945
1742117130.283,-884.766,-1000.000,-21.484,-756.348
1742117130.287,-1000.000,-983.887,-28.809,-1000.000
1742117130.291,-945.312,-970.215,-23.926,-942.871
1742117130.295,-952.637,-950.684,-14.648,-948.730
1742117130.295,-1000.000,-1000.000,-26.855,-1000.000
1742117130.299,-224.609,-155.273,-35.645,-270.508
1742117130.303,999.512,999.512,-32.715,999.512
1742117130.307,950.195,941.895,-39.551,958.984
1742117130.311,953.125,958.496,-34.180,949.707
1742117130.315,913.086,900.879,-28.809,917.969
1742117130.319,999.512,999.512,-38.086,999.512
1742117130.322,767.090,548.340,-43.457,788.086
1742117130.326,-655.762,-869.141,-52.246,-620.605
1742117130.330,-1000.000,-1000.000,-46.875,-1000.000
1742117130.334,-934.570,-1000.000,-30.762,-935.059
1742117130.338,-1000.000,51.758,-30.273,-1000.000
1742117130.295,-1000.000,-1000.000,-26.855,-1000.000
1742117130.299,-224.609,-155.273,-35.645,-270.508
1742117130.303,999.512,999.512,-32.715,999.512
1742117130.307,950.195,941.895,-39.551,958.984
1742117130.311,953.125,958.496,-34.180,949.707
1742117130.315,913.086,900.879,-28.809,917.969
1742117130.319,999.512,999.512,-38.086,999.512
1742117130.322,767.090,548.340,-43.457,788.086
1742117130.326,-655.762,-869.141,-52.246,-620.605
1742117130.330,-1000.000,-1000.000,-46.875,-1000.000
1742117130.334,-934.570,-1000.000,-30.762,-935.059
1742117130.338,-1000.000,51.758,-30.273,-1000.000
1742117130.342,-1000.000,291.016,-36.133,-1000.000
1742117130.346,-937.500,-1000.000,-36.621,-936.523
1742117130.350,-1000.000,-1000.000,-32.715,-1000.000
1742117130.354,-220.703,-162.598,-25.879,-240.234
1742117130.358,999.512,999.512,-29.785,999.512
1742117130.362,880.859,885.742,-28.809,887.207
1742117130.366,999.512,999.512,-34.180,999.512
1742117130.369,649.902,176.270,-37.109,615.723
1742117130.373,-801.758,-1000.000,-32.715,-805.664
1742117130.377,-1000.000,-984.863,-39.551,-1000.000
1742117130.381,-938.965,-958.496,-39.551,-942.871
1742117130.385,-954.590,-970.215,-37.598,-952.637
1742117130.386,-1000.000,-1000.000,-45.410,-1000.000
1742117130.390,-202.148,24.902,-29.785,-205.078
1742117130.394,999.512,999.512,-19.043,999.512
1742117130.398,947.266,946.777,-31.738,948.242
1742117130.402,940.918,770.020,-36.621,941.406
1742117130.406,970.703,792.480,-27.832,972.656
1742117130.410,907.227,987.793,-14.160,906.250
1742117130.413,999.512,999.512,-16.602,999.512
1742117130.417,145.508,-198.730,-31.738,163.574
1742117130.421,-1000.000,-1000.000,-30.273,-1000.000
1742117130.425,-984.863,-941.895,-27.344,-988.281
1742117130.429,-906.738,-938.965,-15.625,-904.785
1742117130.386,-1000.000,-1000.000,-45.410,-1000.000
1742117130.390,-202.148,24.902,-29.785,-205.078
1742117130.394,999.512,999.512,-19.043,999.512
1742117130.398,947.266,946.777,-31.738,948.242
1742117130.402,940.918,770.020,-36.621,941.406
1742117130.406,970.703,792.480,-27.832,972.656
1742117130.410,907.227,987.793,-14.160,906.250
1742117130.413,999.512,999.512,-16.602,999.512
1742117130.417,145.508,-198.730,-31.738,163.574
1742117130.421,-1000.000,-1000.000,-30.273,-1000.000
1742117130.425,-984.863,-941.895,-27.344,-988.281
1742117130.429,-906.738,-938.965,-15.625,-904.785
1742117130.446,-1000.000,-1000.000,-2.930,-1000.000
1742117130.450,-336.914,-186.035,-16.602,-363.281
1742117130.454,994.629,999.512,-23.438,982.422
1742117130.458,978.516,958.984,-17.090,982.422
1742117130.462,893.555,869.629,-10.742,897.461
1742117130.466,981.445,999.512,-3.906,971.191
1742117130.470,974.121,500.977,-18.066,999.512
1742117130.473,-334.473,-917.969,-33.691,-262.207
1742117130.477,-1000.000,-1000.000,-23.926,-1000.000
1742117130.481,-935.547,-948.242,-12.695,-939.453
1742117130.485,-1000.000,-1000.000,-14.160,-1000.000
1742117130.489,-959.961,-928.223,-19.531,-973.145
1742117130.446,-1000.000,-1000.000,-2.930,-1000.000
1742117130.450,-336.914,-186.035,-16.602,-363.281
1742117130.454,994.629,999.512,-23.438,982.422
1742117130.458,978.516,958.984,-17.090,982.422
1742117130.462,893.555,869.629,-10.742,897.461
1742117130.466,981.445,999.512,-3.906,971.191
1742117130.470,974.121,500.977,-18.066,999.512
1742117130.473,-334.473,-917.969,-33.691,-262.207
1742117130.477,-1000.000,-1000.000,-23.926,-1000.000
1742117130.481,-935.547,-948.242,-12.695,-939.453
1742117130.485,-1000.000,-1000.000,-14.160,-1000.000
1742117130.489,-959.961,-928.223,-19.531,-973.145
1742117130.956,-1000.000,-1000.000,-46.387,-1000.000
1742117130.960,-81.543,67.383,-29.785,-95.215
1742117130.964,999.512,999.512,-25.879,999.512
1742117130.968,930.664,916.992,-46.387,933.594
1742117130.972,962.402,969.727,-41.504,958.496
1742117130.976,917.969,895.020,-34.668,932.129
1742117130.980,999.512,999.512,-31.250,979.492
1742117130.983,847.168,434.570,-40.039,949.219
1742117130.987,-541.016,-963.379,-66.406,-370.117
1742117130.991,-1000.000,-1000.000,-58.105,-1000.000
1742117130.995,-934.570,-920.898,-26.367,-936.035
1742117130.999,-948.242,-1000.000,-17.578,-943.848
1742117130.476,-1000.000,-1000.000,-20.508,-987.793
1742117130.480,-973.145,-470.215,-26.855,-1000.000
1742117130.484,359.863,925.781,-22.461,192.383
1742117130.488,999.512,996.094,-15.137,999.512
1742117130.492,900.391,919.922,-29.785,907.715
1742117130.496,987.305,980.957,-35.645,980.957
1742117130.500,892.090,904.297,-34.668,900.879
1742117130.503,999.512,999.512,-35.156,999.512
1742117130.507,520.020,187.012,-35.645,642.578
1742117130.511,-917.480,-1000.000,-49.316,-786.133
1742117130.515,-1000.000,-994.629,-49.805,-1000.000
1742117130.519,-888.184,-901.367,-39.062,-885.254
1742117130.476,-1000.000,-1000.000,-20.508,-987.793
1742117130.480,-973.145,-470.215,-26.855,-1000.000
1742117130.484,359.863,925.781,-22.461,192.383
1742117130.488,999.512,996.094,-15.137,999.512
1742117130.492,900.391,919.922,-29.785,907.715
1742117130.496,987.305,980.957,-35.645,980.957
1742117130.500,892.090,904.297,-34.668,900.879
1742117130.503,999.512,999.512,-35.156,999.512
1742117130.507,520.020,187.012,-35.645,642.578
1742117130.511,-917.480,-1000.000,-49.316,-786.133
1742117130.515,-1000.000,-994.629,-49.805,-1000.000
1742117130.519,-888.184,-901.367,-39.062,-885.254
1742117130.537,-1000.000,-1000.000,-27.344,-1000.000
1742117130.541,-818.848,-451.172,-22.949,-834.961
1742117130.545,598.633,937.988,-32.227,565.430
1742117130.549,999.512,997.559,-43.457,999.512
1742117130.553,914.551,864.258,-47.363,914.062
1742117130.557,915.527,881.836,-37.109,927.246
1742117130.561,999.512,999.512,-34.180,999.512
1742117130.564,708.496,176.758,-56.152,832.520
1742117130.568,-720.703,-1000.000,-70.312,-548.828
1742117130.572,-1000.000,-987.793,-66.895,-1000.000
1742117130.576,-937.012,-951.660,-61.523,-934.570
1742117130.580,-952.637,-983.887,-48.828,-950.195
1742117130.537,-1000.000,-1000.000,-27.344,-1000.000
1742117130.541,-818.848,-451.172,-22.949,-834.961
1742117130.545,598.633,937.988,-32.227,565.430
1742117130.549,999.512,997.559,-43.457,999.512
1742117130.553,914.551,864.258,-47.363,914.062
1742117130.557,915.527,881.836,-37.109,927.246
1742117130.561,999.512,999.512,-34.180,999.512
1742117130.564,708.496,176.758,-56.152,832.520
1742117130.568,-720.703,-1000.000,-70.312,-548.828
1742117130.572,-1000.000,-987.793,-66.895,-1000.000
1742117130.576,-937.012,-951.660,-61.523,-934.570
1742117130.580,-952.637,-983.887,-48.828,-950.195
1742117130.580,-1000.000,-1000.000,-46.387,-1000.000
1742117130.584,-208.008,112.793,-40.527,-196.289
1742117130.588,999.512,999.512,-37.598,999.512
1742117130.592,948.242,916.016,-51.758,947.266
1742117130.596,948.730,962.891,-45.898,952.148
1742117130.600,900.879,904.297,-37.598,900.391
1742117130.604,999.512,999.512,-40.527,999.512
1742117130.607,352.539,206.543,-45.410,400.879
1742117130.611,-1000.000,-1000.000,-59.570,-997.559
1742117130.615,-948.242,-924.805,-56.641,-958.008
1742117130.619,-1000.000,-1000.000,-55.176,-1000.000
1742117130.623,-761.719,-221.680,-53.711,-709.961
1742117130.580,-1000.000,-1000.000,-46.387,-1000.000
1742117130.584,-208.008,112.793,-40.527,-196.289
1742117130.588,999.512,999.512,-37.598,999.512
1742117130.592,948.242,916.016,-51.758,947.266
1742117130.596,948.730,962.891,-45.898,952.148
1742117130.600,900.879,904.297,-37.598,900.391
1742117130.604,999.512,999.512,-40.527,999.512
1742117130.607,352.539,206.543,-45.410,400.879
1742117130.611,-1000.000,-1000.000,-59.570,-997.559
1742117130.615,-948.242,-924.805,-56.641,-958.008
1742117130.619,-1000.000,-1000.000,-55.176,-1000.000
1742117130.623,-761.719,-221.680,-53.711,-709.961
1742117130.629,682.617,999.512,-48.340,714.844
1742117130.633,999.512,950.195,-53.711,999.512
1742117130.637,876.465,877.930,-46.387,886.719
1742117130.641,963.867,999.512,-34.668,957.031
1742117130.645,999.512,180.664,-41.016,999.512
1742117130.649,-205.078,-1000.000,-43.945,-134.766
1742117130.653,-1000.000,-994.629,-49.316,-1000.000
1742117130.656,-931.152,-924.805,-53.223,-943.359
1742117130.660,-953.125,-1000.000,-47.363,-945.312
1742117130.664,-1000.000,-871.582,-50.781,-1000.000
1742117130.668,-44.434,489.258,-49.805,-64.941
1742117130.672,999.512,999.512,-51.270,999.512
1742117130.629,682.617,999.512,-48.340,714.844
1742117130.633,999.512,950.195,-53.711,999.512
1742117130.637,876.465,877.930,-46.387,886.719
1742117130.641,963.867,999.512,-34.668,957.031
1742117130.645,999.512,180.664,-41.016,999.512
1742117130.649,-205.078,-1000.000,-43.945,-134.766
1742117130.653,-1000.000,-994.629,-49.316,-1000.000
1742117130.656,-931.152,-924.805,-53.223,-943.359
1742117130.660,-953.125,-1000.000,-47.363,-945.312
1742117130.664,-1000.000,-871.582,-50.781,-1000.000
1742117130.668,-44.434,489.258,-49.805,-64.941
1742117130.672,999.512,999.512,-51.270,999.512
1742117130.672,927.734,882.324,-46.875,935.059
1742117130.676,888.672,953.125,-32.715,883.789
1742117130.680,999.512,999.512,-31.738,999.512
1742117130.684,186.523,-145.020,-41.992,255.859
1742117130.688,-1000.000,-1000.000,-41.992,-999.023
1742117130.692,-997.070,-1000.000,-32.715,-1000.000
1742117130.696,-962.891,-363.770,-32.715,-901.367
1742117130.699,327.148,988.281,-35.156,398.926
1742117130.703,999.512,910.156,-37.109,999.512
1742117130.707,853.027,999.512,-39.062,854.980
1742117130.711,999.512,586.426,-42.480,999.512
1742117130.715,23.438,-829.590,-40.039,47.363
1742117130.672,927.734,882.324,-46.875,935.059
1742117130.676,888.672,953.125,-32.715,883.789
1742117130.680,999.512,999.512,-31.738,999.512
1742117130.684,186.523,-145.020,-41.992,255.859
1742117130.688,-1000.000,-1000.000,-41.992,-999.023
1742117130.692,-997.070,-1000.000,-32.715,-1000.000
1742117130.696,-962.891,-363.770,-32.715,-901.367
1742117130.699,327.148,988.281,-35.156,398.926
1742117130.703,999.512,910.156,-37.109,999.512
1742117130.707,853.027,999.512,-39.062,854.980
1742117130.711,999.512,586.426,-42.480,999.512
1742117130.715,23.438,-829.590,-40.039,47.363
1742117130.717,-1000.000,-1000.000,-43.945,-1000.000
1742117130.721,-962.891,-926.270,-49.805,-967.773
1742117130.725,-922.363,-983.398,-54.199,-920.410
1742117130.729,-1000.000,-1000.000,-54.199,-1000.000
1742117130.733,-220.703,73.730,-46.387,-215.820
1742117130.737,999.512,999.512,-47.363,999.512
1742117130.741,881.348,854.492,-59.570,880.859
1742117130.744,999.512,999.512,-65.918,999.512
1742117130.748,291.504,182.129,-65.430,318.848
1742117130.752,-1000.000,-1000.000,-44.922,-1000.000
1742117130.756,-1000.000,-996.094,-36.133,-1000.000
1742117130.760,-950.195,-916.504,-42.969,-951.660
1742117130.717,-1000.000,-1000.000,-43.945,-1000.000
1742117130.721,-962.891,-926.270,-49.805,-967.773
1742117130.725,-922.363,-983.398,-54.199,-920.410
1742117130.729,-1000.000,-1000.000,-54.199,-1000.000
1742117130.733,-220.703,73.730,-46.387,-215.820
1742117130.737,999.512,999.512,-47.363,999.512
1742117130.741,881.348,854.492,-59.570,880.859
1742117130.744,999.512,999.512,-65.918,999.512
1742117130.748,291.504,182.129,-65.430,318.848
1742117130.752,-1000.000,-1000.000,-44.922,-1000.000
1742117130.756,-1000.000,-996.094,-36.133,-1000.000
1742117130.760,-950.195,-916.504,-42.969,-951.660
1742117130.760,-971.680,-1000.000,-32.715,-966.309
1742117130.764,-1000.000,-791.992,-31.738,-1000.000
1742117130.768,24.902,603.516,-22.461,-31.738
1742117130.772,999.512,999.512,-17.090,999.512
1742117130.776,918.457,904.785,-28.320,925.781
1742117130.780,971.191,979.004,-30.273,966.797
1742117130.784,896.973,904.785,-35.156,914.062
1742117130.787,999.512,999.512,-37.109,999.512
1742117130.791,565.430,180.176,-29.785,793.945
1742117130.795,-865.234,-1000.000,-29.297,-604.492
1742117130.799,-1000.000,-992.676,-34.180,-1000.000
1742117130.803,-879.395,-902.344,-30.762,-872.559
1742117130.760,-971.680,-1000.000,-32.715,-966.309
1742117130.764,-1000.000,-791.992,-31.738,-1000.000
1742117130.768,24.902,603.516,-22.461,-31.738
1742117130.772,999.512,999.512,-17.090,999.512
1742117130.776,918.457,904.785,-28.320,925.781
1742117130.780,971.191,979.004,-30.273,966.797
1742117130.784,896.973,904.785,-35.156,914.062
1742117130.787,999.512,999.512,-37.109,999.512
1742117130.791,565.430,180.176,-29.785,793.945
1742117130.795,-865.234,-1000.000,-29.297,-604.492
1742117130.799,-1000.000,-992.676,-34.180,-1000.000
1742117130.803,-879.395,-902.344,-30.762,-872.559
1742117130.807,-1000.000,-1000.000,-33.203,-1000.000
1742117130.811,-740.723,-414.551,-31.250,-742.676
1742117130.815,697.266,885.742,-26.367,678.223
1742117130.819,985.840,999.512,-39.062,999.512
1742117130.823,999.512,215.332,-41.016,999.512
1742117130.827,221.680,-1000.000,-32.227,136.230
1742117130.831,-1000.000,-994.141,-31.738,-1000.000
1742117130.834,-914.062,-908.691,-37.598,-916.016
1742117130.838,-1000.000,-1000.000,-43.457,-1000.000
1742117130.842,-584.473,-177.246,-40.039,-626.953
1742117130.846,861.816,999.512,-41.504,790.527
1742117130.850,999.512,946.777,-43.457,999.512
1742117130.807,-1000.000,-1000.000,-33.203,-1000.000
1742117130.811,-740.723,-414.551,-31.250,-742.676
1742117130.815,697.266,885.742,-26.367,678.223
1742117130.819,985.840,999.512,-39.062,999.512
1742117130.823,999.512,215.332,-41.016,999.512
1742117130.827,221.680,-1000.000,-32.227,136.230
1742117130.831,-1000.000,-994.141,-31.738,-1000.000
1742117130.834,-914.062,-908.691,-37.598,-916.016
1742117130.838,-1000.000,-1000.000,-43.457,-1000.000
1742117130.842,-584.473,-177.246,-40.039,-626.953
1742117130.846,861.816,999.512,-41.504,790.527
1742117130.850,999.512,946.777,-43.457,999.512
1742117130.851,835.938,865.723,-44.434,840.332
1742117130.855,999.512,999.512,-44.922,999.512
1742117130.859,518.555,221.680,-41.992,581.543
1742117130.863,-840.820,-1000.000,-40.527,-778.320
1742117130.867,-1000.000,-1000.000,-34.668,-1000.000
1742117130.871,-356.934,-85.449,-29.785,-301.758
1742117130.875,883.789,999.512,-39.551,904.297
1742117130.878,999.512,999.512,-45.898,999.512
1742117130.882,144.043,-48.828,-53.223,148.438
1742117130.886,-1000.000,-1000.000,-48.828,-1000.000
1742117130.890,-984.375,-947.266,-47.852,-984.375
1742117130.894,-973.633,-1000.000,-53.711,-973.633
1742117130.851,835.938,865.723,-44.434,840.332
1742117130.855,999.512,999.512,-44.922,999.512
1742117130.859,518.555,221.680,-41.992,581.543
1742117130.863,-840.820,-1000.000,-40.527,-778.320
1742117130.867,-1000.000,-1000.000,-34.668,-1000.000
1742117130.871,-356.934,-85.449,-29.785,-301.758
1742117130.875,883.789,999.512,-39.551,904.297
1742117130.878,999.512,999.512,-45.898,999.512
1742117130.882,144.043,-48.828,-53.223,148.438
1742117130.886,-1000.000,-1000.000,-48.828,-1000.000
1742117130.890,-984.375,-947.266,-47.852,-984.375
1742117130.894,-973.633,-1000.000,-53.711,-973.633
1742117130.911,-944.336,144.531,-52.246,-944.336
1742117130.915,-1000.000,999.512,-52.246,-1000.000
1742117130.919,-221.191,920.898,-43.457,-218.750
1742117130.923,999.512,974.609,-46.875,999.512
1742117130.927,942.383,907.227,-54.688,942.871
1742117130.931,888.184,999.512,-42.480,890.625
1742117130.935,999.512,707.520,-42.969,999.512
1742117130.938,53.711,-709.961,-40.527,59.082
1742117130.942,-1000.000,-1000.000,-43.945,-1000.000
1742117130.946,-967.285,-941.895,-57.129,-970.215
1742117130.950,-975.098,-995.605,-51.758,-974.609
1742117130.954,-953.613,-968.262,-50.293,-953.613
1742117130.911,-944.336,144.531,-52.246,-944.336
1742117130.915,-1000.000,999.512,-52.246,-1000.000
1742117130.919,-221.191,920.898,-43.457,-218.750
1742117130.923,999.512,974.609,-46.875,999.512
1742117130.927,942.383,907.227,-54.688,942.871
1742117130.931,888.184,999.512,-42.480,890.625
1742117130.935,999.512,707.520,-42.969,999.512
1742117130.938,53.711,-709.961,-40.527,59.082
1742117130.942,-1000.000,-1000.000,-43.945,-1000.000
1742117130.946,-967.285,-941.895,-57.129,-970.215
1742117130.950,-975.098,-995.605,-51.758,-974.609
1742117130.954,-953.613,-968.262,-50.293,-953.613
1742117131.002,-1000.000,-995.605,-32.715,-1000.000
1742117131.006,-221.191,256.348,-35.156,-209.961
1742117131.010,999.512,999.512,-39.062,999.512
1742117131.014,960.449,925.293,-33.203,958.008
1742117131.018,896.973,896.973,-21.484,905.273
1742117131.022,993.164,999.512,-24.414,978.027
1742117131.026,931.152,596.191,-35.645,973.633
1742117131.029,-411.621,-836.914,-47.363,-326.660
1742117131.033,-1000.000,-1000.000,-35.645,-1000.000
1742117131.037,-934.570,-951.660,-15.625,-937.012
1742117131.041,-1000.000,-979.492,-24.414,-1000.000
1742117131.045,-940.918,-1000.000,-38.574,-939.453
1742117131.002,-1000.000,-995.605,-32.715,-1000.000
1742117131.006,-221.191,256.348,-35.156,-209.961
1742117131.010,999.512,999.512,-39.062,999.512
1742117131.014,960.449,925.293,-33.203,958.008
1742117131.018,896.973,896.973,-21.484,905.273
1742117131.022,993.164,999.512,-24.414,978.027
1742117131.026,931.152,596.191,-35.645,973.633
1742117131.029,-411.621,-836.914,-47.363,-326.660
1742117131.033,-1000.000,-1000.000,-35.645,-1000.000
1742117131.037,-934.570,-951.660,-15.625,-937.012
1742117131.041,-1000.000,-979.492,-24.414,-1000.000
1742117131.045,-940.918,-1000.000,-38.574,-939.453
1742117131.002,-1000.000,-995.605,-32.715,-1000.000
1742117131.006,-221.191,256.348,-35.156,-209.961
1742117131.010,999.512,999.512,-39.062,999.512
1742117131.014,960.449,925.293,-33.203,958.008
1742117131.018,896.973,896.973,-21.484,905.273
1742117131.022,993.164,999.512,-24.414,978.027
1742117131.026,931.152,596.191,-35.645,973.633
1742117131.029,-411.621,-836.914,-47.363,-326.660
1742117131.033,-1000.000,-1000.000,-35.645,-1000.000
1742117131.037,-934.570,-951.660,-15.625,-937.012
1742117131.041,-1000.000,-979.492,-24.414,-1000.000
1742117131.045,-940.918,-1000.000,-38.574,-939.453
1742117131.046,-1000.000,-1000.000,-41.992,-1000.000
1742117131.050,-184.570,297.852,-37.598,-199.707
1742117131.054,999.512,999.512,-29.785,999.512
1742117131.058,944.824,999.512,-35.156,947.754
1742117131.062,941.895,125.977,-33.691,941.406
1742117131.066,974.121,-847.168,-23.926,979.492
1742117131.070,901.855,558.105,-33.691,897.949
1742117131.073,999.512,999.512,-40.527,999.512
1742117131.077,212.891,107.422,-46.875,299.316
1742117131.081,-1000.000,-1000.000,-54.199,-1000.000
1742117131.085,-988.770,-972.656,-42.480,-1000.000
1742117131.089,-908.203,-927.734,-38.086,-901.367
1742117131.046,-1000.000,-1000.000,-41.992,-1000.000
1742117131.050,-184.570,297.852,-37.598,-199.707
1742117131.054,999.512,999.512,-29.785,999.512
1742117131.058,944.824,999.512,-35.156,947.754
1742117131.062,941.895,125.977,-33.691,941.406
1742117131.066,974.121,-847.168,-23.926,979.492
1742117131.070,901.855,558.105,-33.691,897.949
1742117131.073,999.512,999.512,-40.527,999.512
1742117131.077,212.891,107.422,-46.875,299.316
1742117131.081,-1000.000,-1000.000,-54.199,-1000.000
1742117131.085,-988.770,-972.656,-42.480,-1000.000
1742117131.089,-908.203,-927.734,-38.086,-901.367
1742117131.092,-1000.000,-1000.000,-42.969,-1000.000
1742117131.096,-220.703,-68.848,-44.922,-218.262
1742117131.100,999.512,999.512,-45.898,999.512
1742117131.104,950.195,942.383,-44.434,950.684
1742117131.108,938.965,891.113,-46.387,942.383
1742117131.112,910.645,930.664,-40.039,908.691
1742117131.116,999.512,999.512,-35.156,999.512
1742117131.119,179.688,-193.359,-49.316,221.191
1742117131.123,-1000.000,-1000.000,-54.688,-1000.000
1742117131.127,-982.910,-945.801,-56.152,-989.746
1742117131.131,-977.051,-996.582,-51.758,-975.098
1742117131.135,-940.918,-940.918,-50.781,-940.430
1742117131.092,-1000.000,-1000.000,-42.969,-1000.000
1742117131.096,-220.703,-68.848,-44.922,-218.262
1742117131.100,999.512,999.512,-45.898,999.512
1742117131.104,950.195,942.383,-44.434,950.684
1742117131.108,938.965,891.113,-46.387,942.383
1742117131.112,910.645,930.664,-40.039,908.691
1742117131.116,999.512,999.512,-35.156,999.512
1742117131.119,179.688,-193.359,-49.316,221.191
1742117131.123,-1000.000,-1000.000,-54.688,-1000.000
1742117131.127,-982.910,-945.801,-56.152,-989.746
1742117131.131,-977.051,-996.582,-51.758,-975.098
1742117131.135,-940.918,-940.918,-50.781,-940.430
1742117131.136,-1000.000,-1000.000,-54.688,-1000.000
1742117131.140,-274.902,-200.195,-45.898,-304.688
1742117131.144,999.512,999.512,-42.969,999.512
1742117131.148,958.496,957.031,-44.922,964.844
1742117131.152,947.754,749.023,-41.016,943.848
1742117131.156,922.852,753.906,-46.875,932.617
1742117131.160,999.512,999.512,-50.781,992.188
1742117131.163,847.656,558.594,-57.129,912.109
1742117131.167,-541.504,-872.559,-47.852,-436.523
1742117131.171,-1000.000,-1000.000,-34.668,-1000.000
1742117131.175,-934.082,-990.723,-42.480,-935.547
1742117131.179,-1000.000,-871.094,-31.738,-1000.000
1742117131.136,-1000.000,-1000.000,-54.688,-1000.000
1742117131.140,-274.902,-200.195,-45.898,-304.688
1742117131.144,999.512,999.512,-42.969,999.512
1742117131.148,958.496,957.031,-44.922,964.844
1742117131.152,947.754,749.023,-41.016,943.848
1742117131.156,922.852,753.906,-46.875,932.617
1742117131.160,999.512,999.512,-50.781,992.188
1742117131.163,847.656,558.594,-57.129,912.109
1742117131.167,-541.504,-872.559,-47.852,-436.523
1742117131.171,-1000.000,-1000.000,-34.668,-1000.000
1742117131.175,-934.082,-990.723,-42.480,-935.547
1742117131.179,-1000.000,-871.094,-31.738,-1000.000
1742117131.184,-940.430,507.324,-35.645,-943.848
1742117131.188,-1000.000,999.512,-42.480,-1000.000
1742117131.192,-186.035,904.297,-28.320,-156.250
1742117131.196,999.512,990.234,-25.391,999.512
1742117131.200,947.266,899.414,-39.551,947.266
1742117131.204,876.953,999.512,-44.434,877.930
1742117131.208,999.512,622.070,-35.156,999.512
1742117131.211,220.703,-804.199,-28.320,287.109
1742117131.215,-1000.000,-1000.000,-28.809,-1000.000
1742117131.219,-991.699,-949.219,-37.109,-1000.000
1742117131.223,-958.496,-983.887,-41.992,-954.102
1742117131.227,-963.867,-995.605,-33.203,-963.867
1742117131.184,-940.430,507.324,-35.645,-943.848
1742117131.188,-1000.000,999.512,-42.480,-1000.000
1742117131.192,-186.035,904.297,-28.320,-156.250
1742117131.196,999.512,990.234,-25.391,999.512
1742117131.200,947.266,899.414,-39.551,947.266
1742117131.204,876.953,999.512,-44.434,877.930
1742117131.208,999.512,622.070,-35.156,999.512
1742117131.211,220.703,-804.199,-28.320,287.109
1742117131.215,-1000.000,-1000.000,-28.809,-1000.000
1742117131.219,-991.699,-949.219,-37.109,-1000.000
1742117131.223,-958.496,-983.887,-41.992,-954.102
1742117131.227,-963.867,-995.605,-33.203,-963.867
1742117131.226,-1000.000,-1000.000,-30.273,-1000.000
1742117131.230,-24.414,229.492,-37.109,-44.434
1742117131.234,999.512,999.512,-34.668,999.512
1742117131.238,923.828,929.688,-30.273,927.246
1742117131.242,959.473,779.297,-26.855,957.031
1742117131.246,943.848,771.973,-21.484,950.684
1742117131.250,945.801,999.512,-16.113,936.035
1742117131.253,999.512,774.902,-20.508,999.512
1742117131.257,-187.012,-609.375,-34.180,-109.375
1742117131.261,-1000.000,-1000.000,-23.438,-1000.000
1742117131.265,-953.613,-938.965,-25.879,-959.473
1742117131.269,-949.707,-946.777,-36.133,-948.730
1742117131.226,-1000.000,-1000.000,-30.273,-1000.000
1742117131.230,-24.414,229.492,-37.109,-44.434
1742117131.234,999.512,999.512,-34.668,999.512
1742117131.238,923.828,929.688,-30.273,927.246
1742117131.242,959.473,779.297,-26.855,957.031
1742117131.246,943.848,771.973,-21.484,950.684
1742117131.250,945.801,999.512,-16.113,936.035
1742117131.253,999.512,774.902,-20.508,999.512
1742117131.257,-187.012,-609.375,-34.180,-109.375
1742117131.261,-1000.000,-1000.000,-23.438,-1000.000
1742117131.265,-953.613,-938.965,-25.879,-959.473
1742117131.269,-949.707,-946.777,-36.133,-948.730
1742117131.286,-1000.000,-1000.000,-32.715,-1000.000
1742117131.290,-904.785,-267.578,-27.344,-915.039
1742117131.294,473.145,999.512,-22.949,434.082
1742117131.298,999.512,967.285,-16.602,999.512
1742117131.302,896.973,899.902,-15.137,901.855
1742117131.306,918.457,982.910,-16.602,914.551
1742117131.310,999.512,960.449,-14.160,999.512
1742117131.313,133.789,-338.379,-31.250,157.715
1742117131.317,-1000.000,-1000.000,-34.668,-1000.000
1742117131.321,-976.562,-938.477,-34.180,-979.980
1742117131.325,-979.492,-1000.000,-40.527,-980.469
1742117131.329,-940.918,-941.406,-41.016,-938.477
1742117131.286,-1000.000,-1000.000,-32.715,-1000.000
1742117131.290,-904.785,-267.578,-27.344,-915.039
1742117131.294,473.145,999.512,-22.949,434.082
1742117131.298,999.512,967.285,-16.602,999.512
1742117131.302,896.973,899.902,-15.137,901.855
1742117131.306,918.457,982.910,-16.602,914.551
1742117131.310,999.512,960.449,-14.160,999.512
1742117131.313,133.789,-338.379,-31.250,157.715
1742117131.317,-1000.000,-1000.000,-34.668,-1000.000
1742117131.321,-976.562,-938.477,-34.180,-979.980
1742117131.325,-979.492,-1000.000,-40.527,-980.469
1742117131.329,-940.918,-941.406,-41.016,-938.477
1742117131.330,-1000.000,-1000.000,-39.551,-1000.000
1742117131.334,-253.418,-183.105,-32.227,-307.129
1742117131.338,999.512,999.512,-28.320,999.512
1742117131.342,955.078,945.801,-33.203,964.844
1742117131.346,936.523,942.871,-32.715,933.105
1742117131.350,975.098,972.656,-32.715,982.422
1742117131.354,902.832,905.762,-32.715,898.438
1742117131.357,999.512,999.512,-26.855,999.512
1742117131.361,198.242,171.875,-34.180,295.898
1742117131.365,-1000.000,-1000.000,-42.969,-1000.000
1742117131.369,-1000.000,-987.793,-35.645,-1000.000
1742117131.373,-897.461,-905.762,-41.016,-893.066
1742117131.330,-1000.000,-1000.000,-39.551,-1000.000
1742117131.334,-253.418,-183.105,-32.227,-307.129
1742117131.338,999.512,999.512,-28.320,999.512
1742117131.342,955.078,945.801,-33.203,964.844
1742117131.346,936.523,942.871,-32.715,933.105
1742117131.350,975.098,972.656,-32.715,982.422
1742117131.354,902.832,905.762,-32.715,898.438
1742117131.357,999.512,999.512,-26.855,999.512
1742117131.361,198.242,171.875,-34.180,295.898
1742117131.365,-1000.000,-1000.000,-42.969,-1000.000
1742117131.369,-1000.000,-987.793,-35.645,-1000.000
1742117131.373,-897.461,-905.762,-41.016,-893.066
1742117131.377,-1000.000,-1000.000,-37.109,-1000.000
1742117131.381,-576.660,-333.008,-31.738,-600.098
1742117131.385,870.117,994.629,-38.574,833.496
1742117131.389,999.512,973.633,-42.480,999.512
1742117131.393,911.133,914.062,-43.945,916.016
1742117131.397,919.434,943.359,-28.320,914.062
1742117131.401,999.512,999.512,-26.855,999.512
1742117131.404,187.012,-76.172,-47.363,279.785
1742117131.408,-1000.000,-1000.000,-36.621,-1000.000
1742117131.412,-983.887,-954.102,-24.902,-999.512
1742117131.416,-987.793,-991.699,-17.578,-979.980
1742117131.420,-933.105,-939.941,-9.277,-941.895
1742117131.377,-1000.000,-1000.000,-37.109,-1000.000
1742117131.381,-576.660,-333.008,-31.738,-600.098
1742117131.385,870.117,994.629,-38.574,833.496
1742117131.389,999.512,973.633,-42.480,999.512
1742117131.393,911.133,914.062,-43.945,916.016
1742117131.397,919.434,943.359,-28.320,914.062
1742117131.401,999.512,999.512,-26.855,999.512
1742117131.404,187.012,-76.172,-47.363,279.785
1742117131.408,-1000.000,-1000.000,-36.621,-1000.000
1742117131.412,-983.887,-954.102,-24.902,-999.512
1742117131.416,-987.793,-991.699,-17.578,-979.980
1742117131.420,-933.105,-939.941,-9.277,-941.895
1742117131.421,-1000.000,-1000.000,-17.090,-1000.000
1742117131.425,-574.707,-218.750,-18.555,-658.203
1742117131.429,866.699,999.512,-17.090,770.996
1742117131.433,999.512,950.684,-14.648,999.512
1742117131.437,919.434,954.102,-19.531,915.527
1742117131.441,946.777,909.668,-22.461,950.195
1742117131.445,968.750,999.512,-21.484,960.938
1742117131.448,982.910,693.359,-25.391,999.512
1742117131.452,-320.312,-735.352,-29.785,-266.113
1742117131.456,-1000.000,-1000.000,-20.020,-1000.000
1742117131.460,-948.242,-909.668,-17.578,-950.195
1742117131.464,-954.590,-1000.000,-22.461,-954.590
1742117131.421,-1000.000,-1000.000,-17.090,-1000.000
1742117131.425,-574.707,-218.750,-18.555,-658.203
1742117131.429,866.699,999.512,-17.090,770.996
1742117131.433,999.512,950.684,-14.648,999.512
1742117131.437,919.434,954.102,-19.531,915.527
1742117131.441,946.777,909.668,-22.461,950.195
1742117131.445,968.750,999.512,-21.484,960.938
1742117131.448,982.910,693.359,-25.391,999.512
1742117131.452,-320.312,-735.352,-29.785,-266.113
1742117131.456,-1000.000,-1000.000,-20.020,-1000.000
1742117131.460,-948.242,-909.668,-17.578,-950.195
1742117131.464,-954.590,-1000.000,-22.461,-954.590
1742117131.932,999.512,999.512,-1.465,999.512
1742117131.936,906.738,847.656,-10.742,908.691
1742117131.940,961.426,999.512,-11.230,961.914
1742117131.944,932.129,464.844,-18.066,925.781
1742117131.948,-421.875,-933.105,-21.973,-417.480
1742117131.952,-1000.000,-1000.000,-14.648,-1000.000
1742117131.956,-946.777,-952.637,-25.391,-948.730
1742117131.959,-945.801,-961.426,-35.156,-950.684
1742117131.963,-1000.000,-1000.000,-31.738,-1000.000
1742117131.967,-655.762,-287.598,-29.785,-780.273
1742117131.971,755.859,965.332,-25.879,621.582
1742117131.975,999.512,977.539,-33.203,999.512
1742117131.481,-1000.000,71.777,-23.926,-1000.000
1742117131.485,-895.508,999.512,-24.414,-897.949
1742117131.489,486.816,854.492,-16.602,459.473
1742117131.493,999.512,999.512,-26.855,999.512
1742117131.497,899.902,628.418,-36.621,902.832
1742117131.501,978.027,-921.387,-27.832,981.445
1742117131.505,902.344,-187.012,-28.320,898.438
1742117131.508,999.512,999.512,-35.156,999.512
1742117131.512,202.637,70.801,-35.156,296.875
1742117131.516,-1000.000,-1000.000,-25.879,-1000.000
1742117131.520,-987.305,-956.543,-24.902,-1000.000
1742117131.524,-909.180,-939.453,-25.391,-902.344
1742117131.481,-1000.000,71.777,-23.926,-1000.000
1742117131.485,-895.508,999.512,-24.414,-897.949
1742117131.489,486.816,854.492,-16.602,459.473
1742117131.493,999.512,999.512,-26.855,999.512
1742117131.497,899.902,628.418,-36.621,902.832
1742117131.501,978.027,-921.387,-27.832,981.445
1742117131.505,902.344,-187.012,-28.320,898.438
1742117131.508,999.512,999.512,-35.156,999.512
1742117131.512,202.637,70.801,-35.156,296.875
1742117131.516,-1000.000,-1000.000,-25.879,-1000.000
1742117131.520,-987.305,-956.543,-24.902,-1000.000
1742117131.524,-909.180,-939.453,-25.391,-902.344
1742117131.512,-1000.000,-1000.000,-18.555,-1000.000
1742117131.516,-220.703,2.441,-27.832,-212.402
1742117131.520,999.512,999.512,-27.344,999.512
1742117131.524,950.195,924.316,-21.484,949.707
1742117131.528,944.336,956.055,-21.484,949.219
1742117131.532,904.785,906.738,-18.066,902.344
1742117131.536,999.512,999.512,-22.949,999.512
1742117131.539,277.832,187.012,-30.762,359.863
1742117131.543,-1000.000,-1000.000,-43.457,-1000.000
1742117131.547,-999.023,-984.375,-42.480,-1000.000
1742117131.551,-979.492,-975.098,-37.109,-969.727
1742117131.555,-954.102,-942.871,-41.992,-967.773
1742117131.512,-1000.000,-1000.000,-18.555,-1000.000
1742117131.516,-220.703,2.441,-27.832,-212.402
1742117131.520,999.512,999.512,-27.344,999.512
1742117131.524,950.195,924.316,-21.484,949.707
1742117131.528,944.336,956.055,-21.484,949.219
1742117131.532,904.785,906.738,-18.066,902.344
1742117131.536,999.512,999.512,-22.949,999.512
1742117131.539,277.832,187.012,-30.762,359.863
1742117131.543,-1000.000,-1000.000,-43.457,-1000.000
1742117131.547,-999.023,-984.375,-42.480,-1000.000
1742117131.551,-979.492,-975.098,-37.109,-969.727
1742117131.555,-954.102,-942.871,-41.992,-967.773
1742117131.557,-1000.000,-1000.000,-47.363,-1000.000
1742117131.561,-836.914,-244.141,-35.645,-930.176
1742117131.565,566.895,999.512,-32.227,413.086
1742117131.569,999.512,955.566,-32.715,999.512
1742117131.573,901.367,933.105,-25.879,903.320
1742117131.577,915.527,919.434,-26.855,911.621
1742117131.581,999.512,999.512,-24.902,999.512
1742117131.584,187.012,103.027,-45.410,187.012
1742117131.588,-1000.000,-1000.000,-41.016,-1000.000
1742117131.592,-984.375,-973.145,-33.203,-983.887
1742117131.596,-976.074,-978.027,-38.086,-979.004
1742117131.600,-941.895,-945.312,-22.949,-938.477
1742117131.557,-1000.000,-1000.000,-47.363,-1000.000
1742117131.561,-836.914,-244.141,-35.645,-930.176
1742117131.565,566.895,999.512,-32.227,413.086
1742117131.569,999.512,955.566,-32.715,999.512
1742117131.573,901.367,933.105,-25.879,903.320
1742117131.577,915.527,919.434,-26.855,911.621
1742117131.581,999.512,999.512,-24.902,999.512
1742117131.584,187.012,103.027,-45.410,187.012
1742117131.588,-1000.000,-1000.000,-41.016,-1000.000
1742117131.592,-984.375,-973.145,-33.203,-983.887
1742117131.596,-976.074,-978.027,-38.086,-979.004
1742117131.600,-941.895,-945.312,-22.949,-938.477
1742117131.616,-1000.000,-1000.000,-22.949,-1000.000
1742117131.620,-261.719,-193.848,-22.461,-323.242
1742117131.624,999.512,999.512,-8.789,999.512
1742117131.628,956.543,949.219,-17.090,967.773
1742117131.632,936.035,886.719,-20.020,931.641
1742117131.636,974.609,940.918,-7.812,977.539
1742117131.640,903.320,926.758,-8.301,904.297
1742117131.643,999.512,999.512,-0.977,999.512
1742117131.647,187.012,73.730,-2.441,187.012
1742117131.651,-1000.000,-1000.000,-4.883,-1000.000
1742117131.655,-984.375,-949.219,-8.789,-983.398
1742117131.659,-910.645,-956.543,-4.395,-912.109
1742117131.616,-1000.000,-1000.000,-22.949,-1000.000
1742117131.620,-261.719,-193.848,-22.461,-323.242
1742117131.624,999.512,999.512,-8.789,999.512
1742117131.628,956.543,949.219,-17.090,967.773
1742117131.632,936.035,886.719,-20.020,931.641
1742117131.636,974.609,940.918,-7.812,977.539
1742117131.640,903.320,926.758,-8.301,904.297
1742117131.643,999.512,999.512,-0.977,999.512
1742117131.647,187.012,73.730,-2.441,187.012
1742117131.651,-1000.000,-1000.000,-4.883,-1000.000
1742117131.655,-984.375,-949.219,-8.789,-983.398
1742117131.659,-910.645,-956.543,-4.395,-912.109
1742117131.662,-1000.000,-1000.000,0.488,-1000.000
1742117131.666,-216.797,103.516,-8.789,-199.707
1742117131.670,999.512,999.512,-20.508,999.512
1742117131.674,949.219,999.512,-32.715,947.754
1742117131.678,954.102,63.965,-23.926,956.055
1742117131.682,897.949,-353.027,-10.254,902.344
1742117131.686,999.512,999.512,-16.113,999.512
1742117131.689,528.320,299.805,-24.902,599.609
1742117131.693,-914.062,-1000.000,-24.902,-840.820
1742117131.697,-1000.000,-994.141,-8.789,-1000.000
1742117131.701,-946.777,-972.168,-8.301,-943.359
1742117131.705,-1000.000,-940.430,-23.926,-1000.000
1742117131.662,-1000.000,-1000.000,0.488,-1000.000
1742117131.666,-216.797,103.516,-8.789,-199.707
1742117131.670,999.512,999.512,-20.508,999.512
1742117131.674,949.219,999.512,-32.715,947.754
1742117131.678,954.102,63.965,-23.926,956.055
1742117131.682,897.949,-353.027,-10.254,902.344
1742117131.686,999.512,999.512,-16.113,999.512
1742117131.689,528.320,299.805,-24.902,599.609
1742117131.693,-914.062,-1000.000,-24.902,-840.820
1742117131.697,-1000.000,-994.141,-8.789,-1000.000
1742117131.701,-946.777,-972.168,-8.301,-943.359
1742117131.705,-1000.000,-940.430,-23.926,-1000.000
1742117131.705,-950.195,-1000.000,-22.949,-948.242
1742117131.709,-1000.000,-353.516,-32.227,-1000.000
1742117131.713,-81.543,985.840,-28.320,-124.023
1742117131.717,999.512,973.633,-9.766,999.512
1742117131.721,940.918,929.688,-11.719,949.707
1742117131.725,877.441,915.039,-12.207,874.023
1742117131.729,999.512,999.512,-12.207,999.512
1742117131.732,370.117,187.500,-19.531,398.926
1742117131.736,-1000.000,-1000.000,-14.160,-983.887
1742117131.740,-1000.000,-983.398,-10.742,-1000.000
1742117131.744,-958.496,-912.109,-20.508,-955.078
1742117131.748,-950.195,-1000.000,-30.273,-952.637
1742117131.705,-950.195,-1000.000,-22.949,-948.242
1742117131.709,-1000.000,-353.516,-32.227,-1000.000
1742117131.713,-81.543,985.840,-28.320,-124.023
1742117131.717,999.512,973.633,-9.766,999.512
1742117131.721,940.918,929.688,-11.719,949.707
1742117131.725,877.441,915.039,-12.207,874.023
1742117131.729,999.512,999.512,-12.207,999.512
1742117131.732,370.117,187.500,-19.531,398.926
1742117131.736,-1000.000,-1000.000,-14.160,-983.887
1742117131.740,-1000.000,-983.398,-10.742,-1000.000
1742117131.744,-958.496,-912.109,-20.508,-955.078
1742117131.748,-950.195,-1000.000,-30.273,-952.637
1742117131.752,-1000.000,-198.242,-27.344,-1000.000
1742117131.756,-207.031,999.512,-13.672,-187.012
1742117131.760,999.512,884.766,-11.230,999.512
1742117131.764,930.176,999.512,-24.902,958.496
1742117131.768,999.512,193.359,-32.715,898.926
1742117131.772,-189.941,-1000.000,-17.090,-337.891
1742117131.776,-1000.000,-983.887,-3.906,-1000.000
1742117131.779,-955.078,-978.516,-16.602,-952.637
1742117131.783,-941.406,-938.965,-17.090,-965.332
1742117131.787,-1000.000,-1000.000,-13.672,-1000.000
1742117131.791,-815.430,-318.848,-26.367,-996.582
1742117131.795,593.262,999.512,-16.602,308.105
1742117131.752,-1000.000,-198.242,-27.344,-1000.000
1742117131.756,-207.031,999.512,-13.672,-187.012
1742117131.760,999.512,884.766,-11.230,999.512
1742117131.764,930.176,999.512,-24.902,958.496
1742117131.768,999.512,193.359,-32.715,898.926
1742117131.772,-189.941,-1000.000,-17.090,-337.891
1742117131.776,-1000.000,-983.887,-3.906,-1000.000
1742117131.779,-955.078,-978.516,-16.602,-952.637
1742117131.783,-941.406,-938.965,-17.090,-965.332
1742117131.787,-1000.000,-1000.000,-13.672,-1000.000
1742117131.791,-815.430,-318.848,-26.367,-996.582
1742117131.795,593.262,999.512,-16.602,308.105
1742117131.796,999.512,981.445,-12.207,999.512
1742117131.800,864.746,862.793,-22.461,865.723
1742117131.804,984.863,999.512,-12.207,981.445
1742117131.808,972.656,582.031,-20.020,957.031
1742117131.812,-338.379,-841.797,-28.809,-355.957
1742117131.816,-1000.000,-1000.000,-10.254,-1000.000
1742117131.820,-941.406,-957.031,-18.066,-940.430
1742117131.823,-979.004,-955.078,-23.926,-985.352
1742117131.827,-982.910,-1000.000,-32.227,-971.191
1742117131.831,-1000.000,-761.230,-29.297,-1000.000
1742117131.835,172.363,641.602,-16.113,89.844
1742117131.839,999.512,999.512,-33.203,999.512
1742117131.796,999.512,981.445,-12.207,999.512
1742117131.800,864.746,862.793,-22.461,865.723
1742117131.804,984.863,999.512,-12.207,981.445
1742117131.808,972.656,582.031,-20.020,957.031
1742117131.812,-338.379,-841.797,-28.809,-355.957
1742117131.816,-1000.000,-1000.000,-10.254,-1000.000
1742117131.820,-941.406,-957.031,-18.066,-940.430
1742117131.823,-979.004,-955.078,-23.926,-985.352
1742117131.827,-982.910,-1000.000,-32.227,-971.191
1742117131.831,-1000.000,-761.230,-29.297,-1000.000
1742117131.835,172.363,641.602,-16.113,89.844
1742117131.839,999.512,999.512,-33.203,999.512
1742117131.842,906.250,901.367,-46.875,914.062
1742117131.846,977.539,977.539,-36.133,974.609
1742117131.850,893.066,906.250,-28.809,895.996
1742117131.854,999.512,999.512,-12.207,999.512
1742117131.858,432.129,174.316,-17.090,498.535
1742117131.862,-969.238,-1000.000,-35.645,-919.434
1742117131.866,-1000.000,-981.934,-41.016,-1000.000
1742117131.869,-953.125,-974.121,-48.828,-948.242
1742117131.873,-1000.000,-1000.000,-43.457,-1000.000
1742117131.877,-991.211,-929.688,-42.969,-1000.000
1742117131.881,-953.613,-1000.000,-47.852,-937.988
1742117131.885,-1000.000,-513.672,-44.434,-1000.000
1742117131.886,-71.777,887.207,-41.016,-215.820
1742117131.890,999.512,999.512,-37.598,999.512
1742117131.894,861.816,854.492,-46.387,883.301
1742117131.898,999.512,999.512,-42.969,999.512
1742117131.902,628.906,183.105,-35.645,603.027
1742117131.906,-819.824,-1000.000,-32.715,-817.383
1742117131.910,-1000.000,-983.398,-20.020,-1000.000
1742117131.913,-940.430,-977.539,-26.855,-943.848
1742117131.917,-1000.000,-987.793,-43.945,-1000.000
1742117131.921,-937.988,-971.680,-38.574,-937.500
1742117131.925,-1000.000,-1000.000,-25.879,-1000.000
1742117131.929,-217.285,73.730,-7.324,-220.703
1742117131.886,-71.777,887.207,-41.016,-215.820
1742117131.890,999.512,999.512,-37.598,999.512
1742117131.894,861.816,854.492,-46.387,883.301
1742117131.898,999.512,999.512,-42.969,999.512
1742117131.902,628.906,183.105,-35.645,603.027
1742117131.906,-819.824,-1000.000,-32.715,-817.383
1742117131.910,-1000.000,-983.398,-20.020,-1000.000
1742117131.913,-940.430,-977.539,-26.855,-943.848
1742117131.917,-1000.000,-987.793,-43.945,-1000.000
1742117131.921,-937.988,-971.680,-38.574,-937.500
1742117131.925,-1000.000,-1000.000,-25.879,-1000.000
1742117131.929,-217.285,73.730,-7.324,-220.703
1742117131.975,905.762,936.035,-48.340,902.832
1742117131.979,982.422,950.195,-61.523,980.957
1742117131.983,903.320,958.008,-48.828,904.297
1742117131.987,999.512,993.652,-39.062,999.512
1742117131.991,187.012,-228.516,-41.016,184.082
1742117131.995,-1000.000,-1000.000,-37.109,-1000.000
1742117131.999,-983.887,-946.289,-41.992,-983.398
1742117132.002,-973.145,-998.047,-43.945,-973.145
1742117132.006,-1000.000,-1000.000,-33.691,-1000.000
1742117132.010,-988.281,-941.406,-26.855,-996.094
1742117132.014,-957.520,-1000.000,-28.320,-944.824
1742117132.018,-1000.000,-745.605,-30.273,-1000.000
1742117131.975,905.762,936.035,-48.340,902.832
1742117131.979,982.422,950.195,-61.523,980.957
1742117131.983,903.320,958.008,-48.828,904.297
1742117131.987,999.512,993.652,-39.062,999.512
1742117131.991,187.012,-228.516,-41.016,184.082
1742117131.995,-1000.000,-1000.000,-37.109,-1000.000
1742117131.999,-983.887,-946.289,-41.992,-983.398
1742117132.002,-973.145,-998.047,-43.945,-973.145
1742117132.006,-1000.000,-1000.000,-33.691,-1000.000
1742117132.010,-988.281,-941.406,-26.855,-996.094
1742117132.014,-957.520,-1000.000,-28.320,-944.824
1742117132.018,-1000.000,-745.605,-30.273,-1000.000
1742117132.036,-18.066,649.902,-19.043,-144.043
1742117132.040,999.512,999.512,-5.859,999.512
1742117132.044,851.074,844.727,-16.602,869.141
1742117132.048,999.512,999.512,-23.926,999.512
1742117132.052,381.836,176.758,-30.273,385.742
1742117132.056,-995.605,-1000.000,-25.391,-991.211
1742117132.060,-1000.000,-982.422,-11.719,-1000.000
1742117132.063,-965.820,-986.816,-15.625,-962.402
1742117132.067,-978.516,-936.035,-15.625,-990.234
1742117132.071,-1000.000,-1000.000,-11.230,-975.586
1742117132.075,-1000.000,-542.969,-15.625,-1000.000
1742117132.079,275.391,868.652,-9.277,115.723
1742117132.036,-18.066,649.902,-19.043,-144.043
1742117132.040,999.512,999.512,-5.859,999.512
1742117132.044,851.074,844.727,-16.602,869.141
1742117132.048,999.512,999.512,-23.926,999.512
1742117132.052,381.836,176.758,-30.273,385.742
1742117132.056,-995.605,-1000.000,-25.391,-991.211
1742117132.060,-1000.000,-982.422,-11.719,-1000.000
1742117132.063,-965.820,-986.816,-15.625,-962.402
1742117132.067,-978.516,-936.035,-15.625,-990.234
1742117132.071,-1000.000,-1000.000,-11.230,-975.586
1742117132.075,-1000.000,-542.969,-15.625,-1000.000
1742117132.079,275.391,868.652,-9.277,115.723
1742117132.081,999.512,999.512,-13.184,999.512
1742117132.085,902.832,909.668,-32.715,913.086
1742117132.089,907.227,926.758,-29.297,899.902
1742117132.093,999.512,999.512,-24.902,999.512
1742117132.097,187.012,96.680,-37.598,187.988
1742117132.101,-1000.000,-1000.000,-32.715,-1000.000
1742117132.105,-984.375,-972.656,-35.156,-984.375
1742117132.108,-973.633,-977.539,-42.969,-973.633
1742117132.112,-944.336,-946.777,-44.434,-944.336
1742117132.116,-1000.000,-1000.000,-35.645,-1000.000
1742117132.120,-220.703,-174.805,-20.996,-220.703
1742117132.124,999.512,999.512,-28.320,999.512
1742117132.081,999.512,999.512,-13.184,999.512
1742117132.085,902.832,909.668,-32.715,913.086
1742117132.089,907.227,926.758,-29.297,899.902
1742117132.093,999.512,999.512,-24.902,999.512
1742117132.097,187.012,96.680,-37.598,187.988
1742117132.101,-1000.000,-1000.000,-32.715,-1000.000
1742117132.105,-984.375,-972.656,-35.156,-984.375
1742117132.108,-973.633,-977.539,-42.969,-973.633
1742117132.112,-944.336,-946.777,-44.434,-944.336
1742117132.116,-1000.000,-1000.000,-35.645,-1000.000
1742117132.120,-220.703,-174.805,-20.996,-220.703
1742117132.124,999.512,999.512,-28.320,999.512
1742117132.594,-1000.000,-1000.000,-48.340,-1000.000
1742117132.598,89.844,239.258,-50.293,13.672
1742117132.602,999.512,999.512,-63.477,999.512
1742117132.606,999.512,999.512,-72.754,999.512
1742117132.610,503.906,188.477,-86.426,424.316
1742117132.614,-923.340,-1000.000,-95.703,-958.496
1742117132.618,-1000.000,-984.863,-89.355,-1000.000
1742117132.621,-949.707,-970.703,-95.215,-960.449
1742117132.625,-950.195,-948.730,-96.680,-943.359
1742117132.629,-1000.000,-1000.000,-89.844,-1000.000
1742117132.633,-260.254,-171.387,-74.219,-360.840
1742117132.637,999.512,999.512,-59.570,984.375
1742117132.127,950.195,945.312,-46.387,950.684
1742117132.131,942.383,940.918,-56.152,946.289
1742117132.135,907.227,913.574,-44.434,904.297
1742117132.139,999.512,999.512,-23.438,999.512
1742117132.143,234.375,142.578,-24.902,309.570
1742117132.147,-1000.000,-1000.000,-18.066,-1000.000
1742117132.151,-991.699,-978.027,-8.789,-1000.000
1742117132.154,-969.238,-987.305,-7.812,-963.379
1742117132.158,-1000.000,-936.035,-4.883,-1000.000
1742117132.162,-1000.000,-1000.000,-9.766,-1000.000
1742117132.166,-1000.000,-576.172,-6.348,-1000.000
1742117132.170,-947.266,999.512,-2.930,-948.730
1742117132.127,950.195,945.312,-46.387,950.684
1742117132.131,942.383,940.918,-56.152,946.289
1742117132.135,907.227,913.574,-44.434,904.297
1742117132.139,999.512,999.512,-23.438,999.512
1742117132.143,234.375,142.578,-24.902,309.570
1742117132.147,-1000.000,-1000.000,-18.066,-1000.000
1742117132.151,-991.699,-978.027,-8.789,-1000.000
1742117132.154,-969.238,-987.305,-7.812,-963.379
1742117132.158,-1000.000,-936.035,-4.883,-1000.000
1742117132.162,-1000.000,-1000.000,-9.766,-1000.000
1742117132.166,-1000.000,-576.172,-6.348,-1000.000
1742117132.170,-947.266,999.512,-2.930,-948.730
1742117132.171,-1000.000,186.035,-5.371,-1000.000
1742117132.175,-868.652,-1000.000,-3.906,-857.910
1742117132.179,526.855,492.676,-8.789,521.973
1742117132.183,999.512,999.512,-15.137,999.512
1742117132.187,906.738,899.902,-15.625,909.180
1742117132.191,948.242,908.203,-11.719,949.707
1742117132.195,956.543,999.512,-4.395,955.566
1742117132.198,999.512,297.363,-11.719,999.512
1742117132.202,-248.047,-1000.000,-24.902,-222.656
1742117132.206,-1000.000,-1000.000,-29.785,-1000.000
1742117132.210,-950.684,-962.891,-22.461,-957.520
1742117132.214,-927.734,-950.684,-13.184,-926.270
1742117132.171,-1000.000,186.035,-5.371,-1000.000
1742117132.175,-868.652,-1000.000,-3.906,-857.910
1742117132.179,526.855,492.676,-8.789,521.973
1742117132.183,999.512,999.512,-15.137,999.512
1742117132.187,906.738,899.902,-15.625,909.180
1742117132.191,948.242,908.203,-11.719,949.707
1742117132.195,956.543,999.512,-4.395,955.566
1742117132.198,999.512,297.363,-11.719,999.512
1742117132.202,-248.047,-1000.000,-24.902,-222.656
1742117132.206,-1000.000,-1000.000,-29.785,-1000.000
1742117132.210,-950.684,-962.891,-22.461,-957.520
1742117132.214,-927.734,-950.684,-13.184,-926.270
1742117132.218,-1000.000,-1000.000,-24.414,-1000.000
1742117132.222,-464.355,-187.988,-24.902,-543.945
1742117132.226,936.523,999.512,-20.508,876.465
1742117132.230,993.164,950.684,-24.902,999.512
1742117132.234,919.434,924.316,-18.555,914.551
1742117132.238,917.480,941.895,-20.020,919.434
1742117132.242,999.512,999.512,-30.273,999.512
1742117132.245,179.199,-103.027,-36.133,171.875
1742117132.249,-1000.000,-1000.000,-30.762,-1000.000
1742117132.253,-920.410,-1000.000,-20.020,-935.547
1742117132.257,-1000.000,-426.758,-20.020,-1000.000
1742117132.261,-225.098,945.312,-25.391,-104.980
1742117132.260,999.512,989.258,-27.344,999.512
1742117132.264,950.195,920.898,-33.691,941.895
1742117132.268,876.465,919.922,-25.879,882.812
1742117132.272,999.512,999.512,-17.578,999.512
1742117132.276,187.012,152.344,-27.344,207.520
1742117132.280,-1000.000,-1000.000,-29.785,-1000.000
1742117132.284,-983.887,-979.004,-26.855,-987.305
1742117132.287,-973.145,-976.074,-27.832,-971.680
1742117132.291,-1000.000,-1000.000,-24.902,-1000.000
1742117132.295,-938.965,-937.500,-24.902,-961.914
1742117132.299,-1000.000,-1000.000,-34.668,-1000.000
1742117132.303,-764.648,-228.516,-38.574,-979.980
1742117132.309,657.227,999.512,-30.273,335.449
1742117132.313,999.512,946.289,-20.996,999.512
1742117132.317,839.844,886.230,-31.738,840.332
1742117132.321,999.512,999.512,-44.922,999.512
1742117132.325,187.012,83.984,-38.574,187.500
1742117132.329,-1000.000,-1000.000,-26.367,-1000.000
1742117132.333,-983.887,-970.215,-30.273,-983.887
1742117132.336,-985.840,-992.188,-46.387,-982.910
1742117132.340,-955.078,-933.105,-51.758,-967.773
1742117132.344,-1000.000,-1000.000,-53.711,-1000.000
1742117132.348,-875.488,-483.398,-52.734,-980.469
1742117132.352,515.625,915.039,-42.969,345.215
1742117132.309,657.227,999.512,-30.273,335.449
1742117132.313,999.512,946.289,-20.996,999.512
1742117132.317,839.844,886.230,-31.738,840.332
1742117132.321,999.512,999.512,-44.922,999.512
1742117132.325,187.012,83.984,-38.574,187.500
1742117132.329,-1000.000,-1000.000,-26.367,-1000.000
1742117132.333,-983.887,-970.215,-30.273,-983.887
1742117132.336,-985.840,-992.188,-46.387,-982.910
1742117132.340,-955.078,-933.105,-51.758,-967.773
1742117132.344,-1000.000,-1000.000,-53.711,-1000.000
1742117132.348,-875.488,-483.398,-52.734,-980.469
1742117132.352,515.625,915.039,-42.969,345.215
1742117132.351,999.512,999.512,-38.086,999.512
1742117132.355,907.227,912.598,-36.133,911.133
1742117132.359,921.387,936.035,-44.434,915.527
1742117132.363,999.512,999.512,-38.574,999.512
1742117132.367,425.293,97.656,-24.902,527.344
1742117132.371,-911.133,-1000.000,-29.785,-832.520
1742117132.375,-1000.000,-987.793,-32.227,-1000.000
1742117132.378,-949.707,-958.984,-34.180,-946.289
1742117132.382,-952.637,-973.633,-34.668,-951.660
1742117132.386,-1000.000,-1000.000,-21.973,-1000.000
1742117132.390,-221.191,35.645,-13.672,-214.844
1742117132.394,999.512,999.512,-16.602,999.512
1742117132.351,999.512,999.512,-38.086,999.512
1742117132.355,907.227,912.598,-36.133,911.133
1742117132.359,921.387,936.035,-44.434,915.527
1742117132.363,999.512,999.512,-38.574,999.512
1742117132.367,425.293,97.656,-24.902,527.344
1742117132.371,-911.133,-1000.000,-29.785,-832.520
1742117132.375,-1000.000,-987.793,-32.227,-1000.000
1742117132.378,-949.707,-958.984,-34.180,-946.289
1742117132.382,-952.637,-973.633,-34.668,-951.660
1742117132.386,-1000.000,-1000.000,-21.973,-1000.000
1742117132.390,-221.191,35.645,-13.672,-214.844
1742117132.394,999.512,999.512,-16.602,999.512
1742117132.411,951.172,932.129,-30.273,950.684
1742117132.415,932.129,916.504,-31.738,936.035
1742117132.419,921.387,989.258,-18.066,917.969
1742117132.423,999.512,916.016,-12.695,999.512
1742117132.427,61.523,-397.949,-37.109,111.328
1742117132.431,-1000.000,-1000.000,-42.969,-1000.000
1742117132.435,-966.797,-938.477,-37.598,-973.633
1742117132.438,-982.422,-1000.000,-40.527,-978.516
1742117132.442,-1000.000,-1000.000,-38.086,-1000.000
1742117132.446,-948.730,-934.082,-41.504,-977.051
1742117132.450,-1000.000,-1000.000,-33.203,-979.004
1742117132.454,-866.699,-279.785,-32.227,-1000.000
1742117132.411,951.172,932.129,-30.273,950.684
1742117132.415,932.129,916.504,-31.738,936.035
1742117132.419,921.387,989.258,-18.066,917.969
1742117132.423,999.512,916.016,-12.695,999.512
1742117132.427,61.523,-397.949,-37.109,111.328
1742117132.431,-1000.000,-1000.000,-42.969,-1000.000
1742117132.435,-966.797,-938.477,-37.598,-973.633
1742117132.438,-982.422,-1000.000,-40.527,-978.516
1742117132.442,-1000.000,-1000.000,-38.086,-1000.000
1742117132.446,-948.730,-934.082,-41.504,-977.051
1742117132.450,-1000.000,-1000.000,-33.203,-979.004
1742117132.454,-866.699,-279.785,-32.227,-1000.000
1742117132.456,516.602,999.512,-29.785,135.742
1742117132.460,999.512,960.449,-20.020,999.512
1742117132.464,826.660,873.047,-34.668,838.867
1742117132.468,999.512,999.512,-44.434,999.512
1742117132.472,479.980,176.758,-34.668,454.590
1742117132.476,-942.383,-1000.000,-26.367,-951.660
1742117132.480,-1000.000,-982.422,-20.996,-1000.000
1742117132.483,-958.008,-987.793,-38.086,-957.520
1742117132.487,-979.980,-939.941,-53.711,-988.770
1742117132.491,-1000.000,-1000.000,-41.992,-982.422
1742117132.495,-1000.000,-646.973,-24.414,-1000.000
1742117132.499,285.645,772.949,-12.695,161.621
1742117132.456,516.602,999.512,-29.785,135.742
1742117132.460,999.512,960.449,-20.020,999.512
1742117132.464,826.660,873.047,-34.668,838.867
1742117132.468,999.512,999.512,-44.434,999.512
1742117132.472,479.980,176.758,-34.668,454.590
1742117132.476,-942.383,-1000.000,-26.367,-951.660
1742117132.480,-1000.000,-982.422,-20.996,-1000.000
1742117132.483,-958.008,-987.793,-38.086,-957.520
1742117132.487,-979.980,-939.941,-53.711,-988.770
1742117132.491,-1000.000,-1000.000,-41.992,-982.422
1742117132.495,-1000.000,-646.973,-24.414,-1000.000
1742117132.499,285.645,772.949,-12.695,161.621
1742117132.502,999.512,999.512,-25.391,999.512
1742117132.506,901.855,909.668,-21.973,910.645
1742117132.510,970.703,918.457,-8.789,957.031
1742117132.514,903.809,999.512,-19.531,926.270
1742117132.518,999.512,182.617,-27.344,999.512
1742117132.522,182.617,-1000.000,-24.414,53.711
1742117132.526,-1000.000,-992.188,-26.367,-1000.000
1742117132.529,-983.887,-934.082,-31.250,-977.051
1742117132.533,-911.133,-1000.000,-25.391,-917.969
1742117132.537,-1000.000,-947.266,-10.254,-1000.000
1742117132.541,-215.332,358.398,-13.672,-200.684
1742117132.545,999.512,999.512,-11.230,999.512
1742117132.502,999.512,999.512,-25.391,999.512
1742117132.506,901.855,909.668,-21.973,910.645
1742117132.510,970.703,918.457,-8.789,957.031
1742117132.514,903.809,999.512,-19.531,926.270
1742117132.518,999.512,182.617,-27.344,999.512
1742117132.522,182.617,-1000.000,-24.414,53.711
1742117132.526,-1000.000,-992.188,-26.367,-1000.000
1742117132.529,-983.887,-934.082,-31.250,-977.051
1742117132.533,-911.133,-1000.000,-25.391,-917.969
1742117132.537,-1000.000,-947.266,-10.254,-1000.000
1742117132.541,-215.332,358.398,-13.672,-200.684
1742117132.545,999.512,999.512,-11.230,999.512
1742117132.502,999.512,999.512,-25.391,999.512
1742117132.506,901.855,909.668,-21.973,910.645
1742117132.510,970.703,918.457,-8.789,957.031
1742117132.514,903.809,999.512,-19.531,926.270
1742117132.518,999.512,182.617,-27.344,999.512
1742117132.522,182.617,-1000.000,-24.414,53.711
1742117132.526,-1000.000,-992.188,-26.367,-1000.000
1742117132.529,-983.887,-934.082,-31.250,-977.051
1742117132.533,-911.133,-1000.000,-25.391,-917.969
1742117132.537,-1000.000,-947.266,-10.254,-1000.000
1742117132.541,-215.332,358.398,-13.672,-200.684
1742117132.545,999.512,999.512,-11.230,999.512
1742117132.546,949.707,868.164,-19.531,948.242
1742117132.550,876.953,988.770,-39.062,879.395
1742117132.554,999.512,915.527,-22.461,999.512
1742117132.558,186.523,-380.859,-21.484,174.805
1742117132.562,-1000.000,-1000.000,-39.551,-1000.000
1742117132.566,-983.887,-902.832,-40.527,-982.422
1742117132.570,-973.145,-1000.000,-58.594,-974.121
1742117132.573,-1000.000,152.832,-66.895,-1000.000
1742117132.577,-1000.000,303.711,-62.988,-1000.000
1742117132.581,-1000.000,-1000.000,-66.895,-1000.000
1742117132.585,-981.445,-963.867,-47.363,-986.816
1742117132.589,-968.262,-965.820,-42.969,-959.473
1742117132.546,949.707,868.164,-19.531,948.242
1742117132.550,876.953,988.770,-39.062,879.395
1742117132.554,999.512,915.527,-22.461,999.512
1742117132.558,186.523,-380.859,-21.484,174.805
1742117132.562,-1000.000,-1000.000,-39.551,-1000.000
1742117132.566,-983.887,-902.832,-40.527,-982.422
1742117132.570,-973.145,-1000.000,-58.594,-974.121
1742117132.573,-1000.000,152.832,-66.895,-1000.000
1742117132.577,-1000.000,303.711,-62.988,-1000.000
1742117132.581,-1000.000,-1000.000,-66.895,-1000.000
1742117132.585,-981.445,-963.867,-47.363,-986.816
1742117132.589,-968.262,-965.820,-42.969,-959.473
1742117132.636,957.031,938.477,-67.383,977.051
1742117132.640,873.047,891.113,-72.754,863.770
1742117132.644,999.512,999.512,-74.707,999.512
1742117132.648,187.988,88.867,-72.266,221.191
1742117132.652,-1000.000,-1000.000,-66.895,-1000.000
1742117132.656,-984.375,-972.656,-67.871,-989.258
1742117132.660,-987.793,-990.723,-62.500,-983.887
1742117132.663,-943.359,-933.105,-62.988,-951.660
1742117132.667,-1000.000,-1000.000,-65.918,-1000.000
1742117132.671,-753.906,-452.148,-49.805,-824.707
1742117132.675,678.711,936.035,-43.457,581.055
1742117132.679,999.512,992.676,-41.992,999.512
1742117132.636,957.031,938.477,-67.383,977.051
1742117132.640,873.047,891.113,-72.754,863.770
1742117132.644,999.512,999.512,-74.707,999.512
1742117132.648,187.988,88.867,-72.266,221.191
1742117132.652,-1000.000,-1000.000,-66.895,-1000.000
1742117132.656,-984.375,-972.656,-67.871,-989.258
1742117132.660,-987.793,-990.723,-62.500,-983.887
1742117132.663,-943.359,-933.105,-62.988,-951.660
1742117132.667,-1000.000,-1000.000,-65.918,-1000.000
1742117132.671,-753.906,-452.148,-49.805,-824.707
1742117132.675,678.711,936.035,-43.457,581.055
1742117132.679,999.512,992.676,-41.992,999.512
1742117132.682,902.344,921.387,-26.367,902.344
1742117132.686,981.445,979.980,-19.043,979.980
1742117132.690,903.809,905.273,-21.484,904.297
1742117132.694,999.512,999.512,-27.832,999.512
1742117132.698,187.012,173.340,-37.109,187.012
1742117132.702,-1000.000,-1000.000,-26.367,-1000.000
1742117132.706,-983.887,-981.934,-15.625,-983.887
1742117132.709,-973.145,-985.352,-16.602,-973.145
1742117132.713,-1000.000,-958.008,-13.672,-1000.000
1742117132.717,-1000.000,-1000.000,-16.602,-1000.000
1742117132.721,-931.152,-878.906,-15.625,-927.246
1742117132.725,-1000.000,483.398,-17.578,-1000.000
1742117132.682,902.344,921.387,-26.367,902.344
1742117132.686,981.445,979.980,-19.043,979.980
1742117132.690,903.809,905.273,-21.484,904.297
1742117132.694,999.512,999.512,-27.832,999.512
1742117132.698,187.012,173.340,-37.109,187.012
1742117132.702,-1000.000,-1000.000,-26.367,-1000.000
1742117132.706,-983.887,-981.934,-15.625,-983.887
1742117132.709,-973.145,-985.352,-16.602,-973.145
1742117132.713,-1000.000,-958.008,-13.672,-1000.000
1742117132.717,-1000.000,-1000.000,-16.602,-1000.000
1742117132.721,-931.152,-878.906,-15.625,-927.246
1742117132.725,-1000.000,483.398,-17.578,-1000.000
1742117132.726,-345.215,999.512,-26.367,-541.992
1742117132.730,990.234,903.320,-26.367,883.301
1742117132.734,971.191,975.586,-28.320,999.512
1742117132.738,929.199,971.680,-33.691,914.551
1742117132.742,976.562,946.777,-31.738,981.445
1742117132.746,904.297,940.918,-16.113,905.273
1742117132.750,999.512,999.512,-13.184,999.512
1742117132.753,176.758,-123.535,-36.133,174.805
1742117132.757,-1000.000,-1000.000,-41.016,-1000.000
1742117132.761,-982.422,-951.172,-41.992,-982.422
1742117132.765,-989.258,-994.141,-41.504,-987.305
1742117132.769,-937.500,-939.453,-26.855,-948.730
1742117132.726,-345.215,999.512,-26.367,-541.992
1742117132.730,990.234,903.320,-26.367,883.301
1742117132.734,971.191,975.586,-28.320,999.512
1742117132.738,929.199,971.680,-33.691,914.551
1742117132.742,976.562,946.777,-31.738,981.445
1742117132.746,904.297,940.918,-16.113,905.273
1742117132.750,999.512,999.512,-13.184,999.512
1742117132.753,176.758,-123.535,-36.133,174.805
1742117132.757,-1000.000,-1000.000,-41.016,-1000.000
1742117132.761,-982.422,-951.172,-41.992,-982.422
1742117132.765,-989.258,-994.141,-41.504,-987.305
1742117132.769,-937.500,-939.453,-26.855,-948.730
1742117132.786,-1000.000,-1000.000,-22.949,-1000.000
1742117132.790,-666.992,-221.680,-18.555,-789.062
1742117132.794,776.367,999.512,-12.207,615.234
1742117132.798,999.512,959.961,-8.789,999.512
1742117132.802,894.531,902.344,-4.395,894.043
1742117132.806,936.523,985.352,-0.977,931.641
1742117132.810,999.512,948.242,-15.137,999.512
1742117132.813,0.977,-360.352,-39.551,28.320
1742117132.817,-1000.000,-1000.000,-37.109,-1000.000
1742117132.821,-885.742,-899.902,-18.066,-891.602
1742117132.825,-1000.000,-1000.000,-34.668,-1000.000
1742117132.829,-455.078,22.461,-47.852,-445.801
1742117132.786,-1000.000,-1000.000,-22.949,-1000.000
1742117132.790,-666.992,-221.680,-18.555,-789.062
1742117132.794,776.367,999.512,-12.207,615.234
1742117132.798,999.512,959.961,-8.789,999.512
1742117132.802,894.531,902.344,-4.395,894.043
1742117132.806,936.523,985.352,-0.977,931.641
1742117132.810,999.512,948.242,-15.137,999.512
1742117132.813,0.977,-360.352,-39.551,28.320
1742117132.817,-1000.000,-1000.000,-37.109,-1000.000
1742117132.821,-885.742,-899.902,-18.066,-891.602
1742117132.825,-1000.000,-1000.000,-34.668,-1000.000
1742117132.829,-455.078,22.461,-47.852,-445.801
1742117132.830,942.383,999.512,-50.293,939.453
1742117132.834,991.211,916.504,-49.316,991.211
1742117132.838,857.422,900.391,-49.316,858.887
1742117132.842,999.512,999.512,-64.453,999.512
1742117132.846,187.012,122.070,-67.383,187.012
1742117132.850,-1000.000,-1000.000,-57.617,-1000.000
1742117132.854,-983.887,-975.098,-52.734,-983.887
1742117132.857,-973.145,-980.957,-45.898,-973.145
1742117132.861,-1000.000,-992.676,-52.246,-1000.000
1742117132.865,-932.129,-961.914,-54.199,-927.734
1742117132.869,-1000.000,-1000.000,-48.828,-1000.000
1742117132.873,-318.848,-16.113,-43.945,-449.219
1742117132.878,999.512,999.512,-35.645,941.406
1742117132.882,967.285,916.016,-39.551,992.188
1742117132.886,868.164,915.039,-62.012,858.398
1742117132.890,999.512,999.512,-69.336,999.512
1742117132.894,187.012,-31.250,-61.523,187.012
1742117132.898,-1000.000,-1000.000,-55.176,-1000.000
1742117132.902,-994.141,-967.773,-45.898,-991.699
1742117132.905,-932.129,-917.480,-35.645,-940.918
1742117132.909,-1000.000,-1000.000,-30.273,-1000.000
1742117132.913,-969.238,-378.906,-29.297,-1000.000
1742117132.917,367.188,974.121,-9.277,253.418
1742117132.921,999.512,978.516,3.906,999.512
1742117132.878,999.512,999.512,-35.645,941.406
1742117132.882,967.285,916.016,-39.551,992.188
1742117132.886,868.164,915.039,-62.012,858.398
1742117132.890,999.512,999.512,-69.336,999.512
1742117132.894,187.012,-31.250,-61.523,187.012
1742117132.898,-1000.000,-1000.000,-55.176,-1000.000
1742117132.902,-994.141,-967.773,-45.898,-991.699
1742117132.905,-932.129,-917.480,-35.645,-940.918
1742117132.909,-1000.000,-1000.000,-30.273,-1000.000
1742117132.913,-969.238,-378.906,-29.297,-1000.000
1742117132.917,367.188,974.121,-9.277,253.418
1742117132.921,999.512,978.516,3.906,999.512
1742117132.920,900.391,926.758,0.977,905.273
1742117132.924,978.027,985.840,11.230,971.191
1742117132.928,944.336,897.461,11.230,957.520
1742117132.932,941.895,999.512,9.277,920.898
1742117132.936,999.512,330.566,11.230,999.512
1742117132.940,-147.949,-1000.000,-2.441,22.949
1742117132.944,-1000.000,-1000.000,-17.090,-1000.000
1742117132.947,-947.754,-970.215,-26.855,-964.844
1742117132.951,-988.281,-969.238,-31.738,-979.492
1742117132.955,-950.684,-1000.000,-18.066,-950.195
1742117132.959,-1000.000,-895.020,-18.555,-1000.000
1742117132.963,-87.402,410.156,-18.555,-123.535
1742117132.920,900.391,926.758,0.977,905.273
1742117132.924,978.027,985.840,11.230,971.191
1742117132.928,944.336,897.461,11.230,957.520
1742117132.932,941.895,999.512,9.277,920.898
1742117132.936,999.512,330.566,11.230,999.512
1742117132.940,-147.949,-1000.000,-2.441,22.949
1742117132.944,-1000.000,-1000.000,-17.090,-1000.000
1742117132.947,-947.754,-970.215,-26.855,-964.844
1742117132.951,-988.281,-969.238,-31.738,-979.492
1742117132.955,-950.684,-1000.000,-18.066,-950.195
1742117132.959,-1000.000,-895.020,-18.555,-1000.000
1742117132.963,-87.402,410.156,-18.555,-123.535
1742117132.967,999.512,999.512,-14.648,999.512
1742117132.971,938.477,906.738,-17.090,947.266
1742117132.975,879.395,912.598,-9.277,875.000
1742117132.979,999.512,999.512,-21.973,999.512
1742117132.983,318.848,147.461,-34.180,392.090
1742117132.987,-1000.000,-1000.000,-30.762,-984.863
1742117132.991,-1000.000,-978.516,-28.809,-1000.000
1742117132.994,-970.703,-982.910,-22.949,-963.379
1742117132.998,-939.453,-936.523,-26.855,-943.359
1742117133.002,-1000.000,-1000.000,-23.926,-1000.000
1742117133.006,-373.047,-346.191,-23.438,-342.285
1742117133.010,980.957,991.211,-23.926,991.699
1742117133.011,975.586,972.168,-19.531,971.191
1742117133.015,926.758,928.711,-20.996,929.688
1742117133.019,977.051,913.574,-19.043,977.051
1742117133.023,966.309,999.512,-20.996,966.797
1742117133.027,966.797,40.039,-28.320,967.285
1742117133.031,963.379,-402.832,-21.973,970.215
1742117133.035,909.180,999.512,-16.113,901.367
1742117133.038,999.512,706.543,-30.762,999.512
1742117133.042,126.953,-765.625,-38.574,247.070
1742117133.046,-1000.000,-1000.000,-34.180,-1000.000
1742117133.050,-1000.000,-1000.000,-36.621,-1000.000
1742117133.054,-178.711,-229.004,-36.621,34.180
1742117133.011,975.586,972.168,-19.531,971.191
1742117133.015,926.758,928.711,-20.996,929.688
1742117133.019,977.051,913.574,-19.043,977.051
1742117133.023,966.309,999.512,-20.996,966.797
1742117133.027,966.797,40.039,-28.320,967.285
1742117133.031,963.379,-402.832,-21.973,970.215
1742117133.035,909.180,999.512,-16.113,901.367
1742117133.038,999.512,706.543,-30.762,999.512
1742117133.042,126.953,-765.625,-38.574,247.070
1742117133.046,-1000.000,-1000.000,-34.180,-1000.000
1742117133.050,-1000.000,-1000.000,-36.621,-1000.000
1742117133.054,-178.711,-229.004,-36.621,34.180
1742117133.072,999.512,999.512,-34.180,999.512
1742117133.076,947.266,950.195,-29.785,925.781
1742117133.080,940.430,873.047,-29.785,955.078
1742117133.084,972.656,999.512,-33.203,970.215
1742117133.088,966.309,40.039,-33.691,966.797
1742117133.092,966.309,-441.406,-30.273,967.285
1742117133.096,966.309,999.512,-34.668,966.797
1742117133.099,966.309,237.793,-46.875,966.797
1742117133.103,966.309,-1000.000,-38.574,967.285
1742117133.107,968.262,-554.688,-24.902,980.957
1742117133.111,901.855,786.133,-31.250,899.902
1742117133.115,999.512,999.512,-37.598,999.512
1742117133.072,999.512,999.512,-34.180,999.512
1742117133.076,947.266,950.195,-29.785,925.781
1742117133.080,940.430,873.047,-29.785,955.078
1742117133.084,972.656,999.512,-33.203,970.215
1742117133.088,966.309,40.039,-33.691,966.797
1742117133.092,966.309,-441.406,-30.273,967.285
1742117133.096,966.309,999.512,-34.668,966.797
1742117133.099,966.309,237.793,-46.875,966.797
1742117133.103,966.309,-1000.000,-38.574,967.285
1742117133.107,968.262,-554.688,-24.902,980.957
1742117133.111,901.855,786.133,-31.250,899.902
1742117133.115,999.512,999.512,-37.598,999.512
1742117133.102,215.332,112.793,-45.410,616.699
1742117133.106,-998.535,-1000.000,-39.062,-765.137
1742117133.110,-1000.000,-1000.000,-22.949,-1000.000
1742117133.114,-191.406,-194.824,-20.020,-13.672
1742117133.118,999.512,999.512,-26.855,999.512
1742117133.122,956.543,878.418,-21.973,935.059
1742117133.126,907.715,999.512,-20.020,948.242
1742117133.129,973.633,431.641,-33.203,912.109
1742117133.133,957.520,-967.773,-48.340,999.512
1742117133.137,-284.668,-1000.000,-53.711,145.996
1742117133.141,-1000.000,-925.293,-51.270,-1000.000
1742117133.145,-893.555,-1000.000,-42.480,-927.734
1742117133.102,215.332,112.793,-45.410,616.699
1742117133.106,-998.535,-1000.000,-39.062,-765.137
1742117133.110,-1000.000,-1000.000,-22.949,-1000.000
1742117133.114,-191.406,-194.824,-20.020,-13.672
1742117133.118,999.512,999.512,-26.855,999.512
1742117133.122,956.543,878.418,-21.973,935.059
