timestamps,TP9,AF7,AF8,TP10
1742116767.951,-1000.000,-1000.000,-113.770,-1000.000
1742116767.955,-564.453,-267.090,-46.875,-584.473
1742116767.959,878.418,999.512,-56.641,847.656
1742116767.963,999.512,959.473,-135.742,999.512
1742116767.967,912.109,931.641,-108.398,912.109
1742116767.971,919.434,920.410,16.113,918.945
1742116767.975,999.512,999.512,43.945,999.512
1742116767.978,186.523,105.957,-229.980,187.012
1742116767.982,-1000.000,-1000.000,-336.426,-1000.000
1742116767.986,-983.887,-973.633,-147.949,-983.887
1742116767.990,-976.074,-992.676,-41.992,-976.074
1742116767.994,-991.211,-939.453,-130.859,-992.676
1742116767.994,-963.379,-1000.000,-270.020,-961.914
1742116767.998,-1000.000,-658.691,-269.531,-1000.000
1742116768.002,34.668,758.789,-136.230,9.766
1742116768.006,999.512,999.512,-130.859,999.512
1742116768.010,930.664,916.504,-113.770,934.082
1742116768.014,905.273,911.133,-180.664,907.227
1742116768.018,999.512,999.512,-358.398,999.512
1742116768.021,838.867,327.637,-360.352,857.422
1742116768.025,-553.223,-1000.000,-421.875,-510.254
1742116768.029,-1000.000,-1000.000,-360.352,-1000.000
1742116768.033,-949.219,-968.750,-245.117,-950.684
1742116768.037,-939.941,-941.406,-260.254,-939.941
1742116767.994,-963.379,-1000.000,-270.020,-961.914
1742116767.998,-1000.000,-658.691,-269.531,-1000.000
1742116768.002,34.668,758.789,-136.230,9.766
1742116768.006,999.512,999.512,-130.859,999.512
1742116768.010,930.664,916.504,-113.770,934.082
1742116768.014,905.273,911.133,-180.664,907.227
1742116768.018,999.512,999.512,-358.398,999.512
1742116768.021,838.867,327.637,-360.352,857.422
1742116768.025,-553.223,-1000.000,-421.875,-510.254
1742116768.029,-1000.000,-1000.000,-360.352,-1000.000
1742116768.033,-949.219,-968.750,-245.117,-950.684
1742116768.037,-939.941,-941.406,-260.254,-939.941
1742116768.038,-1000.000,-1000.000,-224.121,-1000.000
1742116768.042,-640.137,-352.539,-189.941,-645.508
1742116768.046,807.617,985.840,-158.203,792.969
1742116768.050,999.512,973.633,-242.676,999.512
1742116768.054,920.898,929.688,-330.078,919.922
1742116768.058,923.340,914.551,-146.973,929.688
1742116768.062,999.512,999.512,-53.223,999.512
1742116768.065,777.344,187.012,-172.363,815.918
1742116768.069,-639.160,-1000.000,-272.461,-562.988
1742116768.073,-1000.000,-983.887,-248.047,-1000.000
1742116768.077,-934.570,-973.145,-139.648,-936.523
1742116768.081,-1000.000,-1000.000,-95.215,-1000.000
1742116768.038,-1000.000,-1000.000,-224.121,-1000.000
1742116768.042,-640.137,-352.539,-189.941,-645.508
1742116768.046,807.617,985.840,-158.203,792.969
1742116768.050,999.512,973.633,-242.676,999.512
1742116768.054,920.898,929.688,-330.078,919.922
1742116768.058,923.340,914.551,-146.973,929.688
1742116768.062,999.512,999.512,-53.223,999.512
1742116768.065,777.344,187.012,-172.363,815.918
1742116768.069,-639.160,-1000.000,-272.461,-562.988
1742116768.073,-1000.000,-983.887,-248.047,-1000.000
1742116768.077,-934.570,-973.145,-139.648,-936.523
1742116768.081,-1000.000,-1000.000,-95.215,-1000.000
1742116768.084,-999.023,-942.383,-114.258,-998.535
1742116768.088,-939.941,-1000.000,-195.312,-941.406
1742116768.092,-1000.000,-777.832,-308.594,-1000.000
1742116768.096,-191.406,622.070,-277.832,-181.152
1742116768.100,999.512,999.512,-235.840,999.512
1742116768.104,946.289,881.836,-168.457,945.312
1742116768.108,878.418,956.543,-130.371,881.348
1742116768.111,999.512,999.512,-327.148,999.512
1742116768.115,187.012,-160.156,-366.699,170.898
1742116768.119,-1000.000,-1000.000,-219.238,-1000.000
1742116768.123,-983.887,-946.289,-155.273,-981.934
1742116768.127,-973.145,-996.094,-103.516,-974.121
1742116768.084,-999.023,-942.383,-114.258,-998.535
1742116768.088,-939.941,-1000.000,-195.312,-941.406
1742116768.092,-1000.000,-777.832,-308.594,-1000.000
1742116768.096,-191.406,622.070,-277.832,-181.152
1742116768.100,999.512,999.512,-235.840,999.512
1742116768.104,946.289,881.836,-168.457,945.312
1742116768.108,878.418,956.543,-130.371,881.348
1742116768.111,999.512,999.512,-327.148,999.512
1742116768.115,187.012,-160.156,-366.699,170.898
1742116768.119,-1000.000,-1000.000,-219.238,-1000.000
1742116768.123,-983.887,-946.289,-155.273,-981.934
1742116768.127,-973.145,-996.094,-103.516,-974.121
1742116768.143,-1000.000,-1000.000,-74.219,-1000.000
1742116768.147,-933.105,-936.035,-19.043,-932.617
1742116768.151,-1000.000,-1000.000,77.148,-1000.000
1742116768.155,-290.039,-245.117,160.156,-309.570
1742116768.159,999.512,999.512,185.059,999.512
1742116768.163,960.938,967.773,216.797,965.332
1742116768.167,933.594,865.723,201.172,932.617
1742116768.170,979.980,999.512,169.922,980.957
1742116768.174,898.926,512.207,237.793,899.902
1742116768.178,999.512,-905.762,270.508,999.512
1742116768.182,266.602,-1000.000,202.637,270.020
1742116768.186,-1000.000,-947.754,178.711,-1000.000
1742116768.143,-1000.000,-1000.000,-74.219,-1000.000
1742116768.147,-933.105,-936.035,-19.043,-932.617
1742116768.151,-1000.000,-1000.000,77.148,-1000.000
1742116768.155,-290.039,-245.117,160.156,-309.570
1742116768.159,999.512,999.512,185.059,999.512
1742116768.163,960.938,967.773,216.797,965.332
1742116768.167,933.594,865.723,201.172,932.617
1742116768.170,979.980,999.512,169.922,980.957
1742116768.174,898.926,512.207,237.793,899.902
1742116768.178,999.512,-905.762,270.508,999.512
1742116768.182,266.602,-1000.000,202.637,270.020
1742116768.186,-1000.000,-947.754,178.711,-1000.000
1742116768.188,-997.070,-1000.000,185.059,-998.047
1742116768.192,-966.797,-997.559,203.613,-966.309
1742116768.196,-1000.000,-943.359,241.211,-1000.000
1742116768.200,-934.082,-1000.000,158.203,-931.641
1742116768.204,-1000.000,-166.016,51.270,-1000.000
1742116768.208,-269.531,999.512,156.738,-321.289
1742116768.212,994.141,875.977,299.805,960.938
1742116768.215,938.477,999.512,225.098,979.492
1742116768.219,999.512,286.621,15.625,909.668
1742116768.223,-179.199,-1000.000,-107.910,-338.867
1742116768.227,-1000.000,-1000.000,31.250,-1000.000
1742116768.231,-873.047,-895.996,133.301,-876.953
1742116768.188,-997.070,-1000.000,185.059,-998.047
1742116768.192,-966.797,-997.559,203.613,-966.309
1742116768.196,-1000.000,-943.359,241.211,-1000.000
1742116768.200,-934.082,-1000.000,158.203,-931.641
1742116768.204,-1000.000,-166.016,51.270,-1000.000
1742116768.208,-269.531,999.512,156.738,-321.289
1742116768.212,994.141,875.977,299.805,960.938
1742116768.215,938.477,999.512,225.098,979.492
1742116768.219,999.512,286.621,15.625,909.668
1742116768.223,-179.199,-1000.000,-107.910,-338.867
1742116768.227,-1000.000,-1000.000,31.250,-1000.000
1742116768.231,-873.047,-895.996,133.301,-876.953
1742116768.236,-1000.000,-1000.000,53.711,-1000.000
1742116768.240,-694.824,-343.262,53.223,-751.953
1742116768.244,751.465,991.699,65.430,671.875
1742116768.248,999.512,972.168,18.555,999.512
1742116768.252,904.785,927.246,40.039,906.250
1742116768.256,918.945,919.922,126.465,916.016
1742116768.260,999.512,999.512,119.629,999.512
1742116768.263,187.012,129.883,-98.145,217.285
1742116768.267,-1000.000,-1000.000,-108.398,-1000.000
1742116768.271,-983.887,-976.562,45.898,-988.770
1742116768.275,-974.121,-985.352,91.797,-971.191
1742116768.279,-1000.000,-971.680,67.383,-1000.000
1742116768.236,-1000.000,-1000.000,53.711,-1000.000
1742116768.240,-694.824,-343.262,53.223,-751.953
1742116768.244,751.465,991.699,65.430,671.875
1742116768.248,999.512,972.168,18.555,999.512
1742116768.252,904.785,927.246,40.039,906.250
1742116768.256,918.945,919.922,126.465,916.016
1742116768.260,999.512,999.512,119.629,999.512
1742116768.263,187.012,129.883,-98.145,217.285
1742116768.267,-1000.000,-1000.000,-108.398,-1000.000
1742116768.271,-983.887,-976.562,45.898,-988.770
1742116768.275,-974.121,-985.352,91.797,-971.191
1742116768.279,-1000.000,-971.680,67.383,-1000.000
1742116768.279,-944.824,-1000.000,-48.828,-942.871
1742116768.283,-1000.000,-1000.000,-26.367,-1000.000
1742116768.287,-136.230,276.367,145.020,-161.133
1742116768.291,999.512,999.512,157.715,999.512
1742116768.295,938.477,909.180,128.906,942.871
1742116768.299,946.289,954.102,27.832,944.824
1742116768.303,908.203,930.664,-59.082,909.180
1742116768.306,999.512,999.512,51.758,999.512
1742116768.310,187.012,-58.105,-104.004,187.012
1742116768.314,-1000.000,-1000.000,-168.945,-1000.000
1742116768.318,-985.840,-967.773,-59.082,-986.328
1742116768.322,-962.402,-929.688,-93.262,-961.914
1742116768.279,-944.824,-1000.000,-48.828,-942.871
1742116768.283,-1000.000,-1000.000,-26.367,-1000.000
1742116768.287,-136.230,276.367,145.020,-161.133
1742116768.291,999.512,999.512,157.715,999.512
1742116768.295,938.477,909.180,128.906,942.871
1742116768.299,946.289,954.102,27.832,944.824
1742116768.303,908.203,930.664,-59.082,909.180
1742116768.306,999.512,999.512,51.758,999.512
1742116768.310,187.012,-58.105,-104.004,187.012
1742116768.314,-1000.000,-1000.000,-168.945,-1000.000
1742116768.318,-985.840,-967.773,-59.082,-986.328
1742116768.322,-962.402,-929.688,-93.262,-961.914
1742116768.323,-961.426,-1000.000,-20.996,-962.891
1742116768.327,-1000.000,-749.023,28.809,-1000.000
1742116768.331,-38.574,658.691,51.758,-37.598
1742116768.335,999.512,999.512,-59.570,999.512
1742116768.339,937.988,917.480,-132.324,938.965
1742116768.343,904.785,906.738,-7.324,907.715
1742116768.347,999.512,999.512,42.969,999.512
1742116768.350,882.324,447.266,-47.363,896.973
1742116768.354,-490.723,-956.055,-263.672,-455.078
1742116768.358,-1000.000,-1000.000,-233.887,-1000.000
1742116768.362,-933.594,-961.426,-40.527,-935.059
1742116768.366,-1000.000,-972.656,6.836,-1000.000
1742116768.323,-961.426,-1000.000,-20.996,-962.891
1742116768.327,-1000.000,-749.023,28.809,-1000.000
1742116768.331,-38.574,658.691,51.758,-37.598
1742116768.335,999.512,999.512,-59.570,999.512
1742116768.339,937.988,917.480,-132.324,938.965
1742116768.343,904.785,906.738,-7.324,907.715
1742116768.347,999.512,999.512,42.969,999.512
1742116768.350,882.324,447.266,-47.363,896.973
1742116768.354,-490.723,-956.055,-263.672,-455.078
1742116768.358,-1000.000,-1000.000,-233.887,-1000.000
1742116768.362,-933.594,-961.426,-40.527,-935.059
1742116768.366,-1000.000,-972.656,6.836,-1000.000
1742116768.368,-1000.000,-1000.000,-34.180,-1000.000
1742116768.372,-935.059,-937.988,-110.352,-944.336
1742116768.376,-1000.000,379.883,-134.766,-1000.000
1742116768.380,-724.609,999.512,-65.918,-814.453
1742116768.384,712.402,916.992,-29.297,585.938
1742116768.388,999.512,925.781,55.176,999.512
1742116768.392,852.539,999.512,26.367,857.910
1742116768.395,999.512,874.023,-194.824,999.512
1742116768.399,54.199,-481.934,-304.199,8.789
1742116768.403,-1000.000,-1000.000,-91.797,-1000.000
1742116768.407,-965.332,-936.035,32.715,-960.938
1742116768.411,-994.629,-1000.000,-50.293,-995.605
1742116768.413,-958.008,-928.223,-94.727,-964.844
1742116768.417,-1000.000,-1000.000,-166.016,-1000.000
1742116768.421,-934.570,-508.301,-193.848,-982.910
1742116768.425,429.199,897.949,-134.766,338.379
1742116768.429,999.512,999.512,-178.711,999.512
1742116768.433,913.574,874.023,-216.309,914.062
1742116768.437,900.879,999.512,-171.875,901.367
1742116768.440,999.512,886.719,-180.176,999.512
1742116768.444,498.047,-443.848,-180.176,475.586
1742116768.448,-931.641,-1000.000,-178.223,-928.223
1742116768.452,-1000.000,-949.707,-240.723,-1000.000
1742116768.456,-947.754,-975.586,-271.973,-950.195
1742116768.413,-958.008,-928.223,-94.727,-964.844
1742116768.417,-1000.000,-1000.000,-166.016,-1000.000
1742116768.421,-934.570,-508.301,-193.848,-982.910
1742116768.425,429.199,897.949,-134.766,338.379
1742116768.429,999.512,999.512,-178.711,999.512
1742116768.433,913.574,874.023,-216.309,914.062
1742116768.437,900.879,999.512,-171.875,901.367
1742116768.440,999.512,886.719,-180.176,999.512
1742116768.444,498.047,-443.848,-180.176,475.586
1742116768.448,-931.641,-1000.000,-178.223,-928.223
1742116768.452,-1000.000,-949.707,-240.723,-1000.000
1742116768.456,-947.754,-975.586,-271.973,-950.195
1742116768.460,-1000.000,-930.664,-217.773,-1000.000
1742116768.464,-932.129,-950.195,-211.426,-929.688
1742116768.468,-1000.000,-1000.000,-201.172,-1000.000
1742116768.472,-311.523,-121.094,-272.461,-380.859
1742116768.476,999.512,999.512,-248.047,974.121
1742116768.480,976.562,937.988,-98.145,988.281
1742116768.484,858.398,886.230,-68.848,854.980
1742116768.487,999.512,999.512,-162.598,999.512
1742116768.491,413.086,159.180,-328.613,387.207
1742116768.495,-979.004,-1000.000,-405.762,-987.793
1742116768.499,-1000.000,-992.188,-217.285,-1000.000
1742116768.503,-953.125,-925.293,-92.285,-955.078
1742116768.460,-1000.000,-930.664,-217.773,-1000.000
1742116768.464,-932.129,-950.195,-211.426,-929.688
1742116768.468,-1000.000,-1000.000,-201.172,-1000.000
1742116768.472,-311.523,-121.094,-272.461,-380.859
1742116768.476,999.512,999.512,-248.047,974.121
1742116768.480,976.562,937.988,-98.145,988.281
1742116768.484,858.398,886.230,-68.848,854.980
1742116768.487,999.512,999.512,-162.598,999.512
1742116768.491,413.086,159.180,-328.613,387.207
1742116768.495,-979.004,-1000.000,-405.762,-987.793
1742116768.499,-1000.000,-992.188,-217.285,-1000.000
1742116768.503,-953.125,-925.293,-92.285,-955.078
1742116768.519,-953.613,-1000.000,-200.195,-953.613
1742116768.523,-1000.000,-881.348,-204.590,-1000.000
1742116768.527,-184.082,492.188,-76.660,-178.223
1742116768.531,999.512,999.512,-142.090,999.512
1742116768.535,936.035,877.930,-331.055,935.059
1742116768.539,892.578,957.520,-255.859,895.996
1742116768.543,999.512,999.512,-477.051,999.512
1742116768.546,36.621,-180.664,-912.109,20.020
1742116768.550,-1000.000,-1000.000,-786.621,-1000.000
1742116768.554,-963.379,-945.312,-634.277,-961.914
1742116768.558,-1000.000,-1000.000,-644.043,-1000.000
1742116768.562,-934.082,-933.594,-629.395,-938.965
1742116768.519,-953.613,-1000.000,-200.195,-953.613
1742116768.523,-1000.000,-881.348,-204.590,-1000.000
1742116768.527,-184.082,492.188,-76.660,-178.223
1742116768.531,999.512,999.512,-142.090,999.512
1742116768.535,936.035,877.930,-331.055,935.059
1742116768.539,892.578,957.520,-255.859,895.996
1742116768.543,999.512,999.512,-477.051,999.512
1742116768.546,36.621,-180.664,-912.109,20.020
1742116768.550,-1000.000,-1000.000,-786.621,-1000.000
1742116768.554,-963.379,-945.312,-634.277,-961.914
1742116768.558,-1000.000,-1000.000,-644.043,-1000.000
1742116768.562,-934.082,-933.594,-629.395,-938.965
1742116768.563,-1000.000,-1000.000,-703.125,-1000.000
1742116768.567,-672.852,-314.453,-639.160,-729.492
1742116768.571,773.438,999.512,-466.309,700.195
1742116768.575,999.512,966.797,-446.289,999.512
1742116768.579,905.762,940.918,-518.066,904.785
1742116768.583,981.934,940.918,-515.137,979.980
1742116768.587,904.785,972.656,-460.938,906.738
1742116768.590,999.512,967.285,-498.535,999.512
1742116768.594,173.828,-328.125,-654.297,159.668
1742116768.598,-1000.000,-1000.000,-651.855,-1000.000
1742116768.602,-982.422,-940.430,-473.145,-980.469
1742116768.606,-974.609,-993.164,-359.863,-976.074
1742116768.563,-1000.000,-1000.000,-703.125,-1000.000
1742116768.567,-672.852,-314.453,-639.160,-729.492
1742116768.571,773.438,999.512,-466.309,700.195
1742116768.575,999.512,966.797,-446.289,999.512
1742116768.579,905.762,940.918,-518.066,904.785
1742116768.583,981.934,940.918,-515.137,979.980
1742116768.587,904.785,972.656,-460.938,906.738
1742116768.590,999.512,967.285,-498.535,999.512
1742116768.594,173.828,-328.125,-654.297,159.668
1742116768.598,-1000.000,-1000.000,-651.855,-1000.000
1742116768.602,-982.422,-940.430,-473.145,-980.469
1742116768.606,-974.609,-993.164,-359.863,-976.074
1742116768.608,-943.848,-956.055,-258.789,-943.848
1742116768.612,-1000.000,-1000.000,-176.758,-1000.000
1742116768.616,-221.191,-51.270,-130.371,-220.703
1742116768.620,999.512,999.512,-193.848,999.512
1742116768.624,953.613,942.871,-265.137,954.590
1742116768.628,921.875,899.902,-227.539,921.387
1742116768.632,937.988,999.512,-221.191,941.406
1742116768.635,999.512,833.496,-306.641,999.512
1742116768.639,-87.402,-545.898,-516.602,-101.074
1742116768.643,-1000.000,-1000.000,-519.043,-1000.000
1742116768.647,-949.707,-935.547,-324.707,-949.219
1742116768.651,-1000.000,-1000.000,-281.738,-1000.000
1742116768.608,-943.848,-956.055,-258.789,-943.848
1742116768.612,-1000.000,-1000.000,-176.758,-1000.000
1742116768.616,-221.191,-51.270,-130.371,-220.703
1742116768.620,999.512,999.512,-193.848,999.512
1742116768.624,953.613,942.871,-265.137,954.590
1742116768.628,921.875,899.902,-227.539,921.387
1742116768.632,937.988,999.512,-221.191,941.406
1742116768.635,999.512,833.496,-306.641,999.512
1742116768.639,-87.402,-545.898,-516.602,-101.074
1742116768.643,-1000.000,-1000.000,-519.043,-1000.000
1742116768.647,-949.707,-935.547,-324.707,-949.219
1742116768.651,-1000.000,-1000.000,-281.738,-1000.000
1742116768.653,-938.477,-931.641,-341.797,-958.984
1742116768.657,-1000.000,-1000.000,-361.328,-1000.000
1742116768.661,-747.070,-330.078,-135.254,-952.148
1742116768.665,682.129,996.094,182.129,388.184
1742116768.669,999.512,983.887,377.930,999.512
1742116768.673,847.168,868.652,380.371,838.379
1742116768.677,999.512,999.512,149.414,999.512
1742116768.680,810.059,732.422,-98.633,670.898
1742116768.684,-599.121,-694.336,-291.504,-743.164
1742116768.688,-1000.000,-1000.000,-189.941,-1000.000
1742116768.692,-933.594,-936.035,-48.828,-939.941
1742116768.696,-1000.000,-1000.000,-121.094,-1000.000
1742116768.653,-938.477,-931.641,-341.797,-958.984
1742116768.657,-1000.000,-1000.000,-361.328,-1000.000
1742116768.661,-747.070,-330.078,-135.254,-952.148
1742116768.665,682.129,996.094,182.129,388.184
1742116768.669,999.512,983.887,377.930,999.512
1742116768.673,847.168,868.652,380.371,838.379
1742116768.677,999.512,999.512,149.414,999.512
1742116768.680,810.059,732.422,-98.633,670.898
1742116768.684,-599.121,-694.336,-291.504,-743.164
1742116768.688,-1000.000,-1000.000,-189.941,-1000.000
1742116768.692,-933.594,-936.035,-48.828,-939.941
1742116768.696,-1000.000,-1000.000,-121.094,-1000.000
1742116768.698,-968.750,-928.223,-11.230,-982.910
1742116768.702,-995.605,-1000.000,166.016,-967.285
1742116768.706,-1000.000,-492.676,197.754,-1000.000
1742116768.710,242.188,910.156,102.051,53.711
1742116768.714,999.512,999.512,-47.363,999.512
1742116768.718,844.238,845.703,-98.633,854.492
1742116768.722,999.512,999.512,-84.473,999.512
1742116768.725,767.578,422.363,-186.523,704.102
1742116768.729,-655.762,-976.562,-232.910,-723.145
1742116768.733,-1000.000,-989.258,-260.742,-1000.000
1742116768.737,-934.570,-965.820,-412.598,-937.988
1742116768.741,-1000.000,-983.398,-414.551,-1000.000
1742116768.744,-1000.000,319.824,-331.055,-1000.000
1742116768.748,-1000.000,999.512,-358.887,-1000.000
1742116768.752,-1000.000,999.512,-321.289,-1000.000
1742116768.756,-937.500,209.473,-319.824,-936.035
1742116768.760,-1000.000,-1000.000,-302.246,-1000.000
1742116768.764,-217.773,-128.418,-123.047,-235.352
1742116768.768,999.512,999.512,59.082,995.117
1742116768.771,913.574,999.512,10.742,961.914
1742116768.775,999.512,353.516,-36.621,923.828
1742116768.779,-66.895,-989.258,219.727,-322.266
1742116768.783,-1000.000,-1000.000,475.098,-1000.000
1742116768.787,-951.660,-951.660,558.594,-943.359
1742116768.744,-1000.000,319.824,-331.055,-1000.000
1742116768.748,-1000.000,999.512,-358.887,-1000.000
1742116768.752,-1000.000,999.512,-321.289,-1000.000
1742116768.756,-937.500,209.473,-319.824,-936.035
1742116768.760,-1000.000,-1000.000,-302.246,-1000.000
1742116768.764,-217.773,-128.418,-123.047,-235.352
1742116768.768,999.512,999.512,59.082,995.117
1742116768.771,913.574,999.512,10.742,961.914
1742116768.775,999.512,353.516,-36.621,923.828
1742116768.779,-66.895,-989.258,219.727,-322.266
1742116768.783,-1000.000,-1000.000,475.098,-1000.000
1742116768.787,-951.660,-951.660,558.594,-943.359
1742116768.789,-929.199,-959.473,592.773,-937.500
1742116768.793,-1000.000,-1000.000,623.047,-1000.000
1742116768.797,-221.191,-113.281,733.398,-260.254
1742116768.801,999.512,999.512,784.180,999.512
1742116768.805,941.895,908.691,683.105,943.848
1742116768.809,888.672,936.523,715.332,895.508
1742116768.813,999.512,999.512,635.742,999.512
1742116768.816,48.340,-228.027,441.406,-26.855
1742116768.820,-1000.000,-1000.000,540.039,-1000.000
1742116768.824,-964.844,-942.383,631.836,-957.031
1742116768.828,-983.887,-1000.000,617.188,-988.281
1742116768.832,-1000.000,-978.027,544.434,-1000.000
1742116768.789,-929.199,-959.473,592.773,-937.500
1742116768.793,-1000.000,-1000.000,623.047,-1000.000
1742116768.797,-221.191,-113.281,733.398,-260.254
1742116768.801,999.512,999.512,784.180,999.512
1742116768.805,941.895,908.691,683.105,943.848
1742116768.809,888.672,936.523,715.332,895.508
1742116768.813,999.512,999.512,635.742,999.512
1742116768.816,48.340,-228.027,441.406,-26.855
1742116768.820,-1000.000,-1000.000,540.039,-1000.000
1742116768.824,-964.844,-942.383,631.836,-957.031
1742116768.828,-983.887,-1000.000,617.188,-988.281
1742116768.832,-1000.000,-978.027,544.434,-1000.000
1742116768.848,-937.500,-979.492,437.012,-935.547
1742116768.852,-1000.000,-1000.000,464.844,-1000.000
1742116768.856,-221.191,128.906,560.059,-255.371
1742116768.860,999.512,999.512,585.938,999.512
1742116768.864,950.195,918.945,511.719,956.543
1742116768.868,939.453,942.383,488.281,936.523
1742116768.872,910.156,939.941,442.871,913.574
1742116768.875,999.512,999.512,436.035,999.512
1742116768.879,186.523,-120.117,348.633,168.457
1742116768.883,-1000.000,-1000.000,228.516,-1000.000
1742116768.887,-987.305,-962.891,227.051,-985.352
1742116768.891,-957.031,-930.176,287.109,-956.543
1742116768.848,-937.500,-979.492,437.012,-935.547
1742116768.852,-1000.000,-1000.000,464.844,-1000.000
1742116768.856,-221.191,128.906,560.059,-255.371
1742116768.860,999.512,999.512,585.938,999.512
1742116768.864,950.195,918.945,511.719,956.543
1742116768.868,939.453,942.383,488.281,936.523
1742116768.872,910.156,939.941,442.871,913.574
1742116768.875,999.512,999.512,436.035,999.512
1742116768.879,186.523,-120.117,348.633,168.457
1742116768.883,-1000.000,-1000.000,228.516,-1000.000
1742116768.887,-987.305,-962.891,227.051,-985.352
1742116768.891,-957.031,-930.176,287.109,-956.543
1742116768.895,-970.703,-1000.000,311.523,-974.609
1742116768.899,-1000.000,-714.844,289.062,-1000.000
1742116768.903,40.039,705.078,292.969,61.523
1742116768.907,999.512,999.512,213.867,999.512
1742116768.911,916.992,910.645,180.664,917.969
1742116768.915,958.496,958.984,326.172,959.961
1742116768.919,904.785,941.895,363.281,905.762
1742116768.922,999.512,999.512,250.977,999.512
1742116768.926,187.012,-140.625,55.176,187.012
1742116768.930,-1000.000,-1000.000,70.312,-1000.000
1742116768.934,-987.793,-956.543,337.402,-990.234
1742116768.938,-954.590,-958.496,400.879,-945.801
1742116768.895,-970.703,-1000.000,311.523,-974.609
1742116768.899,-1000.000,-714.844,289.062,-1000.000
1742116768.903,40.039,705.078,292.969,61.523
1742116768.907,999.512,999.512,213.867,999.512
1742116768.911,916.992,910.645,180.664,917.969
1742116768.915,958.496,958.984,326.172,959.961
1742116768.919,904.785,941.895,363.281,905.762
1742116768.922,999.512,999.512,250.977,999.512
1742116768.926,187.012,-140.625,55.176,187.012
1742116768.930,-1000.000,-1000.000,70.312,-1000.000
1742116768.934,-987.793,-956.543,337.402,-990.234
1742116768.938,-954.590,-958.496,400.879,-945.801
1742116768.938,-974.609,-1000.000,313.965,-995.605
1742116768.942,-1000.000,-987.305,288.086,-1000.000
1742116768.946,70.312,314.941,349.121,189.941
1742116768.950,999.512,999.512,359.863,999.512
1742116768.954,914.062,912.109,348.633,910.156
1742116768.958,963.867,938.477,424.805,979.004
1742116768.962,900.879,966.309,350.586,895.996
1742116768.965,999.512,985.840,251.953,999.512
1742116768.969,253.906,-291.016,158.203,532.715
1742116768.973,-1000.000,-1000.000,179.688,-891.113
1742116768.977,-1000.000,-954.102,257.812,-1000.000
1742116768.981,-906.250,-931.641,139.648,-879.395
1742116768.938,-974.609,-1000.000,313.965,-995.605
1742116768.942,-1000.000,-987.305,288.086,-1000.000
1742116768.946,70.312,314.941,349.121,189.941
1742116768.950,999.512,999.512,359.863,999.512
1742116768.954,914.062,912.109,348.633,910.156
1742116768.958,963.867,938.477,424.805,979.004
1742116768.962,900.879,966.309,350.586,895.996
1742116768.965,999.512,985.840,251.953,999.512
1742116768.969,253.906,-291.016,158.203,532.715
1742116768.973,-1000.000,-1000.000,179.688,-891.113
1742116768.977,-1000.000,-954.102,257.812,-1000.000
1742116768.981,-906.250,-931.641,139.648,-879.395
1742116768.983,-1000.000,-1000.000,73.730,-1000.000
1742116768.987,-783.691,-630.859,189.453,-659.180
1742116768.991,644.531,807.617,323.242,766.113
1742116768.995,999.512,999.512,289.551,999.512
1742116768.999,900.879,917.480,110.352,908.203
1742116769.003,979.980,911.621,151.367,981.445
1742116769.007,966.309,999.512,262.207,966.797
1742116769.010,976.562,355.957,188.965,971.191
1742116769.014,924.316,-1000.000,153.320,946.777
1742116769.018,989.746,-1000.000,151.855,940.430
1742116769.022,906.250,-959.473,122.070,999.512
1742116769.026,-424.805,-1000.000,156.738,-126.953
1742116768.983,-1000.000,-1000.000,73.730,-1000.000
1742116768.987,-783.691,-630.859,189.453,-659.180
1742116768.991,644.531,807.617,323.242,766.113
1742116768.995,999.512,999.512,289.551,999.512
1742116768.999,900.879,917.480,110.352,908.203
1742116769.003,979.980,911.621,151.367,981.445
1742116769.007,966.309,999.512,262.207,966.797
1742116769.010,976.562,355.957,188.965,971.191
1742116769.014,924.316,-1000.000,153.320,946.777
1742116769.018,989.746,-1000.000,151.855,940.430
1742116769.022,906.250,-959.473,122.070,999.512
1742116769.026,-424.805,-1000.000,156.738,-126.953
1742116769.028,-1000.000,-1000.000,227.539,-1000.000
1742116769.032,-941.406,-1000.000,147.461,-954.590
1742116769.036,-985.840,-964.355,88.379,-969.727
1742116769.040,-971.680,-1000.000,69.824,-981.934
1742116769.044,-1000.000,-1000.000,104.492,-1000.000
1742116769.048,101.562,313.965,251.465,149.414
1742116769.052,999.512,999.512,290.039,999.512
1742116769.055,910.645,999.512,133.789,909.668
1742116769.059,961.914,455.078,-80.566,964.355
1742116769.063,967.285,-940.918,-43.457,967.773
1742116769.067,966.309,-991.699,126.465,967.285
1742116769.071,966.309,-1000.000,133.789,967.285
1742116769.028,-1000.000,-1000.000,227.539,-1000.000
1742116769.032,-941.406,-1000.000,147.461,-954.590
1742116769.036,-985.840,-964.355,88.379,-969.727
1742116769.040,-971.680,-1000.000,69.824,-981.934
1742116769.044,-1000.000,-1000.000,104.492,-1000.000
1742116769.048,101.562,313.965,251.465,149.414
1742116769.052,999.512,999.512,290.039,999.512
1742116769.055,910.645,999.512,133.789,909.668
1742116769.059,961.914,455.078,-80.566,964.355
1742116769.063,967.285,-940.918,-43.457,967.773
1742116769.067,966.309,-991.699,126.465,967.285
1742116769.071,966.309,-1000.000,133.789,967.285
1742116769.077,966.309,-39.551,104.004,966.797
1742116769.081,976.074,999.512,-0.488,980.957
1742116769.085,894.043,865.234,33.691,894.043
1742116769.089,999.512,999.512,154.297,999.512
1742116769.093,377.930,208.984,54.199,530.273
1742116769.097,-996.094,-1000.000,77.148,-900.391
1742116769.101,-1000.000,-986.816,66.406,-1000.000
1742116769.104,-958.008,-972.656,-41.992,-946.777
1742116769.108,-1000.000,-1000.000,23.438,-1000.000
1742116769.112,-937.500,-946.289,57.129,-940.918
1742116769.116,-1000.000,-1000.000,70.312,-1000.000
1742116769.120,-220.703,-132.812,57.129,-189.453
1742116769.077,966.309,-39.551,104.004,966.797
1742116769.081,976.074,999.512,-0.488,980.957
1742116769.085,894.043,865.234,33.691,894.043
1742116769.089,999.512,999.512,154.297,999.512
1742116769.093,377.930,208.984,54.199,530.273
1742116769.097,-996.094,-1000.000,77.148,-900.391
1742116769.101,-1000.000,-986.816,66.406,-1000.000
1742116769.104,-958.008,-972.656,-41.992,-946.777
1742116769.108,-1000.000,-1000.000,23.438,-1000.000
1742116769.112,-937.500,-946.289,57.129,-940.918
1742116769.116,-1000.000,-1000.000,70.312,-1000.000
1742116769.120,-220.703,-132.812,57.129,-189.453
1742116769.118,999.512,999.512,-14.648,999.512
1742116769.122,949.707,939.453,5.859,946.777
1742116769.126,938.965,945.801,80.566,941.895
1742116769.130,973.145,971.680,55.176,972.656
1742116769.134,966.309,967.285,4.395,966.797
1742116769.138,980.957,971.680,31.250,978.027
1742116769.142,895.996,899.902,87.891,923.340
1742116769.145,999.512,999.512,81.055,993.164
1742116769.149,604.492,265.137,12.207,907.227
1742116769.153,-834.961,-1000.000,-143.066,-439.941
1742116769.157,-1000.000,-997.559,-125.977,-1000.000
1742116769.161,-878.906,-903.809,60.059,-880.371
1742116769.118,999.512,999.512,-14.648,999.512
1742116769.122,949.707,939.453,5.859,946.777
1742116769.126,938.965,945.801,80.566,941.895
1742116769.130,973.145,971.680,55.176,972.656
1742116769.134,966.309,967.285,4.395,966.797
1742116769.138,980.957,971.680,31.250,978.027
1742116769.142,895.996,899.902,87.891,923.340
1742116769.145,999.512,999.512,81.055,993.164
1742116769.149,604.492,265.137,12.207,907.227
1742116769.153,-834.961,-1000.000,-143.066,-439.941
1742116769.157,-1000.000,-997.559,-125.977,-1000.000
1742116769.161,-878.906,-903.809,60.059,-880.371
1742116769.179,-1000.000,-1000.000,82.031,-1000.000
1742116769.183,-221.191,-220.703,86.426,-143.555
1742116769.187,999.512,999.512,105.957,999.512
1742116769.191,949.707,953.125,8.789,940.918
1742116769.195,938.965,929.199,-13.672,945.312
1742116769.199,973.633,931.641,127.441,980.957
1742116769.203,903.320,999.512,133.301,895.508
1742116769.206,999.512,16.113,7.324,999.512
1742116769.210,187.012,-1000.000,-84.473,364.258
1742116769.214,-1000.000,-965.820,-53.711,-1000.000
1742116769.218,-983.887,-984.375,65.430,-1000.000
1742116769.222,-986.816,-1000.000,-23.926,-970.703
1742116769.179,-1000.000,-1000.000,82.031,-1000.000
1742116769.183,-221.191,-220.703,86.426,-143.555
1742116769.187,999.512,999.512,105.957,999.512
1742116769.191,949.707,953.125,8.789,940.918
1742116769.195,938.965,929.199,-13.672,945.312
1742116769.199,973.633,931.641,127.441,980.957
1742116769.203,903.320,999.512,133.301,895.508
1742116769.206,999.512,16.113,7.324,999.512
1742116769.210,187.012,-1000.000,-84.473,364.258
1742116769.214,-1000.000,-965.820,-53.711,-1000.000
1742116769.218,-983.887,-984.375,65.430,-1000.000
1742116769.222,-986.816,-1000.000,-23.926,-970.703
1742116769.208,-932.617,-934.570,-151.367,-938.477
1742116769.212,-1000.000,-1000.000,-256.836,-1000.000
1742116769.216,-526.855,-270.996,-243.652,-479.492
1742116769.220,901.367,999.512,-137.695,924.805
1742116769.224,999.512,969.727,-65.918,998.535
1742116769.228,905.273,893.066,-45.898,911.133
1742116769.232,932.129,998.535,-128.418,930.176
1742116769.235,999.512,914.551,-127.930,999.512
1742116769.239,37.109,-424.316,-171.387,56.641
1742116769.243,-1000.000,-1000.000,-83.984,-1000.000
1742116769.247,-963.379,-935.547,53.223,-966.797
1742116769.251,-984.375,-1000.000,-92.773,-982.910
1742116769.208,-932.617,-934.570,-151.367,-938.477
1742116769.212,-1000.000,-1000.000,-256.836,-1000.000
1742116769.216,-526.855,-270.996,-243.652,-479.492
1742116769.220,901.367,999.512,-137.695,924.805
1742116769.224,999.512,969.727,-65.918,998.535
1742116769.228,905.273,893.066,-45.898,911.133
1742116769.232,932.129,998.535,-128.418,930.176
1742116769.235,999.512,914.551,-127.930,999.512
1742116769.239,37.109,-424.316,-171.387,56.641
1742116769.243,-1000.000,-1000.000,-83.984,-1000.000
1742116769.247,-963.379,-935.547,53.223,-966.797
1742116769.251,-984.375,-1000.000,-92.773,-982.910
1742116769.268,-1000.000,-981.445,-125.977,-1000.000
1742116769.272,-937.500,-971.680,-17.578,-936.035
1742116769.276,-1000.000,-1000.000,24.414,-1000.000
1742116769.280,-221.191,73.730,7.812,-246.582
1742116769.284,999.512,999.512,-34.180,999.512
1742116769.288,909.180,848.145,10.254,906.738
1742116769.292,956.055,999.512,46.387,977.051
1742116769.295,946.289,374.512,-45.410,868.164
1742116769.299,-396.973,-992.676,-76.172,-504.395
1742116769.303,-1000.000,-1000.000,-75.684,-1000.000
1742116769.307,-934.082,-888.184,-97.168,-935.547
1742116769.311,-1000.000,-1000.000,-45.410,-1000.000
1742116769.268,-1000.000,-981.445,-125.977,-1000.000
1742116769.272,-937.500,-971.680,-17.578,-936.035
1742116769.276,-1000.000,-1000.000,24.414,-1000.000
1742116769.280,-221.191,73.730,7.812,-246.582
1742116769.284,999.512,999.512,-34.180,999.512
1742116769.288,909.180,848.145,10.254,906.738
1742116769.292,956.055,999.512,46.387,977.051
1742116769.295,946.289,374.512,-45.410,868.164
1742116769.299,-396.973,-992.676,-76.172,-504.395
1742116769.303,-1000.000,-1000.000,-75.684,-1000.000
1742116769.307,-934.082,-888.184,-97.168,-935.547
1742116769.311,-1000.000,-1000.000,-45.410,-1000.000
1742116769.313,-1000.000,-381.348,7.324,-1000.000
1742116769.317,-1000.000,972.656,-50.781,-1000.000
1742116769.321,-1000.000,902.344,-107.910,-1000.000
1742116769.325,-952.148,999.512,-232.422,-970.215
1742116769.329,-1000.000,89.355,-383.789,-992.676
1742116769.333,-910.156,-622.070,-174.316,-1000.000
1742116769.337,444.824,799.316,47.852,191.895
1742116769.340,999.512,999.512,-121.094,999.512
1742116769.344,999.512,439.453,-337.891,921.387
1742116769.348,-50.781,-898.438,-265.625,-276.855
1742116769.352,-1000.000,-1000.000,-173.828,-1000.000
1742116769.356,-964.844,-963.379,-206.055,-951.660
1742116769.313,-1000.000,-381.348,7.324,-1000.000
1742116769.317,-1000.000,972.656,-50.781,-1000.000
1742116769.321,-1000.000,902.344,-107.910,-1000.000
1742116769.325,-952.148,999.512,-232.422,-970.215
1742116769.329,-1000.000,89.355,-383.789,-992.676
1742116769.333,-910.156,-622.070,-174.316,-1000.000
1742116769.337,444.824,799.316,47.852,191.895
1742116769.340,999.512,999.512,-121.094,999.512
1742116769.344,999.512,439.453,-337.891,921.387
1742116769.348,-50.781,-898.438,-265.625,-276.855
1742116769.352,-1000.000,-1000.000,-173.828,-1000.000
1742116769.356,-964.844,-963.379,-206.055,-951.660
1742116769.358,-941.895,-943.359,-258.301,-961.426
1742116769.362,-1000.000,-1000.000,-333.008,-1000.000
1742116769.366,-903.809,-617.676,-230.469,-977.051
1742116769.370,475.586,819.336,-46.875,351.562
1742116769.374,999.512,999.512,-71.777,999.512
1742116769.378,914.062,841.797,-35.156,909.180
1742116769.382,914.551,999.512,-108.398,922.363
1742116769.385,999.512,275.879,-273.926,999.512
1742116769.389,733.887,-1000.000,-234.375,636.230
1742116769.393,-691.895,-999.023,-174.316,-693.359
1742116769.397,-1000.000,-979.980,-160.156,-1000.000
1742116769.401,-895.020,-941.406,-208.496,-904.297
1742116769.358,-941.895,-943.359,-258.301,-961.426
1742116769.362,-1000.000,-1000.000,-333.008,-1000.000
1742116769.366,-903.809,-617.676,-230.469,-977.051
1742116769.370,475.586,819.336,-46.875,351.562
1742116769.374,999.512,999.512,-71.777,999.512
1742116769.378,914.062,841.797,-35.156,909.180
1742116769.382,914.551,999.512,-108.398,922.363
1742116769.385,999.512,275.879,-273.926,999.512
1742116769.389,733.887,-1000.000,-234.375,636.230
1742116769.393,-691.895,-999.023,-174.316,-693.359
1742116769.397,-1000.000,-979.980,-160.156,-1000.000
1742116769.401,-895.020,-941.406,-208.496,-904.297
1742116769.403,-1000.000,-1000.000,-199.707,-1000.000
1742116769.407,-971.191,-636.719,-70.312,-961.426
1742116769.411,368.164,788.086,29.297,373.047
1742116769.415,999.512,999.512,-26.855,999.512
1742116769.419,899.902,909.668,-199.707,901.855
1742116769.423,985.840,981.934,-148.438,987.305
1742116769.427,892.090,904.297,25.391,894.043
1742116769.430,999.512,999.512,40.527,999.512
1742116769.434,447.266,187.500,-34.668,509.766
1742116769.438,-961.426,-1000.000,-194.824,-915.039
1742116769.442,-1000.000,-984.375,-134.766,-1000.000
1742116769.446,-953.613,-975.586,63.477,-950.195
1742116769.403,-1000.000,-1000.000,-199.707,-1000.000
1742116769.407,-971.191,-636.719,-70.312,-961.426
1742116769.411,368.164,788.086,29.297,373.047
1742116769.415,999.512,999.512,-26.855,999.512
1742116769.419,899.902,909.668,-199.707,901.855
1742116769.423,985.840,981.934,-148.438,987.305
1742116769.427,892.090,904.297,25.391,894.043
1742116769.430,999.512,999.512,40.527,999.512
1742116769.434,447.266,187.500,-34.668,509.766
1742116769.438,-961.426,-1000.000,-194.824,-915.039
1742116769.442,-1000.000,-984.375,-134.766,-1000.000
1742116769.446,-953.613,-975.586,63.477,-950.195
1742116769.448,-1000.000,-942.383,82.031,-1000.000
1742116769.452,-950.195,-1000.000,74.707,-958.984
1742116769.456,-1000.000,-260.254,19.531,-1000.000
1742116769.460,-80.078,999.512,-13.184,-49.805
1742116769.464,999.512,957.520,15.625,999.512
1742116769.468,940.918,949.219,91.309,943.848
1742116769.472,909.180,903.809,128.418,910.156
1742116769.475,985.352,999.512,-18.555,987.793
1742116769.479,944.824,507.812,-17.578,937.012
1742116769.483,-387.695,-905.273,-17.578,-391.113
1742116769.487,-1000.000,-1000.000,35.156,-1000.000
1742116769.491,-942.871,-958.984,124.512,-942.871
1742116769.493,-973.633,-942.383,55.664,-976.074
1742116769.497,-998.535,-1000.000,40.527,-994.629
1742116769.501,-1000.000,-455.078,132.324,-1000.000
1742116769.505,264.160,935.059,179.199,230.957
1742116769.509,999.512,996.094,119.141,999.512
1742116769.513,902.832,906.250,74.707,907.227
1742116769.517,907.227,941.406,90.332,905.273
1742116769.520,999.512,999.512,50.293,999.512
1742116769.524,187.012,-43.945,-57.617,187.500
1742116769.528,-1000.000,-1000.000,-1.953,-1000.000
1742116769.532,-983.887,-956.543,157.715,-983.887
1742116769.536,-977.051,-987.305,47.852,-978.516
1742116769.493,-973.633,-942.383,55.664,-976.074
1742116769.497,-998.535,-1000.000,40.527,-994.629
1742116769.501,-1000.000,-455.078,132.324,-1000.000
1742116769.505,264.160,935.059,179.199,230.957
1742116769.509,999.512,996.094,119.141,999.512
1742116769.513,902.832,906.250,74.707,907.227
1742116769.517,907.227,941.406,90.332,905.273
1742116769.520,999.512,999.512,50.293,999.512
1742116769.524,187.012,-43.945,-57.617,187.500
1742116769.528,-1000.000,-1000.000,-1.953,-1000.000
1742116769.532,-983.887,-956.543,157.715,-983.887
1742116769.536,-977.051,-987.305,47.852,-978.516
1742116769.538,-940.430,-943.848,0.977,-938.965
1742116769.542,-1000.000,-1000.000,88.867,-1000.000
1742116769.546,-279.785,-178.223,135.254,-316.895
1742116769.550,999.512,999.512,127.441,999.512
1742116769.554,973.145,943.848,28.809,979.004
1742116769.558,859.863,883.301,71.289,859.375
1742116769.562,999.512,999.512,103.516,999.512
1742116769.565,476.562,155.273,-48.828,458.008
1742116769.569,-944.336,-1000.000,-147.949,-946.777
1742116769.573,-1000.000,-985.840,-106.934,-1000.000
1742116769.577,-879.883,-906.738,-25.391,-884.277
1742116769.581,-1000.000,-1000.000,44.434,-1000.000
1742116769.538,-940.430,-943.848,0.977,-938.965
1742116769.542,-1000.000,-1000.000,88.867,-1000.000
1742116769.546,-279.785,-178.223,135.254,-316.895
1742116769.550,999.512,999.512,127.441,999.512
1742116769.554,973.145,943.848,28.809,979.004
1742116769.558,859.863,883.301,71.289,859.375
1742116769.562,999.512,999.512,103.516,999.512
1742116769.565,476.562,155.273,-48.828,458.008
1742116769.569,-944.336,-1000.000,-147.949,-946.777
1742116769.573,-1000.000,-985.840,-106.934,-1000.000
1742116769.577,-879.883,-906.738,-25.391,-884.277
1742116769.581,-1000.000,-1000.000,44.434,-1000.000
1742116769.584,-665.527,-332.520,114.746,-686.523
1742116769.588,781.250,999.512,90.820,746.582
1742116769.592,999.512,890.137,-41.992,999.512
1742116769.596,905.762,999.512,-48.828,906.250
1742116769.600,981.934,302.246,-1.465,981.934
1742116769.604,967.285,-330.078,96.680,967.285
1742116769.608,903.809,912.109,154.785,905.273
1742116769.611,999.512,999.512,30.762,999.512
1742116769.615,187.012,-24.902,-164.062,176.758
1742116769.619,-1000.000,-1000.000,-80.078,-1000.000
1742116769.623,-983.887,-963.379,80.566,-982.422
1742116769.627,-988.770,-993.164,69.336,-988.770
1742116769.584,-665.527,-332.520,114.746,-686.523
1742116769.588,781.250,999.512,90.820,746.582
1742116769.592,999.512,890.137,-41.992,999.512
1742116769.596,905.762,999.512,-48.828,906.250
1742116769.600,981.934,302.246,-1.465,981.934
1742116769.604,967.285,-330.078,96.680,967.285
1742116769.608,903.809,912.109,154.785,905.273
1742116769.611,999.512,999.512,30.762,999.512
1742116769.615,187.012,-24.902,-164.062,176.758
1742116769.619,-1000.000,-1000.000,-80.078,-1000.000
1742116769.623,-983.887,-963.379,80.566,-982.422
1742116769.627,-988.770,-993.164,69.336,-988.770
1742116769.643,-937.988,-933.105,28.320,-938.965
1742116769.647,-1000.000,-1000.000,-54.688,-1000.000
1742116769.651,-686.523,-389.648,-20.996,-670.410
1742116769.655,760.742,969.238,78.125,764.648
1742116769.659,999.512,984.863,-11.230,999.512
1742116769.663,904.785,858.887,-49.316,906.738
1742116769.667,981.934,999.512,-85.449,981.445
1742116769.670,972.168,267.578,-122.070,972.656
1742116769.674,940.430,-1000.000,-40.527,941.895
1742116769.678,948.730,-997.559,0.977,949.707
1742116769.682,999.512,-966.797,-19.531,999.512
1742116769.686,-204.102,-1000.000,-131.836,-187.500
1742116769.643,-937.988,-933.105,28.320,-938.965
1742116769.647,-1000.000,-1000.000,-54.688,-1000.000
1742116769.651,-686.523,-389.648,-20.996,-670.410
1742116769.655,760.742,969.238,78.125,764.648
1742116769.659,999.512,984.863,-11.230,999.512
1742116769.663,904.785,858.887,-49.316,906.738
1742116769.667,981.934,999.512,-85.449,981.445
1742116769.670,972.168,267.578,-122.070,972.656
1742116769.674,940.430,-1000.000,-40.527,941.895
1742116769.678,948.730,-997.559,0.977,949.707
1742116769.682,999.512,-966.797,-19.531,999.512
1742116769.686,-204.102,-1000.000,-131.836,-187.500
1742116769.688,-1000.000,-1000.000,-82.031,-1000.000
1742116769.692,-940.918,-985.352,32.715,-945.801
1742116769.696,-1000.000,-965.332,42.969,-995.605
1742116769.700,-938.477,-1000.000,17.090,-942.383
1742116769.704,-1000.000,11.230,-72.754,-1000.000
1742116769.708,-216.797,999.512,40.039,-181.641
1742116769.712,999.512,868.164,145.020,999.512
1742116769.715,886.719,999.512,69.824,883.301
1742116769.719,999.512,749.512,-57.617,999.512
1742116769.723,193.359,-656.738,-222.168,194.824
1742116769.727,-1000.000,-1000.000,-169.922,-1000.000
1742116769.731,-983.887,-937.500,-41.504,-984.375
1742116769.688,-1000.000,-1000.000,-82.031,-1000.000
1742116769.692,-940.918,-985.352,32.715,-945.801
1742116769.696,-1000.000,-965.332,42.969,-995.605
1742116769.700,-938.477,-1000.000,17.090,-942.383
1742116769.704,-1000.000,11.230,-72.754,-1000.000
1742116769.708,-216.797,999.512,40.039,-181.641
1742116769.712,999.512,868.164,145.020,999.512
1742116769.715,886.719,999.512,69.824,883.301
1742116769.719,999.512,749.512,-57.617,999.512
1742116769.723,193.359,-656.738,-222.168,194.824
1742116769.727,-1000.000,-1000.000,-169.922,-1000.000
1742116769.731,-983.887,-937.500,-41.504,-984.375
1742116769.733,-978.516,-1000.000,-76.660,-977.051
1742116769.737,-983.887,-934.570,-87.402,-987.793
1742116769.741,-977.051,-1000.000,-119.629,-970.215
1742116769.745,-1000.000,-664.062,-179.199,-1000.000
1742116769.749,136.230,752.930,-125.977,81.543
1742116769.753,999.512,999.512,20.508,999.512
1742116769.757,913.574,901.367,-14.648,919.922
1742116769.760,895.996,930.664,-221.680,893.066
1742116769.764,999.512,999.512,-184.570,999.512
1742116769.768,271.484,60.547,-166.016,277.344
1742116769.772,-1000.000,-1000.000,-176.758,-1000.000
1742116769.776,-998.047,-969.238,-90.820,-999.512
1742116769.733,-978.516,-1000.000,-76.660,-977.051
1742116769.737,-983.887,-934.570,-87.402,-987.793
1742116769.741,-977.051,-1000.000,-119.629,-970.215
1742116769.745,-1000.000,-664.062,-179.199,-1000.000
1742116769.749,136.230,752.930,-125.977,81.543
1742116769.753,999.512,999.512,20.508,999.512
1742116769.757,913.574,901.367,-14.648,919.922
1742116769.760,895.996,930.664,-221.680,893.066
1742116769.764,999.512,999.512,-184.570,999.512
1742116769.768,271.484,60.547,-166.016,277.344
1742116769.772,-1000.000,-1000.000,-176.758,-1000.000
1742116769.776,-998.047,-969.238,-90.820,-999.512
1742116769.778,-966.797,-976.074,-144.531,-968.262
1742116769.782,-946.777,-952.637,-181.641,-944.336
1742116769.786,-1000.000,-1000.000,-69.824,-1000.000
1742116769.790,-220.703,-115.234,23.926,-256.348
1742116769.794,999.512,999.512,-11.230,999.512
1742116769.798,958.496,929.688,-85.938,963.867
1742116769.802,867.676,897.461,-48.340,867.188
1742116769.805,999.512,999.512,-43.945,999.512
1742116769.809,341.797,54.688,-117.676,323.730
1742116769.813,-1000.000,-1000.000,-139.160,-1000.000
1742116769.817,-1000.000,-967.773,-75.684,-1000.000
1742116769.821,-969.238,-981.445,-123.535,-972.168
1742116769.778,-966.797,-976.074,-144.531,-968.262
1742116769.782,-946.777,-952.637,-181.641,-944.336
1742116769.786,-1000.000,-1000.000,-69.824,-1000.000
1742116769.790,-220.703,-115.234,23.926,-256.348
1742116769.794,999.512,999.512,-11.230,999.512
1742116769.798,958.496,929.688,-85.938,963.867
1742116769.802,867.676,897.461,-48.340,867.188
1742116769.805,999.512,999.512,-43.945,999.512
1742116769.809,341.797,54.688,-117.676,323.730
1742116769.813,-1000.000,-1000.000,-139.160,-1000.000
1742116769.817,-1000.000,-967.773,-75.684,-1000.000
1742116769.821,-969.238,-981.445,-123.535,-972.168
1742116769.825,-939.941,-944.336,-213.379,-938.477
1742116769.829,-1000.000,-1000.000,-113.770,-1000.000
1742116769.833,-382.324,-191.406,-49.805,-428.223
1742116769.837,976.562,999.512,-81.543,952.148
1742116769.841,986.816,949.707,-175.781,997.070
1742116769.845,887.695,876.465,-145.508,879.883
1742116769.849,987.793,999.512,-77.148,999.512
1742116769.852,958.984,227.051,-152.344,893.555
1742116769.856,-361.816,-1000.000,-272.461,-437.500
1742116769.860,-1000.000,-995.605,-295.898,-1000.000
1742116769.864,-934.570,-947.754,-184.082,-937.012
1742116769.868,-944.336,-982.910,-131.348,-946.289
1742116769.869,-1000.000,-1000.000,-89.355,-1000.000
1742116769.873,-204.102,115.723,-73.730,-195.312
1742116769.877,999.512,999.512,-182.129,999.512
1742116769.881,947.266,912.109,-213.867,947.266
1742116769.885,956.055,973.633,-159.180,956.543
1742116769.889,901.855,895.508,-51.758,902.832
1742116769.893,999.512,999.512,-2.930,999.512
1742116769.896,621.582,407.227,-158.203,610.352
1742116769.900,-827.637,-979.004,-317.383,-830.078
1742116769.904,-1000.000,-1000.000,-185.059,-1000.000
1742116769.908,-940.430,-968.750,-46.875,-941.895
1742116769.912,-1000.000,-952.148,-110.352,-1000.000
1742116769.869,-1000.000,-1000.000,-89.355,-1000.000
1742116769.873,-204.102,115.723,-73.730,-195.312
1742116769.877,999.512,999.512,-182.129,999.512
1742116769.881,947.266,912.109,-213.867,947.266
1742116769.885,956.055,973.633,-159.180,956.543
1742116769.889,901.855,895.508,-51.758,902.832
1742116769.893,999.512,999.512,-2.930,999.512
1742116769.896,621.582,407.227,-158.203,610.352
1742116769.900,-827.637,-979.004,-317.383,-830.078
1742116769.904,-1000.000,-1000.000,-185.059,-1000.000
1742116769.908,-940.430,-968.750,-46.875,-941.895
1742116769.912,-1000.000,-952.148,-110.352,-1000.000
1742116769.913,-939.941,-1000.000,-201.172,-941.406
1742116769.917,-1000.000,-743.652,-186.035,-1000.000
1742116769.921,-192.383,665.039,-64.453,-178.223
1742116769.925,999.512,999.512,-19.531,999.512
1742116769.929,960.449,903.320,-154.297,957.520
1742116769.933,866.699,921.387,-184.570,871.582
1742116769.937,999.512,999.512,-178.711,999.512
1742116769.940,523.438,142.090,-203.613,493.164
1742116769.944,-916.016,-1000.000,-167.480,-914.062
1742116769.948,-1000.000,-979.980,-124.512,-1000.000
1742116769.952,-946.777,-968.262,-139.160,-950.684
1742116769.956,-953.125,-958.008,-229.492,-950.195
1742116769.913,-939.941,-1000.000,-201.172,-941.406
1742116769.917,-1000.000,-743.652,-186.035,-1000.000
1742116769.921,-192.383,665.039,-64.453,-178.223
1742116769.925,999.512,999.512,-19.531,999.512
1742116769.929,960.449,903.320,-154.297,957.520
1742116769.933,866.699,921.387,-184.570,871.582
1742116769.937,999.512,999.512,-178.711,999.512
1742116769.940,523.438,142.090,-203.613,493.164
1742116769.944,-916.016,-1000.000,-167.480,-914.062
1742116769.948,-1000.000,-979.980,-124.512,-1000.000
1742116769.952,-946.777,-968.262,-139.160,-950.684
1742116769.956,-953.125,-958.008,-229.492,-950.195
1742116769.958,-1000.000,-1000.000,-154.785,-1000.000
1742116769.962,-221.191,-86.914,-80.566,-237.305
1742116769.966,999.512,999.512,-34.668,999.512
1742116769.970,949.707,935.059,-121.582,953.125
1742116769.974,938.965,948.730,-308.105,938.477
1742116769.978,977.539,982.910,-288.574,979.492
1742116769.982,944.824,919.922,-282.715,943.359
1742116769.985,938.965,999.512,-341.309,945.312
1742116769.989,999.512,877.930,-308.105,999.512
1742116769.993,-145.020,-484.375,-391.113,-169.922
1742116769.997,-1000.000,-1000.000,-356.445,-1000.000
1742116770.001,-943.848,-935.059,-173.340,-944.336
1742116769.958,-1000.000,-1000.000,-154.785,-1000.000
1742116769.962,-221.191,-86.914,-80.566,-237.305
1742116769.966,999.512,999.512,-34.668,999.512
1742116769.970,949.707,935.059,-121.582,953.125
1742116769.974,938.965,948.730,-308.105,938.477
1742116769.978,977.539,982.910,-288.574,979.492
1742116769.982,944.824,919.922,-282.715,943.359
1742116769.985,938.965,999.512,-341.309,945.312
1742116769.989,999.512,877.930,-308.105,999.512
1742116769.993,-145.020,-484.375,-391.113,-169.922
1742116769.997,-1000.000,-1000.000,-356.445,-1000.000
1742116770.001,-943.848,-935.059,-173.340,-944.336
1742116770.018,-996.582,-1000.000,-141.113,-997.070
1742116770.022,-1000.000,-988.281,-288.574,-1000.000
1742116770.026,-981.934,-958.984,-419.922,-983.398
1742116770.030,-967.773,-1000.000,-401.855,-967.285
1742116770.034,-1000.000,-26.855,-430.664,-1000.000
1742116770.038,68.359,999.512,-365.234,47.363
1742116770.042,999.512,937.012,-466.797,999.512
1742116770.045,857.910,882.812,-719.238,865.234
1742116770.049,999.512,999.512,-633.301,999.512
1742116770.053,804.688,348.633,-579.102,808.594
1742116770.057,-605.957,-1000.000,-667.969,-588.379
1742116770.061,-1000.000,-1000.000,-657.227,-1000.000
1742116770.018,-996.582,-1000.000,-141.113,-997.070
1742116770.022,-1000.000,-988.281,-288.574,-1000.000
1742116770.026,-981.934,-958.984,-419.922,-983.398
1742116770.030,-967.773,-1000.000,-401.855,-967.285
1742116770.034,-1000.000,-26.855,-430.664,-1000.000
1742116770.038,68.359,999.512,-365.234,47.363
1742116770.042,999.512,937.012,-466.797,999.512
1742116770.045,857.910,882.812,-719.238,865.234
1742116770.049,999.512,999.512,-633.301,999.512
1742116770.053,804.688,348.633,-579.102,808.594
1742116770.057,-605.957,-1000.000,-667.969,-588.379
1742116770.061,-1000.000,-1000.000,-657.227,-1000.000
1742116770.063,-934.082,-959.961,-750.488,-935.547
1742116770.067,-1000.000,-949.707,-709.961,-1000.000
1742116770.071,-1000.000,-1000.000,-474.121,-1000.000
1742116770.075,-1000.000,-208.984,-552.246,-1000.000
1742116770.079,-1000.000,999.512,-729.980,-1000.000
1742116770.083,-1000.000,918.457,-778.320,-1000.000
1742116770.087,-1000.000,935.547,-784.668,-1000.000
1742116770.090,-1000.000,999.512,-750.977,-1000.000
1742116770.094,-1000.000,-263.184,-763.672,-1000.000
1742116770.098,-928.223,-1000.000,-762.695,-928.711
1742116770.102,-1000.000,-1000.000,-685.059,-1000.000
1742116770.106,-422.363,-114.746,-648.926,-563.965
1742116770.063,-934.082,-959.961,-750.488,-935.547
1742116770.067,-1000.000,-949.707,-709.961,-1000.000
1742116770.071,-1000.000,-1000.000,-474.121,-1000.000
1742116770.075,-1000.000,-208.984,-552.246,-1000.000
1742116770.079,-1000.000,999.512,-729.980,-1000.000
1742116770.083,-1000.000,918.457,-778.320,-1000.000
1742116770.087,-1000.000,935.547,-784.668,-1000.000
1742116770.090,-1000.000,999.512,-750.977,-1000.000
1742116770.094,-1000.000,-263.184,-763.672,-1000.000
1742116770.098,-928.223,-1000.000,-762.695,-928.711
1742116770.102,-1000.000,-1000.000,-685.059,-1000.000
1742116770.106,-422.363,-114.746,-648.926,-563.965
1742116770.110,955.566,999.512,-654.785,859.863
1742116770.114,985.840,936.035,-621.094,999.512
1742116770.118,859.863,888.672,-560.059,850.098
1742116770.122,999.512,999.512,-613.770,999.512
1742116770.126,187.012,146.484,-715.332,187.012
1742116770.130,-1000.000,-1000.000,-571.777,-1000.000
1742116770.134,-983.887,-979.004,-455.566,-983.887
1742116770.137,-973.145,-976.562,-525.879,-973.145
1742116770.141,-1000.000,-1000.000,-591.797,-1000.000
1742116770.145,-925.781,-939.453,-564.453,-931.641
1742116770.149,-1000.000,-1000.000,-398.926,-1000.000
1742116770.153,-533.691,-201.172,-335.938,-658.691
1742116770.110,955.566,999.512,-654.785,859.863
1742116770.114,985.840,936.035,-621.094,999.512
1742116770.118,859.863,888.672,-560.059,850.098
1742116770.122,999.512,999.512,-613.770,999.512
1742116770.126,187.012,146.484,-715.332,187.012
1742116770.130,-1000.000,-1000.000,-571.777,-1000.000
1742116770.134,-983.887,-979.004,-455.566,-983.887
1742116770.137,-973.145,-976.562,-525.879,-973.145
1742116770.141,-1000.000,-1000.000,-591.797,-1000.000
1742116770.145,-925.781,-939.453,-564.453,-931.641
1742116770.149,-1000.000,-1000.000,-398.926,-1000.000
1742116770.153,-533.691,-201.172,-335.938,-658.691
1742116770.154,895.996,999.512,-358.398,774.902
1742116770.158,999.512,948.242,-333.496,999.512
1742116770.162,913.574,941.406,-392.090,907.715
1742116770.166,981.445,973.633,-392.090,981.445
1742116770.170,979.980,979.004,-267.578,978.027
1742116770.174,891.602,893.555,-262.207,894.531
1742116770.178,999.512,999.512,-295.410,999.512
1742116770.181,480.957,428.711,-363.770,425.781
1742116770.185,-942.871,-971.191,-495.605,-966.797
1742116770.189,-1000.000,-1000.000,-360.840,-1000.000
1742116770.193,-949.219,-958.984,-183.594,-954.102
1742116770.197,-1000.000,-989.258,-205.078,-1000.000
1742116770.154,895.996,999.512,-358.398,774.902
1742116770.158,999.512,948.242,-333.496,999.512
1742116770.162,913.574,941.406,-392.090,907.715
1742116770.166,981.445,973.633,-392.090,981.445
1742116770.170,979.980,979.004,-267.578,978.027
1742116770.174,891.602,893.555,-262.207,894.531
1742116770.178,999.512,999.512,-295.410,999.512
1742116770.181,480.957,428.711,-363.770,425.781
1742116770.185,-942.871,-971.191,-495.605,-966.797
1742116770.189,-1000.000,-1000.000,-360.840,-1000.000
1742116770.193,-949.219,-958.984,-183.594,-954.102
1742116770.197,-1000.000,-989.258,-205.078,-1000.000
1742116770.198,-937.500,-984.375,-365.723,-937.988
1742116770.202,-1000.000,-1000.000,-373.047,-1000.000
1742116770.206,-221.191,149.414,-228.027,-216.797
1742116770.210,999.512,999.512,-154.785,999.512
1742116770.214,949.707,912.109,-181.641,949.707
1742116770.218,938.965,906.250,-294.434,939.453
1742116770.222,973.145,999.512,-325.684,973.633
1742116770.225,974.609,122.070,-266.602,975.586
1742116770.229,895.020,-1000.000,-246.094,896.484
1742116770.233,999.512,-975.586,-222.168,999.512
1742116770.237,342.285,-977.539,-241.699,353.027
1742116770.241,-1000.000,-1000.000,-313.965,-1000.000
1742116770.243,-1000.000,-1000.000,-226.562,-1000.000
1742116770.247,-935.059,-938.477,-183.594,-928.223
1742116770.251,-992.676,-1000.000,-182.129,-1000.000
1742116770.255,-1000.000,-209.473,-235.352,-995.117
1742116770.259,163.086,999.512,-307.617,250.488
1742116770.263,999.512,952.148,-157.227,999.512
1742116770.267,836.914,875.000,-80.566,844.238
1742116770.270,999.512,999.512,-81.543,999.512
1742116770.274,630.859,229.980,-241.211,649.902
1742116770.278,-814.941,-1000.000,-365.723,-780.273
1742116770.282,-1000.000,-990.723,-172.852,-1000.000
1742116770.286,-945.801,-983.398,-104.492,-945.801
1742116770.243,-1000.000,-1000.000,-226.562,-1000.000
1742116770.247,-935.059,-938.477,-183.594,-928.223
1742116770.251,-992.676,-1000.000,-182.129,-1000.000
1742116770.255,-1000.000,-209.473,-235.352,-995.117
1742116770.259,163.086,999.512,-307.617,250.488
1742116770.263,999.512,952.148,-157.227,999.512
1742116770.267,836.914,875.000,-80.566,844.238
1742116770.270,999.512,999.512,-81.543,999.512
1742116770.274,630.859,229.980,-241.211,649.902
1742116770.278,-814.941,-1000.000,-365.723,-780.273
1742116770.282,-1000.000,-990.723,-172.852,-1000.000
1742116770.286,-945.801,-983.398,-104.492,-945.801
1742116770.288,-990.723,-943.359,-91.797,-991.211
1742116770.292,-980.957,-1000.000,-124.512,-979.004
1742116770.296,-1000.000,-690.918,-212.402,-1000.000
1742116770.300,159.180,729.980,-148.926,138.672
1742116770.304,999.512,999.512,-131.348,999.512
1742116770.308,868.652,848.145,-78.613,865.723
1742116770.312,975.586,999.512,-133.301,998.535
1742116770.315,958.984,148.438,-343.750,854.004
1742116770.319,-362.793,-1000.000,-203.125,-480.469
1742116770.323,-1000.000,-979.004,-85.938,-1000.000
1742116770.327,-945.801,-989.746,-159.180,-948.730
1742116770.331,-962.891,-936.523,-142.090,-969.727
1742116770.288,-990.723,-943.359,-91.797,-991.211
1742116770.292,-980.957,-1000.000,-124.512,-979.004
1742116770.296,-1000.000,-690.918,-212.402,-1000.000
1742116770.300,159.180,729.980,-148.926,138.672
1742116770.304,999.512,999.512,-131.348,999.512
1742116770.308,868.652,848.145,-78.613,865.723
1742116770.312,975.586,999.512,-133.301,998.535
1742116770.315,958.984,148.438,-343.750,854.004
1742116770.319,-362.793,-1000.000,-203.125,-480.469
1742116770.323,-1000.000,-979.004,-85.938,-1000.000
1742116770.327,-945.801,-989.746,-159.180,-948.730
1742116770.331,-962.891,-936.523,-142.090,-969.727
1742116770.333,-1000.000,-1000.000,-208.496,-1000.000
1742116770.337,-957.031,-597.168,-184.570,-993.164
1742116770.341,393.066,825.195,-40.039,321.777
1742116770.345,999.512,999.512,-52.734,999.512
1742116770.349,899.414,916.504,-121.094,902.344
1742116770.353,981.934,959.961,-129.883,980.469
1742116770.357,895.508,941.406,-83.496,896.484
1742116770.360,999.512,999.512,-65.430,999.512
1742116770.364,333.496,-137.207,-100.098,352.539
1742116770.368,-1000.000,-1000.000,-140.137,-1000.000
1742116770.372,-1000.000,-948.242,-200.195,-1000.000
1742116770.376,-976.074,-1000.000,-109.863,-973.633
1742116770.395,-949.219,-930.176,-72.266,-953.613
1742116770.399,-1000.000,-1000.000,-53.711,-1000.000
1742116770.403,-771.484,-441.406,-33.203,-804.199
1742116770.407,657.715,939.941,-116.699,606.934
1742116770.411,999.512,999.512,-150.879,999.512
1742116770.415,916.992,854.980,-20.508,915.039
1742116770.419,911.621,999.512,73.242,913.574
1742116770.422,999.512,614.258,-52.246,999.512
1742116770.426,654.297,-807.129,-141.602,602.539
1742116770.430,-790.527,-1000.000,-156.250,-806.152
1742116770.434,-1000.000,-942.871,-67.871,-1000.000
1742116770.438,-867.188,-952.148,17.090,-873.047
1742116770.438,-1000.000,-1000.000,-58.594,-1000.000
1742116770.442,-377.930,-213.379,-59.570,-380.371
1742116770.446,978.027,999.512,-100.098,974.121
1742116770.450,976.562,949.707,-147.461,978.516
1742116770.454,934.082,953.613,-34.180,933.105
1742116770.458,945.801,917.480,26.367,950.684
1742116770.462,959.473,999.512,-80.078,952.637
1742116770.465,999.512,792.969,-189.941,999.512
1742116770.469,-272.949,-608.398,-257.324,-220.215
1742116770.473,-1000.000,-1000.000,-184.570,-1000.000
1742116770.477,-936.523,-937.012,-59.082,-940.918
1742116770.481,-1000.000,-1000.000,-108.398,-1000.000
1742116770.438,-1000.000,-1000.000,-58.594,-1000.000
1742116770.442,-377.930,-213.379,-59.570,-380.371
1742116770.446,978.027,999.512,-100.098,974.121
1742116770.450,976.562,949.707,-147.461,978.516
1742116770.454,934.082,953.613,-34.180,933.105
1742116770.458,945.801,917.480,26.367,950.684
1742116770.462,959.473,999.512,-80.078,952.637
1742116770.465,999.512,792.969,-189.941,999.512
1742116770.469,-272.949,-608.398,-257.324,-220.215
1742116770.473,-1000.000,-1000.000,-184.570,-1000.000
1742116770.477,-936.523,-937.012,-59.082,-940.918
1742116770.481,-1000.000,-1000.000,-108.398,-1000.000
1742116770.483,-937.988,-947.754,-202.148,-937.988
1742116770.487,-1000.000,-1000.000,-147.949,-1000.000
1742116770.491,-221.191,-119.141,-41.992,-220.703
1742116770.495,999.512,999.512,-32.715,999.512
1742116770.499,949.707,918.945,-57.129,950.684
1742116770.503,938.965,917.480,-125.488,939.453
1742116770.507,973.145,999.512,-149.414,973.633
1742116770.510,969.238,-105.469,-134.766,972.168
1742116770.514,900.879,-1000.000,-121.582,898.926
1742116770.518,999.512,-951.172,-75.195,999.512
1742116770.522,227.539,-992.676,-79.102,278.809
1742116770.526,-1000.000,-1000.000,-68.359,-1000.000
1742116770.483,-937.988,-947.754,-202.148,-937.988
1742116770.487,-1000.000,-1000.000,-147.949,-1000.000
1742116770.491,-221.191,-119.141,-41.992,-220.703
1742116770.495,999.512,999.512,-32.715,999.512
1742116770.499,949.707,918.945,-57.129,950.684
1742116770.503,938.965,917.480,-125.488,939.453
1742116770.507,973.145,999.512,-149.414,973.633
1742116770.510,969.238,-105.469,-134.766,972.168
1742116770.514,900.879,-1000.000,-121.582,898.926
1742116770.518,999.512,-951.172,-75.195,999.512
1742116770.522,227.539,-992.676,-79.102,278.809
1742116770.526,-1000.000,-1000.000,-68.359,-1000.000
1742116770.528,-936.035,-935.547,1.465,-940.918
1742116770.532,-1000.000,-1000.000,51.270,-1000.000
1742116770.536,-862.305,-254.395,76.660,-786.133
1742116770.540,547.852,999.512,16.113,625.977
1742116770.544,999.512,956.055,-85.449,999.512
1742116770.548,914.551,941.406,48.828,919.434
1742116770.552,903.320,907.715,147.949,908.203
1742116770.555,999.512,999.512,60.547,999.512
1742116770.559,532.227,259.766,-74.219,581.055
1742116770.563,-911.133,-1000.000,-164.062,-855.469
1742116770.567,-1000.000,-996.094,-10.742,-1000.000
1742116770.571,-945.312,-967.773,70.312,-943.359
1742116770.528,-936.035,-935.547,1.465,-940.918
1742116770.532,-1000.000,-1000.000,51.270,-1000.000
1742116770.536,-862.305,-254.395,76.660,-786.133
1742116770.540,547.852,999.512,16.113,625.977
1742116770.544,999.512,956.055,-85.449,999.512
1742116770.548,914.551,941.406,48.828,919.434
1742116770.552,903.320,907.715,147.949,908.203
1742116770.555,999.512,999.512,60.547,999.512
1742116770.559,532.227,259.766,-74.219,581.055
1742116770.563,-911.133,-1000.000,-164.062,-855.469
1742116770.567,-1000.000,-996.094,-10.742,-1000.000
1742116770.571,-945.312,-967.773,70.312,-943.359
1742116770.573,-1000.000,-1000.000,72.266,-1000.000
1742116770.577,-937.500,-940.918,9.766,-937.500
1742116770.581,-1000.000,-1000.000,-35.156,-1000.000
1742116770.585,-221.191,-184.082,60.059,-220.703
1742116770.589,999.512,999.512,92.773,999.512
1742116770.593,949.707,889.648,169.434,950.684
1742116770.597,938.965,998.047,129.883,939.453
1742116770.600,972.656,843.262,-114.746,973.633
1742116770.604,966.309,-756.836,-40.039,966.797
1742116770.608,968.262,-471.191,84.473,970.703
1742116770.612,902.344,973.145,17.090,900.879
1742116770.616,999.512,999.512,-40.527,999.512
1742116770.618,209.473,112.793,-122.070,243.164
1742116770.622,-1000.000,-1000.000,-96.191,-1000.000
1742116770.626,-987.793,-979.980,15.137,-993.652
1742116770.630,-972.168,-912.598,35.156,-968.750
1742116770.634,-944.824,-1000.000,-87.891,-947.266
1742116770.638,-1000.000,-217.773,-78.125,-1000.000
1742116770.642,-220.703,999.512,65.918,-210.449
1742116770.645,999.512,917.969,65.918,999.512
1742116770.649,883.301,999.512,-107.910,883.301
1742116770.653,999.512,-23.926,-142.578,999.512
1742116770.657,256.836,-1000.000,-114.746,257.324
1742116770.661,-1000.000,-966.309,-30.762,-1000.000
1742116770.618,209.473,112.793,-122.070,243.164
1742116770.622,-1000.000,-1000.000,-96.191,-1000.000
1742116770.626,-987.793,-979.980,15.137,-993.652
1742116770.630,-972.168,-912.598,35.156,-968.750
1742116770.634,-944.824,-1000.000,-87.891,-947.266
1742116770.638,-1000.000,-217.773,-78.125,-1000.000
1742116770.642,-220.703,999.512,65.918,-210.449
1742116770.645,999.512,917.969,65.918,999.512
1742116770.649,883.301,999.512,-107.910,883.301
1742116770.653,999.512,-23.926,-142.578,999.512
1742116770.657,256.836,-1000.000,-114.746,257.324
1742116770.661,-1000.000,-966.309,-30.762,-1000.000
1742116770.664,-994.141,-985.352,-33.203,-994.629
1742116770.668,-968.262,-1000.000,-62.012,-968.262
1742116770.672,-1000.000,-986.816,-20.996,-1000.000
1742116770.676,-937.500,-959.961,-105.957,-937.500
1742116770.680,-1000.000,-1000.000,-154.297,-1000.000
1742116770.684,-220.703,2.441,36.621,-220.703
1742116770.688,999.512,999.512,94.238,999.512
1742116770.691,958.984,934.570,-111.328,958.496
1742116770.695,902.832,898.926,-148.926,907.715
1742116770.699,977.539,999.512,-111.328,971.191
1742116770.703,976.562,736.816,-43.457,993.164
1742116770.707,-332.031,-651.367,-49.805,-284.180
1742116770.664,-994.141,-985.352,-33.203,-994.629
1742116770.668,-968.262,-1000.000,-62.012,-968.262
1742116770.672,-1000.000,-986.816,-20.996,-1000.000
1742116770.676,-937.500,-959.961,-105.957,-937.500
1742116770.680,-1000.000,-1000.000,-154.297,-1000.000
1742116770.684,-220.703,2.441,36.621,-220.703
1742116770.688,999.512,999.512,94.238,999.512
1742116770.691,958.984,934.570,-111.328,958.496
1742116770.695,902.832,898.926,-148.926,907.715
1742116770.699,977.539,999.512,-111.328,971.191
1742116770.703,976.562,736.816,-43.457,993.164
1742116770.707,-332.031,-651.367,-49.805,-284.180
1742116770.709,-1000.000,-1000.000,-121.094,-1000.000
1742116770.713,-935.059,-940.918,-83.496,-938.477
1742116770.717,-1000.000,-1000.000,-46.387,-1000.000
1742116770.721,-926.758,-953.125,-62.500,-930.176
1742116770.725,-1000.000,-1000.000,-41.992,-1000.000
1742116770.729,-459.473,-51.758,17.090,-380.859
1742116770.733,936.523,999.512,15.625,964.844
1742116770.736,933.105,999.512,-88.867,930.664
1742116770.740,999.512,323.242,-137.207,999.512
1742116770.744,156.250,-1000.000,-73.242,89.355
1742116770.748,-1000.000,-1000.000,-6.348,-1000.000
1742116770.752,-984.863,-959.961,-32.227,-980.469
1742116770.709,-1000.000,-1000.000,-121.094,-1000.000
1742116770.713,-935.059,-940.918,-83.496,-938.477
1742116770.717,-1000.000,-1000.000,-46.387,-1000.000
1742116770.721,-926.758,-953.125,-62.500,-930.176
1742116770.725,-1000.000,-1000.000,-41.992,-1000.000
1742116770.729,-459.473,-51.758,17.090,-380.859
1742116770.733,936.523,999.512,15.625,964.844
1742116770.736,933.105,999.512,-88.867,930.664
1742116770.740,999.512,323.242,-137.207,999.512
1742116770.744,156.250,-1000.000,-73.242,89.355
1742116770.748,-1000.000,-1000.000,-6.348,-1000.000
1742116770.752,-984.863,-959.961,-32.227,-980.469
1742116770.768,-906.250,-950.684,-99.609,-910.645
1742116770.772,-1000.000,-1000.000,-25.391,-1000.000
1742116770.776,-349.121,-198.730,73.242,-331.543
1742116770.780,990.234,999.512,86.914,996.582
1742116770.784,971.191,946.777,62.500,969.238
1742116770.788,928.223,881.348,36.621,930.664
1742116770.792,976.562,999.512,17.090,976.562
1742116770.795,966.309,158.203,-20.020,966.797
1742116770.799,966.309,-1000.000,-21.484,966.797
1742116770.803,966.309,-918.945,2.441,966.797
1742116770.807,966.309,-1000.000,-20.020,966.797
1742116770.811,965.820,-734.863,30.273,966.797
1742116770.768,-906.250,-950.684,-99.609,-910.645
1742116770.772,-1000.000,-1000.000,-25.391,-1000.000
1742116770.776,-349.121,-198.730,73.242,-331.543
1742116770.780,990.234,999.512,86.914,996.582
1742116770.784,971.191,946.777,62.500,969.238
1742116770.788,928.223,881.348,36.621,930.664
1742116770.792,976.562,999.512,17.090,976.562
1742116770.795,966.309,158.203,-20.020,966.797
1742116770.799,966.309,-1000.000,-21.484,966.797
1742116770.803,966.309,-918.945,2.441,966.797
1742116770.807,966.309,-1000.000,-20.020,966.797
1742116770.811,965.820,-734.863,30.273,966.797
1742116770.813,966.309,676.758,73.730,966.797
1742116770.817,972.656,999.512,65.918,977.051
1742116770.821,896.973,847.656,29.785,895.020
1742116770.825,999.512,999.512,-83.984,999.512
1742116770.829,301.270,151.367,-13.672,385.254
1742116770.833,-1000.000,-1000.000,113.770,-990.723
1742116770.837,-1000.000,-979.492,99.121,-1000.000
1742116770.840,-978.027,-988.281,45.410,-970.215
1742116770.844,-953.613,-956.055,-40.039,-949.219
1742116770.848,-1000.000,-1000.000,-84.473,-1000.000
1742116770.852,-834.961,-895.020,-6.836,-700.195
1742116770.856,577.637,488.770,78.613,709.961
1742116770.858,999.512,999.512,47.363,999.512
1742116770.862,899.414,905.762,-26.367,907.227
1742116770.866,979.004,909.180,-3.418,979.980
1742116770.870,966.309,999.512,50.781,966.797
1742116770.874,966.309,283.691,15.137,966.797
1742116770.878,966.309,-1000.000,73.730,967.285
1742116770.882,966.309,-987.305,43.457,967.285
1742116770.885,966.309,-917.969,-86.426,966.797
1742116770.889,966.309,-1000.000,-20.996,967.285
1742116770.893,966.797,-73.242,122.559,967.773
1742116770.897,903.809,999.512,118.164,904.297
1742116770.901,999.512,995.117,-22.461,999.512
1742116770.858,999.512,999.512,47.363,999.512
1742116770.862,899.414,905.762,-26.367,907.227
1742116770.866,979.004,909.180,-3.418,979.980
1742116770.870,966.309,999.512,50.781,966.797
1742116770.874,966.309,283.691,15.137,966.797
1742116770.878,966.309,-1000.000,73.730,967.285
1742116770.882,966.309,-987.305,43.457,967.285
1742116770.885,966.309,-917.969,-86.426,966.797
1742116770.889,966.309,-1000.000,-20.996,967.285
1742116770.893,966.797,-73.242,122.559,967.773
1742116770.897,903.809,999.512,118.164,904.297
1742116770.901,999.512,995.117,-22.461,999.512
1742116770.903,186.523,-137.207,-31.738,187.012
1742116770.907,-1000.000,-1000.000,42.969,-1000.000
1742116770.911,-984.863,-940.430,91.797,-984.863
1742116770.915,-910.156,-950.195,115.723,-910.156
1742116770.919,-1000.000,-1000.000,6.348,-1000.000
1742116770.923,-220.703,0.977,31.250,-220.703
1742116770.927,999.512,999.512,173.340,999.512
1742116770.930,949.707,999.512,105.957,950.684
1742116770.934,938.965,670.410,-25.879,939.453
1742116770.938,972.656,-651.367,-45.898,973.633
1742116770.942,966.309,-1000.000,-55.664,966.797
1742116770.946,966.309,-193.848,46.875,966.797
1742116770.903,186.523,-137.207,-31.738,187.012
1742116770.907,-1000.000,-1000.000,42.969,-1000.000
1742116770.911,-984.863,-940.430,91.797,-984.863
1742116770.915,-910.156,-950.195,115.723,-910.156
1742116770.919,-1000.000,-1000.000,6.348,-1000.000
1742116770.923,-220.703,0.977,31.250,-220.703
1742116770.927,999.512,999.512,173.340,999.512
1742116770.930,949.707,999.512,105.957,950.684
1742116770.934,938.965,670.410,-25.879,939.453
1742116770.938,972.656,-651.367,-45.898,973.633
1742116770.942,966.309,-1000.000,-55.664,966.797
1742116770.946,966.309,-193.848,46.875,966.797
1742116770.948,981.445,986.328,12.207,981.934
1742116770.952,891.602,851.562,-74.707,896.484
1742116770.956,999.512,999.512,-35.156,999.512
1742116770.960,537.598,338.379,-101.074,601.562
1742116770.964,-908.203,-1000.000,-93.750,-837.891
1742116770.968,-1000.000,-1000.000,63.965,-1000.000
1742116770.972,-944.824,-961.426,117.188,-941.895
1742116770.975,-1000.000,-1000.000,-62.500,-1000.000
1742116770.979,-928.711,-928.223,-156.738,-929.688
1742116770.983,-1000.000,-1000.000,-69.336,-1000.000
1742116770.987,-643.066,-451.660,21.973,-617.188
1742116770.991,805.176,937.988,45.410,818.359
1742116770.995,999.512,992.188,-31.250,999.512
1742116770.999,906.738,931.152,-101.074,909.668
1742116771.003,981.934,907.715,-36.133,981.934
1742116771.007,970.215,999.512,-20.996,974.121
1742116771.011,899.414,400.391,-60.547,896.973
1742116771.015,999.512,-981.445,14.648,999.512
1742116771.019,249.512,-1000.000,-11.230,327.148
1742116771.022,-1000.000,-956.055,-167.969,-1000.000
1742116771.026,-994.141,-1000.000,-191.895,-1000.000
1742116771.030,-968.262,-1000.000,-154.297,-961.914
1742116771.034,-1000.000,-1000.000,-94.238,-1000.000
1742116771.038,-965.820,-922.363,-136.719,-963.379
1742116770.995,999.512,992.188,-31.250,999.512
1742116770.999,906.738,931.152,-101.074,909.668
1742116771.003,981.934,907.715,-36.133,981.934
1742116771.007,970.215,999.512,-20.996,974.121
1742116771.011,899.414,400.391,-60.547,896.973
1742116771.015,999.512,-981.445,14.648,999.512
1742116771.019,249.512,-1000.000,-11.230,327.148
1742116771.022,-1000.000,-956.055,-167.969,-1000.000
1742116771.026,-994.141,-1000.000,-191.895,-1000.000
1742116771.030,-968.262,-1000.000,-154.297,-961.914
1742116771.034,-1000.000,-1000.000,-94.238,-1000.000
1742116771.038,-965.820,-922.363,-136.719,-963.379
1742116771.053,-1000.000,-1000.000,-208.984,-1000.000
1742116771.057,-1000.000,-505.859,-136.230,-991.699
1742116771.061,277.344,901.367,-58.105,313.477
1742116771.065,999.512,999.512,-42.480,999.512
1742116771.069,902.344,900.879,-124.512,904.297
1742116771.073,907.227,945.312,-88.867,908.691
1742116771.077,999.512,999.512,-22.461,999.512
1742116771.080,187.012,-67.871,-106.934,187.012
1742116771.084,-1000.000,-1000.000,-154.785,-1000.000
1742116771.088,-983.887,-954.102,-111.816,-983.887
1742116771.092,-987.793,-996.582,-70.312,-987.305
1742116771.096,-944.336,-934.082,-34.668,-946.777
1742116771.053,-1000.000,-1000.000,-208.984,-1000.000
1742116771.057,-1000.000,-505.859,-136.230,-991.699
1742116771.061,277.344,901.367,-58.105,313.477
1742116771.065,999.512,999.512,-42.480,999.512
1742116771.069,902.344,900.879,-124.512,904.297
1742116771.073,907.227,945.312,-88.867,908.691
1742116771.077,999.512,999.512,-22.461,999.512
1742116771.080,187.012,-67.871,-106.934,187.012
1742116771.084,-1000.000,-1000.000,-154.785,-1000.000
1742116771.088,-983.887,-954.102,-111.816,-983.887
1742116771.092,-987.793,-996.582,-70.312,-987.305
1742116771.096,-944.336,-934.082,-34.668,-946.777
1742116771.083,-1000.000,-1000.000,-55.176,-1000.000
1742116771.087,-762.207,-322.754,-52.734,-772.461
1742116771.091,667.969,999.512,-0.977,643.555
1742116771.095,999.512,968.262,-100.098,999.512
1742116771.099,901.855,931.641,-60.059,903.809
1742116771.103,981.934,977.539,101.074,982.422
1742116771.107,902.344,904.297,60.059,901.367
1742116771.110,999.512,999.512,-7.324,999.512
1742116771.114,207.520,187.500,-131.348,225.586
1742116771.118,-1000.000,-1000.000,-156.738,-1000.000
1742116771.122,-987.793,-991.699,2.930,-990.234
1742116771.126,-972.168,-939.453,27.832,-974.121
1742116771.083,-1000.000,-1000.000,-55.176,-1000.000
1742116771.087,-762.207,-322.754,-52.734,-772.461
1742116771.091,667.969,999.512,-0.977,643.555
1742116771.095,999.512,968.262,-100.098,999.512
1742116771.099,901.855,931.641,-60.059,903.809
1742116771.103,981.934,977.539,101.074,982.422
1742116771.107,902.344,904.297,60.059,901.367
1742116771.110,999.512,999.512,-7.324,999.512
1742116771.114,207.520,187.500,-131.348,225.586
1742116771.118,-1000.000,-1000.000,-156.738,-1000.000
1742116771.122,-987.793,-991.699,2.930,-990.234
1742116771.126,-972.168,-939.453,27.832,-974.121
1742116771.143,-944.824,-1000.000,-19.043,-941.895
1742116771.147,-1000.000,-993.164,-55.176,-1000.000
1742116771.151,-220.703,276.855,-0.488,-283.203
1742116771.155,999.512,999.512,65.918,999.512
1742116771.159,950.195,910.156,23.926,960.938
1742116771.163,938.965,959.961,67.871,934.570
1742116771.167,973.145,910.156,12.207,975.098
1742116771.170,966.309,999.512,-108.398,966.797
1742116771.174,966.309,-66.895,-26.367,966.797
1742116771.178,966.309,-687.012,96.191,966.797
1742116771.182,980.469,844.238,70.312,977.051
1742116771.186,891.602,985.352,-90.820,895.508
1742116771.143,-944.824,-1000.000,-19.043,-941.895
1742116771.147,-1000.000,-993.164,-55.176,-1000.000
1742116771.151,-220.703,276.855,-0.488,-283.203
1742116771.155,999.512,999.512,65.918,999.512
1742116771.159,950.195,910.156,23.926,960.938
1742116771.163,938.965,959.961,67.871,934.570
1742116771.167,973.145,910.156,12.207,975.098
1742116771.170,966.309,999.512,-108.398,966.797
1742116771.174,966.309,-66.895,-26.367,966.797
1742116771.178,966.309,-687.012,96.191,966.797
1742116771.182,980.469,844.238,70.312,977.051
1742116771.186,891.602,985.352,-90.820,895.508
1742116771.188,999.512,999.512,-77.637,999.512
1742116771.192,495.605,144.531,-4.395,404.297
1742116771.196,-933.105,-1000.000,0.488,-976.562
1742116771.200,-1000.000,-909.668,-10.254,-1000.000
1742116771.204,-948.242,-1000.000,-78.125,-955.566
1742116771.208,-1000.000,-318.848,-33.691,-1000.000
1742116771.212,-1000.000,979.004,11.719,-1000.000
1742116771.215,-1000.000,999.512,-59.082,-1000.000
1742116771.219,-1000.000,-129.395,-164.551,-1000.000
1742116771.223,-1000.000,-1000.000,-184.570,-1000.000
1742116771.227,-937.500,-909.180,-89.355,-937.500
1742116771.231,-1000.000,-1000.000,-29.785,-1000.000
1742116771.188,999.512,999.512,-77.637,999.512
1742116771.192,495.605,144.531,-4.395,404.297
1742116771.196,-933.105,-1000.000,0.488,-976.562
1742116771.200,-1000.000,-909.668,-10.254,-1000.000
1742116771.204,-948.242,-1000.000,-78.125,-955.566
1742116771.208,-1000.000,-318.848,-33.691,-1000.000
1742116771.212,-1000.000,979.004,11.719,-1000.000
1742116771.215,-1000.000,999.512,-59.082,-1000.000
1742116771.219,-1000.000,-129.395,-164.551,-1000.000
1742116771.223,-1000.000,-1000.000,-184.570,-1000.000
1742116771.227,-937.500,-909.180,-89.355,-937.500
1742116771.231,-1000.000,-1000.000,-29.785,-1000.000
1742116771.233,-221.191,-11.719,4.395,-219.238
1742116771.237,999.512,999.512,-25.879,999.512
1742116771.241,877.441,857.910,-139.648,877.930
1742116771.245,999.512,999.512,-217.285,999.512
1742116771.249,394.531,238.281,-151.367,398.438
1742116771.253,-992.188,-1000.000,-25.879,-987.793
1742116771.257,-1000.000,-991.699,30.273,-1000.000
1742116771.260,-957.031,-969.238,-117.676,-956.543
1742116771.264,-1000.000,-1000.000,-226.074,-1000.000
1742116771.268,-1000.000,-1000.000,-125.488,-1000.000
1742116771.272,-1000.000,-1000.000,-45.898,-1000.000
1742116771.276,-1000.000,-1000.000,-47.852,-1000.000
1742116771.233,-221.191,-11.719,4.395,-219.238
1742116771.237,999.512,999.512,-25.879,999.512
1742116771.241,877.441,857.910,-139.648,877.930
1742116771.245,999.512,999.512,-217.285,999.512
1742116771.249,394.531,238.281,-151.367,398.438
1742116771.253,-992.188,-1000.000,-25.879,-987.793
1742116771.257,-1000.000,-991.699,30.273,-1000.000
1742116771.260,-957.031,-969.238,-117.676,-956.543
1742116771.264,-1000.000,-1000.000,-226.074,-1000.000
1742116771.268,-1000.000,-1000.000,-125.488,-1000.000
1742116771.272,-1000.000,-1000.000,-45.898,-1000.000
1742116771.276,-1000.000,-1000.000,-47.852,-1000.000
1742116771.279,-1000.000,-938.965,-100.586,-1000.000
1742116771.283,-1000.000,-1000.000,-154.297,-1000.000
1742116771.287,-1000.000,-257.812,-24.414,-1000.000
1742116771.291,-1000.000,999.512,11.230,-1000.000
1742116771.295,-1000.000,814.941,-85.449,-1000.000
1742116771.299,-1000.000,-687.988,9.277,-1000.000
1742116771.303,-1000.000,-845.215,20.020,-1000.000
1742116771.306,-1000.000,904.785,-45.410,-1000.000
1742116771.310,-1000.000,499.512,-38.574,-1000.000
1742116771.314,-1000.000,-1000.000,-29.297,-1000.000
1742116771.318,-1000.000,-1000.000,-18.555,-1000.000
1742116771.322,-946.289,-889.648,-67.871,-957.520
1742116771.279,-1000.000,-938.965,-100.586,-1000.000
1742116771.283,-1000.000,-1000.000,-154.297,-1000.000
1742116771.287,-1000.000,-257.812,-24.414,-1000.000
1742116771.291,-1000.000,999.512,11.230,-1000.000
1742116771.295,-1000.000,814.941,-85.449,-1000.000
1742116771.299,-1000.000,-687.988,9.277,-1000.000
1742116771.303,-1000.000,-845.215,20.020,-1000.000
1742116771.306,-1000.000,904.785,-45.410,-1000.000
1742116771.310,-1000.000,499.512,-38.574,-1000.000
1742116771.314,-1000.000,-1000.000,-29.297,-1000.000
1742116771.318,-1000.000,-1000.000,-18.555,-1000.000
1742116771.322,-946.289,-889.648,-67.871,-957.520
1742116771.325,-1000.000,-1000.000,-82.031,-1000.000
1742116771.329,-856.934,-240.234,-4.395,-942.871
1742116771.333,540.527,999.512,83.496,396.484
1742116771.337,999.512,954.102,44.922,999.512
1742116771.341,908.691,951.172,-61.035,912.598
1742116771.345,942.383,902.832,9.766,932.129
1742116771.349,969.238,999.512,81.543,987.305
1742116771.352,982.422,519.531,-7.812,925.293
1742116771.356,-322.266,-896.973,-129.395,-409.668
1742116771.360,-1000.000,-1000.000,-89.355,-1000.000
1742116771.364,-939.453,-946.777,16.113,-945.312
1742116771.368,-937.988,-953.613,78.613,-935.059
1742116771.325,-1000.000,-1000.000,-82.031,-1000.000
1742116771.329,-856.934,-240.234,-4.395,-942.871
1742116771.333,540.527,999.512,83.496,396.484
1742116771.337,999.512,954.102,44.922,999.512
1742116771.341,908.691,951.172,-61.035,912.598
1742116771.345,942.383,902.832,9.766,932.129
1742116771.349,969.238,999.512,81.543,987.305
1742116771.352,982.422,519.531,-7.812,925.293
1742116771.356,-322.266,-896.973,-129.395,-409.668
1742116771.360,-1000.000,-1000.000,-89.355,-1000.000
1742116771.364,-939.453,-946.777,16.113,-945.312
1742116771.368,-937.988,-953.613,78.613,-935.059
1742116771.368,-1000.000,-1000.000,52.246,-1000.000
1742116771.372,-283.203,-199.707,45.410,-419.434
1742116771.376,999.512,999.512,36.621,957.520
1742116771.380,959.961,947.754,-55.664,985.352
1742116771.384,939.941,950.684,-21.973,933.594
1742116771.388,950.195,936.523,60.059,937.988
1742116771.392,944.336,973.633,51.758,987.793
1742116771.395,999.512,969.238,-31.250,915.527
1742116771.399,-183.105,-340.332,-226.074,-410.156
1742116771.403,-1000.000,-1000.000,-193.359,-1000.000
1742116771.407,-940.918,-935.547,12.695,-937.012
1742116771.411,-1000.000,-1000.000,17.090,-1000.000
1742116771.368,-1000.000,-1000.000,52.246,-1000.000
1742116771.372,-283.203,-199.707,45.410,-419.434
1742116771.376,999.512,999.512,36.621,957.520
1742116771.380,959.961,947.754,-55.664,985.352
1742116771.384,939.941,950.684,-21.973,933.594
1742116771.388,950.195,936.523,60.059,937.988
1742116771.392,944.336,973.633,51.758,987.793
1742116771.395,999.512,969.238,-31.250,915.527
1742116771.399,-183.105,-340.332,-226.074,-410.156
1742116771.403,-1000.000,-1000.000,-193.359,-1000.000
1742116771.407,-940.918,-935.547,12.695,-937.012
1742116771.411,-1000.000,-1000.000,17.090,-1000.000
1742116771.413,-928.711,-934.082,-68.848,-955.566
1742116771.417,-1000.000,-1000.000,-113.281,-1000.000
1742116771.421,-596.191,-288.086,-39.551,-930.176
1742116771.425,840.332,999.512,34.180,421.875
1742116771.429,999.512,961.426,45.410,999.512
1742116771.433,839.355,873.535,51.270,834.961
1742116771.437,999.512,999.512,-55.176,999.512
1742116771.440,323.730,166.504,-124.023,255.859
1742116771.444,-1000.000,-1000.000,-80.078,-1000.000
1742116771.448,-1000.000,-981.445,45.898,-995.605
1742116771.452,-977.539,-984.375,88.379,-980.957
1742116771.456,-941.895,-935.059,-57.129,-954.102
1742116771.413,-928.711,-934.082,-68.848,-955.566
1742116771.417,-1000.000,-1000.000,-113.281,-1000.000
1742116771.421,-596.191,-288.086,-39.551,-930.176
1742116771.425,840.332,999.512,34.180,421.875
1742116771.429,999.512,961.426,45.410,999.512
1742116771.433,839.355,873.535,51.270,834.961
1742116771.437,999.512,999.512,-55.176,999.512
1742116771.440,323.730,166.504,-124.023,255.859
1742116771.444,-1000.000,-1000.000,-80.078,-1000.000
1742116771.448,-1000.000,-981.445,45.898,-995.605
1742116771.452,-977.539,-984.375,88.379,-980.957
1742116771.456,-941.895,-935.059,-57.129,-954.102
1742116771.458,-1000.000,-1000.000,-70.312,-1000.000
1742116771.462,-684.082,-428.223,1.953,-845.215
1742116771.466,761.719,949.707,86.914,553.711
1742116771.470,999.512,987.793,58.594,999.512
1742116771.474,904.785,931.152,-79.590,901.367
1742116771.478,982.422,944.336,31.250,978.516
1742116771.482,903.809,970.703,144.531,905.273
1742116771.485,999.512,972.168,66.895,999.512
1742116771.489,186.523,-318.848,-59.082,175.781
1742116771.493,-1000.000,-1000.000,-114.746,-1000.000
1742116771.497,-920.898,-877.441,32.227,-916.504
1742116771.501,-1000.000,-1000.000,122.070,-1000.000
1742116771.518,-234.375,-195.312,149.902,-275.391
1742116771.522,999.512,999.512,74.219,999.512
1742116771.526,951.172,874.023,-46.875,958.496
1742116771.530,938.477,999.512,-21.484,936.035
1742116771.534,973.145,462.402,13.672,975.098
1742116771.538,969.727,-1000.000,127.930,971.191
1742116771.542,949.707,-268.555,174.316,947.266
1742116771.545,930.664,999.512,-20.508,939.453
1742116771.549,999.512,453.125,-85.938,999.512
1742116771.553,-78.613,-949.219,25.391,-112.305
1742116771.557,-1000.000,-1000.000,101.074,-1000.000
1742116771.561,-960.938,-951.172,83.496,-962.402
1742116771.518,-234.375,-195.312,149.902,-275.391
1742116771.522,999.512,999.512,74.219,999.512
1742116771.526,951.172,874.023,-46.875,958.496
1742116771.530,938.477,999.512,-21.484,936.035
1742116771.534,973.145,462.402,13.672,975.098
1742116771.538,969.727,-1000.000,127.930,971.191
1742116771.542,949.707,-268.555,174.316,947.266
1742116771.545,930.664,999.512,-20.508,939.453
1742116771.549,999.512,453.125,-85.938,999.512
1742116771.553,-78.613,-949.219,25.391,-112.305
1742116771.557,-1000.000,-1000.000,101.074,-1000.000
1742116771.561,-960.938,-951.172,83.496,-962.402
1742116771.563,-919.434,-950.195,-63.965,-920.410
1742116771.567,-1000.000,-1000.000,-118.164,-1000.000
1742116771.571,-425.781,-241.699,44.434,-422.852
1742116771.575,956.055,999.512,92.285,955.566
1742116771.579,985.840,963.867,-21.484,985.840
1742116771.583,920.898,898.438,-64.453,923.340
1742116771.587,918.945,990.234,-103.516,916.992
1742116771.590,999.512,938.477,-77.637,999.512
1742116771.594,152.344,-385.254,-83.984,182.129
1742116771.598,-1000.000,-1000.000,-117.676,-1000.000
1742116771.602,-979.492,-939.941,-101.562,-983.887
1742116771.606,-976.562,-988.770,-110.840,-972.656
1742116771.608,-943.359,-967.773,-113.281,-946.289
1742116771.612,-1000.000,-1000.000,-45.410,-1000.000
1742116771.616,-221.191,45.898,22.461,-196.289
1742116771.620,999.512,999.512,-4.395,999.512
1742116771.624,963.867,932.617,-152.832,956.055
1742116771.628,881.836,884.766,-73.242,905.273
1742116771.632,999.512,999.512,111.816,979.004
1742116771.635,790.527,448.242,-0.488,968.750
1742116771.639,-619.141,-955.566,-175.781,-333.984
1742116771.643,-1000.000,-1000.000,-186.523,-1000.000
1742116771.647,-934.570,-952.148,-73.242,-936.523
1742116771.651,-1000.000,-1000.000,10.742,-1000.000
1742116771.608,-943.359,-967.773,-113.281,-946.289
1742116771.612,-1000.000,-1000.000,-45.410,-1000.000
1742116771.616,-221.191,45.898,22.461,-196.289
1742116771.620,999.512,999.512,-4.395,999.512
1742116771.624,963.867,932.617,-152.832,956.055
1742116771.628,881.836,884.766,-73.242,905.273
1742116771.632,999.512,999.512,111.816,979.004
1742116771.635,790.527,448.242,-0.488,968.750
1742116771.639,-619.141,-955.566,-175.781,-333.984
1742116771.643,-1000.000,-1000.000,-186.523,-1000.000
1742116771.647,-934.570,-952.148,-73.242,-936.523
1742116771.651,-1000.000,-1000.000,10.742,-1000.000
1742116771.653,-986.328,-930.664,-5.859,-979.492
1742116771.657,-960.449,-1000.000,-14.648,-976.562
1742116771.661,-1000.000,-368.164,-57.617,-1000.000
1742116771.665,11.719,978.027,-35.645,102.539
1742116771.669,999.512,976.562,41.504,999.512
1742116771.673,920.410,937.012,100.098,917.969
1742116771.677,952.148,938.965,122.559,957.520
1742116771.680,912.109,980.957,-2.441,910.645
1742116771.684,999.512,944.336,-64.453,999.512
1742116771.688,108.887,-373.047,-59.570,133.789
1742116771.692,-1000.000,-1000.000,-22.461,-1000.000
1742116771.696,-986.328,-937.500,15.137,-990.234
1742116771.653,-986.328,-930.664,-5.859,-979.492
1742116771.657,-960.449,-1000.000,-14.648,-976.562
1742116771.661,-1000.000,-368.164,-57.617,-1000.000
1742116771.665,11.719,978.027,-35.645,102.539
1742116771.669,999.512,976.562,41.504,999.512
1742116771.673,920.410,937.012,100.098,917.969
1742116771.677,952.148,938.965,122.559,957.520
1742116771.680,912.109,980.957,-2.441,910.645
1742116771.684,999.512,944.336,-64.453,999.512
1742116771.688,108.887,-373.047,-59.570,133.789
1742116771.692,-1000.000,-1000.000,-22.461,-1000.000
1742116771.696,-986.328,-937.500,15.137,-990.234
1742116771.698,-904.785,-942.871,-68.359,-903.320
1742116771.702,-1000.000,-1000.000,-68.848,-1000.000
1742116771.706,-503.906,-225.586,39.551,-516.113
1742116771.710,914.551,999.512,50.293,904.785
1742116771.714,999.512,954.590,31.738,999.512
1742116771.718,916.016,874.023,38.086,915.527
1742116771.722,980.469,999.512,-38.086,981.445
1742116771.725,966.309,238.770,-90.332,966.797
1742116771.729,966.309,-1000.000,-74.707,966.797
1742116771.733,973.633,-1000.000,12.695,974.121
1742116771.737,936.523,-97.656,18.066,936.523
1742116771.741,956.543,999.512,-149.902,959.961
1742116771.743,999.512,583.008,-139.160,999.512
1742116771.747,-251.465,-818.848,-66.895,-258.789
1742116771.751,-1000.000,-1000.000,-55.664,-1000.000
1742116771.755,-867.188,-895.996,-70.312,-873.535
1742116771.759,-1000.000,-1000.000,-107.422,-1000.000
1742116771.763,-646.973,-39.062,-45.410,-658.203
1742116771.767,798.828,999.512,35.156,764.648
1742116771.770,999.512,999.512,-60.547,999.512
1742116771.774,845.215,444.824,-235.352,874.512
1742116771.778,999.512,-941.406,-209.473,999.512
1742116771.782,169.434,-1000.000,-102.051,-25.879
1742116771.786,-1000.000,-952.148,-71.289,-1000.000
1742116771.789,-982.910,-1000.000,45.898,-967.773
1742116771.793,-966.797,-966.309,30.273,-980.957
1742116771.797,-956.055,-996.582,-163.086,-948.730
1742116771.801,-1000.000,-1000.000,-148.438,-1000.000
1742116771.805,-83.496,229.492,-49.805,-142.578
1742116771.809,999.512,999.512,90.820,999.512
1742116771.813,931.152,866.699,53.711,939.941
1742116771.816,949.219,997.559,-191.895,945.801
1742116771.820,969.727,861.328,-173.340,971.680
1742116771.824,966.309,-451.660,7.324,966.797
1742116771.828,966.309,-1000.000,73.242,966.797
1742116771.832,966.309,-870.117,23.926,966.797
1742116771.789,-982.910,-1000.000,45.898,-967.773
1742116771.793,-966.797,-966.309,30.273,-980.957
1742116771.797,-956.055,-996.582,-163.086,-948.730
1742116771.801,-1000.000,-1000.000,-148.438,-1000.000
1742116771.805,-83.496,229.492,-49.805,-142.578
1742116771.809,999.512,999.512,90.820,999.512
1742116771.813,931.152,866.699,53.711,939.941
1742116771.816,949.219,997.559,-191.895,945.801
1742116771.820,969.727,861.328,-173.340,971.680
1742116771.824,966.309,-451.660,7.324,966.797
1742116771.828,966.309,-1000.000,73.242,966.797
1742116771.832,966.309,-870.117,23.926,966.797
1742116771.848,966.309,-1000.000,-105.469,966.797
1742116771.852,981.445,-418.457,-136.719,980.957
1742116771.856,901.855,881.348,-4.395,906.250
1742116771.860,999.512,999.512,33.203,999.512
1742116771.864,709.961,263.672,-71.289,736.328
1742116771.868,-723.633,-1000.000,-84.473,-678.223
1742116771.872,-1000.000,-1000.000,-98.145,-1000.000
1742116771.875,-936.523,-963.867,-105.469,-937.012
1742116771.879,-1000.000,-1000.000,-142.090,-1000.000
1742116771.883,-1000.000,-938.477,-116.699,-1000.000
1742116771.887,-1000.000,-1000.000,-105.469,-1000.000
1742116771.891,-933.594,-211.426,-119.629,-935.059
1742116771.848,966.309,-1000.000,-105.469,966.797
1742116771.852,981.445,-418.457,-136.719,980.957
1742116771.856,901.855,881.348,-4.395,906.250
1742116771.860,999.512,999.512,33.203,999.512
1742116771.864,709.961,263.672,-71.289,736.328
1742116771.868,-723.633,-1000.000,-84.473,-678.223
1742116771.872,-1000.000,-1000.000,-98.145,-1000.000
1742116771.875,-936.523,-963.867,-105.469,-937.012
1742116771.879,-1000.000,-1000.000,-142.090,-1000.000
1742116771.883,-1000.000,-938.477,-116.699,-1000.000
1742116771.887,-1000.000,-1000.000,-105.469,-1000.000
1742116771.891,-933.594,-211.426,-119.629,-935.059
1742116771.893,-1000.000,999.512,-99.121,-1000.000
1742116771.897,-265.625,958.008,-61.523,-247.559
1742116771.901,944.824,869.629,-8.789,956.543
1742116771.905,999.512,999.512,-113.770,999.512
1742116771.909,558.594,352.051,-228.516,632.812
1742116771.913,-847.168,-1000.000,-130.371,-762.207
1742116771.917,-1000.000,-1000.000,11.230,-1000.000
1742116771.920,-941.895,-959.473,-70.801,-938.965
1742116771.924,-1000.000,-1000.000,-229.492,-1000.000
1742116771.928,-1000.000,-993.164,-293.945,-1000.000
1742116771.932,-946.777,-952.637,-194.336,-934.082
1742116771.936,-1000.000,-1000.000,-57.617,-1000.000
1742116771.893,-1000.000,999.512,-99.121,-1000.000
1742116771.897,-265.625,958.008,-61.523,-247.559
1742116771.901,944.824,869.629,-8.789,956.543
1742116771.905,999.512,999.512,-113.770,999.512
1742116771.909,558.594,352.051,-228.516,632.812
1742116771.913,-847.168,-1000.000,-130.371,-762.207
1742116771.917,-1000.000,-1000.000,11.230,-1000.000
1742116771.920,-941.895,-959.473,-70.801,-938.965
1742116771.924,-1000.000,-1000.000,-229.492,-1000.000
1742116771.928,-1000.000,-993.164,-293.945,-1000.000
1742116771.932,-946.777,-952.637,-194.336,-934.082
1742116771.936,-1000.000,-1000.000,-57.617,-1000.000
1742116771.938,-863.770,-101.562,-73.730,-615.723
1742116771.942,535.156,999.512,-99.121,787.598
1742116771.946,999.512,938.965,-110.840,999.512
1742116771.950,899.414,947.266,-90.332,911.621
1742116771.954,991.699,985.840,-43.945,994.629
1742116771.958,893.066,895.508,18.066,904.785
1742116771.962,999.512,999.512,36.133,999.512
1742116771.965,518.066,593.750,-83.984,736.816
1742116771.969,-910.156,-847.168,-161.621,-690.430
1742116771.973,-1000.000,-1000.000,-134.277,-1000.000
1742116771.977,-946.777,-942.871,-55.664,-936.035
1742116771.981,-1000.000,-1000.000,-19.043,-1000.000
1742116771.938,-863.770,-101.562,-73.730,-615.723
1742116771.942,535.156,999.512,-99.121,787.598
1742116771.946,999.512,938.965,-110.840,999.512
1742116771.950,899.414,947.266,-90.332,911.621
1742116771.954,991.699,985.840,-43.945,994.629
1742116771.958,893.066,895.508,18.066,904.785
1742116771.962,999.512,999.512,36.133,999.512
1742116771.965,518.066,593.750,-83.984,736.816
1742116771.969,-910.156,-847.168,-161.621,-690.430
1742116771.973,-1000.000,-1000.000,-134.277,-1000.000
1742116771.977,-946.777,-942.871,-55.664,-936.035
1742116771.981,-1000.000,-1000.000,-19.043,-1000.000
1742116771.985,-937.500,-943.848,-113.281,-937.500
1742116771.989,-1000.000,-1000.000,-131.836,-1000.000
1742116771.993,-220.703,-155.762,6.348,-220.703
1742116771.997,999.512,999.512,57.617,999.512
1742116772.001,949.707,956.055,41.016,950.684
1742116772.005,938.965,879.395,16.602,939.453
1742116772.009,973.145,999.512,16.113,973.633
1742116772.012,966.309,634.766,-7.812,966.797
1742116772.016,966.309,-718.750,-12.695,967.285
1742116772.020,966.309,-1000.000,66.895,967.285
1742116772.024,966.309,-216.797,95.703,967.285
1742116772.028,966.309,999.512,12.207,966.797
1742116771.985,-937.500,-943.848,-113.281,-937.500
1742116771.989,-1000.000,-1000.000,-131.836,-1000.000
1742116771.993,-220.703,-155.762,6.348,-220.703
1742116771.997,999.512,999.512,57.617,999.512
1742116772.001,949.707,956.055,41.016,950.684
1742116772.005,938.965,879.395,16.602,939.453
1742116772.009,973.145,999.512,16.113,973.633
1742116772.012,966.309,634.766,-7.812,966.797
1742116772.016,966.309,-718.750,-12.695,967.285
1742116772.020,966.309,-1000.000,66.895,967.285
1742116772.024,966.309,-216.797,95.703,967.285
1742116772.028,966.309,999.512,12.207,966.797
1742116772.028,966.309,686.523,-37.109,966.797
1742116772.032,966.309,-638.184,70.312,966.797
1742116772.036,966.309,-1000.000,133.301,966.797
1742116772.040,966.309,-510.254,42.969,966.797
1742116772.044,966.309,838.867,11.230,966.797
1742116772.048,972.656,991.699,88.379,980.957
1742116772.052,896.973,895.020,128.906,902.344
1742116772.055,999.512,999.512,84.473,999.512
1742116772.059,306.641,-184.082,-130.371,667.480
1742116772.063,-1000.000,-1000.000,-188.965,-720.703
1742116772.067,-958.496,-896.973,-5.371,-1000.000
1742116772.071,-1000.000,-1000.000,42.480,-968.262
1742116772.028,966.309,686.523,-37.109,966.797
1742116772.032,966.309,-638.184,70.312,966.797
1742116772.036,966.309,-1000.000,133.301,966.797
1742116772.040,966.309,-510.254,42.969,966.797
1742116772.044,966.309,838.867,11.230,966.797
1742116772.048,972.656,991.699,88.379,980.957
1742116772.052,896.973,895.020,128.906,902.344
1742116772.055,999.512,999.512,84.473,999.512
1742116772.059,306.641,-184.082,-130.371,667.480
1742116772.063,-1000.000,-1000.000,-188.965,-720.703
1742116772.067,-958.496,-896.973,-5.371,-1000.000
1742116772.071,-1000.000,-1000.000,42.480,-968.262
1742116772.074,-53.223,-65.430,33.203,192.383
1742116772.078,999.512,999.512,60.059,999.512
1742116772.082,926.270,848.145,-15.137,910.645
1742116772.086,952.148,999.512,-16.113,965.820
1742116772.090,968.750,183.105,12.207,967.773
1742116772.094,966.309,-612.305,105.957,966.797
1742116772.098,966.309,999.512,131.836,966.797
1742116772.101,966.309,498.535,-71.777,966.797
1742116772.105,966.309,-1000.000,-121.582,966.797
1742116772.109,966.309,-943.359,35.156,966.797
1742116772.113,966.309,-1000.000,54.688,966.797
1742116772.117,966.309,-386.230,-22.461,966.797
1742116772.074,-53.223,-65.430,33.203,192.383
1742116772.078,999.512,999.512,60.059,999.512
1742116772.082,926.270,848.145,-15.137,910.645
1742116772.086,952.148,999.512,-16.113,965.820
1742116772.090,968.750,183.105,12.207,967.773
1742116772.094,966.309,-612.305,105.957,966.797
1742116772.098,966.309,999.512,131.836,966.797
1742116772.101,966.309,498.535,-71.777,966.797
1742116772.105,966.309,-1000.000,-121.582,966.797
1742116772.109,966.309,-943.359,35.156,966.797
1742116772.113,966.309,-1000.000,54.688,966.797
1742116772.117,966.309,-386.230,-22.461,966.797
1742116772.118,966.309,979.980,-56.152,967.285
1742116772.122,966.797,960.449,-58.594,967.773
1742116772.126,903.809,893.555,10.742,904.297
1742116772.130,999.512,999.512,46.875,999.512
1742116772.134,187.012,-71.289,-95.215,187.500
1742116772.138,-1000.000,-1000.000,-105.957,-1000.000
1742116772.142,-983.887,-954.590,37.109,-983.887
1742116772.145,-973.145,-990.723,49.316,-973.145
1742116772.149,-1000.000,-1000.000,-39.062,-1000.000
1742116772.153,-1000.000,-996.094,2.441,-1000.000
1742116772.157,-937.500,-945.312,-18.066,-930.664
1742116772.161,-1000.000,-1000.000,-102.051,-1000.000
1742116772.118,966.309,979.980,-56.152,967.285
1742116772.122,966.797,960.449,-58.594,967.773
1742116772.126,903.809,893.555,10.742,904.297
1742116772.130,999.512,999.512,46.875,999.512
1742116772.134,187.012,-71.289,-95.215,187.500
1742116772.138,-1000.000,-1000.000,-105.957,-1000.000
1742116772.142,-983.887,-954.590,37.109,-983.887
1742116772.145,-973.145,-990.723,49.316,-973.145
1742116772.149,-1000.000,-1000.000,-39.062,-1000.000
1742116772.153,-1000.000,-996.094,2.441,-1000.000
1742116772.157,-937.500,-945.312,-18.066,-930.664
1742116772.161,-1000.000,-1000.000,-102.051,-1000.000
1742116772.163,-214.355,-134.277,-78.613,-353.027
1742116772.167,999.512,999.512,8.301,919.434
1742116772.171,933.105,944.336,16.602,999.512
1742116772.175,999.512,945.312,-107.910,676.758
1742116772.179,-195.801,-253.906,-182.129,-680.176
1742116772.183,-1000.000,-1000.000,-69.336,-1000.000
1742116772.187,-1000.000,-619.141,31.738,-938.965
1742116772.190,-168.457,665.039,-114.746,-1000.000
1742116772.194,999.512,999.512,-295.898,-1000.000
1742116772.198,364.258,127.930,-311.523,-1000.000
1742116772.202,-1000.000,-1000.000,-221.191,-1000.000
1742116772.206,-1000.000,-983.887,-156.738,-1000.000
1742116772.163,-214.355,-134.277,-78.613,-353.027
1742116772.167,999.512,999.512,8.301,919.434
1742116772.171,933.105,944.336,16.602,999.512
1742116772.175,999.512,945.312,-107.910,676.758
1742116772.179,-195.801,-253.906,-182.129,-680.176
1742116772.183,-1000.000,-1000.000,-69.336,-1000.000
1742116772.187,-1000.000,-619.141,31.738,-938.965
1742116772.190,-168.457,665.039,-114.746,-1000.000
1742116772.194,999.512,999.512,-295.898,-1000.000
1742116772.198,364.258,127.930,-311.523,-1000.000
1742116772.202,-1000.000,-1000.000,-221.191,-1000.000
1742116772.206,-1000.000,-983.887,-156.738,-1000.000
1742116772.208,-956.055,-973.145,-225.098,-1000.000
1742116772.212,-1000.000,-1000.000,-305.176,-1000.000
1742116772.216,-1000.000,-997.070,-319.824,-1000.000
1742116772.220,-937.500,-943.359,-253.418,-1000.000
1742116772.224,-1000.000,-1000.000,-248.535,-1000.000
1742116772.228,-205.566,-143.555,-192.871,-1000.000
1742116772.232,967.773,981.445,-172.852,-1000.000
1742116772.235,999.512,999.512,-348.145,-1000.000
1742116772.239,602.051,481.934,-307.129,-1000.000
1742116772.243,-808.105,-907.715,-233.398,-1000.000
1742116772.247,-1000.000,-1000.000,-219.727,-1000.000
1742116772.251,-940.430,-957.031,-153.320,-1000.000
1742116772.208,-956.055,-973.145,-225.098,-1000.000
1742116772.212,-1000.000,-1000.000,-305.176,-1000.000
1742116772.216,-1000.000,-997.070,-319.824,-1000.000
1742116772.220,-937.500,-943.359,-253.418,-1000.000
1742116772.224,-1000.000,-1000.000,-248.535,-1000.000
1742116772.228,-205.566,-143.555,-192.871,-1000.000
1742116772.232,967.773,981.445,-172.852,-1000.000
1742116772.235,999.512,999.512,-348.145,-1000.000
1742116772.239,602.051,481.934,-307.129,-1000.000
1742116772.243,-808.105,-907.715,-233.398,-1000.000
1742116772.247,-1000.000,-1000.000,-219.727,-1000.000
1742116772.251,-940.430,-957.031,-153.320,-1000.000
1742116772.270,-1000.000,-973.633,-192.871,-1000.000
1742116772.274,-937.988,-1000.000,-86.914,-1000.000
1742116772.278,-1000.000,-931.152,117.188,-1000.000
1742116772.282,-217.285,385.742,177.246,-1000.000
1742116772.286,999.512,999.512,150.879,-1000.000
1742116772.290,964.355,912.598,173.340,-1000.000
1742116772.294,872.070,903.320,251.465,-1000.000
1742116772.297,999.512,999.512,248.535,-1000.000
1742116772.301,661.133,337.891,209.961,-1000.000
1742116772.305,-729.980,-1000.000,264.160,-1000.000
1742116772.309,-1000.000,-1000.000,325.684,-981.445
1742116772.313,-27.832,280.273,324.219,-971.680
1742116772.270,-1000.000,-973.633,-192.871,-1000.000
1742116772.274,-937.988,-1000.000,-86.914,-1000.000
1742116772.278,-1000.000,-931.152,117.188,-1000.000
1742116772.282,-217.285,385.742,177.246,-1000.000
1742116772.286,999.512,999.512,150.879,-1000.000
1742116772.290,964.355,912.598,173.340,-1000.000
1742116772.294,872.070,903.320,251.465,-1000.000
1742116772.297,999.512,999.512,248.535,-1000.000
1742116772.301,661.133,337.891,209.961,-1000.000
1742116772.305,-729.980,-1000.000,264.160,-1000.000
1742116772.309,-1000.000,-1000.000,325.684,-981.445
1742116772.313,-27.832,280.273,324.219,-971.680
1742116772.778,788.086,224.609,90.820,754.395
1742116772.782,-628.418,-1000.000,-7.812,-649.902
1742116772.786,-1000.000,-985.840,-30.273,-1000.000
1742116772.790,-869.629,-915.527,108.887,-872.070
1742116772.794,-1000.000,-1000.000,99.121,-1000.000
1742116772.798,-249.023,-134.766,164.062,-259.277
1742116772.802,999.512,999.512,152.832,999.512
1742116772.805,954.590,874.023,-41.992,957.031
1742116772.809,937.500,999.512,-13.184,936.523
1742116772.813,911.133,649.902,31.250,912.598
1742116772.817,999.512,-770.996,4.395,999.512
1742116772.821,187.012,-1000.000,-24.414,181.152
1742116772.313,999.512,999.512,247.559,-1000.000
1742116772.317,932.129,906.250,274.414,73.730
1742116772.321,948.730,968.750,323.730,999.512
1742116772.325,969.727,967.285,171.875,918.457
1742116772.329,966.797,979.004,162.109,958.984
1742116772.333,964.355,917.969,292.969,968.750
1742116772.337,907.715,999.512,305.176,966.797
1742116772.340,999.512,854.980,254.395,966.797
1742116772.344,144.043,-511.719,60.547,966.797
1742116772.348,-1000.000,-1000.000,27.832,966.797
1742116772.352,-951.172,-874.512,204.102,967.285
1742116772.356,-960.938,-1000.000,240.234,966.797
1742116772.313,999.512,999.512,247.559,-1000.000
1742116772.317,932.129,906.250,274.414,73.730
1742116772.321,948.730,968.750,323.730,999.512
1742116772.325,969.727,967.285,171.875,918.457
1742116772.329,966.797,979.004,162.109,958.984
1742116772.333,964.355,917.969,292.969,968.750
1742116772.337,907.715,999.512,305.176,966.797
1742116772.340,999.512,854.980,254.395,966.797
1742116772.344,144.043,-511.719,60.547,966.797
1742116772.348,-1000.000,-1000.000,27.832,966.797
1742116772.352,-951.172,-874.512,204.102,967.285
1742116772.356,-960.938,-1000.000,240.234,966.797
1742116772.358,-1000.000,-759.277,256.836,966.797
1742116772.362,181.152,657.715,196.777,966.797
1742116772.366,999.512,999.512,31.738,966.797
1742116772.370,906.738,906.738,96.191,966.797
1742116772.374,964.355,968.750,211.426,966.797
1742116772.378,907.227,923.828,275.879,966.797
1742116772.382,999.512,999.512,201.172,967.285
1742116772.385,141.602,-12.207,29.785,966.797
1742116772.389,-1000.000,-1000.000,32.227,966.797
1742116772.393,-984.863,-1000.000,150.879,966.797
1742116772.397,-981.934,-779.297,214.844,967.285
1742116772.401,297.852,600.098,139.160,966.797
1742116772.358,-1000.000,-759.277,256.836,966.797
1742116772.362,181.152,657.715,196.777,966.797
1742116772.366,999.512,999.512,31.738,966.797
1742116772.370,906.738,906.738,96.191,966.797
1742116772.374,964.355,968.750,211.426,966.797
1742116772.378,907.227,923.828,275.879,966.797
1742116772.382,999.512,999.512,201.172,967.285
1742116772.385,141.602,-12.207,29.785,966.797
1742116772.389,-1000.000,-1000.000,32.227,966.797
1742116772.393,-984.863,-1000.000,150.879,966.797
1742116772.397,-981.934,-779.297,214.844,967.285
1742116772.401,297.852,600.098,139.160,966.797
1742116772.403,999.512,999.512,61.035,966.797
1742116772.407,901.367,915.527,127.930,966.797
1742116772.411,971.191,905.762,213.867,966.797
1742116772.415,966.309,999.512,263.184,966.797
1742116772.419,966.309,494.141,100.586,966.797
1742116772.423,966.309,-1000.000,-67.383,966.797
1742116772.427,966.309,-718.750,-0.488,966.797
1742116772.430,966.309,979.492,20.020,966.797
1742116772.434,966.309,285.645,-80.078,966.797
1742116772.438,966.309,-1000.000,-59.082,966.797
1742116772.442,966.309,-976.562,-3.418,966.797
1742116772.446,966.309,-909.668,44.922,966.797
1742116772.403,999.512,999.512,61.035,966.797
1742116772.407,901.367,915.527,127.930,966.797
1742116772.411,971.191,905.762,213.867,966.797
1742116772.415,966.309,999.512,263.184,966.797
1742116772.419,966.309,494.141,100.586,966.797
1742116772.423,966.309,-1000.000,-67.383,966.797
1742116772.427,966.309,-718.750,-0.488,966.797
1742116772.430,966.309,979.492,20.020,966.797
1742116772.434,966.309,285.645,-80.078,966.797
1742116772.438,966.309,-1000.000,-59.082,966.797
1742116772.442,966.309,-976.562,-3.418,966.797
1742116772.446,966.309,-909.668,44.922,966.797
1742116772.448,966.309,-1000.000,96.191,966.797
1742116772.452,981.445,-175.781,62.500,967.285
1742116772.456,892.090,977.539,30.273,966.797
1742116772.460,999.512,999.512,-67.383,966.797
1742116772.464,532.227,290.527,-88.867,966.797
1742116772.468,-908.691,-1000.000,50.781,966.797
1742116772.472,-1000.000,-1000.000,109.863,966.797
1742116772.475,-945.312,-964.844,-0.977,966.797
1742116772.479,-1000.000,-1000.000,-187.988,966.797
1742116772.483,-937.500,-951.660,-162.109,966.797
1742116772.487,-1000.000,-1000.000,-17.578,966.797
1742116772.491,-220.703,-90.332,0.977,966.797
1742116772.493,999.512,999.512,-68.848,966.797
1742116772.497,950.684,932.129,-155.762,966.797
1742116772.501,875.977,891.602,-143.555,966.797
1742116772.505,999.512,999.512,-38.086,966.797
1742116772.509,187.012,129.883,-21.484,974.121
1742116772.513,-1000.000,-1000.000,26.367,934.082
1742116772.517,-983.887,-976.562,44.922,971.191
1742116772.520,-973.145,-977.051,-123.047,952.148
1742116772.524,-1000.000,-1000.000,-205.566,-302.734
1742116772.528,-1000.000,-1000.000,-175.781,-1000.000
1742116772.532,-1000.000,-1000.000,-108.398,-945.312
1742116772.536,-999.512,-935.059,-96.191,-994.629
1742116772.493,999.512,999.512,-68.848,966.797
1742116772.497,950.684,932.129,-155.762,966.797
1742116772.501,875.977,891.602,-143.555,966.797
1742116772.505,999.512,999.512,-38.086,966.797
1742116772.509,187.012,129.883,-21.484,974.121
1742116772.513,-1000.000,-1000.000,26.367,934.082
1742116772.517,-983.887,-976.562,44.922,971.191
1742116772.520,-973.145,-977.051,-123.047,952.148
1742116772.524,-1000.000,-1000.000,-205.566,-302.734
1742116772.528,-1000.000,-1000.000,-175.781,-1000.000
1742116772.532,-1000.000,-1000.000,-108.398,-945.312
1742116772.536,-999.512,-935.059,-96.191,-994.629
1742116772.538,-939.453,-1000.000,-191.406,-949.219
1742116772.542,-1000.000,-676.270,-124.512,-1000.000
1742116772.546,-196.289,743.164,26.855,-116.211
1742116772.550,999.512,999.512,26.855,999.512
1742116772.554,947.266,898.438,-90.332,937.012
1742116772.558,877.930,933.594,-74.219,886.230
1742116772.562,999.512,999.512,33.203,999.512
1742116772.565,187.012,28.320,-33.203,165.527
1742116772.569,-1000.000,-1000.000,-20.996,-1000.000
1742116772.573,-983.887,-963.867,-10.742,-980.957
1742116772.577,-973.145,-984.863,-82.031,-974.609
1742116772.581,-1000.000,-1000.000,-86.914,-1000.000
1742116772.538,-939.453,-1000.000,-191.406,-949.219
1742116772.542,-1000.000,-676.270,-124.512,-1000.000
1742116772.546,-196.289,743.164,26.855,-116.211
1742116772.550,999.512,999.512,26.855,999.512
1742116772.554,947.266,898.438,-90.332,937.012
1742116772.558,877.930,933.594,-74.219,886.230
1742116772.562,999.512,999.512,33.203,999.512
1742116772.565,187.012,28.320,-33.203,165.527
1742116772.569,-1000.000,-1000.000,-20.996,-1000.000
1742116772.573,-983.887,-963.867,-10.742,-980.957
1742116772.577,-973.145,-984.863,-82.031,-974.609
1742116772.581,-1000.000,-1000.000,-86.914,-1000.000
1742116772.584,-1000.000,-938.477,-159.180,-1000.000
1742116772.588,-1000.000,-1000.000,-134.766,-1000.000
1742116772.592,-1000.000,-208.496,-92.773,-1000.000
1742116772.596,-931.152,999.512,-180.176,-1000.000
1742116772.600,-1000.000,950.195,-176.758,-1000.000
1742116772.604,-614.746,935.547,-8.789,-1000.000
1742116772.608,745.605,919.922,38.574,-1000.000
1742116772.611,999.512,999.512,-88.867,-1000.000
1742116772.615,130.371,95.215,-271.973,-1000.000
1742116772.619,-1000.000,-1000.000,-232.422,-1000.000
1742116772.623,-990.234,-972.656,-16.113,-1000.000
1742116772.627,-904.297,-917.480,45.898,-1000.000
1742116772.584,-1000.000,-938.477,-159.180,-1000.000
1742116772.588,-1000.000,-1000.000,-134.766,-1000.000
1742116772.592,-1000.000,-208.496,-92.773,-1000.000
1742116772.596,-931.152,999.512,-180.176,-1000.000
1742116772.600,-1000.000,950.195,-176.758,-1000.000
1742116772.604,-614.746,935.547,-8.789,-1000.000
1742116772.608,745.605,919.922,38.574,-1000.000
1742116772.611,999.512,999.512,-88.867,-1000.000
1742116772.615,130.371,95.215,-271.973,-1000.000
1742116772.619,-1000.000,-1000.000,-232.422,-1000.000
1742116772.623,-990.234,-972.656,-16.113,-1000.000
1742116772.627,-904.297,-917.480,45.898,-1000.000
1742116772.643,-1000.000,-1000.000,-32.715,-1000.000
1742116772.647,-332.520,-215.820,-92.285,-1000.000
1742116772.651,996.094,999.512,-113.770,-1000.000
1742116772.655,983.398,964.355,-89.844,-1000.000
1742116772.659,870.605,869.141,39.551,-1000.000
1742116772.663,999.512,999.512,123.535,-1000.000
1742116772.667,765.625,557.617,-20.508,-1000.000
1742116772.670,-655.273,-870.605,-175.293,-1000.000
1742116772.674,-1000.000,-1000.000,-80.078,-1000.000
1742116772.678,-935.059,-944.824,36.133,-1000.000
1742116772.682,-1000.000,-1000.000,75.195,-1000.000
1742116772.686,-946.289,-928.711,21.973,-976.074
1742116772.643,-1000.000,-1000.000,-32.715,-1000.000
1742116772.647,-332.520,-215.820,-92.285,-1000.000
1742116772.651,996.094,999.512,-113.770,-1000.000
1742116772.655,983.398,964.355,-89.844,-1000.000
1742116772.659,870.605,869.141,39.551,-1000.000
1742116772.663,999.512,999.512,123.535,-1000.000
1742116772.667,765.625,557.617,-20.508,-1000.000
1742116772.670,-655.273,-870.605,-175.293,-1000.000
1742116772.674,-1000.000,-1000.000,-80.078,-1000.000
1742116772.678,-935.059,-944.824,36.133,-1000.000
1742116772.682,-1000.000,-1000.000,75.195,-1000.000
1742116772.686,-946.289,-928.711,21.973,-976.074
1742116772.689,-1000.000,-1000.000,-67.871,-979.980
1742116772.693,-855.469,-548.340,-16.113,-1000.000
1742116772.697,542.480,868.164,101.562,143.066
1742116772.701,999.512,999.512,106.445,999.512
1742116772.705,903.809,923.828,-3.906,916.016
1742116772.709,959.961,942.383,-58.594,940.918
1742116772.713,933.105,979.492,4.883,945.801
1742116772.716,999.512,948.730,-6.836,999.512
1742116772.720,-96.680,-368.164,-97.656,-165.039
1742116772.724,-1000.000,-1000.000,-128.906,-1000.000
1742116772.728,-948.730,-936.523,-85.938,-945.312
1742116772.732,-993.652,-1000.000,-19.043,-996.582
1742116772.689,-1000.000,-1000.000,-67.871,-979.980
1742116772.693,-855.469,-548.340,-16.113,-1000.000
1742116772.697,542.480,868.164,101.562,143.066
1742116772.701,999.512,999.512,106.445,999.512
1742116772.705,903.809,923.828,-3.906,916.016
1742116772.709,959.961,942.383,-58.594,940.918
1742116772.713,933.105,979.492,4.883,945.801
1742116772.716,999.512,948.730,-6.836,999.512
1742116772.720,-96.680,-368.164,-97.656,-165.039
1742116772.724,-1000.000,-1000.000,-128.906,-1000.000
1742116772.728,-948.730,-936.523,-85.938,-945.312
1742116772.732,-993.652,-1000.000,-19.043,-996.582
1742116772.734,-1000.000,-933.594,40.527,-1000.000
1742116772.738,-1000.000,-1000.000,40.039,-1000.000
1742116772.742,-1000.000,-353.516,24.902,-1000.000
1742116772.746,-1000.000,999.512,-23.926,-1000.000
1742116772.750,-925.781,724.121,-41.016,-929.688
1742116772.754,-1000.000,-888.184,87.402,-1000.000
1742116772.758,-524.414,-363.770,144.043,-632.812
1742116772.761,902.344,999.512,57.617,808.105
1742116772.765,999.512,953.613,-150.391,999.512
1742116772.769,928.711,935.547,-90.820,921.875
1742116772.773,922.852,911.621,78.613,923.828
1742116772.777,999.512,999.512,77.637,999.512
1742116772.734,-1000.000,-933.594,40.527,-1000.000
1742116772.738,-1000.000,-1000.000,40.039,-1000.000
1742116772.742,-1000.000,-353.516,24.902,-1000.000
1742116772.746,-1000.000,999.512,-23.926,-1000.000
1742116772.750,-925.781,724.121,-41.016,-929.688
1742116772.754,-1000.000,-888.184,87.402,-1000.000
1742116772.758,-524.414,-363.770,144.043,-632.812
1742116772.761,902.344,999.512,57.617,808.105
1742116772.765,999.512,953.613,-150.391,999.512
1742116772.769,928.711,935.547,-90.820,921.875
1742116772.773,922.852,911.621,78.613,923.828
1742116772.777,999.512,999.512,77.637,999.512
1742116772.823,-1000.000,-941.406,-145.996,-1000.000
1742116772.827,-983.887,-1000.000,-66.406,-983.398
1742116772.831,-974.609,-937.500,14.648,-976.562
1742116772.835,-999.023,-1000.000,-23.438,-993.164
1742116772.839,-950.684,-538.086,-148.438,-963.867
1742116772.843,-1000.000,821.289,-148.926,-1000.000
1742116772.847,-76.172,999.512,-2.441,-8.789
1742116772.850,999.512,917.969,-73.730,999.512
1742116772.854,930.176,980.469,-100.586,930.176
1742116772.858,953.125,956.543,-110.840,958.496
1742116772.862,903.809,922.363,-155.762,901.855
1742116772.866,999.512,999.512,-15.137,999.512
1742116772.868,235.840,18.555,-12.207,290.039
1742116772.872,-1000.000,-1000.000,-41.504,-1000.000
1742116772.876,-994.141,-962.402,8.301,-1000.000
1742116772.880,-904.785,-925.293,-65.918,-899.902
1742116772.884,-1000.000,-1000.000,-66.895,-1000.000
1742116772.888,-249.023,-175.293,86.914,-254.395
1742116772.892,999.512,976.074,160.645,999.512
1742116772.895,954.590,999.512,2.441,956.055
1742116772.899,937.012,325.684,-209.961,937.012
1742116772.903,974.121,-1000.000,-122.559,974.609
1742116772.907,966.309,-1000.000,41.992,966.797
1742116772.911,966.309,-895.020,12.207,966.797
1742116772.868,235.840,18.555,-12.207,290.039
1742116772.872,-1000.000,-1000.000,-41.504,-1000.000
1742116772.876,-994.141,-962.402,8.301,-1000.000
1742116772.880,-904.785,-925.293,-65.918,-899.902
1742116772.884,-1000.000,-1000.000,-66.895,-1000.000
1742116772.888,-249.023,-175.293,86.914,-254.395
1742116772.892,999.512,976.074,160.645,999.512
1742116772.895,954.590,999.512,2.441,956.055
1742116772.899,937.012,325.684,-209.961,937.012
1742116772.903,974.121,-1000.000,-122.559,974.609
1742116772.907,966.309,-1000.000,41.992,966.797
1742116772.911,966.309,-895.020,12.207,966.797
1742116772.914,966.309,-1000.000,-95.703,966.797
1742116772.918,966.309,-256.348,-100.098,966.797
1742116772.922,966.309,999.512,-40.527,966.797
1742116772.926,969.238,961.426,-74.707,968.262
1742116772.930,950.195,914.551,-72.754,958.984
1742116772.934,929.199,950.684,-16.602,916.992
1742116772.938,999.512,999.512,-41.992,999.512
1742116772.941,-68.359,-154.785,-213.867,49.316
1742116772.945,-1000.000,-1000.000,-242.188,-1000.000
1742116772.949,-951.660,-945.312,-68.359,-966.309
1742116772.953,-992.188,-996.094,36.133,-979.980
1742116772.957,-938.965,-940.430,-50.293,-947.266
1742116772.914,966.309,-1000.000,-95.703,966.797
1742116772.918,966.309,-256.348,-100.098,966.797
1742116772.922,966.309,999.512,-40.527,966.797
1742116772.926,969.238,961.426,-74.707,968.262
1742116772.930,950.195,914.551,-72.754,958.984
1742116772.934,929.199,950.684,-16.602,916.992
1742116772.938,999.512,999.512,-41.992,999.512
1742116772.941,-68.359,-154.785,-213.867,49.316
1742116772.945,-1000.000,-1000.000,-242.188,-1000.000
1742116772.949,-951.660,-945.312,-68.359,-966.309
1742116772.953,-992.188,-996.094,36.133,-979.980
1742116772.957,-938.965,-940.430,-50.293,-947.266
1742116772.958,-1000.000,-1000.000,-165.039,-1000.000
1742116772.962,-220.703,-200.684,-56.152,-155.273
1742116772.966,999.512,999.512,70.312,999.512
1742116772.970,949.707,947.754,24.902,941.895
1742116772.974,938.965,952.637,-21.973,944.336
1742116772.978,973.145,927.246,16.602,972.168
1742116772.982,966.309,999.512,70.801,966.797
1742116772.985,966.309,874.512,8.789,966.797
1742116772.989,966.309,-479.004,-55.176,966.797
1742116772.993,966.309,-1000.000,-53.223,966.797
1742116772.997,966.309,-935.059,-64.453,966.797
1742116773.001,966.309,-948.730,9.766,966.797
1742116773.018,966.309,-1000.000,66.895,966.797
1742116773.022,966.309,-177.246,118.164,967.285
1742116773.026,966.309,967.285,122.070,966.797
1742116773.030,966.309,999.512,34.180,966.797
1742116773.034,968.262,292.480,77.148,966.797
1742116773.038,955.078,-354.980,211.426,966.797
1742116773.042,921.875,971.191,218.262,966.797
1742116773.045,999.512,963.379,32.715,966.797
1742116773.049,-4.395,-478.516,-160.645,967.285
1742116773.053,-1000.000,-1000.000,-52.246,966.797
1742116773.057,-958.984,-937.012,66.406,966.797
1742116773.061,-987.305,-1000.000,-3.906,967.285
1742116773.018,966.309,-1000.000,66.895,966.797
1742116773.022,966.309,-177.246,118.164,967.285
1742116773.026,966.309,967.285,122.070,966.797
1742116773.030,966.309,999.512,34.180,966.797
1742116773.034,968.262,292.480,77.148,966.797
1742116773.038,955.078,-354.980,211.426,966.797
1742116773.042,921.875,971.191,218.262,966.797
1742116773.045,999.512,963.379,32.715,966.797
1742116773.049,-4.395,-478.516,-160.645,967.285
1742116773.053,-1000.000,-1000.000,-52.246,966.797
1742116773.057,-958.984,-937.012,66.406,966.797
1742116773.061,-987.305,-1000.000,-3.906,967.285
1742116773.063,-1000.000,-995.117,-71.289,966.797
1742116773.067,-937.500,-947.266,-209.473,966.797
1742116773.071,-1000.000,-1000.000,-208.008,966.797
1742116773.075,-220.703,-124.512,-121.094,966.797
1742116773.079,999.512,999.512,-141.602,970.215
1742116773.083,923.340,874.023,-106.445,951.172
1742116773.087,922.363,999.512,-136.230,930.176
1742116773.090,999.512,686.523,-201.172,999.512
1742116773.094,-208.496,-743.164,-150.391,-64.453
1742116773.098,-1000.000,-1000.000,-124.512,-1000.000
1742116773.102,-948.730,-949.707,-202.148,-960.938
1742116773.106,-967.285,-941.895,-275.391,-957.520
1742116773.063,-1000.000,-995.117,-71.289,966.797
1742116773.067,-937.500,-947.266,-209.473,966.797
1742116773.071,-1000.000,-1000.000,-208.008,966.797
1742116773.075,-220.703,-124.512,-121.094,966.797
1742116773.079,999.512,999.512,-141.602,970.215
1742116773.083,923.340,874.023,-106.445,951.172
1742116773.087,922.363,999.512,-136.230,930.176
1742116773.090,999.512,686.523,-201.172,999.512
1742116773.094,-208.496,-743.164,-150.391,-64.453
1742116773.098,-1000.000,-1000.000,-124.512,-1000.000
1742116773.102,-948.730,-949.707,-202.148,-960.938
1742116773.106,-967.285,-941.895,-275.391,-957.520
1742116773.108,-997.070,-1000.000,-323.730,-1000.000
1742116773.112,-1000.000,-456.543,-193.359,-1000.000
1742116773.116,252.441,934.082,-74.219,268.066
1742116773.120,999.512,996.094,-119.141,999.512
1742116773.124,902.832,908.203,-227.539,904.297
1742116773.128,906.738,938.965,-167.969,909.668
1742116773.132,999.512,999.512,-100.098,999.512
1742116773.135,186.523,-20.020,-227.539,152.832
1742116773.139,-1000.000,-1000.000,-240.234,-1000.000
1742116773.143,-983.887,-881.836,-241.699,-979.004
1742116773.147,-973.145,-1000.000,-255.371,-975.586
1742116773.151,-1000.000,-129.883,-105.957,-1000.000
1742116773.108,-997.070,-1000.000,-323.730,-1000.000
1742116773.112,-1000.000,-456.543,-193.359,-1000.000
1742116773.116,252.441,934.082,-74.219,268.066
1742116773.120,999.512,996.094,-119.141,999.512
1742116773.124,902.832,908.203,-227.539,904.297
1742116773.128,906.738,938.965,-167.969,909.668
1742116773.132,999.512,999.512,-100.098,999.512
1742116773.135,186.523,-20.020,-227.539,152.832
1742116773.139,-1000.000,-1000.000,-240.234,-1000.000
1742116773.143,-983.887,-881.836,-241.699,-979.004
1742116773.147,-973.145,-1000.000,-255.371,-975.586
