timestamps,TP9,AF7,AF8,TP10
1742118645.011,-666.504,-79.590,-20.996,-718.750
1742118645.015,760.742,-17.578,-15.137,675.781
1742118645.019,999.512,-66.406,-20.996,999.512
1742118645.023,-383.789,-202.148,-22.949,-307.129
1742118645.027,-1000.000,-145.020,-19.531,-1000.000
1742118645.031,-406.738,15.137,-16.602,-502.441
1742118645.035,973.633,22.949,-17.578,916.992
1742118645.038,862.793,-122.070,-29.785,862.305
1742118645.042,-575.684,-193.848,-29.297,-609.375
1742118645.046,-1000.000,-102.539,-22.461,-1000.000
1742118645.050,-581.055,-21.973,-12.695,-648.438
1742118645.054,766.602,21.484,-12.207,675.781
1742118645.059,999.512,-21.484,-13.184,999.512
1742118645.063,-76.172,-82.520,1.953,65.918
1742118645.067,-1000.000,-94.238,4.883,-1000.000
1742118645.071,-834.961,-27.344,0.977,-896.484
1742118645.075,503.418,73.242,8.301,463.867
1742118645.079,999.512,76.660,9.766,999.512
1742118645.083,506.348,-20.508,3.418,516.113
1742118645.086,-869.141,-112.305,-3.906,-805.664
1742118645.090,-1000.000,-35.645,-1.465,-1000.000
1742118645.094,275.391,107.910,-2.930,110.352
1742118645.098,999.512,83.496,-5.859,999.512
1742118645.102,646.484,-21.973,-14.160,659.180
1742118645.059,999.512,-21.484,-13.184,999.512
1742118645.063,-76.172,-82.520,1.953,65.918
1742118645.067,-1000.000,-94.238,4.883,-1000.000
1742118645.071,-834.961,-27.344,0.977,-896.484
1742118645.075,503.418,73.242,8.301,463.867
1742118645.079,999.512,76.660,9.766,999.512
1742118645.083,506.348,-20.508,3.418,516.113
1742118645.086,-869.141,-112.305,-3.906,-805.664
1742118645.090,-1000.000,-35.645,-1.465,-1000.000
1742118645.094,275.391,107.910,-2.930,110.352
1742118645.098,999.512,83.496,-5.859,999.512
1742118645.102,646.484,-21.973,-14.160,659.180
1742118645.101,-770.020,-74.707,-27.344,-731.445
1742118645.105,-1000.000,5.371,-25.879,-1000.000
1742118645.109,222.168,123.047,-22.949,61.035
1742118645.113,999.512,80.566,-26.855,999.512
1742118645.117,744.141,3.906,-27.344,740.234
1742118645.121,-571.289,-6.836,-20.996,-606.445
1742118645.125,-1000.000,2.441,-22.461,-1000.000
1742118645.128,-561.035,34.180,-32.227,-601.074
1742118645.132,888.184,41.992,-47.363,829.590
1742118645.136,894.531,-17.090,-51.758,887.207
1742118645.140,-594.238,-86.914,-46.387,-620.605
1742118645.144,-1000.000,-35.645,-40.039,-1000.000
1742118645.101,-770.020,-74.707,-27.344,-731.445
1742118645.105,-1000.000,5.371,-25.879,-1000.000
1742118645.109,222.168,123.047,-22.949,61.035
1742118645.113,999.512,80.566,-26.855,999.512
1742118645.117,744.141,3.906,-27.344,740.234
1742118645.121,-571.289,-6.836,-20.996,-606.445
1742118645.125,-1000.000,2.441,-22.461,-1000.000
1742118645.128,-561.035,34.180,-32.227,-601.074
1742118645.132,888.184,41.992,-47.363,829.590
1742118645.136,894.531,-17.090,-51.758,887.207
1742118645.140,-594.238,-86.914,-46.387,-620.605
1742118645.144,-1000.000,-35.645,-40.039,-1000.000
1742118645.162,-457.031,42.480,-39.551,-541.016
1742118645.166,939.941,62.012,-46.875,872.559
1742118645.170,875.000,-24.414,-54.688,877.930
1742118645.174,-583.984,-109.375,-55.176,-613.281
1742118645.178,-1000.000,-49.805,-41.992,-1000.000
1742118645.182,-498.535,78.125,-31.250,-545.410
1742118645.186,959.473,102.051,-29.785,891.113
1742118645.189,743.652,-38.574,-37.598,775.879
1742118645.193,-745.117,-103.027,-50.293,-705.566
1742118645.197,-1000.000,-28.320,-58.105,-1000.000
1742118645.201,-864.746,12.207,-58.594,-850.586
1742118645.205,594.727,84.961,-52.734,589.355
1742118645.162,-457.031,42.480,-39.551,-541.016
1742118645.166,939.941,62.012,-46.875,872.559
1742118645.170,875.000,-24.414,-54.688,877.930
1742118645.174,-583.984,-109.375,-55.176,-613.281
1742118645.178,-1000.000,-49.805,-41.992,-1000.000
1742118645.182,-498.535,78.125,-31.250,-545.410
1742118645.186,959.473,102.051,-29.785,891.113
1742118645.189,743.652,-38.574,-37.598,775.879
1742118645.193,-745.117,-103.027,-50.293,-705.566
1742118645.197,-1000.000,-28.320,-58.105,-1000.000
1742118645.201,-864.746,12.207,-58.594,-850.586
1742118645.205,594.727,84.961,-52.734,589.355
1742118645.671,-1000.000,-111.816,-58.594,-1000.000
1742118645.675,-818.359,-8.301,-65.430,-837.402
1742118645.679,536.133,49.316,-62.012,512.695
1742118645.683,999.512,-9.277,-56.641,999.512
1742118645.687,-73.730,-92.773,-58.105,-19.531
1742118645.691,-1000.000,-88.867,-59.570,-1000.000
1742118645.695,-873.047,-10.254,-62.988,-910.156
1742118645.698,546.875,67.871,-60.547,505.859
1742118645.702,999.512,-46.875,-70.312,999.512
1742118645.706,-87.402,-161.621,-60.059,-11.719
1742118645.710,-1000.000,-114.258,-51.270,-1000.000
1742118645.714,-832.031,-18.066,-73.242,-882.324
1742118645.162,-457.031,42.480,-39.551,-541.016
1742118645.166,939.941,62.012,-46.875,872.559
1742118645.170,875.000,-24.414,-54.688,877.930
1742118645.174,-583.984,-109.375,-55.176,-613.281
1742118645.178,-1000.000,-49.805,-41.992,-1000.000
1742118645.182,-498.535,78.125,-31.250,-545.410
1742118645.186,959.473,102.051,-29.785,891.113
1742118645.189,743.652,-38.574,-37.598,775.879
1742118645.193,-745.117,-103.027,-50.293,-705.566
1742118645.197,-1000.000,-28.320,-58.105,-1000.000
1742118645.201,-864.746,12.207,-58.594,-850.586
1742118645.205,594.727,84.961,-52.734,589.355
1742118645.206,999.512,7.812,-58.594,999.512
1742118645.210,-531.738,-123.047,-59.082,-458.984
1742118645.214,-1000.000,-66.895,-47.852,-1000.000
1742118645.218,-824.219,8.301,-47.363,-840.820
1742118645.222,503.906,104.004,-39.551,467.285
1742118645.226,999.512,82.031,-21.484,999.512
1742118645.230,73.730,-65.430,-19.531,182.129
1742118645.233,-1000.000,-101.074,-29.297,-979.492
1742118645.237,-976.562,-7.812,-27.832,-1000.000
1742118645.241,290.527,121.582,-28.809,164.551
1742118645.245,999.512,72.266,-33.203,999.512
1742118645.249,617.188,-33.691,-27.832,619.141
1742118645.206,999.512,7.812,-58.594,999.512
1742118645.210,-531.738,-123.047,-59.082,-458.984
1742118645.214,-1000.000,-66.895,-47.852,-1000.000
1742118645.218,-824.219,8.301,-47.363,-840.820
1742118645.222,503.906,104.004,-39.551,467.285
1742118645.226,999.512,82.031,-21.484,999.512
1742118645.230,73.730,-65.430,-19.531,182.129
1742118645.233,-1000.000,-101.074,-29.297,-979.492
1742118645.237,-976.562,-7.812,-27.832,-1000.000
1742118645.241,290.527,121.582,-28.809,164.551
1742118645.245,999.512,72.266,-33.203,999.512
1742118645.249,617.188,-33.691,-27.832,619.141
1742118645.253,-853.516,-55.176,-20.996,-809.082
1742118645.257,-997.070,35.156,-17.090,-1000.000
1742118645.261,474.121,145.020,-0.977,381.836
1742118645.265,999.512,84.961,2.441,999.512
1742118645.269,546.387,-5.859,-3.418,527.344
1742118645.273,-856.445,0.488,-0.488,-806.152
1742118645.277,-1000.000,27.344,-5.859,-1000.000
1742118645.280,348.633,82.031,-11.719,212.402
1742118645.284,999.512,68.848,-8.789,999.512
1742118645.288,812.988,-8.301,-9.277,810.059
1742118645.292,-573.730,-95.215,-15.625,-573.242
1742118645.296,-1000.000,-16.602,-20.020,-1000.000
1742118645.253,-853.516,-55.176,-20.996,-809.082
1742118645.257,-997.070,35.156,-17.090,-1000.000
1742118645.261,474.121,145.020,-0.977,381.836
1742118645.265,999.512,84.961,2.441,999.512
1742118645.269,546.387,-5.859,-3.418,527.344
1742118645.273,-856.445,0.488,-0.488,-806.152
1742118645.277,-1000.000,27.344,-5.859,-1000.000
1742118645.280,348.633,82.031,-11.719,212.402
1742118645.284,999.512,68.848,-8.789,999.512
1742118645.288,812.988,-8.301,-9.277,810.059
1742118645.292,-573.730,-95.215,-15.625,-573.242
1742118645.296,-1000.000,-16.602,-20.020,-1000.000
1742118645.296,181.641,111.816,-22.949,7.812
1742118645.300,999.512,87.891,-19.531,999.512
1742118645.304,854.004,9.277,-17.578,903.809
1742118645.308,-569.336,-89.844,-23.438,-510.254
1742118645.312,-1000.000,-2.930,-24.414,-1000.000
1742118645.316,294.922,139.648,-20.996,167.480
1742118645.320,999.512,71.777,-21.484,999.512
1742118645.323,812.988,-22.461,-20.020,836.426
1742118645.327,-571.777,-96.191,-20.996,-532.715
1742118645.331,-1000.000,-30.273,-15.137,-1000.000
1742118645.335,196.777,125.488,-1.953,-1.465
1742118645.339,999.512,92.285,2.930,963.867
1742118645.296,181.641,111.816,-22.949,7.812
1742118645.300,999.512,87.891,-19.531,999.512
1742118645.304,854.004,9.277,-17.578,903.809
1742118645.308,-569.336,-89.844,-23.438,-510.254
1742118645.312,-1000.000,-2.930,-24.414,-1000.000
1742118645.316,294.922,139.648,-20.996,167.480
1742118645.320,999.512,71.777,-21.484,999.512
1742118645.323,812.988,-22.461,-20.020,836.426
1742118645.327,-571.777,-96.191,-20.996,-532.715
1742118645.331,-1000.000,-30.273,-15.137,-1000.000
1742118645.335,196.777,125.488,-1.953,-1.465
1742118645.339,999.512,92.285,2.930,963.867
1742118645.344,999.512,22.949,-5.859,999.512
1742118645.348,285.156,10.742,-10.254,324.707
1742118645.352,-1000.000,-24.902,-4.883,-1000.000
1742118645.356,-770.508,22.461,-7.324,-804.688
1742118645.360,657.715,73.730,-7.324,627.441
1742118645.364,999.512,63.965,-0.977,999.512
1742118645.368,844.238,-1.465,-4.883,838.867
1742118645.371,-633.301,-145.996,-17.578,-619.141
1742118645.375,-1000.000,-54.199,-16.113,-1000.000
1742118645.379,614.746,109.375,-11.230,562.500
1742118645.383,999.512,37.109,-16.602,999.512
1742118645.387,999.512,-13.184,-14.648,992.188
1742118645.344,999.512,22.949,-5.859,999.512
1742118645.348,285.156,10.742,-10.254,324.707
1742118645.352,-1000.000,-24.902,-4.883,-1000.000
1742118645.356,-770.508,22.461,-7.324,-804.688
1742118645.360,657.715,73.730,-7.324,627.441
1742118645.364,999.512,63.965,-0.977,999.512
1742118645.368,844.238,-1.465,-4.883,838.867
1742118645.371,-633.301,-145.996,-17.578,-619.141
1742118645.375,-1000.000,-54.199,-16.113,-1000.000
1742118645.379,614.746,109.375,-11.230,562.500
1742118645.383,999.512,37.109,-16.602,999.512
1742118645.387,999.512,-13.184,-14.648,992.188
1742118645.344,999.512,22.949,-5.859,999.512
1742118645.348,285.156,10.742,-10.254,324.707
1742118645.352,-1000.000,-24.902,-4.883,-1000.000
1742118645.356,-770.508,22.461,-7.324,-804.688
1742118645.360,657.715,73.730,-7.324,627.441
1742118645.364,999.512,63.965,-0.977,999.512
1742118645.368,844.238,-1.465,-4.883,838.867
1742118645.371,-633.301,-145.996,-17.578,-619.141
1742118645.375,-1000.000,-54.199,-16.113,-1000.000
1742118645.379,614.746,109.375,-11.230,562.500
1742118645.383,999.512,37.109,-16.602,999.512
1742118645.387,999.512,-13.184,-14.648,992.188
1742118645.867,258.789,99.609,-52.246,33.203
1742118645.871,999.512,57.129,-57.129,999.512
1742118645.875,808.594,-36.621,-57.129,795.410
1742118645.879,-631.836,-95.703,-54.199,-653.809
1742118645.883,-1000.000,-13.672,-44.922,-1000.000
1742118645.887,334.473,152.344,-43.945,183.105
1742118645.891,999.512,94.727,-47.363,999.512
1742118645.894,572.266,-59.570,-40.527,553.711
1742118645.898,-785.156,-107.422,-33.203,-756.836
1742118645.902,-1000.000,-27.344,-51.270,-1000.000
1742118645.906,-36.621,81.055,-51.270,-282.715
1742118645.910,999.512,61.035,-36.621,999.512
1742118645.433,-2.930,-96.191,-19.043,167.969
1742118645.437,-1000.000,-89.844,-20.020,-1000.000
1742118645.441,-841.309,-6.348,-20.020,-859.375
1742118645.445,707.520,35.645,-30.762,707.520
1742118645.449,941.406,-36.133,-27.344,954.590
1742118645.453,-611.328,-95.215,-8.301,-575.195
1742118645.457,-1000.000,-63.965,-16.602,-1000.000
1742118645.460,-856.934,-29.785,-23.438,-839.355
1742118645.464,587.891,33.203,-19.531,573.730
1742118645.468,999.512,-12.695,-25.879,999.512
1742118645.472,-570.801,-149.414,-30.273,-468.262
1742118645.476,-1000.000,-89.844,-31.250,-1000.000
1742118645.433,-2.930,-96.191,-19.043,167.969
1742118645.437,-1000.000,-89.844,-20.020,-1000.000
1742118645.441,-841.309,-6.348,-20.020,-859.375
1742118645.445,707.520,35.645,-30.762,707.520
1742118645.449,941.406,-36.133,-27.344,954.590
1742118645.453,-611.328,-95.215,-8.301,-575.195
1742118645.457,-1000.000,-63.965,-16.602,-1000.000
1742118645.460,-856.934,-29.785,-23.438,-839.355
1742118645.464,587.891,33.203,-19.531,573.730
1742118645.468,999.512,-12.695,-25.879,999.512
1742118645.472,-570.801,-149.414,-30.273,-468.262
1742118645.476,-1000.000,-89.844,-31.250,-1000.000
1742118645.476,-995.117,-20.996,-36.621,-981.445
1742118645.480,-832.031,-6.836,-39.551,-773.438
1742118645.484,769.531,53.223,-42.480,747.559
1742118645.488,914.062,-42.969,-49.316,918.457
1742118645.492,-706.543,-125.000,-50.781,-690.430
1742118645.496,-1000.000,-15.137,-41.016,-1000.000
1742118645.500,-854.492,-3.418,-40.527,-865.234
1742118645.503,-1000.000,-88.379,-45.410,-1000.000
1742118645.507,-623.535,-26.367,-34.180,-615.234
1742118645.511,965.820,85.449,-27.344,926.758
1742118645.515,246.094,-73.730,-39.551,474.121
1742118645.519,-1000.000,-124.512,-41.504,-943.359
1742118645.476,-995.117,-20.996,-36.621,-981.445
1742118645.480,-832.031,-6.836,-39.551,-773.438
1742118645.484,769.531,53.223,-42.480,747.559
1742118645.488,914.062,-42.969,-49.316,918.457
1742118645.492,-706.543,-125.000,-50.781,-690.430
1742118645.496,-1000.000,-15.137,-41.016,-1000.000
1742118645.500,-854.492,-3.418,-40.527,-865.234
1742118645.503,-1000.000,-88.379,-45.410,-1000.000
1742118645.507,-623.535,-26.367,-34.180,-615.234
1742118645.511,965.820,85.449,-27.344,926.758
1742118645.515,246.094,-73.730,-39.551,474.121
1742118645.519,-1000.000,-124.512,-41.504,-943.359
1742118645.538,-976.562,-33.691,-42.969,-1000.000
1742118645.542,-1000.000,-15.137,-45.410,-994.629
1742118645.546,297.363,81.055,-43.945,207.520
1742118645.550,999.512,22.949,-43.945,999.512
1742118645.554,-346.680,-128.906,-41.016,-131.836
1742118645.558,-1000.000,-48.828,-34.668,-1000.000
1742118645.562,-1000.000,-33.691,-47.363,-1000.000
1742118645.565,-127.930,-2.441,-57.617,-211.426
1742118645.569,999.512,24.902,-48.828,999.512
1742118645.573,855.469,-66.895,-50.293,859.863
1742118645.577,-697.266,-129.883,-50.781,-699.707
1742118645.581,-1000.000,-48.828,-45.410,-1000.000
1742118645.538,-976.562,-33.691,-42.969,-1000.000
1742118645.542,-1000.000,-15.137,-45.410,-994.629
1742118645.546,297.363,81.055,-43.945,207.520
1742118645.550,999.512,22.949,-43.945,999.512
1742118645.554,-346.680,-128.906,-41.016,-131.836
1742118645.558,-1000.000,-48.828,-34.668,-1000.000
1742118645.562,-1000.000,-33.691,-47.363,-1000.000
1742118645.565,-127.930,-2.441,-57.617,-211.426
1742118645.569,999.512,24.902,-48.828,999.512
1742118645.573,855.469,-66.895,-50.293,859.863
1742118645.577,-697.266,-129.883,-50.781,-699.707
1742118645.581,-1000.000,-48.828,-45.410,-1000.000
1742118645.581,551.758,53.711,-42.969,487.305
1742118645.585,999.512,2.930,-45.898,999.512
1742118645.589,837.891,-39.551,-49.805,854.980
1742118645.593,-630.859,-134.766,-50.781,-587.402
1742118645.597,-1000.000,-41.992,-50.781,-1000.000
1742118645.601,552.246,110.352,-40.527,495.605
1742118645.605,999.512,31.250,-48.828,999.512
1742118645.608,747.559,-62.988,-56.152,746.094
1742118645.612,-544.434,-126.953,-65.430,-545.898
1742118645.616,-1000.000,-82.520,-64.941,-1000.000
1742118645.620,-855.469,-12.695,-41.504,-803.223
1742118645.624,687.012,53.711,-29.785,695.312
1742118645.581,551.758,53.711,-42.969,487.305
1742118645.585,999.512,2.930,-45.898,999.512
1742118645.589,837.891,-39.551,-49.805,854.980
1742118645.593,-630.859,-134.766,-50.781,-587.402
1742118645.597,-1000.000,-41.992,-50.781,-1000.000
1742118645.601,552.246,110.352,-40.527,495.605
1742118645.605,999.512,31.250,-48.828,999.512
1742118645.608,747.559,-62.988,-56.152,746.094
1742118645.612,-544.434,-126.953,-65.430,-545.898
1742118645.616,-1000.000,-82.520,-64.941,-1000.000
1742118645.620,-855.469,-12.695,-41.504,-803.223
1742118645.624,687.012,53.711,-29.785,695.312
1742118645.629,454.590,-46.875,-44.922,279.785
1742118645.633,-1000.000,-64.453,-57.129,-1000.000
1742118645.637,-1000.000,17.090,-45.898,-1000.000
1742118645.641,67.871,37.598,-38.574,-614.746
1742118645.645,999.512,42.969,-42.480,875.977
1742118645.649,790.039,-3.906,-35.645,813.965
1742118645.653,-554.688,-99.121,-37.598,-665.527
1742118645.656,-1000.000,-91.797,-54.199,-1000.000
1742118645.660,-781.738,-21.973,-39.551,-854.004
1742118645.664,661.133,74.219,-30.762,585.449
1742118645.668,999.512,3.418,-40.527,999.512
1742118645.672,-471.680,-146.973,-46.387,-450.195
1742118645.629,454.590,-46.875,-44.922,279.785
1742118645.633,-1000.000,-64.453,-57.129,-1000.000
1742118645.637,-1000.000,17.090,-45.898,-1000.000
1742118645.641,67.871,37.598,-38.574,-614.746
1742118645.645,999.512,42.969,-42.480,875.977
1742118645.649,790.039,-3.906,-35.645,813.965
1742118645.653,-554.688,-99.121,-37.598,-665.527
1742118645.656,-1000.000,-91.797,-54.199,-1000.000
1742118645.660,-781.738,-21.973,-39.551,-854.004
1742118645.664,661.133,74.219,-30.762,585.449
1742118645.668,999.512,3.418,-40.527,999.512
1742118645.672,-471.680,-146.973,-46.387,-450.195
1742118645.732,504.883,35.645,-71.289,462.891
1742118645.736,999.512,-13.184,-62.500,999.512
1742118645.740,664.551,-65.430,-74.219,678.711
1742118645.744,-801.270,-117.188,-83.008,-740.234
1742118645.748,-1000.000,-63.477,-70.312,-1000.000
1742118645.752,474.121,97.656,-60.547,409.668
1742118645.756,999.512,49.805,-72.266,999.512
1742118645.759,603.516,-68.359,-81.543,575.684
1742118645.763,-756.348,-113.770,-91.309,-707.520
1742118645.767,-1000.000,-58.105,-82.031,-1000.000
1742118645.771,10.742,39.062,-69.824,-258.789
1742118645.775,999.512,37.598,-76.172,999.512
1742118645.761,824.219,-50.781,-68.848,838.379
1742118645.765,-566.895,-117.188,-54.688,-598.633
1742118645.769,-1000.000,-66.406,-72.754,-1000.000
1742118645.773,-108.887,30.273,-74.707,-301.758
1742118645.777,999.512,55.664,-54.199,913.574
1742118645.781,956.055,10.742,-51.270,999.512
1742118645.785,-307.617,-96.680,-56.152,-229.980
1742118645.788,-1000.000,-128.906,-57.129,-1000.000
1742118645.792,-818.848,-60.547,-53.711,-849.609
1742118645.796,496.582,80.078,-53.711,484.375
1742118645.800,999.512,47.852,-63.965,999.512
1742118645.804,287.598,-86.426,-57.617,274.414
1742118645.761,824.219,-50.781,-68.848,838.379
1742118645.765,-566.895,-117.188,-54.688,-598.633
1742118645.769,-1000.000,-66.406,-72.754,-1000.000
1742118645.773,-108.887,30.273,-74.707,-301.758
1742118645.777,999.512,55.664,-54.199,913.574
1742118645.781,956.055,10.742,-51.270,999.512
1742118645.785,-307.617,-96.680,-56.152,-229.980
1742118645.788,-1000.000,-128.906,-57.129,-1000.000
1742118645.792,-818.848,-60.547,-53.711,-849.609
1742118645.796,496.582,80.078,-53.711,484.375
1742118645.800,999.512,47.852,-63.965,999.512
1742118645.804,287.598,-86.426,-57.617,274.414
1742118645.808,-1000.000,-93.750,-48.340,-1000.000
1742118645.812,-896.484,-4.883,-50.781,-918.945
1742118645.816,538.574,96.680,-41.016,519.043
1742118645.820,999.512,41.016,-44.922,999.512
1742118645.824,306.641,-77.148,-61.035,292.480
1742118645.828,-952.148,-61.523,-63.477,-898.926
1742118645.832,-1000.000,-20.996,-77.637,-1000.000
1742118645.835,209.961,39.551,-78.125,-35.156
1742118645.839,999.512,41.504,-66.895,999.512
1742118645.843,795.898,-26.855,-72.754,778.320
1742118645.847,-628.418,-89.844,-81.055,-652.344
1742118645.851,-1000.000,-41.504,-68.848,-1000.000
1742118645.808,-1000.000,-93.750,-48.340,-1000.000
1742118645.812,-896.484,-4.883,-50.781,-918.945
1742118645.816,538.574,96.680,-41.016,519.043
1742118645.820,999.512,41.016,-44.922,999.512
1742118645.824,306.641,-77.148,-61.035,292.480
1742118645.828,-952.148,-61.523,-63.477,-898.926
1742118645.832,-1000.000,-20.996,-77.637,-1000.000
1742118645.835,209.961,39.551,-78.125,-35.156
1742118645.839,999.512,41.504,-66.895,999.512
1742118645.843,795.898,-26.855,-72.754,778.320
1742118645.847,-628.418,-89.844,-81.055,-652.344
1742118645.851,-1000.000,-41.504,-68.848,-1000.000
1742118645.927,820.801,-24.414,-54.688,841.797
1742118645.931,-553.223,-81.543,-42.969,-583.984
1742118645.935,-1000.000,-29.785,-27.344,-1000.000
1742118645.939,-331.055,62.500,-34.180,-453.613
1742118645.943,990.234,85.938,-23.438,902.832
1742118645.947,854.980,83.008,-25.879,908.203
1742118645.951,-577.148,-47.363,-24.414,-545.410
1742118645.954,-1000.000,-75.684,-14.160,-1000.000
1742118645.958,-856.934,34.180,-21.973,-887.695
1742118645.962,559.082,126.465,-13.184,498.047
1742118645.966,999.512,54.199,-13.672,999.512
1742118645.970,-402.344,-72.754,-29.785,-364.258
1742118645.927,820.801,-24.414,-54.688,841.797
1742118645.931,-553.223,-81.543,-42.969,-583.984
1742118645.935,-1000.000,-29.785,-27.344,-1000.000
1742118645.939,-331.055,62.500,-34.180,-453.613
1742118645.943,990.234,85.938,-23.438,902.832
1742118645.947,854.980,83.008,-25.879,908.203
1742118645.951,-577.148,-47.363,-24.414,-545.410
1742118645.954,-1000.000,-75.684,-14.160,-1000.000
1742118645.958,-856.934,34.180,-21.973,-887.695
1742118645.962,559.082,126.465,-13.184,498.047
1742118645.966,999.512,54.199,-13.672,999.512
1742118645.970,-402.344,-72.754,-29.785,-364.258
1742118645.956,-1000.000,-26.367,-29.785,-1000.000
1742118645.960,-878.906,50.293,-31.250,-926.270
1742118645.964,477.539,138.184,-15.625,372.559
1742118645.968,999.512,70.312,-25.879,999.512
1742118645.972,-172.852,-62.500,-45.410,-33.691
1742118645.976,-1000.000,-19.531,-34.668,-1000.000
1742118645.980,-888.184,58.105,-35.156,-893.555
1742118645.983,620.117,116.211,-30.762,625.977
1742118645.987,982.422,0.977,-30.762,999.512
1742118645.991,-572.754,-110.352,-46.387,-498.047
1742118645.995,-1000.000,-31.250,-37.109,-1000.000
1742118645.999,-830.566,31.250,-26.367,-814.453
1742118645.956,-1000.000,-26.367,-29.785,-1000.000
1742118645.960,-878.906,50.293,-31.250,-926.270
1742118645.964,477.539,138.184,-15.625,372.559
1742118645.968,999.512,70.312,-25.879,999.512
1742118645.972,-172.852,-62.500,-45.410,-33.691
1742118645.976,-1000.000,-19.531,-34.668,-1000.000
1742118645.980,-888.184,58.105,-35.156,-893.555
1742118645.983,620.117,116.211,-30.762,625.977
1742118645.987,982.422,0.977,-30.762,999.512
1742118645.991,-572.754,-110.352,-46.387,-498.047
1742118645.995,-1000.000,-31.250,-37.109,-1000.000
1742118645.999,-830.566,31.250,-26.367,-814.453
1742118645.956,-1000.000,-26.367,-29.785,-1000.000
1742118645.960,-878.906,50.293,-31.250,-926.270
1742118645.964,477.539,138.184,-15.625,372.559
1742118645.968,999.512,70.312,-25.879,999.512
1742118645.972,-172.852,-62.500,-45.410,-33.691
1742118645.976,-1000.000,-19.531,-34.668,-1000.000
1742118645.980,-888.184,58.105,-35.156,-893.555
1742118645.983,620.117,116.211,-30.762,625.977
1742118645.987,982.422,0.977,-30.762,999.512
1742118645.991,-572.754,-110.352,-46.387,-498.047
1742118645.995,-1000.000,-31.250,-37.109,-1000.000
1742118645.999,-830.566,31.250,-26.367,-814.453
1742118646.003,553.223,106.445,-22.949,553.711
1742118646.007,999.512,80.078,-23.438,999.512
1742118646.011,-233.398,-52.734,-26.367,-91.797
1742118646.015,-1000.000,-46.387,-31.738,-1000.000
1742118646.019,-854.980,50.781,-38.086,-912.109
1742118646.023,515.625,159.668,-26.367,446.289
1742118646.027,999.512,95.703,-24.414,999.512
1742118646.030,-35.156,-74.219,-47.852,93.262
1742118646.034,-1000.000,-84.473,-64.941,-1000.000
1742118646.038,-911.133,27.832,-59.570,-985.840
1742118646.042,386.719,134.277,-34.180,284.668
1742118646.046,999.512,72.754,-35.156,999.512
1742118646.003,553.223,106.445,-22.949,553.711
1742118646.007,999.512,80.078,-23.438,999.512
1742118646.011,-233.398,-52.734,-26.367,-91.797
1742118646.015,-1000.000,-46.387,-31.738,-1000.000
1742118646.019,-854.980,50.781,-38.086,-912.109
1742118646.023,515.625,159.668,-26.367,446.289
1742118646.027,999.512,95.703,-24.414,999.512
1742118646.030,-35.156,-74.219,-47.852,93.262
1742118646.034,-1000.000,-84.473,-64.941,-1000.000
1742118646.038,-911.133,27.832,-59.570,-985.840
1742118646.042,386.719,134.277,-34.180,284.668
1742118646.046,999.512,72.754,-35.156,999.512
1742118646.046,573.242,-52.246,-41.016,555.664
1742118646.050,-819.824,-83.984,-44.922,-776.367
1742118646.054,-1000.000,-29.785,-40.527,-1000.000
1742118646.058,234.375,58.105,-21.973,46.387
1742118646.062,999.512,67.871,-13.672,999.512
1742118646.066,777.344,-16.602,-21.973,809.082
1742118646.070,-535.645,-99.609,-37.598,-535.156
1742118646.073,-1000.000,-95.703,-36.133,-1000.000
1742118646.077,-802.734,-50.781,-32.227,-803.223
1742118646.081,528.320,72.266,-34.668,526.855
1742118646.085,999.512,45.410,-22.461,999.512
1742118646.089,92.773,-104.004,-8.301,154.785
1742118646.046,573.242,-52.246,-41.016,555.664
1742118646.050,-819.824,-83.984,-44.922,-776.367
1742118646.054,-1000.000,-29.785,-40.527,-1000.000
1742118646.058,234.375,58.105,-21.973,46.387
1742118646.062,999.512,67.871,-13.672,999.512
1742118646.066,777.344,-16.602,-21.973,809.082
1742118646.070,-535.645,-99.609,-37.598,-535.156
1742118646.073,-1000.000,-95.703,-36.133,-1000.000
1742118646.077,-802.734,-50.781,-32.227,-803.223
1742118646.081,528.320,72.266,-34.668,526.855
1742118646.085,999.512,45.410,-22.461,999.512
1742118646.089,92.773,-104.004,-8.301,154.785
1742118646.093,-1000.000,-90.820,-22.461,-1000.000
1742118646.097,-854.980,28.320,-34.180,-864.258
1742118646.101,571.777,81.543,-33.203,580.078
1742118646.105,999.512,14.648,-31.738,999.512
1742118646.109,72.754,-80.566,-44.434,144.531
1742118646.113,-1000.000,-50.293,-41.992,-1000.000
1742118646.117,-202.637,56.152,-23.926,-361.328
1742118646.120,946.777,20.020,-36.621,893.066
1742118646.124,999.512,-45.410,-38.086,999.512
1742118646.128,549.316,-77.148,-34.668,534.668
1742118646.132,-976.074,-123.047,-39.551,-923.340
1742118646.136,-806.152,-36.621,-46.875,-835.938
1742118646.152,683.105,40.039,-39.062,647.949
1742118646.156,999.512,-18.066,-26.855,999.512
1742118646.160,716.797,-93.262,-34.668,712.891
1742118646.164,-794.434,-130.371,-38.086,-765.137
1742118646.168,-934.570,-27.344,-27.832,-932.617
1742118646.172,607.910,77.637,-21.484,611.328
1742118646.176,999.512,15.137,-28.809,999.512
1742118646.179,454.102,-114.258,-44.434,498.535
1742118646.183,-951.172,-154.785,-51.758,-884.766
1742118646.187,-946.777,-36.621,-47.852,-995.605
1742118646.191,536.621,66.895,-56.152,468.750
1742118646.195,999.512,15.625,-65.430,999.512
1742118646.152,683.105,40.039,-39.062,647.949
1742118646.156,999.512,-18.066,-26.855,999.512
1742118646.160,716.797,-93.262,-34.668,712.891
1742118646.164,-794.434,-130.371,-38.086,-765.137
1742118646.168,-934.570,-27.344,-27.832,-932.617
1742118646.172,607.910,77.637,-21.484,611.328
1742118646.176,999.512,15.137,-28.809,999.512
1742118646.179,454.102,-114.258,-44.434,498.535
1742118646.183,-951.172,-154.785,-51.758,-884.766
1742118646.187,-946.777,-36.621,-47.852,-995.605
1742118646.191,536.621,66.895,-56.152,468.750
1742118646.195,999.512,15.625,-65.430,999.512
1742118646.183,202.637,-87.891,-51.270,304.199
1742118646.187,-1000.000,-84.961,-39.062,-990.723
1742118646.191,-898.926,-5.371,-37.598,-924.316
1742118646.195,552.246,57.617,-48.340,542.969
1742118646.199,999.512,-12.207,-54.688,999.512
1742118646.203,-20.996,-71.777,-54.688,110.352
1742118646.207,-989.746,-80.566,-69.824,-928.223
1742118646.210,-1000.000,-80.566,-77.148,-1000.000
1742118646.214,-898.926,-33.203,-67.383,-875.977
1742118646.218,648.926,47.363,-51.758,656.738
1742118646.222,948.730,-26.855,-56.152,926.758
1742118646.226,-608.887,-142.090,-48.828,-637.695
1742118646.183,202.637,-87.891,-51.270,304.199
1742118646.187,-1000.000,-84.961,-39.062,-990.723
1742118646.191,-898.926,-5.371,-37.598,-924.316
1742118646.195,552.246,57.617,-48.340,542.969
1742118646.199,999.512,-12.207,-54.688,999.512
1742118646.203,-20.996,-71.777,-54.688,110.352
1742118646.207,-989.746,-80.566,-69.824,-928.223
1742118646.210,-1000.000,-80.566,-77.148,-1000.000
1742118646.214,-898.926,-33.203,-67.383,-875.977
1742118646.218,648.926,47.363,-51.758,656.738
1742118646.222,948.730,-26.855,-56.152,926.758
1742118646.226,-608.887,-142.090,-48.828,-637.695
1742118646.226,-1000.000,-100.098,-34.668,-1000.000
1742118646.230,-749.512,-6.348,-43.945,-760.254
1742118646.234,727.539,48.340,-50.293,671.875
1742118646.238,967.773,-32.715,-40.039,999.512
1742118646.242,-541.992,-128.418,-39.062,-486.816
1742118646.246,-1000.000,-39.551,-44.922,-1000.000
1742118646.250,-640.625,30.273,-47.363,-651.367
1742118646.253,835.938,29.785,-38.574,778.320
1742118646.257,908.691,-73.730,-49.316,930.176
1742118646.261,-589.355,-124.512,-41.016,-568.848
1742118646.265,-1000.000,-60.059,-25.391,-1000.000
1742118646.269,-648.438,-11.230,-36.621,-640.625
1742118646.226,-1000.000,-100.098,-34.668,-1000.000
1742118646.230,-749.512,-6.348,-43.945,-760.254
1742118646.234,727.539,48.340,-50.293,671.875
1742118646.238,967.773,-32.715,-40.039,999.512
1742118646.242,-541.992,-128.418,-39.062,-486.816
1742118646.246,-1000.000,-39.551,-44.922,-1000.000
1742118646.250,-640.625,30.273,-47.363,-651.367
1742118646.253,835.938,29.785,-38.574,778.320
1742118646.257,908.691,-73.730,-49.316,930.176
1742118646.261,-589.355,-124.512,-41.016,-568.848
1742118646.265,-1000.000,-60.059,-25.391,-1000.000
1742118646.269,-648.438,-11.230,-36.621,-640.625
1742118646.287,742.676,33.203,-41.992,685.547
1742118646.291,999.512,-0.488,-29.785,999.512
1742118646.295,-218.750,-109.375,-48.828,-27.832
1742118646.299,-1000.000,-93.262,-45.898,-1000.000
1742118646.303,-857.910,22.949,-17.578,-856.934
1742118646.307,604.492,124.512,-27.344,624.023
1742118646.311,999.512,44.922,-53.223,999.512
1742118646.314,-430.664,-119.141,-72.266,-343.750
1742118646.318,-1000.000,-79.102,-59.082,-1000.000
1742118646.322,-834.473,27.832,-50.293,-858.887
1742118646.326,519.043,109.375,-54.199,476.562
1742118646.330,999.512,50.781,-43.457,999.512
1742118646.287,742.676,33.203,-41.992,685.547
1742118646.291,999.512,-0.488,-29.785,999.512
1742118646.295,-218.750,-109.375,-48.828,-27.832
1742118646.299,-1000.000,-93.262,-45.898,-1000.000
1742118646.303,-857.910,22.949,-17.578,-856.934
1742118646.307,604.492,124.512,-27.344,624.023
1742118646.311,999.512,44.922,-53.223,999.512
1742118646.314,-430.664,-119.141,-72.266,-343.750
1742118646.318,-1000.000,-79.102,-59.082,-1000.000
1742118646.322,-834.473,27.832,-50.293,-858.887
1742118646.326,519.043,109.375,-54.199,476.562
1742118646.330,999.512,50.781,-43.457,999.512
1742118646.331,-43.457,-73.242,-53.711,80.078
1742118646.335,-1000.000,-38.574,-75.195,-1000.000
1742118646.339,-876.465,25.879,-70.801,-944.336
1742118646.343,446.777,105.957,-60.059,374.512
1742118646.347,999.512,90.820,-57.617,999.512
1742118646.351,507.324,-0.488,-55.664,546.875
1742118646.355,-775.879,-52.246,-54.199,-721.191
1742118646.358,-1000.000,-31.738,-57.617,-1000.000
1742118646.362,-856.934,11.230,-59.570,-833.008
1742118646.366,592.285,113.281,-55.664,592.773
1742118646.370,999.512,86.426,-46.875,999.512
1742118646.374,-453.125,-74.707,-42.480,-365.234
1742118646.331,-43.457,-73.242,-53.711,80.078
1742118646.335,-1000.000,-38.574,-75.195,-1000.000
1742118646.339,-876.465,25.879,-70.801,-944.336
1742118646.343,446.777,105.957,-60.059,374.512
1742118646.347,999.512,90.820,-57.617,999.512
1742118646.351,507.324,-0.488,-55.664,546.875
1742118646.355,-775.879,-52.246,-54.199,-721.191
1742118646.358,-1000.000,-31.738,-57.617,-1000.000
1742118646.362,-856.934,11.230,-59.570,-833.008
1742118646.366,592.285,113.281,-55.664,592.773
1742118646.370,999.512,86.426,-46.875,999.512
1742118646.374,-453.125,-74.707,-42.480,-365.234
1742118646.378,-1000.000,-58.105,-42.969,-1000.000
1742118646.382,-884.277,39.551,-47.363,-897.949
1742118646.386,569.336,145.508,-55.664,524.902
1742118646.390,999.512,56.152,-55.176,999.512
1742118646.394,-539.062,-124.512,-56.152,-443.848
1742118646.398,-1000.000,-39.062,-48.828,-1000.000
1742118646.402,-856.445,38.574,-41.992,-803.711
1742118646.405,575.195,87.891,-57.617,608.398
1742118646.409,999.512,15.625,-67.871,999.512
1742118646.413,-437.012,-105.469,-66.895,-344.727
1742118646.417,-1000.000,-57.617,-53.711,-1000.000
1742118646.421,-803.711,27.344,-39.062,-788.086
1742118646.378,-1000.000,-58.105,-42.969,-1000.000
1742118646.382,-884.277,39.551,-47.363,-897.949
1742118646.386,569.336,145.508,-55.664,524.902
1742118646.390,999.512,56.152,-55.176,999.512
1742118646.394,-539.062,-124.512,-56.152,-443.848
1742118646.398,-1000.000,-39.062,-48.828,-1000.000
1742118646.402,-856.445,38.574,-41.992,-803.711
1742118646.405,575.195,87.891,-57.617,608.398
1742118646.409,999.512,15.625,-67.871,999.512
1742118646.413,-437.012,-105.469,-66.895,-344.727
1742118646.417,-1000.000,-57.617,-53.711,-1000.000
1742118646.421,-803.711,27.344,-39.062,-788.086
1742118646.422,645.996,77.637,-42.480,634.766
1742118646.426,999.512,-1.465,-50.293,999.512
1742118646.430,-433.594,-144.043,-41.992,-334.961
1742118646.434,-1000.000,-87.891,-39.062,-1000.000
1742118646.438,-625.488,39.062,-39.551,-666.992
1742118646.442,757.812,65.430,-43.457,695.312
1742118646.446,999.512,5.371,-48.340,999.512
1742118646.449,-164.551,-143.555,-38.574,-31.738
1742118646.453,-1000.000,-161.133,-48.340,-1000.000
1742118646.457,-842.285,-14.160,-50.781,-851.562
1742118646.461,591.797,64.453,-46.387,595.703
1742118646.465,999.512,-15.625,-61.035,999.512
1742118646.422,645.996,77.637,-42.480,634.766
1742118646.426,999.512,-1.465,-50.293,999.512
1742118646.430,-433.594,-144.043,-41.992,-334.961
1742118646.434,-1000.000,-87.891,-39.062,-1000.000
1742118646.438,-625.488,39.062,-39.551,-666.992
1742118646.442,757.812,65.430,-43.457,695.312
1742118646.446,999.512,5.371,-48.340,999.512
1742118646.449,-164.551,-143.555,-38.574,-31.738
1742118646.453,-1000.000,-161.133,-48.340,-1000.000
1742118646.457,-842.285,-14.160,-50.781,-851.562
1742118646.461,591.797,64.453,-46.387,595.703
1742118646.465,999.512,-15.625,-61.035,999.512
1742118646.481,-256.836,-143.066,-64.453,-146.484
1742118646.485,-1000.000,-107.910,-59.082,-1000.000
1742118646.489,-614.746,21.484,-49.805,-701.172
1742118646.493,720.215,70.801,-45.410,656.250
1742118646.497,999.512,-29.785,-49.805,999.512
1742118646.501,323.242,-57.129,-45.410,321.289
1742118646.505,-1000.000,-83.496,-51.758,-932.617
1742118646.508,-935.059,-59.082,-57.617,-1000.000
1742118646.512,469.727,62.500,-47.852,321.289
1742118646.516,999.512,26.367,-45.410,999.512
1742118646.520,802.246,-60.059,-46.875,723.145
1742118646.524,-686.035,-132.812,-50.781,-734.863
1742118646.481,-256.836,-143.066,-64.453,-146.484
1742118646.485,-1000.000,-107.910,-59.082,-1000.000
1742118646.489,-614.746,21.484,-49.805,-701.172
1742118646.493,720.215,70.801,-45.410,656.250
1742118646.497,999.512,-29.785,-49.805,999.512
1742118646.501,323.242,-57.129,-45.410,321.289
1742118646.505,-1000.000,-83.496,-51.758,-932.617
1742118646.508,-935.059,-59.082,-57.617,-1000.000
1742118646.512,469.727,62.500,-47.852,321.289
1742118646.516,999.512,26.367,-45.410,999.512
1742118646.520,802.246,-60.059,-46.875,723.145
1742118646.524,-686.035,-132.812,-50.781,-734.863
1742118646.511,-982.910,-59.082,-44.434,-1000.000
1742118646.515,582.520,78.125,-21.973,525.879
1742118646.519,999.512,36.133,-16.602,999.512
1742118646.523,828.613,-33.203,-30.273,823.242
1742118646.527,-605.957,-112.305,-31.738,-569.824
1742118646.531,-1000.000,-23.926,-39.062,-1000.000
1742118646.535,433.105,113.281,-36.133,290.527
1742118646.538,999.512,45.410,-25.879,999.512
1742118646.542,821.289,-74.219,-28.809,810.059
1742118646.546,-591.797,-148.438,-15.137,-583.496
1742118646.550,-1000.000,-76.660,0.977,-1000.000
1742118646.554,355.957,53.223,5.371,206.543
1742118646.511,-982.910,-59.082,-44.434,-1000.000
1742118646.515,582.520,78.125,-21.973,525.879
1742118646.519,999.512,36.133,-16.602,999.512
1742118646.523,828.613,-33.203,-30.273,823.242
1742118646.527,-605.957,-112.305,-31.738,-569.824
1742118646.531,-1000.000,-23.926,-39.062,-1000.000
1742118646.535,433.105,113.281,-36.133,290.527
1742118646.538,999.512,45.410,-25.879,999.512
1742118646.542,821.289,-74.219,-28.809,810.059
1742118646.546,-591.797,-148.438,-15.137,-583.496
1742118646.550,-1000.000,-76.660,0.977,-1000.000
1742118646.554,355.957,53.223,5.371,206.543
1742118646.511,-982.910,-59.082,-44.434,-1000.000
1742118646.515,582.520,78.125,-21.973,525.879
1742118646.519,999.512,36.133,-16.602,999.512
1742118646.523,828.613,-33.203,-30.273,823.242
1742118646.527,-605.957,-112.305,-31.738,-569.824
1742118646.531,-1000.000,-23.926,-39.062,-1000.000
1742118646.535,433.105,113.281,-36.133,290.527
1742118646.538,999.512,45.410,-25.879,999.512
1742118646.542,821.289,-74.219,-28.809,810.059
1742118646.546,-591.797,-148.438,-15.137,-583.496
1742118646.550,-1000.000,-76.660,0.977,-1000.000
1742118646.554,355.957,53.223,5.371,206.543
1742118646.558,999.512,25.391,3.418,999.512
1742118646.562,944.336,-21.484,7.812,972.168
1742118646.566,-169.434,-116.211,4.883,-49.805
1742118646.570,-1000.000,-105.957,1.465,-1000.000
1742118646.574,-347.656,41.016,5.371,-402.344
1742118646.578,886.230,86.914,3.906,846.680
1742118646.582,999.512,-7.324,-5.859,999.512
1742118646.585,144.043,-114.746,-20.996,308.105
1742118646.589,-1000.000,-92.285,-35.156,-1000.000
1742118646.593,-840.332,-0.977,-39.062,-847.656
1742118646.597,544.434,66.406,-38.574,585.938
1742118646.601,999.512,32.227,-43.457,999.512
1742118646.558,999.512,25.391,3.418,999.512
1742118646.562,944.336,-21.484,7.812,972.168
1742118646.566,-169.434,-116.211,4.883,-49.805
1742118646.570,-1000.000,-105.957,1.465,-1000.000
1742118646.574,-347.656,41.016,5.371,-402.344
1742118646.578,886.230,86.914,3.906,846.680
1742118646.582,999.512,-7.324,-5.859,999.512
1742118646.585,144.043,-114.746,-20.996,308.105
1742118646.589,-1000.000,-92.285,-35.156,-1000.000
1742118646.593,-840.332,-0.977,-39.062,-847.656
1742118646.597,544.434,66.406,-38.574,585.938
1742118646.601,999.512,32.227,-43.457,999.512
1742118646.601,548.340,-32.715,-47.852,612.305
1742118646.605,-905.273,-48.828,-43.457,-830.566
1742118646.609,-931.152,10.254,-43.945,-934.570
1742118646.613,558.105,80.566,-44.922,578.613
1742118646.617,999.512,63.477,-42.480,999.512
1742118646.621,732.422,0.488,-37.598,743.164
1742118646.625,-628.906,-63.477,-41.016,-604.004
1742118646.628,-1000.000,-67.383,-51.270,-1000.000
1742118646.632,44.434,34.668,-41.992,-24.414
1742118646.636,999.512,64.453,-33.691,999.512
1742118646.640,851.074,-9.277,-47.363,916.504
1742118646.644,-471.191,-118.164,-53.711,-386.719
1742118646.601,548.340,-32.715,-47.852,612.305
1742118646.605,-905.273,-48.828,-43.457,-830.566
1742118646.609,-931.152,10.254,-43.945,-934.570
1742118646.613,558.105,80.566,-44.922,578.613
1742118646.617,999.512,63.477,-42.480,999.512
1742118646.621,732.422,0.488,-37.598,743.164
1742118646.625,-628.906,-63.477,-41.016,-604.004
1742118646.628,-1000.000,-67.383,-51.270,-1000.000
1742118646.632,44.434,34.668,-41.992,-24.414
1742118646.636,999.512,64.453,-33.691,999.512
1742118646.640,851.074,-9.277,-47.363,916.504
1742118646.644,-471.191,-118.164,-53.711,-386.719
1742118646.661,-1000.000,-123.535,-50.293,-1000.000
1742118646.665,-416.504,19.531,-51.270,-418.945
1742118646.669,948.242,66.406,-52.734,904.297
1742118646.673,930.664,-34.668,-54.688,980.957
1742118646.677,-590.332,-127.441,-54.688,-501.953
1742118646.681,-1000.000,-18.066,-43.457,-1000.000
1742118646.685,156.738,96.680,-40.527,92.773
1742118646.688,999.512,27.344,-50.293,999.512
1742118646.692,781.250,-67.383,-59.570,788.086
1742118646.696,-622.559,-97.656,-62.988,-618.164
1742118646.700,-1000.000,-35.645,-62.500,-1000.000
1742118646.704,79.102,59.082,-58.105,-23.438
1742118646.661,-1000.000,-123.535,-50.293,-1000.000
1742118646.665,-416.504,19.531,-51.270,-418.945
1742118646.669,948.242,66.406,-52.734,904.297
1742118646.673,930.664,-34.668,-54.688,980.957
1742118646.677,-590.332,-127.441,-54.688,-501.953
1742118646.681,-1000.000,-18.066,-43.457,-1000.000
1742118646.685,156.738,96.680,-40.527,92.773
1742118646.688,999.512,27.344,-50.293,999.512
1742118646.692,781.250,-67.383,-59.570,788.086
1742118646.696,-622.559,-97.656,-62.988,-618.164
1742118646.700,-1000.000,-35.645,-62.500,-1000.000
1742118646.704,79.102,59.082,-58.105,-23.438
1742118646.706,999.512,63.965,-54.688,999.512
1742118646.710,795.410,-13.184,-57.129,845.215
1742118646.714,-534.668,-128.418,-68.359,-500.488
1742118646.718,-1000.000,-91.797,-69.824,-1000.000
1742118646.722,-606.445,31.250,-58.594,-618.652
1742118646.726,764.648,82.520,-48.828,711.426
1742118646.730,999.512,3.418,-47.363,999.512
1742118646.733,-156.738,-123.047,-58.594,17.090
1742118646.737,-1000.000,-134.766,-67.383,-1000.000
1742118646.741,-823.730,-1.953,-62.012,-829.102
1742118646.745,508.301,60.059,-52.246,547.852
1742118646.749,999.512,11.230,-45.898,999.512
1742118646.706,999.512,63.965,-54.688,999.512
1742118646.710,795.410,-13.184,-57.129,845.215
1742118646.714,-534.668,-128.418,-68.359,-500.488
1742118646.718,-1000.000,-91.797,-69.824,-1000.000
1742118646.722,-606.445,31.250,-58.594,-618.652
1742118646.726,764.648,82.520,-48.828,711.426
1742118646.730,999.512,3.418,-47.363,999.512
1742118646.733,-156.738,-123.047,-58.594,17.090
1742118646.737,-1000.000,-134.766,-67.383,-1000.000
1742118646.741,-823.730,-1.953,-62.012,-829.102
1742118646.745,508.301,60.059,-52.246,547.852
1742118646.749,999.512,11.230,-45.898,999.512
1742118646.753,423.828,-60.059,-43.945,474.609
1742118646.757,-966.309,-94.727,-43.457,-898.926
1742118646.761,-926.758,-17.578,-37.598,-976.074
1742118646.765,514.648,77.148,-30.762,461.426
1742118646.769,999.512,10.742,-36.133,999.512
1742118646.773,660.156,-53.223,-36.133,673.340
1742118646.777,-707.031,-110.840,-39.062,-654.297
1742118646.780,-1000.000,-95.703,-53.223,-1000.000
1742118646.784,11.230,20.508,-66.895,-159.668
1742118646.788,999.512,36.133,-74.707,999.512
1742118646.792,793.457,-45.410,-65.918,791.992
1742118646.796,-599.121,-114.258,-61.523,-625.977
1742118646.753,423.828,-60.059,-43.945,474.609
1742118646.757,-966.309,-94.727,-43.457,-898.926
1742118646.761,-926.758,-17.578,-37.598,-976.074
1742118646.765,514.648,77.148,-30.762,461.426
1742118646.769,999.512,10.742,-36.133,999.512
1742118646.773,660.156,-53.223,-36.133,673.340
1742118646.777,-707.031,-110.840,-39.062,-654.297
1742118646.780,-1000.000,-95.703,-53.223,-1000.000
1742118646.784,11.230,20.508,-66.895,-159.668
1742118646.788,999.512,36.133,-74.707,999.512
1742118646.792,793.457,-45.410,-65.918,791.992
1742118646.796,-599.121,-114.258,-61.523,-625.977
1742118646.796,-1000.000,-86.914,-59.082,-1000.000
1742118646.800,-172.852,27.832,-56.152,-325.195
1742118646.804,999.512,43.945,-48.340,982.910
1742118646.808,836.426,-56.641,-43.457,831.543
1742118646.812,-623.535,-102.051,-37.598,-645.020
1742118646.816,-1000.000,-37.109,-20.020,-1000.000
1742118646.820,14.648,63.477,-21.484,-151.855
1742118646.823,999.512,57.617,-29.297,999.512
1742118646.827,572.754,-111.328,-40.039,606.934
1742118646.831,-843.262,-159.180,-45.898,-804.199
1742118646.835,-1000.000,-57.617,-31.250,-1000.000
1742118646.839,80.566,46.875,-23.438,-97.656
1742118646.843,999.512,38.086,-25.879,999.512
1742118646.847,789.551,-48.340,-19.531,804.688
1742118646.851,-540.039,-111.328,-19.043,-575.684
1742118646.855,-1000.000,-64.941,-25.391,-1000.000
1742118646.859,-713.867,1.465,-33.691,-735.840
1742118646.863,747.559,89.844,-22.461,682.617
1742118646.867,996.094,7.812,-13.672,999.512
1742118646.870,-486.328,-167.969,-33.691,-412.598
1742118646.874,-1000.000,-89.844,-40.527,-1000.000
1742118646.878,-826.660,-4.883,-33.691,-806.641
1742118646.882,568.848,34.668,-20.020,574.707
1742118646.886,999.512,-5.371,-12.207,999.512
1742118646.886,-258.789,-133.301,-12.695,-145.996
1742118646.890,-1000.000,-100.098,-6.836,-1000.000
1742118646.894,-761.230,6.348,4.883,-774.414
1742118646.898,598.633,47.852,7.324,590.820
1742118646.902,999.512,27.832,2.441,999.512
1742118646.906,140.625,-49.316,-2.441,249.512
1742118646.910,-1000.000,-82.031,-1.953,-997.559
1742118646.913,-881.836,-50.781,1.953,-948.242
1742118646.917,503.418,39.551,7.812,431.152
1742118646.921,999.512,27.832,2.930,999.512
1742118646.925,815.918,-45.410,-2.930,795.410
1742118646.929,-586.426,-109.375,-8.789,-584.473
1742118646.886,-258.789,-133.301,-12.695,-145.996
1742118646.890,-1000.000,-100.098,-6.836,-1000.000
1742118646.894,-761.230,6.348,4.883,-774.414
1742118646.898,598.633,47.852,7.324,590.820
1742118646.902,999.512,27.832,2.441,999.512
1742118646.906,140.625,-49.316,-2.441,249.512
1742118646.910,-1000.000,-82.031,-1.953,-997.559
1742118646.913,-881.836,-50.781,1.953,-948.242
1742118646.917,503.418,39.551,7.812,431.152
1742118646.921,999.512,27.832,2.930,999.512
1742118646.925,815.918,-45.410,-2.930,795.410
1742118646.929,-586.426,-109.375,-8.789,-584.473
1742118646.933,-1000.000,-80.566,-16.602,-1000.000
1742118646.937,326.660,64.453,-2.441,206.543
1742118646.941,999.512,50.781,2.441,999.512
1742118646.945,939.941,-28.320,-3.906,972.168
1742118646.949,-306.641,-108.887,-7.324,-165.527
1742118646.953,-1000.000,-49.805,0.977,-1000.000
1742118646.957,58.105,63.965,5.371,-66.406
1742118646.960,999.512,15.625,-12.207,999.512
1742118646.964,797.852,-51.758,-23.926,826.172
1742118646.968,-536.621,-104.492,-26.855,-540.039
1742118646.972,-1000.000,-62.500,-34.180,-1000.000
1742118646.976,-600.098,1.465,-41.016,-570.312
1742118646.933,-1000.000,-80.566,-16.602,-1000.000
1742118646.937,326.660,64.453,-2.441,206.543
1742118646.941,999.512,50.781,2.441,999.512
1742118646.945,939.941,-28.320,-3.906,972.168
1742118646.949,-306.641,-108.887,-7.324,-165.527
1742118646.953,-1000.000,-49.805,0.977,-1000.000
1742118646.957,58.105,63.965,5.371,-66.406
1742118646.960,999.512,15.625,-12.207,999.512
1742118646.964,797.852,-51.758,-23.926,826.172
1742118646.968,-536.621,-104.492,-26.855,-540.039
1742118646.972,-1000.000,-62.500,-34.180,-1000.000
1742118646.976,-600.098,1.465,-41.016,-570.312
1742118646.933,-1000.000,-80.566,-16.602,-1000.000
1742118646.937,326.660,64.453,-2.441,206.543
1742118646.941,999.512,50.781,2.441,999.512
1742118646.945,939.941,-28.320,-3.906,972.168
1742118646.949,-306.641,-108.887,-7.324,-165.527
1742118646.953,-1000.000,-49.805,0.977,-1000.000
1742118646.957,58.105,63.965,5.371,-66.406
1742118646.960,999.512,15.625,-12.207,999.512
1742118646.964,797.852,-51.758,-23.926,826.172
1742118646.968,-536.621,-104.492,-26.855,-540.039
1742118646.972,-1000.000,-62.500,-34.180,-1000.000
1742118646.976,-600.098,1.465,-41.016,-570.312
1742118646.977,814.941,11.230,-38.086,770.020
1742118646.981,999.512,-14.160,-28.809,999.512
1742118646.985,-403.809,-132.812,-37.598,-293.457
1742118646.989,-1000.000,-135.254,-38.574,-1000.000
1742118646.993,-816.895,-6.348,-21.973,-813.477
1742118646.997,644.531,83.008,-18.555,635.742
1742118647.001,999.512,-20.020,-24.414,999.512
1742118647.004,-482.422,-193.848,-38.086,-403.809
1742118647.008,-1000.000,-128.418,-37.109,-1000.000
1742118647.012,-736.328,8.789,-31.250,-730.957
1742118647.016,723.145,40.039,-43.457,681.641
1742118647.020,999.512,-25.879,-44.434,999.512
1742118646.977,814.941,11.230,-38.086,770.020
1742118646.981,999.512,-14.160,-28.809,999.512
1742118646.985,-403.809,-132.812,-37.598,-293.457
1742118646.989,-1000.000,-135.254,-38.574,-1000.000
1742118646.993,-816.895,-6.348,-21.973,-813.477
1742118646.997,644.531,83.008,-18.555,635.742
1742118647.001,999.512,-20.020,-24.414,999.512
1742118647.004,-482.422,-193.848,-38.086,-403.809
1742118647.008,-1000.000,-128.418,-37.109,-1000.000
1742118647.012,-736.328,8.789,-31.250,-730.957
1742118647.016,723.145,40.039,-43.457,681.641
1742118647.020,999.512,-25.879,-44.434,999.512
1742118647.037,-462.891,-118.164,-34.668,-371.582
1742118647.041,-1000.000,-65.430,-27.832,-1000.000
1742118647.045,-801.270,-8.301,-32.715,-798.828
1742118647.049,483.398,36.621,-36.133,504.883
1742118647.053,999.512,20.020,-23.926,999.512
1742118647.057,553.223,-20.996,-12.695,576.660
1742118647.061,-757.812,-87.402,-23.438,-706.055
1742118647.064,-1000.000,-92.773,-28.320,-1000.000
1742118647.068,-272.461,0.977,-18.066,-338.867
1742118647.072,999.512,64.941,-10.742,967.773
1742118647.076,860.840,-16.113,-20.508,869.629
1742118647.080,-578.125,-105.469,-26.855,-586.914
1742118647.037,-462.891,-118.164,-34.668,-371.582
1742118647.041,-1000.000,-65.430,-27.832,-1000.000
1742118647.045,-801.270,-8.301,-32.715,-798.828
1742118647.049,483.398,36.621,-36.133,504.883
1742118647.053,999.512,20.020,-23.926,999.512
1742118647.057,553.223,-20.996,-12.695,576.660
1742118647.061,-757.812,-87.402,-23.438,-706.055
1742118647.064,-1000.000,-92.773,-28.320,-1000.000
1742118647.068,-272.461,0.977,-18.066,-338.867
1742118647.072,999.512,64.941,-10.742,967.773
1742118647.076,860.840,-16.113,-20.508,869.629
1742118647.080,-578.125,-105.469,-26.855,-586.914
1742118647.081,-1000.000,-41.504,-19.531,-1000.000
1742118647.085,-207.520,62.988,-19.531,-303.711
1742118647.089,999.512,71.777,-16.602,980.469
1742118647.093,871.094,-37.109,-17.578,869.141
1742118647.097,-617.188,-107.910,-16.113,-635.742
1742118647.101,-1000.000,-5.859,-12.695,-1000.000
1742118647.105,162.598,88.379,-15.625,56.152
1742118647.108,999.512,49.805,-19.043,999.512
1742118647.112,615.723,-80.566,-24.414,634.766
1742118647.116,-854.492,-130.859,-21.484,-808.105
1742118647.120,-1000.000,-34.668,-20.020,-1000.000
1742118647.124,404.297,80.566,-26.367,310.059
1742118647.081,-1000.000,-41.504,-19.531,-1000.000
1742118647.085,-207.520,62.988,-19.531,-303.711
1742118647.089,999.512,71.777,-16.602,980.469
1742118647.093,871.094,-37.109,-17.578,869.141
1742118647.097,-617.188,-107.910,-16.113,-635.742
1742118647.101,-1000.000,-5.859,-12.695,-1000.000
1742118647.105,162.598,88.379,-15.625,56.152
1742118647.108,999.512,49.805,-19.043,999.512
1742118647.112,615.723,-80.566,-24.414,634.766
1742118647.116,-854.492,-130.859,-21.484,-808.105
1742118647.120,-1000.000,-34.668,-20.020,-1000.000
1742118647.124,404.297,80.566,-26.367,310.059
1742118647.128,999.512,41.016,-17.090,999.512
1742118647.132,740.234,-34.668,-15.137,731.445
1742118647.136,-552.734,-85.449,-31.250,-575.684
1742118647.140,-1000.000,-69.336,-40.527,-1000.000
1742118647.144,-604.980,-2.930,-56.152,-618.164
1742118647.148,851.562,87.891,-41.016,790.527
1742118647.152,932.617,-19.043,-32.715,982.422
1742118647.155,-552.734,-180.664,-44.434,-484.375
1742118647.159,-1000.000,-95.703,-37.598,-1000.000
1742118647.163,-460.938,23.438,-34.668,-497.559
1742118647.167,937.500,25.391,-32.715,879.883
1742118647.171,876.465,-62.988,-32.715,906.738
1742118647.128,999.512,41.016,-17.090,999.512
1742118647.132,740.234,-34.668,-15.137,731.445
1742118647.136,-552.734,-85.449,-31.250,-575.684
1742118647.140,-1000.000,-69.336,-40.527,-1000.000
1742118647.144,-604.980,-2.930,-56.152,-618.164
1742118647.148,851.562,87.891,-41.016,790.527
1742118647.152,932.617,-19.043,-32.715,982.422
1742118647.155,-552.734,-180.664,-44.434,-484.375
1742118647.159,-1000.000,-95.703,-37.598,-1000.000
1742118647.163,-460.938,23.438,-34.668,-497.559
1742118647.167,937.500,25.391,-32.715,879.883
1742118647.171,876.465,-62.988,-32.715,906.738
1742118647.171,-575.684,-148.926,-36.621,-558.105
1742118647.175,-1000.000,-81.543,-45.898,-1000.000
1742118647.179,-578.613,2.441,-49.316,-597.168
1742118647.183,748.535,25.391,-41.504,692.871
1742118647.187,999.512,9.277,-42.969,999.512
1742118647.191,45.898,-62.500,-45.898,165.039
1742118647.195,-1000.000,-91.797,-34.180,-973.633
1742118647.198,-1000.000,-55.664,-28.320,-1000.000
1742118647.202,196.289,13.184,-24.902,73.730
1742118647.206,999.512,20.996,-26.855,999.512
1742118647.210,762.695,-68.359,-41.016,758.789
1742118647.214,-697.754,-120.117,-41.504,-691.895
1742118647.218,-1000.000,-88.867,-32.227,-1000.000
1742118647.222,380.859,47.363,-29.297,290.039
1742118647.226,999.512,19.531,-42.480,999.512
1742118647.230,712.891,-75.684,-47.363,726.074
1742118647.234,-770.020,-124.023,-52.246,-726.074
1742118647.238,-1000.000,-34.180,-48.340,-1000.000
1742118647.242,546.387,97.656,-39.551,466.309
1742118647.245,999.512,9.277,-41.504,999.512
1742118647.249,-89.844,-142.578,-42.480,60.547
1742118647.253,-1000.000,-113.281,-38.086,-1000.000
1742118647.257,-832.031,-16.602,-38.086,-876.953
1742118647.261,505.371,55.176,-31.738,492.188
1742118647.218,-1000.000,-88.867,-32.227,-1000.000
1742118647.222,380.859,47.363,-29.297,290.039
1742118647.226,999.512,19.531,-42.480,999.512
1742118647.230,712.891,-75.684,-47.363,726.074
1742118647.234,-770.020,-124.023,-52.246,-726.074
1742118647.238,-1000.000,-34.180,-48.340,-1000.000
1742118647.242,546.387,97.656,-39.551,466.309
1742118647.245,999.512,9.277,-41.504,999.512
1742118647.249,-89.844,-142.578,-42.480,60.547
1742118647.253,-1000.000,-113.281,-38.086,-1000.000
1742118647.257,-832.031,-16.602,-38.086,-876.953
1742118647.261,505.371,55.176,-31.738,492.188
1742118647.262,999.512,24.902,-23.926,999.512
1742118647.266,658.691,-32.715,-22.949,658.203
1742118647.270,-753.418,-97.168,-28.320,-698.242
1742118647.274,-1000.000,-47.852,-30.273,-1000.000
1742118647.278,285.156,107.422,-24.414,136.230
1742118647.282,999.512,82.031,-29.297,999.512
1742118647.286,783.691,-29.785,-28.320,787.109
1742118647.289,-536.133,-132.324,-30.273,-561.523
1742118647.293,-1000.000,-85.938,-33.203,-1000.000
1742118647.297,-314.453,51.270,-33.203,-408.203
1742118647.301,983.398,68.848,-39.551,908.203
1742118647.305,893.066,-5.859,-28.809,950.195
1742118647.308,-505.859,-113.281,-22.461,-449.707
1742118647.312,-1000.000,-76.172,-27.832,-1000.000
1742118647.316,-497.070,44.922,-14.160,-527.344
1742118647.320,870.605,74.219,-0.977,809.082
1742118647.324,999.512,23.926,-3.418,999.512
1742118647.328,-369.629,-86.426,-4.395,-266.113
1742118647.332,-1000.000,-93.262,-5.371,-1000.000
1742118647.335,-809.570,-37.598,-8.301,-850.586
1742118647.339,486.816,55.176,7.324,454.102
1742118647.343,999.512,51.758,22.461,999.512
1742118647.347,463.379,-39.551,23.438,465.820
1742118647.351,-947.266,-76.660,13.184,-895.996
1742118647.308,-505.859,-113.281,-22.461,-449.707
1742118647.312,-1000.000,-76.172,-27.832,-1000.000
1742118647.316,-497.070,44.922,-14.160,-527.344
1742118647.320,870.605,74.219,-0.977,809.082
1742118647.324,999.512,23.926,-3.418,999.512
1742118647.328,-369.629,-86.426,-4.395,-266.113
1742118647.332,-1000.000,-93.262,-5.371,-1000.000
1742118647.335,-809.570,-37.598,-8.301,-850.586
1742118647.339,486.816,55.176,7.324,454.102
1742118647.343,999.512,51.758,22.461,999.512
1742118647.347,463.379,-39.551,23.438,465.820
1742118647.351,-947.266,-76.660,13.184,-895.996
1742118647.352,-943.848,-0.977,9.277,-991.211
1742118647.356,514.160,104.492,9.766,445.801
1742118647.360,999.512,52.734,14.648,999.512
1742118647.364,430.176,-70.312,16.602,462.402
1742118647.368,-966.797,-74.219,18.555,-933.594
1742118647.372,-949.219,16.113,20.508,-926.270
1742118647.376,633.789,59.082,6.348,644.043
1742118647.379,999.512,-33.203,0.488,999.512
1742118647.383,-352.051,-207.031,0.488,-223.633
1742118647.387,-1000.000,-161.621,3.418,-1000.000
1742118647.391,-737.793,-36.621,7.324,-749.023
1742118647.395,570.801,-17.090,6.348,576.660
1742118647.352,-943.848,-0.977,9.277,-991.211
1742118647.356,514.160,104.492,9.766,445.801
1742118647.360,999.512,52.734,14.648,999.512
1742118647.364,430.176,-70.312,16.602,462.402
1742118647.368,-966.797,-74.219,18.555,-933.594
1742118647.372,-949.219,16.113,20.508,-926.270
1742118647.376,633.789,59.082,6.348,644.043
1742118647.379,999.512,-33.203,0.488,999.512
1742118647.383,-352.051,-207.031,0.488,-223.633
1742118647.387,-1000.000,-161.621,3.418,-1000.000
1742118647.391,-737.793,-36.621,7.324,-749.023
1742118647.395,570.801,-17.090,6.348,576.660
1742118647.412,999.512,-59.082,11.230,999.512
1742118647.416,532.227,-99.121,16.113,582.031
1742118647.420,-909.668,-150.879,1.465,-830.566
1742118647.424,-952.148,-80.078,0.977,-1000.000
1742118647.428,520.508,27.344,10.742,456.543
1742118647.432,999.512,26.855,14.648,999.512
1742118647.436,763.672,-67.871,7.812,768.066
1742118647.439,-648.438,-169.434,0.977,-621.582
1742118647.443,-1000.000,-84.961,5.859,-1000.000
1742118647.447,296.875,57.129,-0.488,170.410
1742118647.451,999.512,-5.859,-4.395,999.512
1742118647.455,772.949,-93.750,-3.906,758.789
1742118647.412,999.512,-59.082,11.230,999.512
1742118647.416,532.227,-99.121,16.113,582.031
1742118647.420,-909.668,-150.879,1.465,-830.566
1742118647.424,-952.148,-80.078,0.977,-1000.000
1742118647.428,520.508,27.344,10.742,456.543
1742118647.432,999.512,26.855,14.648,999.512
1742118647.436,763.672,-67.871,7.812,768.066
1742118647.439,-648.438,-169.434,0.977,-621.582
1742118647.443,-1000.000,-84.961,5.859,-1000.000
1742118647.447,296.875,57.129,-0.488,170.410
1742118647.451,999.512,-5.859,-4.395,999.512
1742118647.455,772.949,-93.750,-3.906,758.789
1742118647.457,-624.512,-132.812,-9.277,-633.789
1742118647.461,-1000.000,-57.617,-10.742,-1000.000
1742118647.465,163.086,53.711,-8.789,29.297
1742118647.469,999.512,10.254,-7.324,999.512
1742118647.473,788.086,-72.266,-0.977,815.918
1742118647.477,-530.762,-124.512,3.906,-525.391
1742118647.481,-1000.000,-83.008,-1.953,-1000.000
1742118647.484,-543.945,-13.672,-2.930,-560.547
1742118647.488,865.723,11.719,-6.348,796.387
1742118647.492,962.891,-35.156,-11.230,999.512
1742118647.496,-468.262,-140.137,-11.230,-382.812
1742118647.500,-1000.000,-95.703,-16.602,-1000.000
1742118647.457,-624.512,-132.812,-9.277,-633.789
1742118647.461,-1000.000,-57.617,-10.742,-1000.000
1742118647.465,163.086,53.711,-8.789,29.297
1742118647.469,999.512,10.254,-7.324,999.512
1742118647.473,788.086,-72.266,-0.977,815.918
1742118647.477,-530.762,-124.512,3.906,-525.391
1742118647.481,-1000.000,-83.008,-1.953,-1000.000
1742118647.484,-543.945,-13.672,-2.930,-560.547
1742118647.488,865.723,11.719,-6.348,796.387
1742118647.492,962.891,-35.156,-11.230,999.512
1742118647.496,-468.262,-140.137,-11.230,-382.812
1742118647.500,-1000.000,-95.703,-16.602,-1000.000
1742118647.503,-782.715,-14.160,-18.555,-765.137
1742118647.507,586.426,29.297,-20.020,584.961
1742118647.511,999.512,-5.371,-21.973,999.512
1742118647.515,-76.660,-106.934,-24.414,54.199
1742118647.519,-1000.000,-93.262,-26.855,-1000.000
1742118647.523,-760.254,46.387,-18.555,-772.461
1742118647.527,779.297,78.125,-20.020,745.117
1742118647.530,954.102,-50.781,-30.273,995.605
1742118647.534,-553.711,-160.645,-34.180,-475.586
1742118647.538,-1000.000,-86.426,-37.109,-1000.000
1742118647.542,-743.652,4.395,-39.062,-737.793
1742118647.546,613.281,38.086,-36.133,588.379
1742118647.503,-782.715,-14.160,-18.555,-765.137
1742118647.507,586.426,29.297,-20.020,584.961
1742118647.511,999.512,-5.371,-21.973,999.512
1742118647.515,-76.660,-106.934,-24.414,54.199
1742118647.519,-1000.000,-93.262,-26.855,-1000.000
1742118647.523,-760.254,46.387,-18.555,-772.461
1742118647.527,779.297,78.125,-20.020,745.117
1742118647.530,954.102,-50.781,-30.273,995.605
1742118647.534,-553.711,-160.645,-34.180,-475.586
1742118647.538,-1000.000,-86.426,-37.109,-1000.000
1742118647.542,-743.652,4.395,-39.062,-737.793
1742118647.546,613.281,38.086,-36.133,588.379
1742118648.026,-715.820,-83.984,4.395,-717.773
1742118648.030,-872.559,27.832,13.184,-878.906
1742118648.034,710.938,94.727,6.836,684.082
1742118648.038,999.512,20.996,0.488,999.512
1742118648.042,776.367,-18.555,5.859,804.199
1742118648.046,-540.039,-70.801,8.789,-502.441
1742118648.050,-1000.000,-26.855,4.883,-1000.000
1742118648.053,-914.551,-7.812,-4.883,-934.082
1742118648.057,265.625,69.336,-7.324,191.406
1742118648.061,999.512,73.242,-3.418,999.512
1742118648.065,638.672,-31.250,-8.301,654.297
1742118648.069,-845.703,-74.219,2.441,-797.363
1742118647.547,999.512,-3.418,-30.273,999.512
1742118647.551,-14.160,-74.707,-27.832,145.996
1742118647.555,-1000.000,-79.590,-21.973,-1000.000
1742118647.559,-848.145,-13.672,-19.043,-912.109
1742118647.563,505.371,92.285,-20.508,461.914
1742118647.567,999.512,53.223,-21.973,999.512
1742118647.571,448.242,-58.594,-21.484,481.445
1742118647.574,-891.113,-107.910,-23.926,-827.637
1742118647.578,-1000.000,-42.969,-25.879,-1000.000
1742118647.582,224.609,99.609,-26.367,64.941
1742118647.586,999.512,72.754,-24.902,999.512
1742118647.590,741.699,-45.898,-27.832,755.371
1742118647.593,-716.797,-102.051,-32.715,-692.871
1742118647.597,-1000.000,-18.555,-23.926,-1000.000
1742118647.601,359.375,114.258,-9.277,249.512
1742118647.605,999.512,53.711,-9.766,999.512
1742118647.609,561.035,-44.922,-12.695,574.219
1742118647.613,-807.617,-42.969,-15.137,-744.629
1742118647.617,-1000.000,-5.859,-16.113,-1000.000
1742118647.620,113.281,47.852,-19.043,-46.875
1742118647.624,999.512,39.551,-24.902,999.512
1742118647.628,736.328,-27.832,-25.391,752.441
1742118647.632,-607.422,-91.309,-28.320,-619.629
1742118647.636,-1000.000,-64.453,-28.320,-1000.000
1742118647.593,-716.797,-102.051,-32.715,-692.871
1742118647.597,-1000.000,-18.555,-23.926,-1000.000
1742118647.601,359.375,114.258,-9.277,249.512
1742118647.605,999.512,53.711,-9.766,999.512
1742118647.609,561.035,-44.922,-12.695,574.219
1742118647.613,-807.617,-42.969,-15.137,-744.629
1742118647.617,-1000.000,-5.859,-16.113,-1000.000
1742118647.620,113.281,47.852,-19.043,-46.875
1742118647.624,999.512,39.551,-24.902,999.512
1742118647.628,736.328,-27.832,-25.391,752.441
1742118647.632,-607.422,-91.309,-28.320,-619.629
1742118647.636,-1000.000,-64.453,-28.320,-1000.000
1742118647.636,-457.520,34.180,-25.879,-504.883
1742118647.640,938.477,66.895,-28.809,888.184
1742118647.644,892.578,-26.367,-26.855,902.344
1742118647.648,-592.773,-128.906,-30.762,-588.867
1742118647.652,-1000.000,-46.387,-31.250,-1000.000
1742118647.656,-217.285,89.355,-21.484,-335.449
1742118647.660,999.512,73.730,-14.160,980.469
1742118647.663,798.828,-46.387,-24.902,812.012
1742118647.667,-603.027,-146.484,-38.086,-623.047
1742118647.671,-1000.000,-91.797,-27.344,-1000.000
1742118647.675,-719.238,-20.508,-15.625,-729.980
1742118647.679,662.109,18.066,-17.090,613.770
1742118647.636,-457.520,34.180,-25.879,-504.883
1742118647.640,938.477,66.895,-28.809,888.184
1742118647.644,892.578,-26.367,-26.855,902.344
1742118647.648,-592.773,-128.906,-30.762,-588.867
1742118647.652,-1000.000,-46.387,-31.250,-1000.000
1742118647.656,-217.285,89.355,-21.484,-335.449
1742118647.660,999.512,73.730,-14.160,980.469
1742118647.663,798.828,-46.387,-24.902,812.012
1742118647.667,-603.027,-146.484,-38.086,-623.047
1742118647.671,-1000.000,-91.797,-27.344,-1000.000
1742118647.675,-719.238,-20.508,-15.625,-729.980
1742118647.679,662.109,18.066,-17.090,613.770
1742118647.683,999.512,-24.414,-16.113,999.512
1742118647.687,-133.789,-125.488,-10.254,1.465
1742118647.691,-1000.000,-116.699,-17.090,-1000.000
1742118647.695,-797.363,-39.062,-21.484,-805.176
1742118647.699,535.645,16.602,-13.184,563.477
1742118647.703,999.512,27.832,-5.371,999.512
1742118647.707,642.090,-70.312,-15.625,676.270
1742118647.710,-826.172,-179.688,-37.598,-753.418
1742118647.714,-993.164,-79.590,-41.504,-1000.000
1742118647.718,499.023,80.566,-33.203,430.176
1742118647.722,999.512,14.648,-40.039,999.512
1742118647.726,804.688,-68.359,-30.762,781.738
1742118647.683,999.512,-24.414,-16.113,999.512
1742118647.687,-133.789,-125.488,-10.254,1.465
1742118647.691,-1000.000,-116.699,-17.090,-1000.000
1742118647.695,-797.363,-39.062,-21.484,-805.176
1742118647.699,535.645,16.602,-13.184,563.477
1742118647.703,999.512,27.832,-5.371,999.512
1742118647.707,642.090,-70.312,-15.625,676.270
1742118647.710,-826.172,-179.688,-37.598,-753.418
1742118647.714,-993.164,-79.590,-41.504,-1000.000
1742118647.718,499.023,80.566,-33.203,430.176
1742118647.722,999.512,14.648,-40.039,999.512
1742118647.726,804.688,-68.359,-30.762,781.738
1742118647.727,-650.879,-123.047,-21.484,-653.320
1742118647.731,-1000.000,-42.480,-33.203,-1000.000
1742118647.735,479.980,88.867,-35.156,410.156
1742118647.739,999.512,19.043,-34.668,999.512
1742118647.743,800.781,-43.945,-37.598,843.262
1742118647.747,-469.238,-81.543,-49.805,-401.855
1742118647.751,-1000.000,-87.891,-62.500,-1000.000
1742118647.754,-491.211,-23.438,-56.152,-488.770
1742118647.758,887.207,16.113,-49.805,844.238
1742118647.762,976.562,-55.176,-49.316,999.512
1742118647.766,-411.133,-152.344,-49.805,-331.055
1742118647.770,-1000.000,-104.980,-43.945,-1000.000
1742118647.727,-650.879,-123.047,-21.484,-653.320
1742118647.731,-1000.000,-42.480,-33.203,-1000.000
1742118647.735,479.980,88.867,-35.156,410.156
1742118647.739,999.512,19.043,-34.668,999.512
1742118647.743,800.781,-43.945,-37.598,843.262
1742118647.747,-469.238,-81.543,-49.805,-401.855
1742118647.751,-1000.000,-87.891,-62.500,-1000.000
1742118647.754,-491.211,-23.438,-56.152,-488.770
1742118647.758,887.207,16.113,-49.805,844.238
1742118647.762,976.562,-55.176,-49.316,999.512
1742118647.766,-411.133,-152.344,-49.805,-331.055
1742118647.770,-1000.000,-104.980,-43.945,-1000.000
1742118647.727,-650.879,-123.047,-21.484,-653.320
1742118647.731,-1000.000,-42.480,-33.203,-1000.000
1742118647.735,479.980,88.867,-35.156,410.156
1742118647.739,999.512,19.043,-34.668,999.512
1742118647.743,800.781,-43.945,-37.598,843.262
1742118647.747,-469.238,-81.543,-49.805,-401.855
1742118647.751,-1000.000,-87.891,-62.500,-1000.000
1742118647.754,-491.211,-23.438,-56.152,-488.770
1742118647.758,887.207,16.113,-49.805,844.238
1742118647.762,976.562,-55.176,-49.316,999.512
1742118647.766,-411.133,-152.344,-49.805,-331.055
1742118647.770,-1000.000,-104.980,-43.945,-1000.000
1742118647.774,-577.637,-23.438,-32.227,-621.094
1742118647.778,722.656,18.555,-39.062,677.246
1742118647.782,999.512,-1.953,-47.852,999.512
1742118647.786,430.664,-74.707,-45.898,416.504
1742118647.790,-1000.000,-107.910,-50.781,-978.027
1742118647.794,-708.984,29.785,-48.340,-740.723
1742118647.798,890.137,51.758,-48.828,818.359
1742118647.801,972.656,-85.449,-62.012,999.512
1742118647.805,-472.168,-176.758,-63.477,-396.484
1742118647.809,-1000.000,-90.820,-50.781,-1000.000
1742118647.813,-332.520,35.645,-38.574,-378.418
1742118647.817,895.020,47.363,-26.855,843.262
1742118647.774,-577.637,-23.438,-32.227,-621.094
1742118647.778,722.656,18.555,-39.062,677.246
1742118647.782,999.512,-1.953,-47.852,999.512
1742118647.786,430.664,-74.707,-45.898,416.504
1742118647.790,-1000.000,-107.910,-50.781,-978.027
1742118647.794,-708.984,29.785,-48.340,-740.723
1742118647.798,890.137,51.758,-48.828,818.359
1742118647.801,972.656,-85.449,-62.012,999.512
1742118647.805,-472.168,-176.758,-63.477,-396.484
1742118647.809,-1000.000,-90.820,-50.781,-1000.000
1742118647.813,-332.520,35.645,-38.574,-378.418
1742118647.817,895.020,47.363,-26.855,843.262
1742118647.832,999.512,-20.020,-24.414,999.512
1742118647.836,-31.738,-90.820,-27.832,146.484
1742118647.840,-1000.000,-90.820,-29.785,-1000.000
1742118647.844,-697.266,-34.668,-31.250,-715.820
1742118647.848,588.867,38.574,-21.484,617.188
1742118647.852,999.512,6.348,-17.090,999.512
1742118647.856,588.379,-113.281,-14.648,619.629
1742118647.859,-879.883,-193.848,-20.020,-806.152
1742118647.863,-961.914,-104.004,-20.020,-1000.000
1742118647.867,524.414,39.551,-7.812,453.613
1742118647.871,999.512,10.254,-2.930,999.512
1742118647.875,788.574,-71.289,-14.160,771.484
1742118647.832,999.512,-20.020,-24.414,999.512
1742118647.836,-31.738,-90.820,-27.832,146.484
1742118647.840,-1000.000,-90.820,-29.785,-1000.000
1742118647.844,-697.266,-34.668,-31.250,-715.820
1742118647.848,588.867,38.574,-21.484,617.188
1742118647.852,999.512,6.348,-17.090,999.512
1742118647.856,588.379,-113.281,-14.648,619.629
1742118647.859,-879.883,-193.848,-20.020,-806.152
1742118647.863,-961.914,-104.004,-20.020,-1000.000
1742118647.867,524.414,39.551,-7.812,453.613
1742118647.871,999.512,10.254,-2.930,999.512
1742118647.875,788.574,-71.289,-14.160,771.484
1742118647.878,-694.824,-132.324,-23.438,-689.453
1742118647.882,-990.723,-40.527,-13.672,-1000.000
1742118647.886,566.895,50.781,-19.531,519.043
1742118647.890,999.512,-35.156,-34.668,999.512
1742118647.894,788.086,-53.711,-25.879,807.617
1742118647.898,-514.648,-95.703,-25.879,-470.215
1742118647.902,-1000.000,-93.750,-29.785,-1000.000
1742118647.905,-261.719,-14.160,-34.180,-387.695
1742118647.909,982.422,13.184,-38.574,899.902
1742118647.913,939.453,-18.066,-33.691,989.746
1742118647.917,-422.852,-118.652,-32.227,-364.746
1742118647.921,-1000.000,-87.402,-36.621,-1000.000
1742118647.878,-694.824,-132.324,-23.438,-689.453
1742118647.882,-990.723,-40.527,-13.672,-1000.000
1742118647.886,566.895,50.781,-19.531,519.043
1742118647.890,999.512,-35.156,-34.668,999.512
1742118647.894,788.086,-53.711,-25.879,807.617
1742118647.898,-514.648,-95.703,-25.879,-470.215
1742118647.902,-1000.000,-93.750,-29.785,-1000.000
1742118647.905,-261.719,-14.160,-34.180,-387.695
1742118647.909,982.422,13.184,-38.574,899.902
1742118647.913,939.453,-18.066,-33.691,989.746
1742118647.917,-422.852,-118.652,-32.227,-364.746
1742118647.921,-1000.000,-87.402,-36.621,-1000.000
1742118647.921,-343.262,36.133,-29.785,-416.992
1742118647.925,968.262,48.340,-19.043,906.738
1742118647.929,937.500,-35.645,-24.414,969.238
1742118647.933,-507.812,-145.020,-41.016,-448.730
1742118647.937,-1000.000,-82.031,-36.621,-1000.000
1742118647.941,-54.199,76.172,-29.785,-252.930
1742118647.945,999.512,92.773,-27.832,983.398
1742118647.948,847.168,-1.465,-22.949,912.598
1742118647.952,-490.723,-148.438,-33.691,-453.613
1742118647.956,-1000.000,-76.660,-29.297,-1000.000
1742118647.960,-666.016,49.316,-23.438,-705.566
1742118647.964,683.594,86.426,-20.020,621.094
1742118647.921,-343.262,36.133,-29.785,-416.992
1742118647.925,968.262,48.340,-19.043,906.738
1742118647.929,937.500,-35.645,-24.414,969.238
1742118647.933,-507.812,-145.020,-41.016,-448.730
1742118647.937,-1000.000,-82.031,-36.621,-1000.000
1742118647.941,-54.199,76.172,-29.785,-252.930
1742118647.945,999.512,92.773,-27.832,983.398
1742118647.948,847.168,-1.465,-22.949,912.598
1742118647.952,-490.723,-148.438,-33.691,-453.613
1742118647.956,-1000.000,-76.660,-29.297,-1000.000
1742118647.960,-666.016,49.316,-23.438,-705.566
1742118647.964,683.594,86.426,-20.020,621.094
1742118647.968,999.512,45.410,-16.113,999.512
1742118647.972,71.289,-44.922,-16.113,153.809
1742118647.976,-1000.000,-51.758,-6.836,-1000.000
1742118647.980,-720.215,30.273,-1.953,-764.160
1742118647.984,667.480,83.008,-4.395,636.230
1742118647.988,999.512,98.145,8.789,999.512
1742118647.992,513.672,0.977,-2.441,505.859
1742118647.995,-935.547,-107.422,-16.113,-904.785
1742118647.999,-913.086,4.395,-0.488,-907.227
1742118648.003,569.824,137.207,14.160,581.543
1742118648.007,999.512,71.289,10.254,999.512
1742118648.011,807.129,-25.879,-1.465,783.203
1742118648.059,-996.582,13.672,12.695,-1000.000
1742118648.063,562.012,78.125,4.395,524.414
1742118648.067,999.512,17.578,5.859,999.512
1742118648.071,-1.953,-107.422,1.465,166.504
1742118648.075,-1000.000,-103.516,3.906,-1000.000
1742118648.079,-812.988,38.086,26.855,-780.273
1742118648.083,711.426,53.223,24.902,723.633
1742118648.086,999.512,-33.691,14.648,999.512
1742118648.090,-459.473,-133.301,5.371,-368.164
1742118648.094,-1000.000,-95.703,-6.836,-1000.000
1742118648.098,-806.152,12.695,-3.418,-779.785
1742118648.102,615.723,85.938,5.371,618.652
1742118648.059,-996.582,13.672,12.695,-1000.000
1742118648.063,562.012,78.125,4.395,524.414
1742118648.067,999.512,17.578,5.859,999.512
1742118648.071,-1.953,-107.422,1.465,166.504
1742118648.075,-1000.000,-103.516,3.906,-1000.000
1742118648.079,-812.988,38.086,26.855,-780.273
1742118648.083,711.426,53.223,24.902,723.633
1742118648.086,999.512,-33.691,14.648,999.512
1742118648.090,-459.473,-133.301,5.371,-368.164
1742118648.094,-1000.000,-95.703,-6.836,-1000.000
1742118648.098,-806.152,12.695,-3.418,-779.785
1742118648.102,615.723,85.938,5.371,618.652
1742118648.059,-996.582,13.672,12.695,-1000.000
1742118648.063,562.012,78.125,4.395,524.414
1742118648.067,999.512,17.578,5.859,999.512
1742118648.071,-1.953,-107.422,1.465,166.504
1742118648.075,-1000.000,-103.516,3.906,-1000.000
1742118648.079,-812.988,38.086,26.855,-780.273
1742118648.083,711.426,53.223,24.902,723.633
1742118648.086,999.512,-33.691,14.648,999.512
1742118648.090,-459.473,-133.301,5.371,-368.164
1742118648.094,-1000.000,-95.703,-6.836,-1000.000
1742118648.098,-806.152,12.695,-3.418,-779.785
1742118648.102,615.723,85.938,5.371,618.652
1742118648.117,999.512,28.320,2.930,999.512
1742118648.121,-353.516,-87.402,2.930,-239.258
1742118648.125,-1000.000,-30.762,-6.348,-1000.000
1742118648.129,-824.707,26.367,-16.602,-851.562
1742118648.133,503.906,95.215,-9.766,477.539
1742118648.137,999.512,95.215,-8.789,999.512
1742118648.141,175.293,-62.012,-26.855,271.484
1742118648.144,-1000.000,-135.254,-40.527,-980.469
1742118648.148,-919.922,-33.203,-37.598,-983.398
1742118648.152,444.336,102.051,-34.668,374.023
1742118648.156,999.512,56.152,-23.438,999.512
1742118648.160,505.859,-55.664,-15.625,513.672
1742118648.117,999.512,28.320,2.930,999.512
1742118648.121,-353.516,-87.402,2.930,-239.258
1742118648.125,-1000.000,-30.762,-6.348,-1000.000
1742118648.129,-824.707,26.367,-16.602,-851.562
1742118648.133,503.906,95.215,-9.766,477.539
1742118648.137,999.512,95.215,-8.789,999.512
1742118648.141,175.293,-62.012,-26.855,271.484
1742118648.144,-1000.000,-135.254,-40.527,-980.469
1742118648.148,-919.922,-33.203,-37.598,-983.398
1742118648.152,444.336,102.051,-34.668,374.023
1742118648.156,999.512,56.152,-23.438,999.512
1742118648.160,505.859,-55.664,-15.625,513.672
1742118648.628,541.016,94.238,-11.719,559.082
1742118648.632,999.512,48.828,-7.812,999.512
1742118648.636,144.531,-78.613,-11.230,280.273
1742118648.640,-1000.000,-86.914,-7.324,-1000.000
1742118648.644,-670.410,24.902,-3.906,-683.594
1742118648.648,597.656,125.977,5.859,629.883
1742118648.652,999.512,57.617,5.371,999.512
1742118648.655,548.340,-41.992,-7.812,592.773
1742118648.659,-902.344,-89.355,-21.973,-828.125
1742118648.663,-979.980,-7.812,-23.438,-1000.000
1742118648.667,466.797,116.211,-4.395,406.250
1742118648.671,999.512,54.199,-3.418,999.512
1742118648.162,-920.898,-87.402,-32.227,-865.234
1742118648.166,-967.773,10.254,-33.203,-1000.000
1742118648.170,485.352,122.559,-26.367,406.738
1742118648.174,999.512,69.336,-38.574,999.512
1742118648.178,468.750,-37.598,-51.270,477.539
1742118648.182,-951.660,-36.621,-56.152,-907.227
1742118648.186,-937.500,59.082,-57.129,-978.516
1742118648.189,541.504,112.793,-60.059,482.422
1742118648.193,999.512,33.203,-59.570,999.512
1742118648.197,279.297,-39.062,-51.758,338.867
1742118648.201,-981.934,-44.434,-56.641,-915.039
1742118648.205,-1000.000,10.742,-63.477,-1000.000
1742118648.162,-920.898,-87.402,-32.227,-865.234
1742118648.166,-967.773,10.254,-33.203,-1000.000
1742118648.170,485.352,122.559,-26.367,406.738
1742118648.174,999.512,69.336,-38.574,999.512
1742118648.178,468.750,-37.598,-51.270,477.539
1742118648.182,-951.660,-36.621,-56.152,-907.227
1742118648.186,-937.500,59.082,-57.129,-978.516
1742118648.189,541.504,112.793,-60.059,482.422
1742118648.193,999.512,33.203,-59.570,999.512
1742118648.197,279.297,-39.062,-51.758,338.867
1742118648.201,-981.934,-44.434,-56.641,-915.039
1742118648.205,-1000.000,10.742,-63.477,-1000.000
1742118648.207,318.848,99.121,-59.082,195.801
1742118648.211,999.512,83.496,-49.805,999.512
1742118648.215,817.871,1.465,-45.898,808.105
1742118648.219,-668.457,-96.680,-42.969,-677.246
1742118648.223,-1000.000,-13.184,-40.039,-1000.000
1742118648.227,541.016,135.254,-41.016,480.469
1742118648.231,999.512,41.992,-47.363,999.512
1742118648.234,652.344,-54.688,-48.340,668.945
1742118648.238,-760.742,-147.949,-52.246,-693.359
1742118648.242,-1000.000,-83.496,-49.805,-1000.000
1742118648.246,290.527,50.293,-41.504,147.949
1742118648.250,999.512,-2.441,-35.645,999.512
1742118648.207,318.848,99.121,-59.082,195.801
1742118648.211,999.512,83.496,-49.805,999.512
1742118648.215,817.871,1.465,-45.898,808.105
1742118648.219,-668.457,-96.680,-42.969,-677.246
1742118648.223,-1000.000,-13.184,-40.039,-1000.000
1742118648.227,541.016,135.254,-41.016,480.469
1742118648.231,999.512,41.992,-47.363,999.512
1742118648.234,652.344,-54.688,-48.340,668.945
1742118648.238,-760.742,-147.949,-52.246,-693.359
1742118648.242,-1000.000,-83.496,-49.805,-1000.000
1742118648.246,290.527,50.293,-41.504,147.949
1742118648.250,999.512,-2.441,-35.645,999.512
1742118648.253,782.227,-94.238,-25.879,774.414
1742118648.257,-551.758,-140.137,-21.484,-579.102
1742118648.261,-1000.000,-85.938,-22.461,-1000.000
1742118648.265,-181.152,9.766,-16.602,-291.504
1742118648.269,972.168,17.578,-14.160,897.949
1742118648.273,995.605,-2.930,-9.766,999.512
1742118648.277,-217.285,-102.539,-9.766,-77.148
1742118648.280,-1000.000,-140.137,-24.414,-1000.000
1742118648.284,-831.543,-51.758,-27.832,-859.863
1742118648.288,508.301,58.594,-19.531,500.977
1742118648.292,999.512,30.273,-13.184,999.512
1742118648.296,191.895,-112.305,-14.160,283.203
1742118648.253,782.227,-94.238,-25.879,774.414
1742118648.257,-551.758,-140.137,-21.484,-579.102
1742118648.261,-1000.000,-85.938,-22.461,-1000.000
1742118648.265,-181.152,9.766,-16.602,-291.504
1742118648.269,972.168,17.578,-14.160,897.949
1742118648.273,995.605,-2.930,-9.766,999.512
1742118648.277,-217.285,-102.539,-9.766,-77.148
1742118648.280,-1000.000,-140.137,-24.414,-1000.000
1742118648.284,-831.543,-51.758,-27.832,-859.863
1742118648.288,508.301,58.594,-19.531,500.977
1742118648.292,999.512,30.273,-13.184,999.512
1742118648.296,191.895,-112.305,-14.160,283.203
1742118648.296,-1000.000,-133.789,-16.113,-1000.000
1742118648.300,-894.043,-0.977,-13.184,-890.625
1742118648.304,604.980,77.637,-7.324,611.328
1742118648.308,999.512,-1.953,-7.812,999.512
1742118648.312,-224.609,-83.984,-9.277,-56.641
1742118648.316,-1000.000,-48.828,-9.277,-1000.000
1742118648.320,-832.520,2.441,-9.766,-844.727
1742118648.323,516.113,21.484,-20.508,537.598
1742118648.327,999.512,-31.250,-27.344,999.512
1742118648.331,169.922,-104.980,-20.020,265.137
1742118648.335,-1000.000,-123.047,-18.066,-963.867
1742118648.339,-937.012,-59.570,-20.508,-1000.000
1742118648.296,-1000.000,-133.789,-16.113,-1000.000
1742118648.300,-894.043,-0.977,-13.184,-890.625
1742118648.304,604.980,77.637,-7.324,611.328
1742118648.308,999.512,-1.953,-7.812,999.512
1742118648.312,-224.609,-83.984,-9.277,-56.641
1742118648.316,-1000.000,-48.828,-9.277,-1000.000
1742118648.320,-832.520,2.441,-9.766,-844.727
1742118648.323,516.113,21.484,-20.508,537.598
1742118648.327,999.512,-31.250,-27.344,999.512
1742118648.331,169.922,-104.980,-20.020,265.137
1742118648.335,-1000.000,-123.047,-18.066,-963.867
1742118648.339,-937.012,-59.570,-20.508,-1000.000
1742118648.344,410.156,40.039,-27.832,318.359
1742118648.348,999.512,4.395,-30.273,999.512
1742118648.352,735.840,-87.402,-31.250,731.445
1742118648.356,-707.520,-152.344,-35.156,-682.129
1742118648.360,-1000.000,-91.309,-36.133,-1000.000
1742118648.364,377.441,84.961,-30.273,294.922
1742118648.368,999.512,36.621,-27.832,999.512
1742118648.371,655.273,-90.820,-33.691,657.715
1742118648.375,-717.285,-119.629,-31.250,-676.270
1742118648.379,-1000.000,-72.266,-26.367,-1000.000
1742118648.383,-2.441,41.504,-22.461,-165.039
1742118648.387,999.512,43.945,-22.949,999.512
1742118648.344,410.156,40.039,-27.832,318.359
1742118648.348,999.512,4.395,-30.273,999.512
1742118648.352,735.840,-87.402,-31.250,731.445
1742118648.356,-707.520,-152.344,-35.156,-682.129
1742118648.360,-1000.000,-91.309,-36.133,-1000.000
1742118648.364,377.441,84.961,-30.273,294.922
1742118648.368,999.512,36.621,-27.832,999.512
1742118648.371,655.273,-90.820,-33.691,657.715
1742118648.375,-717.285,-119.629,-31.250,-676.270
1742118648.379,-1000.000,-72.266,-26.367,-1000.000
1742118648.383,-2.441,41.504,-22.461,-165.039
1742118648.387,999.512,43.945,-22.949,999.512
1742118648.386,842.285,-53.223,-31.738,835.449
1742118648.390,-612.793,-118.652,-37.109,-636.719
1742118648.394,-1000.000,-56.152,-32.715,-1000.000
1742118648.398,231.445,55.176,-28.809,86.914
1742118648.402,999.512,30.273,-32.227,999.512
1742118648.406,778.320,-9.277,-20.020,826.172
1742118648.410,-534.668,-85.449,-20.996,-500.488
1742118648.413,-1000.000,-90.820,-27.344,-1000.000
1742118648.417,-785.645,-12.207,-26.367,-780.273
1742118648.421,571.289,80.078,-22.461,558.594
1742118648.425,999.512,28.809,-20.020,999.512
1742118648.429,-51.758,-99.609,-26.855,90.820
1742118648.433,-1000.000,-99.121,-27.344,-1000.000
1742118648.437,-850.098,14.648,-26.855,-861.816
1742118648.441,519.531,77.637,-38.086,542.480
1742118648.445,999.512,19.531,-44.434,999.512
1742118648.449,258.301,-65.430,-49.805,342.773
1742118648.453,-1000.000,-59.570,-49.805,-989.746
1742118648.457,-893.066,20.996,-42.480,-886.230
1742118648.460,565.430,35.645,-38.574,588.379
1742118648.464,999.512,-19.531,-34.668,999.512
1742118648.468,112.793,-80.078,-32.715,245.605
1742118648.472,-1000.000,-83.008,-38.086,-1000.000
1742118648.476,-867.676,12.695,-36.621,-876.465
1742118648.433,-1000.000,-99.121,-27.344,-1000.000
1742118648.437,-850.098,14.648,-26.855,-861.816
1742118648.441,519.531,77.637,-38.086,542.480
1742118648.445,999.512,19.531,-44.434,999.512
1742118648.449,258.301,-65.430,-49.805,342.773
1742118648.453,-1000.000,-59.570,-49.805,-989.746
1742118648.457,-893.066,20.996,-42.480,-886.230
1742118648.460,565.430,35.645,-38.574,588.379
1742118648.464,999.512,-19.531,-34.668,999.512
1742118648.468,112.793,-80.078,-32.715,245.605
1742118648.472,-1000.000,-83.008,-38.086,-1000.000
1742118648.476,-867.676,12.695,-36.621,-876.465
1742118648.476,532.715,72.266,-31.738,561.035
1742118648.480,999.512,29.297,-29.785,999.512
1742118648.484,303.223,-67.871,-33.691,372.559
1742118648.488,-1000.000,-102.051,-33.203,-971.191
1742118648.492,-920.898,4.395,-28.320,-916.016
1742118648.496,583.008,108.398,-21.484,589.355
1742118648.500,999.512,33.691,-25.391,999.512
1742118648.503,-126.953,-124.512,-41.016,47.363
1742118648.507,-1000.000,-140.625,-38.086,-1000.000
1742118648.511,-850.586,-19.043,-26.855,-927.734
1742118648.515,470.215,84.473,-15.137,406.738
1742118648.519,999.512,43.457,-15.625,999.512
1742118648.476,532.715,72.266,-31.738,561.035
1742118648.480,999.512,29.297,-29.785,999.512
1742118648.484,303.223,-67.871,-33.691,372.559
1742118648.488,-1000.000,-102.051,-33.203,-971.191
1742118648.492,-920.898,4.395,-28.320,-916.016
1742118648.496,583.008,108.398,-21.484,589.355
1742118648.500,999.512,33.691,-25.391,999.512
1742118648.503,-126.953,-124.512,-41.016,47.363
1742118648.507,-1000.000,-140.625,-38.086,-1000.000
1742118648.511,-850.586,-19.043,-26.855,-927.734
1742118648.515,470.215,84.473,-15.137,406.738
1742118648.519,999.512,43.457,-15.625,999.512
1742118648.538,525.391,-53.711,-19.043,525.391
1742118648.542,-869.629,-87.402,-22.949,-811.523
1742118648.546,-1000.000,-13.672,-32.227,-1000.000
1742118648.550,351.562,82.031,-41.016,224.121
1742118648.554,999.512,58.105,-37.598,999.512
1742118648.558,776.855,-0.488,-29.785,821.289
1742118648.562,-516.113,-100.098,-30.762,-471.680
1742118648.565,-1000.000,-103.027,-29.785,-1000.000
1742118648.569,-801.270,-30.273,-33.691,-792.969
1742118648.573,599.609,63.477,-32.227,586.426
1742118648.577,999.512,34.668,-29.297,999.512
1742118648.581,-288.086,-116.211,-34.668,-170.410
1742118648.538,525.391,-53.711,-19.043,525.391
1742118648.542,-869.629,-87.402,-22.949,-811.523
1742118648.546,-1000.000,-13.672,-32.227,-1000.000
1742118648.550,351.562,82.031,-41.016,224.121
1742118648.554,999.512,58.105,-37.598,999.512
1742118648.558,776.855,-0.488,-29.785,821.289
1742118648.562,-516.113,-100.098,-30.762,-471.680
1742118648.565,-1000.000,-103.027,-29.785,-1000.000
1742118648.569,-801.270,-30.273,-33.691,-792.969
1742118648.573,599.609,63.477,-32.227,586.426
1742118648.577,999.512,34.668,-29.297,999.512
1742118648.581,-288.086,-116.211,-34.668,-170.410
1742118648.582,-1000.000,-87.402,-30.762,-1000.000
1742118648.586,-843.262,18.555,-19.531,-834.961
1742118648.590,582.031,84.961,-19.531,591.309
1742118648.594,999.512,28.320,-21.484,999.512
1742118648.598,-320.312,-70.801,-16.602,-177.246
1742118648.602,-1000.000,-16.602,-8.301,-1000.000
1742118648.606,-804.688,38.574,-7.324,-794.434
1742118648.609,609.863,45.410,-11.230,616.699
1742118648.613,999.512,-11.230,-15.137,999.512
1742118648.617,-266.113,-104.492,-16.113,-126.953
1742118648.621,-1000.000,-82.520,-19.531,-1000.000
1742118648.625,-808.594,5.371,-21.484,-809.082
1742118648.582,-1000.000,-87.402,-30.762,-1000.000
1742118648.586,-843.262,18.555,-19.531,-834.961
1742118648.590,582.031,84.961,-19.531,591.309
1742118648.594,999.512,28.320,-21.484,999.512
1742118648.598,-320.312,-70.801,-16.602,-177.246
1742118648.602,-1000.000,-16.602,-8.301,-1000.000
1742118648.606,-804.688,38.574,-7.324,-794.434
1742118648.609,609.863,45.410,-11.230,616.699
1742118648.613,999.512,-11.230,-15.137,999.512
1742118648.617,-266.113,-104.492,-16.113,-126.953
1742118648.621,-1000.000,-82.520,-19.531,-1000.000
1742118648.625,-808.594,5.371,-21.484,-809.082
1742118648.671,694.336,-50.293,-13.672,707.031
1742118648.675,-791.992,-94.238,-5.859,-735.840
1742118648.679,-987.305,-12.695,6.348,-1000.000
1742118648.683,534.180,94.727,11.230,475.098
1742118648.687,999.512,6.348,21.973,999.512
1742118648.691,764.648,-59.082,32.715,763.184
1742118648.695,-520.020,-114.258,31.250,-532.715
1742118648.698,-1000.000,-125.000,22.949,-1000.000
1742118648.702,-505.859,-47.852,14.648,-494.629
1742118648.706,868.652,13.184,8.789,821.289
1742118648.710,999.512,-53.711,0.977,999.512
1742118648.714,-369.141,-161.133,-1.465,-246.094
1742118648.671,694.336,-50.293,-13.672,707.031
1742118648.675,-791.992,-94.238,-5.859,-735.840
1742118648.679,-987.305,-12.695,6.348,-1000.000
1742118648.683,534.180,94.727,11.230,475.098
1742118648.687,999.512,6.348,21.973,999.512
1742118648.691,764.648,-59.082,32.715,763.184
1742118648.695,-520.020,-114.258,31.250,-532.715
1742118648.698,-1000.000,-125.000,22.949,-1000.000
1742118648.702,-505.859,-47.852,14.648,-494.629
1742118648.706,868.652,13.184,8.789,821.289
1742118648.710,999.512,-53.711,0.977,999.512
1742118648.714,-369.141,-161.133,-1.465,-246.094
1742118648.718,-1000.000,-119.629,2.930,-1000.000
1742118648.722,-627.441,2.930,6.348,-620.117
1742118648.726,821.289,25.879,0.488,789.062
1742118648.730,999.512,-42.969,-9.277,999.512
1742118648.734,-494.629,-155.762,-21.484,-404.785
1742118648.738,-1000.000,-74.219,-21.973,-1000.000
1742118648.742,-19.043,83.984,-17.090,-121.582
1742118648.745,999.512,11.230,-26.855,999.512
1742118648.749,827.148,-106.445,-30.273,816.406
1742118648.753,-592.285,-125.977,-21.973,-612.305
1742118648.757,-1000.000,-56.152,-17.578,-1000.000
1742118648.761,17.578,57.617,-22.461,-87.891
1742118648.761,999.512,55.176,-21.484,999.512
1742118648.765,887.207,-21.484,-27.344,954.102
1742118648.769,-409.668,-117.676,-36.133,-296.387
1742118648.773,-1000.000,-83.496,-37.109,-1000.000
1742118648.777,-437.012,47.363,-36.621,-467.285
1742118648.781,906.250,64.453,-32.715,851.562
1742118648.785,989.746,-34.180,-25.879,999.512
1742118648.788,-371.094,-156.738,-21.973,-242.188
1742118648.792,-1000.000,-104.980,-19.531,-1000.000
1742118648.796,-809.570,-31.250,-23.926,-824.219
1742118648.800,487.305,46.387,-16.113,496.094
1742118648.804,999.512,14.648,-14.648,999.512
1742118648.761,999.512,55.176,-21.484,999.512
1742118648.765,887.207,-21.484,-27.344,954.102
1742118648.769,-409.668,-117.676,-36.133,-296.387
1742118648.773,-1000.000,-83.496,-37.109,-1000.000
1742118648.777,-437.012,47.363,-36.621,-467.285
1742118648.781,906.250,64.453,-32.715,851.562
1742118648.785,989.746,-34.180,-25.879,999.512
1742118648.788,-371.094,-156.738,-21.973,-242.188
1742118648.792,-1000.000,-104.980,-19.531,-1000.000
1742118648.796,-809.570,-31.250,-23.926,-824.219
1742118648.800,487.305,46.387,-16.113,496.094
1742118648.804,999.512,14.648,-14.648,999.512
1742118648.808,464.355,-80.566,-20.020,518.555
1742118648.812,-952.637,-99.609,-16.602,-885.742
1742118648.816,-916.504,-11.719,-12.695,-943.359
1742118648.820,558.105,61.035,-13.672,547.852
1742118648.824,999.512,5.859,-13.672,999.512
1742118648.828,770.508,-2.930,-4.395,813.965
1742118648.832,-506.348,-94.238,-16.113,-437.988
1742118648.835,-1000.000,-114.746,-26.367,-1000.000
1742118648.839,-730.957,-26.855,-26.367,-733.887
1742118648.843,677.246,69.824,-19.043,632.324
1742118648.847,999.512,37.598,-10.254,999.512
1742118648.851,-270.020,-126.465,-22.461,-120.117
1742118648.808,464.355,-80.566,-20.020,518.555
1742118648.812,-952.637,-99.609,-16.602,-885.742
1742118648.816,-916.504,-11.719,-12.695,-943.359
1742118648.820,558.105,61.035,-13.672,547.852
1742118648.824,999.512,5.859,-13.672,999.512
1742118648.828,770.508,-2.930,-4.395,813.965
1742118648.832,-506.348,-94.238,-16.113,-437.988
1742118648.835,-1000.000,-114.746,-26.367,-1000.000
1742118648.839,-730.957,-26.855,-26.367,-733.887
1742118648.843,677.246,69.824,-19.043,632.324
1742118648.847,999.512,37.598,-10.254,999.512
1742118648.851,-270.020,-126.465,-22.461,-120.117
1742118648.851,-1000.000,-108.887,-28.809,-1000.000
1742118648.855,-806.152,0.000,-23.926,-802.734
1742118648.859,643.066,62.988,-23.926,643.066
1742118648.863,999.512,3.906,-25.879,999.512
1742118648.867,-366.211,-117.188,-26.855,-264.160
1742118648.871,-1000.000,-41.992,-28.809,-1000.000
1742118648.875,-626.465,34.668,-27.344,-631.836
1742118648.878,776.367,10.254,-31.738,731.445
1742118648.882,999.512,-25.879,-32.227,999.512
1742118648.886,-243.164,-104.980,-27.344,-112.793
1742118648.890,-1000.000,-100.098,-30.762,-1000.000
1742118648.894,-755.859,-7.324,-32.227,-758.301
1742118648.851,-1000.000,-108.887,-28.809,-1000.000
1742118648.855,-806.152,0.000,-23.926,-802.734
1742118648.859,643.066,62.988,-23.926,643.066
1742118648.863,999.512,3.906,-25.879,999.512
1742118648.867,-366.211,-117.188,-26.855,-264.160
1742118648.871,-1000.000,-41.992,-28.809,-1000.000
1742118648.875,-626.465,34.668,-27.344,-631.836
1742118648.878,776.367,10.254,-31.738,731.445
1742118648.882,999.512,-25.879,-32.227,999.512
1742118648.886,-243.164,-104.980,-27.344,-112.793
1742118648.890,-1000.000,-100.098,-30.762,-1000.000
1742118648.894,-755.859,-7.324,-32.227,-758.301
1742118648.899,609.863,52.734,-22.461,606.445
1742118648.903,999.512,35.156,-12.207,999.512
1742118648.907,118.652,-87.402,-13.184,271.973
1742118648.911,-1000.000,-122.070,-17.578,-1000.000
1742118648.915,-875.488,-1.953,-17.578,-883.789
1742118648.919,537.598,121.094,-9.277,562.988
1742118648.923,999.512,50.781,-9.277,999.512
1742118648.926,191.895,-80.078,-14.160,330.566
1742118648.930,-1000.000,-101.074,-16.113,-990.234
1742118648.934,-887.207,9.277,-10.742,-902.344
1742118648.938,541.504,101.562,-9.766,558.105
1742118648.942,999.512,25.391,-20.996,999.512
1742118648.899,609.863,52.734,-22.461,606.445
1742118648.903,999.512,35.156,-12.207,999.512
1742118648.907,118.652,-87.402,-13.184,271.973
1742118648.911,-1000.000,-122.070,-17.578,-1000.000
1742118648.915,-875.488,-1.953,-17.578,-883.789
1742118648.919,537.598,121.094,-9.277,562.988
1742118648.923,999.512,50.781,-9.277,999.512
1742118648.926,191.895,-80.078,-14.160,330.566
1742118648.930,-1000.000,-101.074,-16.113,-990.234
1742118648.934,-887.207,9.277,-10.742,-902.344
1742118648.938,541.504,101.562,-9.766,558.105
1742118648.942,999.512,25.391,-20.996,999.512
1742118648.956,199.219,-83.496,-29.785,324.219
1742118648.960,-1000.000,-90.332,-26.855,-995.605
1742118648.964,-752.930,9.766,-15.625,-756.348
1742118648.968,595.703,69.336,-10.742,625.000
1742118648.972,999.512,10.742,-16.602,999.512
1742118648.976,763.184,-23.926,-18.555,758.301
1742118648.980,-538.574,-95.215,-20.020,-550.293
1742118648.983,-1000.000,-116.211,-22.949,-1000.000
1742118648.987,-453.125,-26.855,-21.973,-475.098
1742118648.991,907.715,34.180,-24.902,852.539
1742118648.995,980.957,-36.621,-25.391,999.512
1742118648.999,-476.562,-150.391,-31.738,-381.836
1742118648.956,199.219,-83.496,-29.785,324.219
1742118648.960,-1000.000,-90.332,-26.855,-995.605
1742118648.964,-752.930,9.766,-15.625,-756.348
1742118648.968,595.703,69.336,-10.742,625.000
1742118648.972,999.512,10.742,-16.602,999.512
1742118648.976,763.184,-23.926,-18.555,758.301
1742118648.980,-538.574,-95.215,-20.020,-550.293
1742118648.983,-1000.000,-116.211,-22.949,-1000.000
1742118648.987,-453.125,-26.855,-21.973,-475.098
1742118648.991,907.715,34.180,-24.902,852.539
1742118648.995,980.957,-36.621,-25.391,999.512
1742118648.999,-476.562,-150.391,-31.738,-381.836
1742118649.003,-1000.000,-90.820,-36.133,-1000.000
1742118649.007,-24.414,61.035,-25.879,-129.883
1742118649.011,999.512,39.062,-30.273,999.512
1742118649.015,848.633,-67.383,-46.875,887.695
1742118649.019,-594.238,-152.344,-45.898,-552.734
1742118649.023,-1000.000,-42.969,-39.551,-1000.000
1742118649.027,152.832,92.285,-35.156,33.691
1742118649.030,999.512,43.945,-34.180,999.512
1742118649.034,813.477,-82.031,-48.340,817.871
1742118649.038,-572.266,-147.461,-58.105,-583.984
1742118649.042,-1000.000,-81.543,-52.246,-1000.000
1742118649.046,15.625,26.855,-38.086,-114.258
1742118649.003,-1000.000,-90.820,-36.133,-1000.000
1742118649.007,-24.414,61.035,-25.879,-129.883
1742118649.011,999.512,39.062,-30.273,999.512
1742118649.015,848.633,-67.383,-46.875,887.695
1742118649.019,-594.238,-152.344,-45.898,-552.734
1742118649.023,-1000.000,-42.969,-39.551,-1000.000
1742118649.027,152.832,92.285,-35.156,33.691
1742118649.030,999.512,43.945,-34.180,999.512
1742118649.034,813.477,-82.031,-48.340,817.871
1742118649.038,-572.266,-147.461,-58.105,-583.984
1742118649.042,-1000.000,-81.543,-52.246,-1000.000
1742118649.046,15.625,26.855,-38.086,-114.258
1742118649.046,999.512,16.113,-39.062,997.559
1742118649.050,875.488,-50.781,-38.086,946.289
1742118649.054,-428.223,-136.719,-32.715,-329.590
1742118649.058,-1000.000,-99.121,-32.227,-1000.000
1742118649.062,-462.891,48.828,-26.855,-487.305
1742118649.066,846.191,79.102,-25.879,802.246
1742118649.070,999.512,1.953,-32.715,999.512
1742118649.073,-101.562,-114.746,-36.621,59.082
1742118649.077,-1000.000,-104.980,-30.273,-1000.000
1742118649.081,-835.449,-3.418,-21.973,-844.238
1742118649.085,512.695,52.734,-16.113,543.945
1742118649.089,999.512,11.719,-8.789,999.512
1742118649.046,999.512,16.113,-39.062,997.559
1742118649.050,875.488,-50.781,-38.086,946.289
1742118649.054,-428.223,-136.719,-32.715,-329.590
1742118649.058,-1000.000,-99.121,-32.227,-1000.000
1742118649.062,-462.891,48.828,-26.855,-487.305
1742118649.066,846.191,79.102,-25.879,802.246
1742118649.070,999.512,1.953,-32.715,999.512
1742118649.073,-101.562,-114.746,-36.621,59.082
1742118649.077,-1000.000,-104.980,-30.273,-1000.000
1742118649.081,-835.449,-3.418,-21.973,-844.238
1742118649.085,512.695,52.734,-16.113,543.945
1742118649.089,999.512,11.719,-8.789,999.512
1742118649.093,332.031,-88.867,-13.184,397.461
1742118649.097,-1000.000,-99.121,-14.648,-949.707
1742118649.101,-893.066,-15.137,-10.254,-936.523
1742118649.105,546.875,71.777,-9.277,504.883
1742118649.109,999.512,33.691,-15.137,999.512
1742118649.113,765.625,-18.066,-17.578,754.883
1742118649.117,-514.160,-98.633,-23.926,-535.645
1742118649.120,-1000.000,-102.051,-30.762,-1000.000
1742118649.124,-563.477,-6.836,-25.879,-596.680
1742118649.128,820.801,57.129,-20.508,753.418
1742118649.132,999.512,7.812,-20.020,999.512
1742118649.136,-308.594,-104.492,-25.879,-191.895
1742118649.093,332.031,-88.867,-13.184,397.461
1742118649.097,-1000.000,-99.121,-14.648,-949.707
1742118649.101,-893.066,-15.137,-10.254,-936.523
1742118649.105,546.875,71.777,-9.277,504.883
1742118649.109,999.512,33.691,-15.137,999.512
1742118649.113,765.625,-18.066,-17.578,754.883
1742118649.117,-514.160,-98.633,-23.926,-535.645
1742118649.120,-1000.000,-102.051,-30.762,-1000.000
1742118649.124,-563.477,-6.836,-25.879,-596.680
1742118649.128,820.801,57.129,-20.508,753.418
1742118649.132,999.512,7.812,-20.020,999.512
1742118649.136,-308.594,-104.492,-25.879,-191.895
1742118649.136,-1000.000,-111.328,-35.645,-1000.000
1742118649.140,-716.797,15.137,-26.855,-740.234
1742118649.144,747.070,69.336,-21.484,705.566
1742118649.148,999.512,-7.324,-20.996,999.512
1742118649.152,-429.199,-101.562,-14.160,-349.609
1742118649.156,-1000.000,-41.016,-15.137,-1000.000
1742118649.160,-383.301,66.895,-14.160,-432.129
1742118649.163,965.332,51.270,-20.996,909.180
1742118649.167,899.414,-25.391,-27.832,954.102
1742118649.171,-508.301,-100.586,-32.227,-443.359
1742118649.175,-1000.000,-68.848,-29.785,-1000.000
1742118649.179,-619.629,11.719,-28.320,-619.141
1742118649.136,-1000.000,-111.328,-35.645,-1000.000
1742118649.140,-716.797,15.137,-26.855,-740.234
1742118649.144,747.070,69.336,-21.484,705.566
1742118649.148,999.512,-7.324,-20.996,999.512
1742118649.152,-429.199,-101.562,-14.160,-349.609
1742118649.156,-1000.000,-41.016,-15.137,-1000.000
1742118649.160,-383.301,66.895,-14.160,-432.129
1742118649.163,965.332,51.270,-20.996,909.180
1742118649.167,899.414,-25.391,-27.832,954.102
1742118649.171,-508.301,-100.586,-32.227,-443.359
1742118649.175,-1000.000,-68.848,-29.785,-1000.000
1742118649.179,-619.629,11.719,-28.320,-619.141
1742118649.184,754.395,58.105,-32.715,703.125
1742118649.188,999.512,36.133,-28.320,999.512
1742118649.192,-141.113,-97.656,-29.785,15.137
1742118649.196,-1000.000,-128.906,-34.668,-1000.000
1742118649.200,-802.734,-4.395,-22.461,-814.941
1742118649.204,647.949,101.562,-11.230,635.742
1742118649.208,999.512,10.742,-20.508,999.512
1742118649.211,-281.738,-162.109,-33.691,-125.000
1742118649.215,-1000.000,-119.629,-35.645,-1000.000
1742118649.219,-683.105,14.160,-25.879,-701.660
1742118649.223,732.910,50.781,-15.625,692.871
1742118649.227,999.512,-3.906,-13.672,999.512
1742118649.184,754.395,58.105,-32.715,703.125
1742118649.188,999.512,36.133,-28.320,999.512
1742118649.192,-141.113,-97.656,-29.785,15.137
1742118649.196,-1000.000,-128.906,-34.668,-1000.000
1742118649.200,-802.734,-4.395,-22.461,-814.941
1742118649.204,647.949,101.562,-11.230,635.742
1742118649.208,999.512,10.742,-20.508,999.512
1742118649.211,-281.738,-162.109,-33.691,-125.000
1742118649.215,-1000.000,-119.629,-35.645,-1000.000
1742118649.219,-683.105,14.160,-25.879,-701.660
1742118649.223,732.910,50.781,-15.625,692.871
1742118649.227,999.512,-3.906,-13.672,999.512
1742118649.226,-200.195,-104.492,-11.719,-31.738
1742118649.230,-1000.000,-83.984,-4.883,-1000.000
1742118649.234,-739.258,23.438,-0.977,-756.348
1742118649.238,626.465,75.684,-4.395,617.676
1742118649.242,999.512,37.109,-4.883,999.512
1742118649.246,173.340,-62.500,-12.207,313.965
1742118649.250,-1000.000,-99.609,-25.391,-934.082
1742118649.253,-976.562,-59.570,-30.762,-1000.000
1742118649.257,342.285,77.637,-14.160,239.258
1742118649.261,999.512,77.637,-8.789,999.512
1742118649.265,792.480,-19.531,-15.137,777.832
1742118649.269,-561.523,-102.539,-13.184,-581.543
1742118649.226,-200.195,-104.492,-11.719,-31.738
1742118649.230,-1000.000,-83.984,-4.883,-1000.000
1742118649.234,-739.258,23.438,-0.977,-756.348
1742118649.238,626.465,75.684,-4.395,617.676
1742118649.242,999.512,37.109,-4.883,999.512
1742118649.246,173.340,-62.500,-12.207,313.965
1742118649.250,-1000.000,-99.609,-25.391,-934.082
1742118649.253,-976.562,-59.570,-30.762,-1000.000
1742118649.257,342.285,77.637,-14.160,239.258
1742118649.261,999.512,77.637,-8.789,999.512
1742118649.265,792.480,-19.531,-15.137,777.832
1742118649.269,-561.523,-102.539,-13.184,-581.543
1742118649.287,-1000.000,-69.336,-19.531,-1000.000
1742118649.291,-10.254,52.246,-23.926,-145.996
1742118649.295,999.512,49.316,-19.043,999.512
1742118649.299,856.934,-52.246,-17.578,869.629
1742118649.303,-611.328,-142.578,-19.531,-611.816
1742118649.307,-1000.000,-31.250,-17.090,-1000.000
1742118649.311,286.133,88.867,-18.555,158.203
1742118649.314,999.512,21.973,-18.066,999.512
1742118649.318,731.934,-67.383,-14.648,717.773
1742118649.322,-637.207,-103.027,-18.555,-639.160
1742118649.326,-1000.000,-48.340,-18.066,-1000.000
1742118649.330,-42.969,56.152,-19.531,-212.891
1742118649.287,-1000.000,-69.336,-19.531,-1000.000
1742118649.291,-10.254,52.246,-23.926,-145.996
1742118649.295,999.512,49.316,-19.043,999.512
1742118649.299,856.934,-52.246,-17.578,869.629
1742118649.303,-611.328,-142.578,-19.531,-611.816
1742118649.307,-1000.000,-31.250,-17.090,-1000.000
1742118649.311,286.133,88.867,-18.555,158.203
1742118649.314,999.512,21.973,-18.066,999.512
1742118649.318,731.934,-67.383,-14.648,717.773
1742118649.322,-637.207,-103.027,-18.555,-639.160
1742118649.326,-1000.000,-48.340,-18.066,-1000.000
1742118649.330,-42.969,56.152,-19.531,-212.891
1742118649.331,999.512,59.082,-31.250,999.512
1742118649.335,809.570,-20.996,-38.574,869.141
1742118649.339,-543.945,-98.145,-35.645,-513.184
1742118649.343,-1000.000,-72.266,-34.180,-1000.000
1742118649.347,-652.832,21.484,-30.273,-681.641
1742118649.351,749.023,104.980,-14.160,681.641
1742118649.355,999.512,33.203,-15.137,999.512
1742118649.358,-271.484,-122.070,-29.785,-145.020
1742118649.362,-1000.000,-118.164,-39.551,-1000.000
1742118649.366,-848.145,-7.812,-38.086,-852.539
1742118649.370,540.527,57.617,-22.949,544.434
1742118649.374,999.512,9.277,-19.531,999.512
1742118649.331,999.512,59.082,-31.250,999.512
1742118649.335,809.570,-20.996,-38.574,869.141
1742118649.339,-543.945,-98.145,-35.645,-513.184
1742118649.343,-1000.000,-72.266,-34.180,-1000.000
1742118649.347,-652.832,21.484,-30.273,-681.641
1742118649.351,749.023,104.980,-14.160,681.641
1742118649.355,999.512,33.203,-15.137,999.512
1742118649.358,-271.484,-122.070,-29.785,-145.020
1742118649.362,-1000.000,-118.164,-39.551,-1000.000
1742118649.366,-848.145,-7.812,-38.086,-852.539
1742118649.370,540.527,57.617,-22.949,544.434
1742118649.374,999.512,9.277,-19.531,999.512
1742118649.393,-148.926,-120.117,-30.762,-8.789
1742118649.397,-1000.000,-93.262,-32.715,-1000.000
1742118649.401,-820.801,8.301,-32.227,-828.613
1742118649.405,524.414,64.941,-27.344,552.734
1742118649.409,999.512,35.156,-22.949,999.512
1742118649.413,295.898,-41.992,-25.391,347.168
1742118649.417,-911.133,-85.938,-34.180,-852.051
1742118649.420,-1000.000,-77.637,-44.922,-1000.000
1742118649.424,-131.348,13.184,-41.504,-285.645
1742118649.428,999.512,56.152,-33.691,999.512
1742118649.432,821.777,-22.949,-38.574,844.238
1742118649.436,-548.828,-77.637,-39.062,-573.730
1742118649.393,-148.926,-120.117,-30.762,-8.789
1742118649.397,-1000.000,-93.262,-32.715,-1000.000
1742118649.401,-820.801,8.301,-32.227,-828.613
1742118649.405,524.414,64.941,-27.344,552.734
1742118649.409,999.512,35.156,-22.949,999.512
1742118649.413,295.898,-41.992,-25.391,347.168
1742118649.417,-911.133,-85.938,-34.180,-852.051
1742118649.420,-1000.000,-77.637,-44.922,-1000.000
1742118649.424,-131.348,13.184,-41.504,-285.645
1742118649.428,999.512,56.152,-33.691,999.512
1742118649.432,821.777,-22.949,-38.574,844.238
1742118649.436,-548.828,-77.637,-39.062,-573.730
1742118649.421,-1000.000,-80.078,-42.969,-1000.000
1742118649.425,-540.039,6.836,-34.668,-567.871
1742118649.429,894.531,60.547,-25.391,832.031
1742118649.433,913.574,-30.273,-33.203,950.684
1742118649.437,-577.148,-108.398,-35.645,-529.297
1742118649.441,-1000.000,-58.105,-25.879,-1000.000
1742118649.445,-312.012,25.391,-21.973,-397.461
1742118649.448,999.512,-2.930,-24.902,954.102
1742118649.452,841.797,-103.516,-16.602,813.965
1742118649.456,-667.969,-132.812,-7.324,-684.082
1742118649.460,-1000.000,-74.707,-1.953,-1000.000
1742118649.464,127.930,32.227,1.465,-16.602
1742118649.421,-1000.000,-80.078,-42.969,-1000.000
1742118649.425,-540.039,6.836,-34.668,-567.871
1742118649.429,894.531,60.547,-25.391,832.031
1742118649.433,913.574,-30.273,-33.203,950.684
1742118649.437,-577.148,-108.398,-35.645,-529.297
1742118649.441,-1000.000,-58.105,-25.879,-1000.000
1742118649.445,-312.012,25.391,-21.973,-397.461
1742118649.448,999.512,-2.930,-24.902,954.102
1742118649.452,841.797,-103.516,-16.602,813.965
1742118649.456,-667.969,-132.812,-7.324,-684.082
1742118649.460,-1000.000,-74.707,-1.953,-1000.000
1742118649.464,127.930,32.227,1.465,-16.602
1742118649.421,-1000.000,-80.078,-42.969,-1000.000
1742118649.425,-540.039,6.836,-34.668,-567.871
1742118649.429,894.531,60.547,-25.391,832.031
1742118649.433,913.574,-30.273,-33.203,950.684
1742118649.437,-577.148,-108.398,-35.645,-529.297
1742118649.441,-1000.000,-58.105,-25.879,-1000.000
1742118649.445,-312.012,25.391,-21.973,-397.461
1742118649.448,999.512,-2.930,-24.902,954.102
1742118649.452,841.797,-103.516,-16.602,813.965
1742118649.456,-667.969,-132.812,-7.324,-684.082
1742118649.460,-1000.000,-74.707,-1.953,-1000.000
1742118649.464,127.930,32.227,1.465,-16.602
1742118649.469,999.512,18.555,6.348,999.512
1742118649.473,853.516,-51.758,13.184,916.504
1742118649.477,-435.547,-160.156,6.348,-359.375
1742118649.481,-1000.000,-157.227,3.906,-1000.000
1742118649.485,-825.684,-40.527,7.324,-809.570
1742118649.489,599.121,73.730,4.883,597.656
1742118649.493,999.512,-15.137,0.000,999.512
1742118649.496,-380.371,-196.777,-13.184,-275.879
1742118649.500,-1000.000,-147.949,-10.254,-1000.000
1742118649.504,-756.836,-26.367,4.395,-752.441
1742118649.508,594.727,19.531,2.930,589.355
1742118649.512,999.512,-20.508,-4.883,999.512
1742118649.469,999.512,18.555,6.348,999.512
1742118649.473,853.516,-51.758,13.184,916.504
1742118649.477,-435.547,-160.156,6.348,-359.375
1742118649.481,-1000.000,-157.227,3.906,-1000.000
1742118649.485,-825.684,-40.527,7.324,-809.570
1742118649.489,599.121,73.730,4.883,597.656
1742118649.493,999.512,-15.137,0.000,999.512
1742118649.496,-380.371,-196.777,-13.184,-275.879
1742118649.500,-1000.000,-147.949,-10.254,-1000.000
1742118649.504,-756.836,-26.367,4.395,-752.441
1742118649.508,594.727,19.531,2.930,589.355
1742118649.512,999.512,-20.508,-4.883,999.512
1742118649.511,99.609,-108.887,-6.348,246.582
1742118649.515,-1000.000,-120.605,-9.766,-1000.000
1742118649.519,-862.305,-25.391,-13.184,-883.301
1742118649.523,518.555,54.199,-14.160,539.551
1742118649.527,999.512,24.414,-9.766,999.512
1742118649.531,428.711,-81.543,-7.324,471.191
1742118649.535,-858.398,-108.887,-8.789,-795.410
1742118649.538,-1000.000,-87.891,-12.695,-1000.000
1742118649.542,-47.363,-19.043,-14.160,-187.012
1742118649.546,999.512,30.273,-9.766,999.512
1742118649.550,852.539,-51.758,-9.766,867.188
1742118649.554,-606.445,-145.508,-7.324,-611.816
1742118649.558,-1000.000,-70.801,1.465,-1000.000
1742118649.562,229.492,88.379,3.418,121.582
1742118649.566,999.512,39.551,-2.441,999.512
1742118649.570,821.289,-66.406,-4.883,815.430
1742118649.574,-654.785,-121.582,-9.277,-663.574
1742118649.578,-1000.000,-23.438,-16.602,-1000.000
1742118649.582,461.914,90.332,-11.230,394.531
1742118649.585,999.512,1.465,-5.859,999.512
1742118649.589,354.492,-116.211,-16.113,413.086
1742118649.593,-1000.000,-121.582,-23.926,-938.477
1742118649.597,-910.645,-22.949,-21.484,-963.867
1742118649.601,520.996,71.289,-15.625,461.914
1742118649.616,999.512,14.648,-20.020,999.512
1742118649.620,728.516,-48.340,-24.414,708.984
1742118649.624,-618.164,-100.586,-23.926,-610.840
1742118649.628,-1000.000,-94.727,-32.227,-1000.000
1742118649.632,-52.246,21.973,-30.273,-174.805
1742118649.636,999.512,65.430,-20.020,970.215
1742118649.640,916.016,-42.969,-26.855,977.051
1742118649.643,-382.324,-176.270,-30.273,-288.574
1742118649.647,-1000.000,-106.934,-24.902,-1000.000
1742118649.651,-400.391,56.152,-17.578,-421.387
1742118649.655,940.918,38.086,-14.648,894.043
1742118649.659,950.684,-52.246,-20.020,999.512
1742118649.616,999.512,14.648,-20.020,999.512
1742118649.620,728.516,-48.340,-24.414,708.984
1742118649.624,-618.164,-100.586,-23.926,-610.840
1742118649.628,-1000.000,-94.727,-32.227,-1000.000
1742118649.632,-52.246,21.973,-30.273,-174.805
1742118649.636,999.512,65.430,-20.020,970.215
1742118649.640,916.016,-42.969,-26.855,977.051
1742118649.643,-382.324,-176.270,-30.273,-288.574
1742118649.647,-1000.000,-106.934,-24.902,-1000.000
1742118649.651,-400.391,56.152,-17.578,-421.387
1742118649.655,940.918,38.086,-14.648,894.043
1742118649.659,950.684,-52.246,-20.020,999.512
1742118649.677,-435.059,-148.926,-30.273,-340.820
1742118649.681,-1000.000,-96.680,-34.180,-1000.000
1742118649.685,-430.176,25.391,-35.645,-425.781
1742118649.689,818.359,25.879,-36.621,798.340
1742118649.693,999.512,-31.250,-40.039,999.512
1742118649.697,289.062,-61.523,-35.645,395.020
1742118649.701,-1000.000,-106.934,-35.156,-919.922
1742118649.704,-967.285,-80.566,-40.039,-1000.000
1742118649.708,407.227,30.273,-33.691,329.590
1742118649.712,999.512,18.066,-33.691,999.512
1742118649.716,658.203,-72.266,-39.551,638.184
1742118649.720,-677.246,-104.492,-39.062,-673.828
1742118649.677,-435.059,-148.926,-30.273,-340.820
1742118649.681,-1000.000,-96.680,-34.180,-1000.000
1742118649.685,-430.176,25.391,-35.645,-425.781
1742118649.689,818.359,25.879,-36.621,798.340
1742118649.693,999.512,-31.250,-40.039,999.512
1742118649.697,289.062,-61.523,-35.645,395.020
1742118649.701,-1000.000,-106.934,-35.156,-919.922
1742118649.704,-967.285,-80.566,-40.039,-1000.000
1742118649.708,407.227,30.273,-33.691,329.590
1742118649.712,999.512,18.066,-33.691,999.512
1742118649.716,658.203,-72.266,-39.551,638.184
1742118649.720,-677.246,-104.492,-39.062,-673.828
1742118649.707,-1000.000,-70.312,-43.945,-1000.000
1742118649.711,214.844,57.129,-47.852,90.820
1742118649.715,999.512,43.945,-49.805,999.512
1742118649.719,826.172,-56.152,-48.828,818.848
1742118649.723,-608.887,-104.980,-46.387,-629.883
1742118649.727,-1000.000,-49.805,-54.199,-1000.000
1742118649.731,310.059,59.082,-56.152,230.957
1742118649.734,999.512,-5.371,-65.430,999.512
1742118649.738,683.594,-99.121,-67.871,680.664
1742118649.742,-810.059,-112.305,-52.734,-765.137
1742118649.746,-984.375,-25.879,-45.898,-1000.000
1742118649.750,528.320,79.102,-42.969,452.148
1742118649.707,-1000.000,-70.312,-43.945,-1000.000
1742118649.711,214.844,57.129,-47.852,90.820
1742118649.715,999.512,43.945,-49.805,999.512
1742118649.719,826.172,-56.152,-48.828,818.848
1742118649.723,-608.887,-104.980,-46.387,-629.883
1742118649.727,-1000.000,-49.805,-54.199,-1000.000
1742118649.731,310.059,59.082,-56.152,230.957
1742118649.734,999.512,-5.371,-65.430,999.512
1742118649.738,683.594,-99.121,-67.871,680.664
1742118649.742,-810.059,-112.305,-52.734,-765.137
1742118649.746,-984.375,-25.879,-45.898,-1000.000
1742118649.750,528.320,79.102,-42.969,452.148
1742118650.218,-625.000,-134.277,-24.414,-635.254
1742118650.222,-1000.000,-42.480,-16.602,-1000.000
1742118650.226,259.277,68.848,-15.625,131.836
1742118650.230,999.512,17.578,-26.367,999.512
1742118650.234,770.996,-64.941,-25.391,778.809
1742118650.238,-532.715,-75.684,-15.137,-558.594
1742118650.242,-1000.000,-59.082,-17.090,-1000.000
1742118650.245,-732.422,-49.805,-27.832,-731.934
1742118650.249,696.289,23.926,-25.391,648.926
1742118650.253,999.512,-16.113,-22.461,999.512
1742118650.257,-359.375,-142.578,-29.297,-245.117
1742118650.261,-1000.000,-95.703,-26.855,-1000.000
1742118650.262,-770.508,2.441,-23.438,-761.230
1742118650.266,567.383,43.457,-27.832,578.125
1742118650.270,999.512,14.648,-27.344,999.512
1742118650.274,195.312,-72.266,-22.461,314.941
1742118650.278,-1000.000,-98.633,-23.926,-1000.000
1742118650.282,-865.723,21.484,-26.855,-867.676
1742118650.286,722.656,93.750,-29.785,717.285
1742118650.289,973.633,-51.758,-40.039,999.512
1742118650.293,-536.133,-180.176,-38.086,-465.332
1742118650.297,-1000.000,-75.684,-25.879,-1000.000
1742118650.301,-606.445,17.090,-29.785,-611.328
1742118650.305,733.887,39.551,-26.367,682.129
1742118650.309,999.512,-5.859,-28.320,999.512
1742118650.313,59.082,-83.008,-31.250,213.867
1742118650.317,-1000.000,-82.520,-26.855,-1000.000
1742118650.321,-849.609,-15.137,-25.391,-899.414
1742118650.325,522.461,63.477,-22.949,497.559
1742118650.329,999.512,62.988,-16.602,999.512
1742118650.333,770.508,-22.461,-17.578,762.207
1742118650.336,-625.488,-153.809,-35.156,-613.281
1742118650.340,-1000.000,-83.984,-37.109,-1000.000
1742118650.344,238.281,71.777,-34.180,121.582
1742118650.348,999.512,42.969,-29.297,999.512
1742118650.352,791.016,-48.340,-37.598,812.988
1742118650.309,999.512,-5.859,-28.320,999.512
1742118650.313,59.082,-83.008,-31.250,213.867
1742118650.317,-1000.000,-82.520,-26.855,-1000.000
1742118650.321,-849.609,-15.137,-25.391,-899.414
1742118650.325,522.461,63.477,-22.949,497.559
1742118650.329,999.512,62.988,-16.602,999.512
1742118650.333,770.508,-22.461,-17.578,762.207
1742118650.336,-625.488,-153.809,-35.156,-613.281
1742118650.340,-1000.000,-83.984,-37.109,-1000.000
1742118650.344,238.281,71.777,-34.180,121.582
1742118650.348,999.512,42.969,-29.297,999.512
1742118650.352,791.016,-48.340,-37.598,812.988
1742118650.351,-535.156,-132.812,-46.387,-536.133
1742118650.355,-1000.000,-92.773,-49.316,-1000.000
1742118650.359,-292.969,18.555,-44.922,-340.820
1742118650.363,915.039,25.879,-30.273,858.398
1742118650.367,999.512,-5.371,-13.184,999.512
1742118650.371,-100.586,-58.594,-10.254,68.848
1742118650.375,-1000.000,-78.125,-21.973,-1000.000
1742118650.378,-854.980,-13.184,-24.902,-854.980
1742118650.382,570.312,21.484,-24.414,595.215
1742118650.386,999.512,-3.906,-20.996,999.512
1742118650.390,-199.707,-113.281,-20.508,-66.406
1742118650.394,-1000.000,-99.609,-9.766,-1000.000
1742118650.351,-535.156,-132.812,-46.387,-536.133
1742118650.355,-1000.000,-92.773,-49.316,-1000.000
1742118650.359,-292.969,18.555,-44.922,-340.820
1742118650.363,915.039,25.879,-30.273,858.398
1742118650.367,999.512,-5.371,-13.184,999.512
1742118650.371,-100.586,-58.594,-10.254,68.848
1742118650.375,-1000.000,-78.125,-21.973,-1000.000
1742118650.378,-854.980,-13.184,-24.902,-854.980
1742118650.382,570.312,21.484,-24.414,595.215
1742118650.386,999.512,-3.906,-20.996,999.512
1742118650.390,-199.707,-113.281,-20.508,-66.406
1742118650.394,-1000.000,-99.609,-9.766,-1000.000
1742118650.412,-841.309,-0.977,-3.418,-834.473
1742118650.416,599.609,65.430,-4.395,610.840
1742118650.420,999.512,-4.883,-10.254,999.512
1742118650.424,-326.660,-145.508,-27.832,-187.988
1742118650.428,-1000.000,-85.938,-21.973,-1000.000
1742118650.432,-281.738,99.121,-0.977,-370.117
1742118650.436,999.512,96.680,2.441,962.402
1742118650.439,867.676,-18.555,0.488,923.340
1742118650.443,-525.391,-137.207,-9.277,-464.844
1742118650.447,-1000.000,-82.031,-10.742,-1000.000
1742118650.451,-658.691,23.926,-2.441,-671.387
1742118650.455,708.984,68.848,5.859,655.762
1742118650.412,-841.309,-0.977,-3.418,-834.473
1742118650.416,599.609,65.430,-4.395,610.840
1742118650.420,999.512,-4.883,-10.254,999.512
1742118650.424,-326.660,-145.508,-27.832,-187.988
1742118650.428,-1000.000,-85.938,-21.973,-1000.000
1742118650.432,-281.738,99.121,-0.977,-370.117
1742118650.436,999.512,96.680,2.441,962.402
1742118650.439,867.676,-18.555,0.488,923.340
1742118650.443,-525.391,-137.207,-9.277,-464.844
1742118650.447,-1000.000,-82.031,-10.742,-1000.000
1742118650.451,-658.691,23.926,-2.441,-671.387
1742118650.455,708.984,68.848,5.859,655.762
1742118650.456,999.512,30.762,2.930,999.512
1742118650.460,-57.617,-78.613,-12.207,78.613
1742118650.464,-1000.000,-77.637,-9.277,-1000.000
1742118650.468,-770.996,31.250,8.301,-794.434
1742118650.472,629.883,85.938,12.207,618.164
1742118650.476,999.512,56.152,6.836,999.512
1742118650.480,100.098,-42.969,-2.441,214.844
1742118650.483,-1000.000,-108.887,-8.789,-991.211
1742118650.487,-916.504,-39.062,-4.395,-984.375
1742118650.491,422.852,100.586,-5.371,341.797
1742118650.495,999.512,58.105,-7.324,999.512
1742118650.499,716.797,-52.246,-8.301,699.707
1742118650.456,999.512,30.762,2.930,999.512
1742118650.460,-57.617,-78.613,-12.207,78.613
1742118650.464,-1000.000,-77.637,-9.277,-1000.000
1742118650.468,-770.996,31.250,8.301,-794.434
1742118650.472,629.883,85.938,12.207,618.164
1742118650.476,999.512,56.152,6.836,999.512
1742118650.480,100.098,-42.969,-2.441,214.844
1742118650.483,-1000.000,-108.887,-8.789,-991.211
1742118650.487,-916.504,-39.062,-4.395,-984.375
1742118650.491,422.852,100.586,-5.371,341.797
1742118650.495,999.512,58.105,-7.324,999.512
1742118650.499,716.797,-52.246,-8.301,699.707
1742118650.505,-705.566,-104.980,-13.184,-678.711
1742118650.509,-1000.000,-28.809,-8.789,-1000.000
1742118650.513,300.293,99.609,-2.441,161.621
1742118650.517,999.512,39.551,-11.719,999.512
1742118650.521,720.215,-51.270,-13.184,704.590
1742118650.525,-648.926,-41.504,-5.859,-648.438
1742118650.529,-1000.000,-20.508,-7.324,-1000.000
1742118650.532,-31.738,36.621,-17.578,-198.730
1742118650.536,999.512,54.688,-22.461,999.512
1742118650.540,814.941,-38.574,-25.391,838.867
1742118650.544,-545.898,-113.281,-28.809,-564.941
1742118650.548,-1000.000,-71.289,-18.555,-1000.000
1742118650.505,-705.566,-104.980,-13.184,-678.711
1742118650.509,-1000.000,-28.809,-8.789,-1000.000
1742118650.513,300.293,99.609,-2.441,161.621
1742118650.517,999.512,39.551,-11.719,999.512
1742118650.521,720.215,-51.270,-13.184,704.590
1742118650.525,-648.926,-41.504,-5.859,-648.438
1742118650.529,-1000.000,-20.508,-7.324,-1000.000
1742118650.532,-31.738,36.621,-17.578,-198.730
1742118650.536,999.512,54.688,-22.461,999.512
1742118650.540,814.941,-38.574,-25.391,838.867
1742118650.544,-545.898,-113.281,-28.809,-564.941
1742118650.548,-1000.000,-71.289,-18.555,-1000.000
1742118650.546,-458.984,35.645,-12.207,-495.117
1742118650.550,933.594,66.895,-9.766,878.418
1742118650.554,915.039,-33.691,-14.160,952.637
1742118650.558,-593.262,-137.695,-23.438,-534.180
1742118650.562,-1000.000,-58.105,-21.973,-1000.000
1742118650.566,-16.602,104.004,-15.137,-144.043
1742118650.570,999.512,89.355,-14.160,999.512
1742118650.573,821.777,-55.176,-16.113,826.660
1742118650.577,-589.355,-146.973,-26.855,-604.492
1742118650.581,-1000.000,-50.781,-25.879,-1000.000
1742118650.585,-45.410,66.406,-19.531,-180.664
1742118650.589,999.512,53.223,-15.625,983.398
1742118650.546,-458.984,35.645,-12.207,-495.117
1742118650.550,933.594,66.895,-9.766,878.418
1742118650.554,915.039,-33.691,-14.160,952.637
1742118650.558,-593.262,-137.695,-23.438,-534.180
1742118650.562,-1000.000,-58.105,-21.973,-1000.000
1742118650.566,-16.602,104.004,-15.137,-144.043
1742118650.570,999.512,89.355,-14.160,999.512
1742118650.573,821.777,-55.176,-16.113,826.660
1742118650.577,-589.355,-146.973,-26.855,-604.492
1742118650.581,-1000.000,-50.781,-25.879,-1000.000
1742118650.585,-45.410,66.406,-19.531,-180.664
1742118650.589,999.512,53.223,-15.625,983.398
1742118650.593,885.742,-34.180,-20.508,948.242
1742118650.597,-469.238,-125.488,-25.879,-391.113
1742118650.601,-1000.000,-77.637,-24.414,-1000.000
1742118650.605,-203.125,43.457,-27.344,-301.758
1742118650.609,996.094,13.672,-35.156,922.363
1742118650.613,944.336,-26.367,-31.738,999.512
1742118650.617,-373.047,-112.793,-36.133,-256.836
1742118650.620,-1000.000,-120.117,-39.551,-1000.000
1742118650.624,-819.336,-44.434,-27.832,-874.023
1742118650.628,461.426,62.012,-26.367,399.902
1742118650.632,999.512,25.391,-30.762,999.512
1742118650.636,704.102,-66.406,-29.297,696.777
1742118650.593,885.742,-34.180,-20.508,948.242
1742118650.597,-469.238,-125.488,-25.879,-391.113
1742118650.601,-1000.000,-77.637,-24.414,-1000.000
1742118650.605,-203.125,43.457,-27.344,-301.758
1742118650.609,996.094,13.672,-35.156,922.363
1742118650.613,944.336,-26.367,-31.738,999.512
1742118650.617,-373.047,-112.793,-36.133,-256.836
1742118650.620,-1000.000,-120.117,-39.551,-1000.000
1742118650.624,-819.336,-44.434,-27.832,-874.023
1742118650.628,461.426,62.012,-26.367,399.902
1742118650.632,999.512,25.391,-30.762,999.512
1742118650.636,704.102,-66.406,-29.297,696.777
1742118650.636,-731.445,-114.258,-35.156,-690.430
1742118650.640,-1000.000,-55.664,-31.250,-1000.000
1742118650.644,361.816,71.777,-21.973,258.301
1742118650.648,999.512,27.344,-24.414,999.512
1742118650.652,790.039,-36.621,-24.902,812.012
1742118650.656,-538.086,-102.539,-20.996,-509.766
1742118650.660,-1000.000,-62.500,-14.160,-1000.000
1742118650.663,-188.477,34.668,-20.508,-299.805
1742118650.667,999.512,-3.418,-33.203,986.816
1742118650.671,834.473,-67.383,-33.691,847.656
1742118650.675,-555.176,-117.676,-26.367,-579.590
1742118650.679,-1000.000,-88.867,-15.137,-1000.000
1742118650.636,-731.445,-114.258,-35.156,-690.430
1742118650.640,-1000.000,-55.664,-31.250,-1000.000
1742118650.644,361.816,71.777,-21.973,258.301
1742118650.648,999.512,27.344,-24.414,999.512
1742118650.652,790.039,-36.621,-24.902,812.012
1742118650.656,-538.086,-102.539,-20.996,-509.766
1742118650.660,-1000.000,-62.500,-14.160,-1000.000
1742118650.663,-188.477,34.668,-20.508,-299.805
1742118650.667,999.512,-3.418,-33.203,986.816
1742118650.671,834.473,-67.383,-33.691,847.656
1742118650.675,-555.176,-117.676,-26.367,-579.590
1742118650.679,-1000.000,-88.867,-15.137,-1000.000
1742118650.683,-527.344,-13.672,-16.113,-564.453
1742118650.687,864.746,49.316,-19.043,797.363
