timestamps,TP9,AF7,AF8,TP10
1742120460.453,999.512,999.512,674.805,999.512
1742120460.457,920.898,876.953,289.062,924.805
1742120460.461,935.547,999.512,-109.375,958.008
1742120460.465,999.512,242.188,50.781,897.461
1742120460.469,-299.805,-1000.000,185.547,-428.711
1742120460.473,-1000.000,-994.629,434.570,-1000.000
1742120460.477,-937.012,-958.008,362.305,-940.430
1742120460.480,-940.918,-965.820,-138.672,-942.871
1742120460.484,-1000.000,-1000.000,-78.125,-1000.000
1742120460.488,-220.703,-37.109,430.176,-220.215
1742120460.492,999.512,999.512,735.352,999.512
1742120460.496,881.836,952.637,459.961,885.254
1742120460.499,999.512,855.957,-35.645,999.512
1742120460.503,289.551,-394.531,89.844,243.164
1742120460.507,-1000.000,-1000.000,463.379,-1000.000
1742120460.511,-1000.000,-883.301,486.328,-1000.000
1742120460.515,-894.531,-1000.000,310.547,-900.879
1742120460.519,-1000.000,-217.773,195.312,-1000.000
1742120460.523,-386.230,999.512,400.879,-658.691
1742120460.526,979.004,947.754,526.855,779.785
1742120460.530,908.203,881.836,364.746,964.844
1742120460.534,999.512,999.512,226.562,999.512
1742120460.538,341.797,211.914,-60.547,311.523
1742120460.542,-1000.000,-1000.000,-360.352,-1000.000
1742120460.543,-1000.000,-580.078,-32.715,-1000.000
1742120460.547,-966.797,846.680,206.055,-966.309
1742120460.551,-988.770,999.512,-52.246,-1000.000
1742120460.555,-975.098,-407.227,-408.203,-953.125
1742120460.559,-1000.000,-840.820,-394.531,-1000.000
1742120460.563,121.094,675.781,309.570,-56.152
1742120460.567,999.512,999.512,567.871,999.512
1742120460.570,999.512,880.859,180.176,999.512
1742120460.574,183.105,-333.008,-348.145,168.457
1742120460.578,-1000.000,-1000.000,-479.004,-1000.000
1742120460.582,-912.109,-877.441,8.789,-909.668
1742120460.586,-1000.000,-1000.000,275.391,-1000.000
1742120460.543,-1000.000,-580.078,-32.715,-1000.000
1742120460.547,-966.797,846.680,206.055,-966.309
1742120460.551,-988.770,999.512,-52.246,-1000.000
1742120460.555,-975.098,-407.227,-408.203,-953.125
1742120460.559,-1000.000,-840.820,-394.531,-1000.000
1742120460.563,121.094,675.781,309.570,-56.152
1742120460.567,999.512,999.512,567.871,999.512
1742120460.570,999.512,880.859,180.176,999.512
1742120460.574,183.105,-333.008,-348.145,168.457
1742120460.578,-1000.000,-1000.000,-479.004,-1000.000
1742120460.582,-912.109,-877.441,8.789,-909.668
1742120460.586,-1000.000,-1000.000,275.391,-1000.000
1742120460.587,-408.203,-230.469,328.613,-514.648
1742120460.591,967.285,999.512,340.820,910.156
1742120460.595,980.957,952.148,226.074,999.512
1742120460.599,925.781,942.383,242.188,918.457
1742120460.603,971.191,958.008,282.227,972.656
1742120460.607,914.551,932.129,362.305,918.457
1742120460.611,999.512,999.512,256.348,999.512
1742120460.614,60.059,-68.359,-173.828,41.016
1742120460.618,-1000.000,-1000.000,-292.969,-1000.000
1742120460.622,-966.309,-951.660,58.594,-964.844
1742120460.626,-982.910,-932.129,249.512,-983.887
1742120460.630,-1000.000,-1000.000,-117.188,-1000.000
1742120460.587,-408.203,-230.469,328.613,-514.648
1742120460.591,967.285,999.512,340.820,910.156
1742120460.595,980.957,952.148,226.074,999.512
1742120460.599,925.781,942.383,242.188,918.457
1742120460.603,971.191,958.008,282.227,972.656
1742120460.607,914.551,932.129,362.305,918.457
1742120460.611,999.512,999.512,256.348,999.512
1742120460.614,60.059,-68.359,-173.828,41.016
1742120460.618,-1000.000,-1000.000,-292.969,-1000.000
1742120460.622,-966.309,-951.660,58.594,-964.844
1742120460.626,-982.910,-932.129,249.512,-983.887
1742120460.630,-1000.000,-1000.000,-117.188,-1000.000
1742120460.633,-938.477,-177.246,-303.223,-937.500
1742120460.637,-1000.000,999.512,5.371,-1000.000
1742120460.641,-209.473,944.824,218.262,-220.703
1742120460.645,999.512,945.801,391.113,999.512
1742120460.649,954.102,960.938,111.816,957.031
1742120460.653,915.527,925.293,-124.023,909.668
1742120460.657,952.148,999.512,161.133,972.656
1742120460.660,999.512,-5.371,156.738,960.938
1742120460.664,-185.059,-1000.000,-24.414,-270.020
1742120460.668,-1000.000,-963.867,-56.152,-1000.000
1742120460.672,-869.141,-921.875,-302.246,-881.836
1742120460.676,-1000.000,-1000.000,-326.172,-1000.000
1742120460.633,-938.477,-177.246,-303.223,-937.500
1742120460.637,-1000.000,999.512,5.371,-1000.000
1742120460.641,-209.473,944.824,218.262,-220.703
1742120460.645,999.512,945.801,391.113,999.512
1742120460.649,954.102,960.938,111.816,957.031
1742120460.653,915.527,925.293,-124.023,909.668
1742120460.657,952.148,999.512,161.133,972.656
1742120460.660,999.512,-5.371,156.738,960.938
1742120460.664,-185.059,-1000.000,-24.414,-270.020
1742120460.668,-1000.000,-963.867,-56.152,-1000.000
1742120460.672,-869.141,-921.875,-302.246,-881.836
1742120460.676,-1000.000,-1000.000,-326.172,-1000.000
1742120460.693,-601.074,-249.512,94.238,-722.168
1742120460.697,842.285,999.512,498.047,708.496
1742120460.701,999.512,955.078,349.609,999.512
1742120460.705,909.668,950.684,-89.844,905.273
1742120460.709,982.422,903.809,-54.688,980.469
1742120460.713,903.809,999.512,321.289,906.738
1742120460.717,999.512,525.879,479.492,999.512
1742120460.720,186.523,-891.602,41.992,163.086
1742120460.724,-1000.000,-1000.000,-441.895,-1000.000
1742120460.728,-912.598,-886.230,-250.000,-915.527
1742120460.732,-1000.000,-1000.000,205.078,-1000.000
1742120460.736,-634.766,-199.219,361.328,-684.082
1742120460.693,-601.074,-249.512,94.238,-722.168
1742120460.697,842.285,999.512,498.047,708.496
1742120460.701,999.512,955.078,349.609,999.512
1742120460.705,909.668,950.684,-89.844,905.273
1742120460.709,982.422,903.809,-54.688,980.469
1742120460.713,903.809,999.512,321.289,906.738
1742120460.717,999.512,525.879,479.492,999.512
1742120460.720,186.523,-891.602,41.992,163.086
1742120460.724,-1000.000,-1000.000,-441.895,-1000.000
1742120460.728,-912.598,-886.230,-250.000,-915.527
1742120460.732,-1000.000,-1000.000,205.078,-1000.000
1742120460.736,-634.766,-199.219,361.328,-684.082
1742120460.738,827.148,999.512,509.766,751.465
1742120460.742,979.492,908.203,154.785,991.211
1742120460.746,941.895,999.512,-256.348,948.730
1742120460.750,901.367,31.250,-32.715,834.473
1742120460.754,-481.445,-1000.000,51.270,-512.695
1742120460.758,-1000.000,-984.375,153.809,-1000.000
1742120460.762,-927.246,-912.109,-165.527,-936.035
1742120460.765,-957.520,-1000.000,-649.902,-952.148
1742120460.769,-1000.000,-531.250,-406.738,-1000.000
1742120460.773,-99.121,868.164,51.758,-139.648
1742120460.777,999.512,999.512,109.375,999.512
1742120460.781,933.105,921.875,-221.191,939.941
1742120460.738,827.148,999.512,509.766,751.465
1742120460.742,979.492,908.203,154.785,991.211
1742120460.746,941.895,999.512,-256.348,948.730
1742120460.750,901.367,31.250,-32.715,834.473
1742120460.754,-481.445,-1000.000,51.270,-512.695
1742120460.758,-1000.000,-984.375,153.809,-1000.000
1742120460.762,-927.246,-912.109,-165.527,-936.035
1742120460.765,-957.520,-1000.000,-649.902,-952.148
1742120460.769,-1000.000,-531.250,-406.738,-1000.000
1742120460.773,-99.121,868.164,51.758,-139.648
1742120460.777,999.512,999.512,109.375,999.512
1742120460.781,933.105,921.875,-221.191,939.941
1742120460.786,950.684,956.055,-452.637,952.148
1742120460.790,905.273,950.195,-271.973,902.832
1742120460.794,999.512,999.512,-71.289,999.512
1742120460.798,218.750,-180.664,-410.645,298.340
1742120460.802,-1000.000,-1000.000,-937.988,-1000.000
1742120460.806,-989.258,-951.660,-898.438,-1000.000
1742120460.810,-970.703,-979.492,-569.824,-963.867
1742120460.813,-1000.000,-959.961,-552.734,-1000.000
1742120460.817,-1000.000,-1000.000,-708.984,-1000.000
1742120460.821,-931.152,-22.949,-854.004,-937.988
1742120460.825,-1000.000,999.512,-989.258,-1000.000
1742120460.829,-677.246,943.359,-831.055,-748.047
1742120460.786,950.684,956.055,-452.637,952.148
1742120460.790,905.273,950.195,-271.973,902.832
1742120460.794,999.512,999.512,-71.289,999.512
1742120460.798,218.750,-180.664,-410.645,298.340
1742120460.802,-1000.000,-1000.000,-937.988,-1000.000
1742120460.806,-989.258,-951.660,-898.438,-1000.000
1742120460.810,-970.703,-979.492,-569.824,-963.867
1742120460.813,-1000.000,-959.961,-552.734,-1000.000
1742120460.817,-1000.000,-1000.000,-708.984,-1000.000
1742120460.821,-931.152,-22.949,-854.004,-937.988
1742120460.825,-1000.000,999.512,-989.258,-1000.000
1742120460.829,-677.246,943.359,-831.055,-748.047
1742120460.827,783.203,890.137,-331.543,687.500
1742120460.831,970.215,999.512,-271.973,987.305
1742120460.835,981.445,643.555,-683.105,980.957
1742120460.839,755.859,-670.410,-959.473,720.703
1742120460.843,-824.707,-1000.000,-795.898,-840.332
1742120460.847,-869.629,-514.648,-247.070,-827.148
1742120460.851,605.957,961.426,164.551,645.508
1742120460.854,999.512,743.652,-160.645,999.512
1742120460.858,536.621,-745.605,-748.047,535.156
1742120460.862,-827.637,-1000.000,-700.684,-793.457
1742120460.866,-1000.000,-871.094,-402.344,-1000.000
1742120460.870,-942.871,-1000.000,-388.672,-946.777
1742120460.872,-1000.000,-498.047,-617.188,-1000.000
1742120460.876,-952.148,884.277,-833.496,-957.520
1742120460.880,-1000.000,999.512,-775.879,-1000.000
1742120460.884,-63.477,919.922,-511.719,-41.016
1742120460.888,999.512,977.051,-303.223,999.512
1742120460.892,858.398,909.180,-273.926,858.398
1742120460.896,999.512,999.512,-681.152,999.512
1742120460.899,330.566,138.184,-1000.000,408.203
1742120460.903,-1000.000,-1000.000,-985.352,-979.004
1742120460.907,-1000.000,-970.215,-759.766,-1000.000
1742120460.911,-910.156,-926.758,-619.629,-907.715
1742120460.915,-1000.000,-1000.000,-902.344,-1000.000
1742120460.962,-905.273,-974.121,-633.789,-809.082
1742120460.966,473.145,333.984,-412.598,580.078
1742120460.970,999.512,999.512,-542.480,999.512
1742120460.974,899.414,897.949,-808.105,904.297
1742120460.978,980.469,936.523,-697.754,986.328
1742120460.982,899.902,977.051,-302.734,895.996
1742120460.986,999.512,953.125,31.738,999.512
1742120460.989,248.047,-350.586,-489.746,348.633
1742120460.993,-1000.000,-1000.000,-1000.000,-1000.000
1742120460.997,-919.434,-869.141,-633.301,-938.965
1742120461.001,-1000.000,-1000.000,-77.148,-1000.000
1742120461.005,-571.289,-330.566,85.449,-569.336
1742120460.962,-905.273,-974.121,-633.789,-809.082
1742120460.966,473.145,333.984,-412.598,580.078
1742120460.970,999.512,999.512,-542.480,999.512
1742120460.974,899.414,897.949,-808.105,904.297
1742120460.978,980.469,936.523,-697.754,986.328
1742120460.982,899.902,977.051,-302.734,895.996
1742120460.986,999.512,953.125,31.738,999.512
1742120460.989,248.047,-350.586,-489.746,348.633
1742120460.993,-1000.000,-1000.000,-1000.000,-1000.000
1742120460.997,-919.434,-869.141,-633.301,-938.965
1742120461.001,-1000.000,-1000.000,-77.148,-1000.000
1742120461.005,-571.289,-330.566,85.449,-569.336
1742120461.009,879.395,935.547,75.195,871.582
1742120461.013,999.512,999.512,-362.793,999.512
1742120461.017,911.621,185.547,-635.254,913.086
1742120461.021,982.422,-1000.000,-357.910,982.422
1742120461.025,962.891,-919.434,-246.094,964.355
1742120461.029,909.180,420.898,-282.227,908.691
1742120461.033,999.512,999.512,-438.965,999.512
1742120461.036,116.699,-196.289,-509.277,136.230
1742120461.040,-1000.000,-1000.000,-184.570,-1000.000
1742120461.044,-974.609,-959.961,158.203,-978.027
1742120461.048,-976.562,-923.340,176.758,-973.633
1742120461.052,-946.289,-1000.000,-147.461,-949.707
1742120461.009,879.395,935.547,75.195,871.582
1742120461.013,999.512,999.512,-362.793,999.512
1742120461.017,911.621,185.547,-635.254,913.086
1742120461.021,982.422,-1000.000,-357.910,982.422
1742120461.025,962.891,-919.434,-246.094,964.355
1742120461.029,909.180,420.898,-282.227,908.691
1742120461.033,999.512,999.512,-438.965,999.512
1742120461.036,116.699,-196.289,-509.277,136.230
1742120461.040,-1000.000,-1000.000,-184.570,-1000.000
1742120461.044,-974.609,-959.961,158.203,-978.027
1742120461.048,-976.562,-923.340,176.758,-973.633
1742120461.052,-946.289,-1000.000,-147.461,-949.707
1742120461.069,-1000.000,-428.223,-240.234,-1000.000
1742120461.073,-179.199,868.164,213.379,-156.250
1742120461.077,999.512,999.512,611.328,999.512
1742120461.081,943.848,601.074,329.590,941.895
1742120461.085,941.895,-870.117,-177.246,944.336
1742120461.089,974.609,40.039,29.785,973.633
1742120461.093,953.125,999.512,393.555,960.938
1742120461.096,924.805,-272.949,243.652,914.551
1742120461.100,999.512,-1000.000,102.051,999.512
1742120461.104,-34.180,-925.293,-184.082,75.195
1742120461.108,-1000.000,-968.262,-486.816,-1000.000
1742120461.112,-1000.000,-1000.000,-241.699,-1000.000
1742120461.069,-1000.000,-428.223,-240.234,-1000.000
1742120461.073,-179.199,868.164,213.379,-156.250
1742120461.077,999.512,999.512,611.328,999.512
1742120461.081,943.848,601.074,329.590,941.895
1742120461.085,941.895,-870.117,-177.246,944.336
1742120461.089,974.609,40.039,29.785,973.633
1742120461.093,953.125,999.512,393.555,960.938
1742120461.096,924.805,-272.949,243.652,914.551
1742120461.100,999.512,-1000.000,102.051,999.512
1742120461.104,-34.180,-925.293,-184.082,75.195
1742120461.108,-1000.000,-968.262,-486.816,-1000.000
1742120461.112,-1000.000,-1000.000,-241.699,-1000.000
1742120461.112,-289.062,94.238,275.391,-268.066
1742120461.116,965.332,999.512,340.820,968.262
1742120461.120,975.586,999.512,-180.176,976.074
1742120461.124,922.852,379.395,-280.762,907.715
1742120461.128,-354.980,-985.352,180.176,-353.516
1742120461.132,-1000.000,-1000.000,565.918,-1000.000
1742120461.136,-949.707,-962.891,680.176,-951.172
1742120461.139,-944.336,-944.336,285.645,-952.148
1742120461.143,-1000.000,-1000.000,-19.531,-1000.000
1742120461.147,-772.461,-329.102,368.164,-864.746
1742120461.151,654.785,995.605,823.730,524.902
1742120461.155,999.512,969.238,885.742,999.512
1742120461.112,-289.062,94.238,275.391,-268.066
1742120461.116,965.332,999.512,340.820,968.262
1742120461.120,975.586,999.512,-180.176,976.074
1742120461.124,922.852,379.395,-280.762,907.715
1742120461.128,-354.980,-985.352,180.176,-353.516
1742120461.132,-1000.000,-1000.000,565.918,-1000.000
1742120461.136,-949.707,-962.891,680.176,-951.172
1742120461.139,-944.336,-944.336,285.645,-952.148
1742120461.143,-1000.000,-1000.000,-19.531,-1000.000
1742120461.147,-772.461,-329.102,368.164,-864.746
1742120461.151,654.785,995.605,823.730,524.902
1742120461.155,999.512,969.238,885.742,999.512
1742120461.157,901.367,935.547,528.320,901.367
1742120461.161,979.980,908.691,198.730,977.539
1742120461.165,966.309,999.512,259.277,966.797
1742120461.169,979.004,342.773,492.188,978.516
1742120461.173,892.090,-1000.000,514.160,895.020
1742120461.177,999.512,-55.664,470.215,999.512
1742120461.181,462.891,642.578,300.781,435.547
1742120461.184,-952.637,-943.848,178.223,-960.449
1742120461.188,-1000.000,-1000.000,343.262,-1000.000
1742120461.192,-952.637,-915.527,473.145,-954.590
1742120461.196,-1000.000,-995.605,302.734,-1000.000
1742120461.200,-954.590,-1000.000,15.625,-950.684
1742120461.157,901.367,935.547,528.320,901.367
1742120461.161,979.980,908.691,198.730,977.539
1742120461.165,966.309,999.512,259.277,966.797
1742120461.169,979.004,342.773,492.188,978.516
1742120461.173,892.090,-1000.000,514.160,895.020
1742120461.177,999.512,-55.664,470.215,999.512
1742120461.181,462.891,642.578,300.781,435.547
1742120461.184,-952.637,-943.848,178.223,-960.449
1742120461.188,-1000.000,-1000.000,343.262,-1000.000
1742120461.192,-952.637,-915.527,473.145,-954.590
1742120461.196,-1000.000,-995.605,302.734,-1000.000
1742120461.200,-954.590,-1000.000,15.625,-950.684
1742120461.203,-1000.000,156.738,251.953,-1000.000
1742120461.207,-41.992,999.512,711.914,-92.773
1742120461.211,999.512,999.512,699.219,999.512
1742120461.215,999.512,619.629,414.551,999.512
1742120461.219,162.109,-788.574,-65.430,111.816
1742120461.223,-1000.000,-1000.000,25.391,-1000.000
1742120461.227,-982.422,-950.195,525.879,-976.562
1742120461.230,-974.121,-943.848,497.559,-977.539
1742120461.234,-1000.000,-1000.000,257.812,-1000.000
1742120461.238,-937.500,-361.816,49.805,-934.082
1742120461.242,-1000.000,981.934,62.500,-1000.000
1742120461.246,-221.191,977.539,258.789,-283.691
1742120461.247,999.512,919.434,530.762,999.512
1742120461.251,889.160,932.129,576.660,903.320
1742120461.255,999.512,999.512,217.773,999.512
1742120461.259,749.512,52.246,11.719,729.980
1742120461.263,-600.586,-1000.000,134.277,-592.285
1742120461.267,-1000.000,-1000.000,471.680,-1000.000
1742120461.271,-321.777,-146.973,688.477,-308.105
1742120461.274,961.426,999.512,242.676,967.285
1742120461.278,978.027,943.359,-104.004,976.562
1742120461.282,928.223,947.754,315.430,929.688
1742120461.286,964.844,957.520,601.562,967.773
1742120461.290,923.828,919.434,510.254,920.410
1742120461.247,999.512,919.434,530.762,999.512
1742120461.251,889.160,932.129,576.660,903.320
1742120461.255,999.512,999.512,217.773,999.512
1742120461.259,749.512,52.246,11.719,729.980
1742120461.263,-600.586,-1000.000,134.277,-592.285
1742120461.267,-1000.000,-1000.000,471.680,-1000.000
1742120461.271,-321.777,-146.973,688.477,-308.105
1742120461.274,961.426,999.512,242.676,967.285
1742120461.278,978.027,943.359,-104.004,976.562
1742120461.282,928.223,947.754,315.430,929.688
1742120461.286,964.844,957.520,601.562,967.773
1742120461.290,923.828,919.434,510.254,920.410
1742120461.294,999.512,999.512,225.586,999.512
1742120461.298,-25.391,-62.988,-186.523,22.461
1742120461.302,-1000.000,-1000.000,-251.953,-1000.000
1742120461.306,-956.055,-907.715,103.516,-962.891
1742120461.310,-988.770,-1000.000,301.758,-984.863
1742120461.314,-1000.000,137.695,192.871,-1000.000
1742120461.318,-993.652,807.129,-109.375,-988.770
1742120461.321,-947.754,-736.328,-286.621,-958.008
1742120461.325,-1000.000,-1000.000,-13.184,-1000.000
1742120461.329,-102.539,-3.418,354.004,-34.180
1742120461.333,999.512,999.512,339.844,999.512
1742120461.337,933.105,930.664,-55.176,929.199
1742120461.294,999.512,999.512,225.586,999.512
1742120461.298,-25.391,-62.988,-186.523,22.461
1742120461.302,-1000.000,-1000.000,-251.953,-1000.000
1742120461.306,-956.055,-907.715,103.516,-962.891
1742120461.310,-988.770,-1000.000,301.758,-984.863
1742120461.314,-1000.000,137.695,192.871,-1000.000
1742120461.318,-993.652,807.129,-109.375,-988.770
1742120461.321,-947.754,-736.328,-286.621,-958.008
1742120461.325,-1000.000,-1000.000,-13.184,-1000.000
1742120461.329,-102.539,-3.418,354.004,-34.180
1742120461.333,999.512,999.512,339.844,999.512
1742120461.337,933.105,930.664,-55.176,929.199
1742120461.339,961.426,951.660,-10.254,967.285
1742120461.343,895.996,907.715,336.426,901.855
1742120461.347,999.512,999.512,557.617,999.512
1742120461.351,479.980,181.641,360.352,629.395
1742120461.355,-941.406,-1000.000,-300.293,-794.922
1742120461.359,-975.098,-1000.000,-158.691,-1000.000
1742120461.363,-1000.000,-321.289,321.289,-1000.000
1742120461.366,-228.516,967.773,278.809,-87.891
1742120461.370,999.512,974.609,190.430,999.512
1742120461.374,949.219,930.176,-61.523,934.570
1742120461.378,943.359,974.121,-31.738,961.914
1742120461.382,906.250,909.668,392.090,897.461
1742120461.339,961.426,951.660,-10.254,967.285
1742120461.343,895.996,907.715,336.426,901.855
1742120461.347,999.512,999.512,557.617,999.512
1742120461.351,479.980,181.641,360.352,629.395
1742120461.355,-941.406,-1000.000,-300.293,-794.922
1742120461.359,-975.098,-1000.000,-158.691,-1000.000
1742120461.363,-1000.000,-321.289,321.289,-1000.000
1742120461.366,-228.516,967.773,278.809,-87.891
1742120461.370,999.512,974.609,190.430,999.512
1742120461.374,949.219,930.176,-61.523,934.570
1742120461.378,943.359,974.121,-31.738,961.914
1742120461.382,906.250,909.668,392.090,897.461
1742120461.382,999.512,999.512,626.953,999.512
1742120461.386,245.605,116.211,335.449,453.125
1742120461.390,-1000.000,-1000.000,-353.516,-937.500
1742120461.394,-948.242,-1000.000,-465.332,-996.582
1742120461.398,-1000.000,-729.492,38.574,-1000.000
1742120461.402,-96.680,572.754,629.395,-22.461
1742120461.406,999.512,999.512,680.664,999.512
1742120461.409,833.984,429.688,91.309,890.625
1742120461.413,-515.625,-908.203,-326.172,-402.344
1742120461.417,-1000.000,-1000.000,-69.824,-1000.000
1742120461.421,-933.594,-961.914,301.270,-936.035
1742120461.425,-1000.000,-948.242,232.422,-1000.000
1742120461.382,999.512,999.512,626.953,999.512
1742120461.386,245.605,116.211,335.449,453.125
1742120461.390,-1000.000,-1000.000,-353.516,-937.500
1742120461.394,-948.242,-1000.000,-465.332,-996.582
1742120461.398,-1000.000,-729.492,38.574,-1000.000
1742120461.402,-96.680,572.754,629.395,-22.461
1742120461.406,999.512,999.512,680.664,999.512
1742120461.409,833.984,429.688,91.309,890.625
1742120461.413,-515.625,-908.203,-326.172,-402.344
1742120461.417,-1000.000,-1000.000,-69.824,-1000.000
1742120461.421,-933.594,-961.914,301.270,-936.035
1742120461.425,-1000.000,-948.242,232.422,-1000.000
1742120461.442,-938.477,-1000.000,-98.145,-940.918
1742120461.446,-1000.000,-638.184,-275.391,-1000.000
1742120461.450,-211.426,770.996,91.309,-184.570
1742120461.454,999.512,999.512,440.430,999.512
1742120461.458,948.242,844.727,371.094,945.312
1742120461.462,939.453,999.512,184.570,942.871
1742120461.466,972.656,634.766,-72.754,972.168
1742120461.469,966.309,-753.418,-94.727,961.426
1742120461.473,968.262,-1000.000,94.727,969.727
1742120461.477,902.344,-1000.000,226.562,901.367
1742120461.481,999.512,284.668,25.391,999.512
1742120461.485,208.008,333.984,-393.555,250.488
1742120461.442,-938.477,-1000.000,-98.145,-940.918
1742120461.446,-1000.000,-638.184,-275.391,-1000.000
1742120461.450,-211.426,770.996,91.309,-184.570
1742120461.454,999.512,999.512,440.430,999.512
1742120461.458,948.242,844.727,371.094,945.312
1742120461.462,939.453,999.512,184.570,942.871
1742120461.466,972.656,634.766,-72.754,972.168
1742120461.469,966.309,-753.418,-94.727,961.426
1742120461.473,968.262,-1000.000,94.727,969.727
1742120461.477,902.344,-1000.000,226.562,901.367
1742120461.481,999.512,284.668,25.391,999.512
1742120461.485,208.008,333.984,-393.555,250.488
1742120461.488,-1000.000,-1000.000,-208.008,-1000.000
1742120461.492,-987.305,-1000.000,196.289,-994.629
1742120461.496,-975.098,-927.246,154.785,-973.145
1742120461.500,-940.918,-1000.000,-154.297,-940.918
1742120461.504,-1000.000,-954.102,-458.984,-1000.000
1742120461.508,-280.273,346.191,8.301,-312.500
1742120461.512,999.512,999.512,578.613,999.512
1742120461.515,896.973,968.750,284.180,902.832
1742120461.519,999.512,-9.766,-195.801,999.512
1742120461.523,195.312,-1000.000,-378.418,203.613
1742120461.527,-1000.000,-967.285,-270.996,-1000.000
1742120461.531,-953.125,-925.293,-58.105,-948.242
1742120461.488,-1000.000,-1000.000,-208.008,-1000.000
1742120461.492,-987.305,-1000.000,196.289,-994.629
1742120461.496,-975.098,-927.246,154.785,-973.145
1742120461.500,-940.918,-1000.000,-154.297,-940.918
1742120461.504,-1000.000,-954.102,-458.984,-1000.000
1742120461.508,-280.273,346.191,8.301,-312.500
1742120461.512,999.512,999.512,578.613,999.512
1742120461.515,896.973,968.750,284.180,902.832
1742120461.519,999.512,-9.766,-195.801,999.512
1742120461.523,195.312,-1000.000,-378.418,203.613
1742120461.527,-1000.000,-967.285,-270.996,-1000.000
1742120461.531,-953.125,-925.293,-58.105,-948.242
1742120461.532,-967.285,-1000.000,46.387,-990.723
1742120461.536,-1000.000,-173.828,-27.344,-930.176
1742120461.540,235.352,999.512,-231.934,345.215
1742120461.544,999.512,954.102,-193.848,999.512
1742120461.548,897.461,905.273,7.812,908.691
1742120461.552,916.016,986.328,242.188,911.133
1742120461.556,999.512,941.406,161.621,999.512
1742120461.559,66.406,-371.582,-584.473,127.930
1742120461.563,-1000.000,-1000.000,-852.051,-1000.000
1742120461.567,-903.320,-916.992,-192.871,-911.133
1742120461.571,-1000.000,-1000.000,110.840,-1000.000
1742120461.575,-243.652,111.816,-3.418,-261.230
1742120461.532,-967.285,-1000.000,46.387,-990.723
1742120461.536,-1000.000,-173.828,-27.344,-930.176
1742120461.540,235.352,999.512,-231.934,345.215
1742120461.544,999.512,954.102,-193.848,999.512
1742120461.548,897.461,905.273,7.812,908.691
1742120461.552,916.016,986.328,242.188,911.133
1742120461.556,999.512,941.406,161.621,999.512
1742120461.559,66.406,-371.582,-584.473,127.930
1742120461.563,-1000.000,-1000.000,-852.051,-1000.000
1742120461.567,-903.320,-916.992,-192.871,-911.133
1742120461.571,-1000.000,-1000.000,110.840,-1000.000
1742120461.575,-243.652,111.816,-3.418,-261.230
1742120462.043,-1000.000,-46.387,116.699,-1000.000
1742120462.047,-530.273,999.512,368.652,-511.230
1742120462.051,979.492,999.512,131.836,994.141
1742120462.055,870.117,478.516,-194.824,802.246
1742120462.059,-534.180,-951.660,-381.348,-603.027
1742120462.063,-1000.000,-990.723,33.691,-1000.000
1742120462.067,-154.297,370.605,390.625,-184.570
1742120462.070,999.512,999.512,147.949,999.512
1742120462.074,953.613,910.156,-343.262,957.520
1742120462.078,922.852,906.738,-424.316,927.734
1742120462.082,937.012,999.512,65.918,929.688
1742120462.086,999.512,187.012,187.988,999.512
1742120461.532,-967.285,-1000.000,46.387,-990.723
1742120461.536,-1000.000,-173.828,-27.344,-930.176
1742120461.540,235.352,999.512,-231.934,345.215
1742120461.544,999.512,954.102,-193.848,999.512
1742120461.548,897.461,905.273,7.812,908.691
1742120461.552,916.016,986.328,242.188,911.133
1742120461.556,999.512,941.406,161.621,999.512
1742120461.559,66.406,-371.582,-584.473,127.930
1742120461.563,-1000.000,-1000.000,-852.051,-1000.000
1742120461.567,-903.320,-916.992,-192.871,-911.133
1742120461.571,-1000.000,-1000.000,110.840,-1000.000
1742120461.575,-243.652,111.816,-3.418,-261.230
1742120461.578,999.512,999.512,-146.484,999.512
1742120461.582,953.125,957.031,-349.609,956.055
1742120461.586,937.500,841.309,-425.781,937.012
1742120461.590,973.633,-432.129,-320.312,974.609
1742120461.594,966.797,-1000.000,-241.211,970.215
1742120461.598,903.320,-105.957,-327.148,901.367
1742120461.602,999.512,999.512,-272.461,999.512
1742120461.605,187.012,53.223,-212.891,237.793
1742120461.609,-1000.000,-1000.000,-222.168,-1000.000
1742120461.613,-998.535,-966.309,8.789,-1000.000
1742120461.617,-898.438,-918.945,-140.625,-897.461
1742120461.621,-1000.000,-1000.000,-392.578,-1000.000
1742120461.622,-550.781,-203.125,-1.953,-590.332
1742120461.626,886.719,999.512,416.992,840.820
1742120461.630,947.754,907.715,421.387,957.031
1742120461.634,999.512,999.512,82.031,999.512
1742120461.638,202.148,-1.953,-476.562,202.148
1742120461.642,-1000.000,-1000.000,-306.152,-1000.000
1742120461.646,-983.887,-962.402,232.422,-983.887
1742120461.649,-980.469,-982.910,127.441,-983.398
1742120461.653,-936.523,-947.266,-139.648,-934.570
1742120461.657,-1000.000,-1000.000,-250.000,-1000.000
1742120461.661,-360.352,-152.832,-16.113,-435.547
1742120461.665,993.164,999.512,436.035,956.543
1742120461.668,902.832,921.387,595.703,918.457
1742120461.672,999.512,999.512,339.355,999.512
1742120461.676,343.750,-140.625,-152.344,344.727
1742120461.680,-953.613,-1000.000,-279.785,-949.707
1742120461.684,-1000.000,-1000.000,32.227,-1000.000
1742120461.688,-208.984,-231.934,481.445,-218.750
1742120461.692,999.512,999.512,707.520,999.512
1742120461.695,999.512,370.605,215.332,973.633
1742120461.699,-248.535,-1000.000,-246.582,-299.316
1742120461.703,-1000.000,-1000.000,100.098,-1000.000
1742120461.707,-954.102,-961.914,451.660,-953.613
1742120461.711,-939.453,-944.824,396.484,-949.707
1742120461.668,902.832,921.387,595.703,918.457
1742120461.672,999.512,999.512,339.355,999.512
1742120461.676,343.750,-140.625,-152.344,344.727
1742120461.680,-953.613,-1000.000,-279.785,-949.707
1742120461.684,-1000.000,-1000.000,32.227,-1000.000
1742120461.688,-208.984,-231.934,481.445,-218.750
1742120461.692,999.512,999.512,707.520,999.512
1742120461.695,999.512,370.605,215.332,973.633
1742120461.699,-248.535,-1000.000,-246.582,-299.316
1742120461.703,-1000.000,-1000.000,100.098,-1000.000
1742120461.707,-954.102,-961.914,451.660,-953.613
1742120461.711,-939.453,-944.824,396.484,-949.707
1742120461.712,-1000.000,-1000.000,103.027,-1000.000
1742120461.716,-784.668,-322.754,96.680,-875.000
1742120461.720,639.648,998.047,598.145,509.766
1742120461.724,999.512,981.445,792.969,999.512
1742120461.728,901.367,867.676,591.309,901.367
1742120461.732,979.980,999.512,366.211,977.539
1742120461.736,966.309,652.832,120.605,967.285
1742120461.739,966.797,-758.789,187.012,967.773
1742120461.743,903.809,-1000.000,351.074,904.297
1742120461.747,999.512,-950.195,276.855,999.512
1742120461.751,186.035,-942.383,7.324,186.035
1742120461.755,-1000.000,-1000.000,-276.855,-1000.000
1742120461.712,-1000.000,-1000.000,103.027,-1000.000
1742120461.716,-784.668,-322.754,96.680,-875.000
1742120461.720,639.648,998.047,598.145,509.766
1742120461.724,999.512,981.445,792.969,999.512
1742120461.728,901.367,867.676,591.309,901.367
1742120461.732,979.980,999.512,366.211,977.539
1742120461.736,966.309,652.832,120.605,967.285
1742120461.739,966.797,-758.789,187.012,967.773
1742120461.743,903.809,-1000.000,351.074,904.297
1742120461.747,999.512,-950.195,276.855,999.512
1742120461.751,186.035,-942.383,7.324,186.035
1742120461.755,-1000.000,-1000.000,-276.855,-1000.000
1742120461.772,-1000.000,-387.695,147.461,-1000.000
1742120461.776,-251.953,893.066,582.520,-216.309
1742120461.780,999.512,999.512,473.145,999.512
1742120461.784,756.836,377.441,70.312,782.715
1742120461.788,-587.891,-900.391,-333.496,-536.621
1742120461.792,-1000.000,-1000.000,33.691,-1000.000
1742120461.796,-370.117,-132.812,561.035,-342.285
1742120461.799,937.500,999.512,649.414,950.195
1742120461.803,987.305,974.609,331.543,983.398
1742120461.807,921.875,739.746,-8.301,924.805
1742120461.811,979.004,-235.840,237.305,978.516
1742120461.815,980.469,-931.641,357.422,978.516
1742120461.772,-1000.000,-387.695,147.461,-1000.000
1742120461.776,-251.953,893.066,582.520,-216.309
1742120461.780,999.512,999.512,473.145,999.512
1742120461.784,756.836,377.441,70.312,782.715
1742120461.788,-587.891,-900.391,-333.496,-536.621
1742120461.792,-1000.000,-1000.000,33.691,-1000.000
1742120461.796,-370.117,-132.812,561.035,-342.285
1742120461.799,937.500,999.512,649.414,950.195
1742120461.803,987.305,974.609,331.543,983.398
1742120461.807,921.875,739.746,-8.301,924.805
1742120461.811,979.004,-235.840,237.305,978.516
1742120461.815,980.469,-931.641,357.422,978.516
1742120461.817,907.227,-1000.000,351.562,911.133
1742120461.821,999.512,7.324,240.723,999.512
1742120461.825,772.461,963.379,50.293,727.051
1742120461.829,-645.996,-454.590,77.148,-653.320
1742120461.833,-1000.000,-1000.000,273.926,-1000.000
1742120461.837,-934.570,-395.996,591.797,-939.941
1742120461.841,-1000.000,999.512,491.699,-1000.000
1742120461.844,-1000.000,190.918,-36.621,-999.512
1742120461.848,-937.500,-1000.000,-127.441,-939.453
1742120461.852,-1000.000,-1000.000,293.945,-1000.000
1742120461.856,-221.191,-12.207,552.246,-197.754
1742120461.860,999.512,999.512,450.195,999.512
1742120461.817,907.227,-1000.000,351.562,911.133
1742120461.821,999.512,7.324,240.723,999.512
1742120461.825,772.461,963.379,50.293,727.051
1742120461.829,-645.996,-454.590,77.148,-653.320
1742120461.833,-1000.000,-1000.000,273.926,-1000.000
1742120461.837,-934.570,-395.996,591.797,-939.941
1742120461.841,-1000.000,999.512,491.699,-1000.000
1742120461.844,-1000.000,190.918,-36.621,-999.512
1742120461.848,-937.500,-1000.000,-127.441,-939.453
1742120461.852,-1000.000,-1000.000,293.945,-1000.000
1742120461.856,-221.191,-12.207,552.246,-197.754
1742120461.860,999.512,999.512,450.195,999.512
1742120461.863,950.195,874.512,155.273,947.754
1742120461.867,939.941,999.512,229.980,943.359
1742120461.871,967.285,152.832,316.895,966.309
1742120461.875,913.086,-1000.000,238.281,916.504
1742120461.879,999.512,-975.586,144.531,999.512
1742120461.883,80.078,-959.473,-40.039,73.730
1742120461.887,-1000.000,-1000.000,-12.207,-1000.000
1742120461.890,-969.238,-935.547,159.668,-970.215
1742120461.894,-980.957,-1000.000,221.191,-980.957
1742120461.898,-1000.000,-339.844,274.414,-1000.000
1742120461.902,-1000.000,999.512,10.742,-999.512
1742120461.906,-937.500,851.074,-53.223,-939.941
1742120461.863,950.195,874.512,155.273,947.754
1742120461.867,939.941,999.512,229.980,943.359
1742120461.871,967.285,152.832,316.895,966.309
1742120461.875,913.086,-1000.000,238.281,916.504
1742120461.879,999.512,-975.586,144.531,999.512
1742120461.883,80.078,-959.473,-40.039,73.730
1742120461.887,-1000.000,-1000.000,-12.207,-1000.000
1742120461.890,-969.238,-935.547,159.668,-970.215
1742120461.894,-980.957,-1000.000,221.191,-980.957
1742120461.898,-1000.000,-339.844,274.414,-1000.000
1742120461.902,-1000.000,999.512,10.742,-999.512
1742120461.906,-937.500,851.074,-53.223,-939.941
1742120461.908,-1000.000,-718.262,238.281,-1000.000
1742120461.912,-220.703,-303.711,546.387,-192.383
1742120461.916,999.512,999.512,642.090,999.512
1742120461.920,949.707,956.543,283.203,946.777
1742120461.924,942.871,877.441,18.066,944.824
1742120461.928,955.078,999.512,358.887,958.008
1742120461.932,932.617,692.871,622.070,930.176
1742120461.935,999.512,-721.191,308.105,999.512
1742120461.939,-96.680,-1000.000,-188.477,-52.246
1742120461.943,-1000.000,-918.457,-375.977,-1000.000
1742120461.947,-888.184,-987.305,18.555,-896.484
1742120461.951,-1000.000,-1000.000,345.215,-1000.000
1742120461.908,-1000.000,-718.262,238.281,-1000.000
1742120461.912,-220.703,-303.711,546.387,-192.383
1742120461.916,999.512,999.512,642.090,999.512
1742120461.920,949.707,956.543,283.203,946.777
1742120461.924,942.871,877.441,18.066,944.824
1742120461.928,955.078,999.512,358.887,958.008
1742120461.932,932.617,692.871,622.070,930.176
1742120461.935,999.512,-721.191,308.105,999.512
1742120461.939,-96.680,-1000.000,-188.477,-52.246
1742120461.943,-1000.000,-918.457,-375.977,-1000.000
1742120461.947,-888.184,-987.305,18.555,-896.484
1742120461.951,-1000.000,-1000.000,345.215,-1000.000
1742120461.953,-196.777,107.422,639.160,-183.594
1742120461.957,999.512,999.512,507.812,999.512
1742120461.961,946.289,913.086,-24.902,945.312
1742120461.965,945.312,969.727,166.016,946.289
1742120461.969,952.637,934.082,503.418,954.590
1742120461.973,935.547,973.145,569.824,935.059
1742120461.977,999.512,949.707,319.336,999.512
1742120461.980,-117.676,-318.359,-346.680,-97.168
1742120461.984,-1000.000,-1000.000,-605.469,-1000.000
1742120461.988,-946.777,-944.336,-145.996,-950.195
1742120461.992,-998.047,-995.117,76.660,-995.117
1742120461.996,-984.863,-950.684,-169.922,-991.211
1742120461.953,-196.777,107.422,639.160,-183.594
1742120461.957,999.512,999.512,507.812,999.512
1742120461.961,946.289,913.086,-24.902,945.312
1742120461.965,945.312,969.727,166.016,946.289
1742120461.969,952.637,934.082,503.418,954.590
1742120461.973,935.547,973.145,569.824,935.059
1742120461.977,999.512,949.707,319.336,999.512
1742120461.980,-117.676,-318.359,-346.680,-97.168
1742120461.984,-1000.000,-1000.000,-605.469,-1000.000
1742120461.988,-946.777,-944.336,-145.996,-950.195
1742120461.992,-998.047,-995.117,76.660,-995.117
1742120461.996,-984.863,-950.684,-169.922,-991.211
1742120461.998,-963.867,-1000.000,-452.148,-955.078
1742120462.002,-1000.000,-111.816,-249.023,-1000.000
1742120462.006,40.039,999.512,296.875,-45.898
1742120462.010,999.512,945.801,408.203,999.512
1742120462.014,916.992,916.504,61.035,928.223
1742120462.018,958.008,968.262,-98.145,952.148
1742120462.022,968.262,982.422,-10.254,972.656
1742120462.025,903.809,-262.695,96.680,901.855
1742120462.029,999.512,-1000.000,182.129,999.512
1742120462.033,187.012,-934.082,-64.941,225.586
1742120462.037,-1000.000,-953.125,-552.734,-1000.000
1742120462.041,-910.156,-1000.000,-507.324,-919.922
1742120462.087,-72.266,-1000.000,-130.859,25.879
1742120462.091,-1000.000,-985.840,-429.199,-1000.000
1742120462.095,-883.301,-908.691,-491.211,-901.367
1742120462.099,-1000.000,-1000.000,-160.645,-1000.000
1742120462.103,-679.199,-236.328,42.969,-710.449
1742120462.107,739.746,959.473,406.738,685.059
1742120462.111,999.512,999.512,232.422,999.512
1742120462.114,989.258,373.535,-405.273,944.336
1742120462.118,-146.973,-961.914,-347.168,-209.473
1742120462.122,-1000.000,-1000.000,-77.637,-1000.000
1742120462.126,-943.848,-900.879,76.660,-948.242
1742120462.130,-934.570,-1000.000,-170.898,-932.129
1742120462.087,-72.266,-1000.000,-130.859,25.879
1742120462.091,-1000.000,-985.840,-429.199,-1000.000
1742120462.095,-883.301,-908.691,-491.211,-901.367
1742120462.099,-1000.000,-1000.000,-160.645,-1000.000
1742120462.103,-679.199,-236.328,42.969,-710.449
1742120462.107,739.746,959.473,406.738,685.059
1742120462.111,999.512,999.512,232.422,999.512
1742120462.114,989.258,373.535,-405.273,944.336
1742120462.118,-146.973,-961.914,-347.168,-209.473
1742120462.122,-1000.000,-1000.000,-77.637,-1000.000
1742120462.126,-943.848,-900.879,76.660,-948.242
1742120462.130,-934.570,-1000.000,-170.898,-932.129
1742120462.134,-1000.000,-142.578,-289.551,-1000.000
1742120462.138,-220.703,999.512,94.727,-278.320
1742120462.142,999.512,940.430,327.637,999.512
1742120462.146,950.195,949.219,199.707,959.961
1742120462.150,938.965,956.543,-177.246,935.059
1742120462.154,973.145,931.152,-352.051,975.586
1742120462.158,966.797,999.512,-119.141,967.285
1742120462.161,903.809,-54.688,-55.176,904.785
1742120462.165,999.512,-1000.000,-151.855,999.512
1742120462.169,186.523,-964.844,-396.973,181.152
1742120462.173,-1000.000,-952.148,-759.277,-1000.000
1742120462.177,-914.551,-1000.000,-608.398,-914.062
1742120462.134,-1000.000,-142.578,-289.551,-1000.000
1742120462.138,-220.703,999.512,94.727,-278.320
1742120462.142,999.512,940.430,327.637,999.512
1742120462.146,950.195,949.219,199.707,959.961
1742120462.150,938.965,956.543,-177.246,935.059
1742120462.154,973.145,931.152,-352.051,975.586
1742120462.158,966.797,999.512,-119.141,967.285
1742120462.161,903.809,-54.688,-55.176,904.785
1742120462.165,999.512,-1000.000,-151.855,999.512
1742120462.169,186.523,-964.844,-396.973,181.152
1742120462.173,-1000.000,-952.148,-759.277,-1000.000
1742120462.177,-914.551,-1000.000,-608.398,-914.062
1742120462.193,-1000.000,-957.031,-200.195,-1000.000
1742120462.197,-352.051,332.520,50.293,-349.609
1742120462.201,991.211,999.512,74.707,990.234
1742120462.205,971.191,919.434,-123.535,971.680
1742120462.209,929.688,923.340,-253.906,931.641
1742120462.213,913.574,999.512,82.031,912.598
1742120462.217,999.512,868.652,300.293,999.512
1742120462.220,187.012,-486.328,-236.816,212.891
1742120462.224,-1000.000,-1000.000,-771.484,-1000.000
1742120462.228,-984.863,-928.223,-499.023,-988.770
1742120462.232,-910.156,-959.473,80.078,-908.203
1742120462.236,-1000.000,-1000.000,164.062,-1000.000
1742120462.193,-1000.000,-957.031,-200.195,-1000.000
1742120462.197,-352.051,332.520,50.293,-349.609
1742120462.201,991.211,999.512,74.707,990.234
1742120462.205,971.191,919.434,-123.535,971.680
1742120462.209,929.688,923.340,-253.906,931.641
1742120462.213,913.574,999.512,82.031,912.598
1742120462.217,999.512,868.652,300.293,999.512
1742120462.220,187.012,-486.328,-236.816,212.891
1742120462.224,-1000.000,-1000.000,-771.484,-1000.000
1742120462.228,-984.863,-928.223,-499.023,-988.770
1742120462.232,-910.156,-959.473,80.078,-908.203
1742120462.236,-1000.000,-1000.000,164.062,-1000.000
1742120462.237,-221.191,-82.031,314.453,-220.703
1742120462.241,999.512,999.512,287.598,999.512
1742120462.245,950.195,932.617,16.113,950.684
1742120462.249,952.637,954.590,250.488,953.125
1742120462.253,898.438,901.855,387.695,900.391
1742120462.257,999.512,999.512,429.688,999.512
1742120462.261,477.539,263.184,223.633,508.301
1742120462.264,-944.336,-1000.000,-209.961,-916.504
1742120462.268,-1000.000,-997.070,-215.332,-1000.000
1742120462.272,-949.707,-975.098,115.234,-947.754
1742120462.276,-1000.000,-974.609,196.777,-1000.000
1742120462.280,-937.500,-1000.000,-166.504,-936.523
1742120462.237,-221.191,-82.031,314.453,-220.703
1742120462.241,999.512,999.512,287.598,999.512
1742120462.245,950.195,932.617,16.113,950.684
1742120462.249,952.637,954.590,250.488,953.125
1742120462.253,898.438,901.855,387.695,900.391
1742120462.257,999.512,999.512,429.688,999.512
1742120462.261,477.539,263.184,223.633,508.301
1742120462.264,-944.336,-1000.000,-209.961,-916.504
1742120462.268,-1000.000,-997.070,-215.332,-1000.000
1742120462.272,-949.707,-975.098,115.234,-947.754
1742120462.276,-1000.000,-974.609,196.777,-1000.000
1742120462.280,-937.500,-1000.000,-166.504,-936.523
1742120462.283,-1000.000,-983.887,-434.570,-1000.000
1742120462.287,-221.191,287.598,-21.484,-238.770
1742120462.291,999.512,999.512,516.113,999.512
1742120462.295,950.195,916.992,443.359,953.613
1742120462.299,938.965,932.617,-50.293,938.477
1742120462.303,973.145,965.820,-133.301,974.121
1742120462.307,966.797,999.512,175.293,967.285
1742120462.310,965.332,-469.727,144.043,965.332
1742120462.314,905.762,-659.180,143.555,908.203
1742120462.318,999.512,999.512,90.332,999.512
1742120462.322,158.203,144.531,-403.320,145.508
1742120462.326,-1000.000,-1000.000,-335.938,-1000.000
1742120462.283,-1000.000,-983.887,-434.570,-1000.000
1742120462.287,-221.191,287.598,-21.484,-238.770
1742120462.291,999.512,999.512,516.113,999.512
1742120462.295,950.195,916.992,443.359,953.613
1742120462.299,938.965,932.617,-50.293,938.477
1742120462.303,973.145,965.820,-133.301,974.121
1742120462.307,966.797,999.512,175.293,967.285
1742120462.310,965.332,-469.727,144.043,965.332
1742120462.314,905.762,-659.180,143.555,908.203
1742120462.318,999.512,999.512,90.332,999.512
1742120462.322,158.203,144.531,-403.320,145.508
1742120462.326,-1000.000,-1000.000,-335.938,-1000.000
1742120462.328,-979.980,-913.086,256.836,-978.516
1742120462.332,-988.281,-921.387,314.941,-987.305
1742120462.336,-954.590,-949.707,-60.547,-960.938
1742120462.340,-1000.000,-1000.000,-410.645,-1000.000
1742120462.344,-879.883,-241.699,-298.340,-924.316
1742120462.348,502.930,956.055,416.016,417.480
1742120462.352,999.512,999.512,740.234,999.512
1742120462.355,999.512,322.754,165.527,999.512
1742120462.359,121.094,-929.688,-466.309,82.031
1742120462.363,-1000.000,-1000.000,-394.531,-1000.000
1742120462.367,-1000.000,-698.730,100.098,-1000.000
1742120462.371,156.738,671.387,471.191,146.973
1742120462.328,-979.980,-913.086,256.836,-978.516
1742120462.332,-988.281,-921.387,314.941,-987.305
1742120462.336,-954.590,-949.707,-60.547,-960.938
1742120462.340,-1000.000,-1000.000,-410.645,-1000.000
1742120462.344,-879.883,-241.699,-298.340,-924.316
1742120462.348,502.930,956.055,416.016,417.480
1742120462.352,999.512,999.512,740.234,999.512
1742120462.355,999.512,322.754,165.527,999.512
1742120462.359,121.094,-929.688,-466.309,82.031
1742120462.363,-1000.000,-1000.000,-394.531,-1000.000
1742120462.367,-1000.000,-698.730,100.098,-1000.000
1742120462.371,156.738,671.387,471.191,146.973
1742120462.372,999.512,995.605,302.246,999.512
1742120462.376,908.203,958.984,-229.980,911.133
1742120462.380,963.867,786.133,-267.578,963.379
1742120462.384,982.422,-626.465,15.137,982.422
1742120462.388,897.461,-1000.000,147.949,899.902
1742120462.392,999.512,495.605,257.812,999.512
1742120462.396,655.762,767.578,-2.930,634.277
1742120462.399,-791.016,-842.773,-376.465,-791.992
1742120462.403,-1000.000,-1000.000,-164.551,-1000.000
1742120462.407,-938.477,-921.875,132.324,-941.406
1742120462.411,-1000.000,-979.980,53.711,-1000.000
1742120462.415,-937.500,-1000.000,-369.629,-935.059
1742120462.419,-1000.000,43.457,-338.867,-1000.000
1742120462.423,-205.566,999.512,228.516,-245.605
1742120462.427,967.773,880.371,435.059,956.055
1742120462.431,999.512,999.512,196.289,999.512
1742120462.435,611.816,20.508,-224.121,546.387
1742120462.439,-800.293,-1000.000,-363.770,-835.449
1742120462.443,-1000.000,-972.168,-41.016,-1000.000
1742120462.446,-940.430,-995.117,99.121,-944.336
1742120462.450,-1000.000,-942.871,-11.719,-1000.000
1742120462.454,-946.289,-1000.000,-171.387,-938.477
1742120462.458,-1000.000,-707.031,-302.734,-1000.000
1742120462.462,-128.418,706.055,-35.156,-211.426
1742120462.419,-1000.000,43.457,-338.867,-1000.000
1742120462.423,-205.566,999.512,228.516,-245.605
1742120462.427,967.773,880.371,435.059,956.055
1742120462.431,999.512,999.512,196.289,999.512
1742120462.435,611.816,20.508,-224.121,546.387
1742120462.439,-800.293,-1000.000,-363.770,-835.449
1742120462.443,-1000.000,-972.168,-41.016,-1000.000
1742120462.446,-940.430,-995.117,99.121,-944.336
1742120462.450,-1000.000,-942.871,-11.719,-1000.000
1742120462.454,-946.289,-1000.000,-171.387,-938.477
1742120462.458,-1000.000,-707.031,-302.734,-1000.000
1742120462.462,-128.418,706.055,-35.156,-211.426
1742120462.463,999.512,999.512,402.344,999.512
1742120462.467,875.000,919.434,463.867,889.160
1742120462.471,999.512,935.547,22.949,999.512
1742120462.475,226.074,-279.297,-367.676,205.566
1742120462.479,-1000.000,-1000.000,-325.684,-1000.000
1742120462.483,-1000.000,-528.809,16.113,-992.676
1742120462.487,271.484,999.512,350.586,311.035
1742120462.490,999.512,467.773,-53.223,999.512
1742120462.494,-137.695,-986.328,-697.754,-188.477
1742120462.498,-1000.000,-996.094,-520.996,-1000.000
1742120462.502,-1000.000,-1000.000,-9.277,-1000.000
1742120462.506,-194.824,121.094,218.750,-171.875
1742120462.463,999.512,999.512,402.344,999.512
1742120462.467,875.000,919.434,463.867,889.160
1742120462.471,999.512,935.547,22.949,999.512
1742120462.475,226.074,-279.297,-367.676,205.566
1742120462.479,-1000.000,-1000.000,-325.684,-1000.000
1742120462.483,-1000.000,-528.809,16.113,-992.676
1742120462.487,271.484,999.512,350.586,311.035
1742120462.490,999.512,467.773,-53.223,999.512
1742120462.494,-137.695,-986.328,-697.754,-188.477
1742120462.498,-1000.000,-996.094,-520.996,-1000.000
1742120462.502,-1000.000,-1000.000,-9.277,-1000.000
1742120462.506,-194.824,121.094,218.750,-171.875
1742120462.508,999.512,999.512,238.281,999.512
1742120462.512,947.266,999.512,-162.598,944.824
1742120462.516,940.430,397.461,-362.793,942.871
1742120462.520,972.656,-1000.000,-94.727,972.656
1742120462.524,970.703,-996.094,18.066,973.145
1742120462.528,899.414,304.688,39.551,897.949
1742120462.532,999.512,999.512,-187.988,999.512
1742120462.535,255.371,130.371,-438.965,300.293
1742120462.539,-1000.000,-1000.000,-391.113,-1000.000
1742120462.543,-995.117,-995.117,-133.301,-1000.000
1742120462.547,-970.215,-929.199,-82.031,-968.750
1742120462.551,-943.848,-1000.000,-435.547,-942.871
1742120462.508,999.512,999.512,238.281,999.512
1742120462.512,947.266,999.512,-162.598,944.824
1742120462.516,940.430,397.461,-362.793,942.871
1742120462.520,972.656,-1000.000,-94.727,972.656
1742120462.524,970.703,-996.094,18.066,973.145
1742120462.528,899.414,304.688,39.551,897.949
1742120462.532,999.512,999.512,-187.988,999.512
1742120462.535,255.371,130.371,-438.965,300.293
1742120462.539,-1000.000,-1000.000,-391.113,-1000.000
1742120462.543,-995.117,-995.117,-133.301,-1000.000
1742120462.547,-970.215,-929.199,-82.031,-968.750
1742120462.551,-943.848,-1000.000,-435.547,-942.871
1742120462.568,-1000.000,-916.992,-523.438,-1000.000
1742120462.572,-259.277,412.598,-86.426,-297.852
1742120462.576,999.512,999.512,276.855,999.512
1742120462.580,956.055,916.992,97.656,963.379
1742120462.584,936.035,923.340,-385.254,933.594
1742120462.588,974.121,999.512,-365.723,975.586
1742120462.592,974.121,875.488,-25.391,975.098
1742120462.595,934.570,-595.215,-129.883,933.105
1742120462.599,960.938,-1000.000,-223.145,969.238
1742120462.603,999.512,547.363,-304.688,970.215
1742120462.607,-279.297,-32.227,-692.383,-289.551
1742120462.611,-1000.000,-1000.000,-522.461,-1000.000
1742120462.568,-1000.000,-916.992,-523.438,-1000.000
1742120462.572,-259.277,412.598,-86.426,-297.852
1742120462.576,999.512,999.512,276.855,999.512
1742120462.580,956.055,916.992,97.656,963.379
1742120462.584,936.035,923.340,-385.254,933.594
1742120462.588,974.121,999.512,-365.723,975.586
1742120462.592,974.121,875.488,-25.391,975.098
1742120462.595,934.570,-595.215,-129.883,933.105
1742120462.599,960.938,-1000.000,-223.145,969.238
1742120462.603,999.512,547.363,-304.688,970.215
1742120462.607,-279.297,-32.227,-692.383,-289.551
1742120462.611,-1000.000,-1000.000,-522.461,-1000.000
1742120462.613,-1000.000,-155.273,-8.301,-988.281
1742120462.617,-247.559,963.867,73.242,-12.207
1742120462.621,999.512,999.512,-258.301,999.512
1742120462.625,969.238,368.164,-521.973,925.293
1742120462.629,-338.379,-889.160,-375.977,-340.820
1742120462.633,-1000.000,-1000.000,36.621,-1000.000
1742120462.637,-936.035,-355.957,258.301,-939.453
1742120462.640,-1000.000,371.582,-143.555,-1000.000
1742120462.644,-937.500,-811.035,-491.699,-935.059
1742120462.648,-1000.000,-1000.000,-252.930,-1000.000
1742120462.652,-225.586,-144.531,122.070,-265.625
1742120462.656,999.512,999.512,399.414,999.512
1742120462.613,-1000.000,-155.273,-8.301,-988.281
1742120462.617,-247.559,963.867,73.242,-12.207
1742120462.621,999.512,999.512,-258.301,999.512
1742120462.625,969.238,368.164,-521.973,925.293
1742120462.629,-338.379,-889.160,-375.977,-340.820
1742120462.633,-1000.000,-1000.000,36.621,-1000.000
1742120462.637,-936.035,-355.957,258.301,-939.453
1742120462.640,-1000.000,371.582,-143.555,-1000.000
1742120462.644,-937.500,-811.035,-491.699,-935.059
1742120462.648,-1000.000,-1000.000,-252.930,-1000.000
1742120462.652,-225.586,-144.531,122.070,-265.625
1742120462.656,999.512,999.512,399.414,999.512
1742120462.658,950.684,960.938,86.426,958.008
1742120462.662,938.965,876.953,-387.207,936.035
1742120462.666,973.145,999.512,-197.754,975.098
1742120462.670,966.797,689.941,179.688,967.773
1742120462.674,964.844,-895.508,251.953,964.355
1742120462.678,906.250,-259.277,141.113,909.180
1742120462.682,999.512,999.512,-21.973,999.512
1742120462.685,154.297,23.926,-359.863,135.254
1742120462.689,-1000.000,-1000.000,-432.129,-1000.000
1742120462.693,-979.492,-941.895,-49.316,-977.539
1742120462.697,-976.074,-955.078,-18.555,-977.051
1742120462.701,-943.359,-1000.000,-373.047,-943.848
1742120462.658,950.684,960.938,86.426,958.008
1742120462.662,938.965,876.953,-387.207,936.035
1742120462.666,973.145,999.512,-197.754,975.098
1742120462.670,966.797,689.941,179.688,967.773
1742120462.674,964.844,-895.508,251.953,964.355
1742120462.678,906.250,-259.277,141.113,909.180
1742120462.682,999.512,999.512,-21.973,999.512
1742120462.685,154.297,23.926,-359.863,135.254
1742120462.689,-1000.000,-1000.000,-432.129,-1000.000
1742120462.693,-979.492,-941.895,-49.316,-977.539
1742120462.697,-976.074,-955.078,-18.555,-977.051
1742120462.701,-943.359,-1000.000,-373.047,-943.848
1742120462.704,-1000.000,108.887,-210.938,-1000.000
1742120462.708,-213.867,999.512,338.867,-206.543
1742120462.712,967.285,999.512,430.664,971.680
1742120462.716,999.512,635.742,137.207,999.512
1742120462.720,290.039,-761.719,-246.582,265.625
1742120462.724,-1000.000,-1000.000,-198.730,-1000.000
1742120462.728,-1000.000,-943.359,226.562,-1000.000
1742120462.731,-977.539,-1000.000,301.270,-976.562
1742120462.735,-946.777,-942.871,170.898,-961.426
1742120462.739,-1000.000,-1000.000,-95.703,-1000.000
1742120462.743,-735.352,-170.898,-146.973,-901.367
1742120462.747,701.660,999.512,328.125,476.562
1742120462.704,-1000.000,108.887,-210.938,-1000.000
1742120462.708,-213.867,999.512,338.867,-206.543
1742120462.712,967.285,999.512,430.664,971.680
1742120462.716,999.512,635.742,137.207,999.512
1742120462.720,290.039,-761.719,-246.582,265.625
1742120462.724,-1000.000,-1000.000,-198.730,-1000.000
1742120462.728,-1000.000,-943.359,226.562,-1000.000
1742120462.731,-977.539,-1000.000,301.270,-976.562
1742120462.735,-946.777,-942.871,170.898,-961.426
1742120462.739,-1000.000,-1000.000,-95.703,-1000.000
1742120462.743,-735.352,-170.898,-146.973,-901.367
1742120462.747,701.660,999.512,328.125,476.562
1742120462.748,999.512,878.418,665.039,999.512
1742120462.752,891.113,999.512,555.176,906.250
1742120462.756,999.512,252.441,99.121,958.008
1742120462.760,-170.410,-974.609,-182.617,-251.953
1742120462.764,-1000.000,-1000.000,218.750,-1000.000
1742120462.768,-628.418,-386.719,626.953,-633.789
1742120462.772,709.961,877.441,674.805,687.988
1742120462.775,999.512,999.512,141.113,999.512
1742120462.779,913.086,199.219,-312.500,869.629
1742120462.783,-316.406,-1000.000,-116.211,-355.957
1742120462.787,-1000.000,-946.777,147.949,-1000.000
1742120462.791,-935.547,-1000.000,250.977,-939.453
1742120462.792,-1000.000,-138.184,144.043,-1000.000
1742120462.796,-1000.000,999.512,-40.527,-1000.000
1742120462.800,-1000.000,227.051,31.250,-1000.000
1742120462.804,-937.500,-1000.000,265.137,-937.988
1742120462.808,-1000.000,-1000.000,234.375,-1000.000
1742120462.812,-220.703,-166.992,158.691,-216.309
1742120462.816,999.512,999.512,175.781,999.512
1742120462.819,950.195,486.816,104.004,949.707
1742120462.823,954.590,-956.543,33.691,954.590
1742120462.827,900.391,-1000.000,151.367,903.320
1742120462.831,999.512,526.367,29.785,999.512
1742120462.835,580.078,509.277,-320.312,591.309
1742120462.792,-1000.000,-138.184,144.043,-1000.000
1742120462.796,-1000.000,999.512,-40.527,-1000.000
1742120462.800,-1000.000,227.051,31.250,-1000.000
1742120462.804,-937.500,-1000.000,265.137,-937.988
1742120462.808,-1000.000,-1000.000,234.375,-1000.000
1742120462.812,-220.703,-166.992,158.691,-216.309
1742120462.816,999.512,999.512,175.781,999.512
1742120462.819,950.195,486.816,104.004,949.707
1742120462.823,954.590,-956.543,33.691,954.590
1742120462.827,900.391,-1000.000,151.367,903.320
1742120462.831,999.512,526.367,29.785,999.512
1742120462.835,580.078,509.277,-320.312,591.309
1742120462.837,-867.676,-1000.000,-333.496,-844.238
1742120462.841,-1000.000,-1000.000,39.062,-1000.000
1742120462.845,-955.566,-936.523,273.926,-953.613
1742120462.849,-962.402,-981.445,16.602,-970.215
1742120462.853,-1000.000,-1000.000,-481.445,-1000.000
1742120462.857,-862.305,62.500,-345.703,-923.340
1742120462.861,537.109,999.512,292.969,431.152
1742120462.864,999.512,864.258,176.270,999.512
1742120462.868,855.957,999.512,-216.309,858.398
1742120462.872,999.512,781.250,-303.711,999.512
1742120462.876,-9.277,-516.113,-450.684,2.930
1742120462.880,-1000.000,-1000.000,-382.324,-1000.000
1742120462.837,-867.676,-1000.000,-333.496,-844.238
1742120462.841,-1000.000,-1000.000,39.062,-1000.000
1742120462.845,-955.566,-936.523,273.926,-953.613
1742120462.849,-962.402,-981.445,16.602,-970.215
1742120462.853,-1000.000,-1000.000,-481.445,-1000.000
1742120462.857,-862.305,62.500,-345.703,-923.340
1742120462.861,537.109,999.512,292.969,431.152
1742120462.864,999.512,864.258,176.270,999.512
1742120462.868,855.957,999.512,-216.309,858.398
1742120462.872,999.512,781.250,-303.711,999.512
1742120462.876,-9.277,-516.113,-450.684,2.930
1742120462.880,-1000.000,-1000.000,-382.324,-1000.000
1742120462.837,-867.676,-1000.000,-333.496,-844.238
1742120462.841,-1000.000,-1000.000,39.062,-1000.000
1742120462.845,-955.566,-936.523,273.926,-953.613
1742120462.849,-962.402,-981.445,16.602,-970.215
1742120462.853,-1000.000,-1000.000,-481.445,-1000.000
1742120462.857,-862.305,62.500,-345.703,-923.340
1742120462.861,537.109,999.512,292.969,431.152
1742120462.864,999.512,864.258,176.270,999.512
1742120462.868,855.957,999.512,-216.309,858.398
1742120462.872,999.512,781.250,-303.711,999.512
1742120462.876,-9.277,-516.113,-450.684,2.930
1742120462.880,-1000.000,-1000.000,-382.324,-1000.000
1742120462.883,-1000.000,-537.109,-30.762,-1000.000
1742120462.887,-208.984,727.051,67.871,-146.484
1742120462.891,999.512,999.512,-486.328,999.512
1742120462.895,998.047,361.816,-754.395,928.711
1742120462.899,-270.508,-1000.000,-484.375,-344.727
1742120462.903,-1000.000,-985.840,-131.348,-1000.000
1742120462.907,-939.453,550.293,-15.137,-940.918
1742120462.910,-997.070,215.332,-590.820,-1000.000
1742120462.914,-945.312,-1000.000,-847.656,-942.871
1742120462.918,-1000.000,-950.684,-477.051,-1000.000
1742120462.922,-132.812,307.617,-131.836,-162.598
1742120462.926,999.512,999.512,135.742,999.512
1742120462.883,-1000.000,-537.109,-30.762,-1000.000
1742120462.887,-208.984,727.051,67.871,-146.484
1742120462.891,999.512,999.512,-486.328,999.512
1742120462.895,998.047,361.816,-754.395,928.711
1742120462.899,-270.508,-1000.000,-484.375,-344.727
1742120462.903,-1000.000,-985.840,-131.348,-1000.000
1742120462.907,-939.453,550.293,-15.137,-940.918
1742120462.910,-997.070,215.332,-590.820,-1000.000
1742120462.914,-945.312,-1000.000,-847.656,-942.871
1742120462.918,-1000.000,-950.684,-477.051,-1000.000
1742120462.922,-132.812,307.617,-131.836,-162.598
1742120462.926,999.512,999.512,135.742,999.512
1742120462.943,902.344,999.512,-217.773,946.289
1742120462.947,999.512,166.016,-552.734,926.270
1742120462.951,-64.453,-1000.000,-311.035,-272.949
1742120462.955,-1000.000,-1000.000,-128.418,-1000.000
1742120462.959,-1000.000,-795.410,76.660,-1000.000
1742120462.963,-26.367,482.910,258.789,-98.145
1742120462.967,999.512,999.512,125.977,999.512
1742120462.970,940.918,504.883,-100.098,948.730
1742120462.974,885.254,-831.055,-17.090,882.812
1742120462.978,999.512,-1000.000,220.703,999.512
1742120462.982,669.922,-898.438,109.375,644.043
1742120462.986,-774.414,-1000.000,-174.805,-778.809
1742120462.943,902.344,999.512,-217.773,946.289
1742120462.947,999.512,166.016,-552.734,926.270
1742120462.951,-64.453,-1000.000,-311.035,-272.949
1742120462.955,-1000.000,-1000.000,-128.418,-1000.000
1742120462.959,-1000.000,-795.410,76.660,-1000.000
1742120462.963,-26.367,482.910,258.789,-98.145
1742120462.967,999.512,999.512,125.977,999.512
1742120462.970,940.918,504.883,-100.098,948.730
1742120462.974,885.254,-831.055,-17.090,882.812
1742120462.978,999.512,-1000.000,220.703,999.512
1742120462.982,669.922,-898.438,109.375,644.043
1742120462.986,-774.414,-1000.000,-174.805,-778.809
1742120462.988,-1000.000,-840.332,91.797,-1000.000
1742120462.992,-937.988,478.027,477.051,-940.918
1742120462.996,-1000.000,999.512,503.418,-1000.000
1742120463.000,-971.191,-200.684,80.566,-992.188
1742120463.004,-992.676,-1000.000,-303.711,-950.684
1742120463.008,-1000.000,119.629,64.453,-1000.000
1742120463.012,223.145,999.512,427.734,-76.660
1742120463.015,999.512,856.934,303.223,999.512
1742120463.019,999.512,999.512,-3.418,999.512
1742120463.023,335.449,157.715,-273.926,282.715
1742120463.027,-1000.000,-1000.000,-313.965,-1000.000
1742120463.031,-1000.000,-911.621,-85.449,-1000.000
1742120462.988,-1000.000,-840.332,91.797,-1000.000
1742120462.992,-937.988,478.027,477.051,-940.918
1742120462.996,-1000.000,999.512,503.418,-1000.000
1742120463.000,-971.191,-200.684,80.566,-992.188
1742120463.004,-992.676,-1000.000,-303.711,-950.684
1742120463.008,-1000.000,119.629,64.453,-1000.000
1742120463.012,223.145,999.512,427.734,-76.660
1742120463.015,999.512,856.934,303.223,999.512
1742120463.019,999.512,999.512,-3.418,999.512
1742120463.023,335.449,157.715,-273.926,282.715
1742120463.027,-1000.000,-1000.000,-313.965,-1000.000
1742120463.031,-1000.000,-911.621,-85.449,-1000.000
1742120463.033,-960.938,-1000.000,127.441,-963.867
1742120463.037,-1000.000,-573.242,84.961,-1000.000
1742120463.041,-1000.000,999.512,-165.039,-1000.000
1742120463.045,-937.500,635.742,-169.434,-937.988
1742120463.049,-1000.000,-1000.000,-27.832,-1000.000
1742120463.053,-220.703,-191.895,100.098,-218.262
1742120463.057,975.586,999.512,18.066,983.398
1742120463.060,999.512,793.945,-663.574,999.512
1742120463.064,150.879,-484.863,-1000.000,93.750
1742120463.068,-1000.000,-1000.000,-718.262,-1000.000
1742120463.072,-982.910,-904.785,-541.992,-975.098
1742120463.076,-973.633,-1000.000,-688.477,-978.027
1742120463.033,-960.938,-1000.000,127.441,-963.867
1742120463.037,-1000.000,-573.242,84.961,-1000.000
1742120463.041,-1000.000,999.512,-165.039,-1000.000
1742120463.045,-937.500,635.742,-169.434,-937.988
1742120463.049,-1000.000,-1000.000,-27.832,-1000.000
1742120463.053,-220.703,-191.895,100.098,-218.262
1742120463.057,975.586,999.512,18.066,983.398
1742120463.060,999.512,793.945,-663.574,999.512
1742120463.064,150.879,-484.863,-1000.000,93.750
1742120463.068,-1000.000,-1000.000,-718.262,-1000.000
1742120463.072,-982.910,-904.785,-541.992,-975.098
1742120463.076,-973.633,-1000.000,-688.477,-978.027
1742120463.078,-1000.000,-67.871,-864.746,-1000.000
1742120463.082,-1000.000,999.512,-867.676,-1000.000
1742120463.086,-1000.000,419.434,-677.246,-1000.000
1742120463.090,-937.500,-899.414,-503.906,-937.500
1742120463.094,-1000.000,-1000.000,-545.898,-1000.000
1742120463.098,-220.703,11.719,-642.578,-220.703
1742120463.102,999.512,994.141,-656.250,999.512
1742120463.105,961.426,999.512,-444.336,961.914
1742120463.109,893.555,524.414,-384.766,892.090
1742120463.113,999.512,-854.980,-553.711,999.512
1742120463.117,892.090,-1000.000,-742.676,842.285
1742120463.121,-402.832,-879.395,-1000.000,-446.777
1742120463.078,-1000.000,-67.871,-864.746,-1000.000
1742120463.082,-1000.000,999.512,-867.676,-1000.000
1742120463.086,-1000.000,419.434,-677.246,-1000.000
1742120463.090,-937.500,-899.414,-503.906,-937.500
1742120463.094,-1000.000,-1000.000,-545.898,-1000.000
1742120463.098,-220.703,11.719,-642.578,-220.703
1742120463.102,999.512,994.141,-656.250,999.512
1742120463.105,961.426,999.512,-444.336,961.914
1742120463.109,893.555,524.414,-384.766,892.090
1742120463.113,999.512,-854.980,-553.711,999.512
1742120463.117,892.090,-1000.000,-742.676,842.285
1742120463.121,-402.832,-879.395,-1000.000,-446.777
1742120463.123,-1000.000,-1000.000,-817.383,-1000.000
1742120463.127,-791.016,-337.891,-350.586,-775.879
1742120463.131,533.203,991.211,-184.082,544.434
1742120463.135,999.512,972.168,-381.348,999.512
1742120463.139,914.062,927.246,-684.570,916.504
1742120463.143,903.809,920.410,-416.504,915.039
1742120463.147,999.512,999.512,25.879,999.512
1742120463.150,498.535,125.488,-193.359,705.078
1742120463.154,-929.688,-1000.000,-768.555,-717.285
1742120463.158,-1000.000,-962.402,-905.273,-1000.000
1742120463.162,-885.254,-937.012,-602.539,-875.977
1742120463.166,-1000.000,-1000.000,-331.543,-1000.000
1742120463.167,-221.191,0.000,20.508,-209.473
1742120463.171,999.512,999.512,1.465,999.512
1742120463.175,950.195,922.852,-577.148,949.219
1742120463.179,954.590,963.867,-509.766,954.590
1742120463.183,904.297,898.926,-145.020,913.574
1742120463.187,999.512,999.512,122.070,999.512
1742120463.191,654.297,346.680,-1.465,754.395
1742120463.194,-799.316,-1000.000,-777.832,-671.387
1742120463.198,-1000.000,-945.801,-802.734,-1000.000
1742120463.202,-926.758,-1000.000,-72.754,-944.824
1742120463.206,-1000.000,-300.781,161.133,-996.582
1742120463.210,206.543,999.512,158.691,305.176
1742120463.167,-221.191,0.000,20.508,-209.473
1742120463.171,999.512,999.512,1.465,999.512
1742120463.175,950.195,922.852,-577.148,949.219
1742120463.179,954.590,963.867,-509.766,954.590
1742120463.183,904.297,898.926,-145.020,913.574
1742120463.187,999.512,999.512,122.070,999.512
1742120463.191,654.297,346.680,-1.465,754.395
1742120463.194,-799.316,-1000.000,-777.832,-671.387
1742120463.198,-1000.000,-945.801,-802.734,-1000.000
1742120463.202,-926.758,-1000.000,-72.754,-944.824
1742120463.206,-1000.000,-300.781,161.133,-996.582
1742120463.210,206.543,999.512,158.691,305.176
1742120463.214,999.512,968.750,-116.699,999.512
1742120463.218,904.297,864.746,-249.023,906.250
1742120463.222,967.285,999.512,103.027,970.215
1742120463.226,966.797,356.445,208.496,967.773
1742120463.230,966.797,-1000.000,234.863,967.773
1742120463.234,903.320,-194.336,234.863,904.297
1742120463.238,999.512,999.512,278.809,999.512
1742120463.241,187.012,-41.504,207.031,187.012
1742120463.245,-1000.000,-1000.000,-34.668,-1000.000
1742120463.249,-990.234,-928.223,-96.680,-990.234
1742120463.253,-946.777,-976.074,-376.465,-945.801
1742120463.257,-990.234,-1000.000,-476.074,-996.094
1742120463.214,999.512,968.750,-116.699,999.512
1742120463.218,904.297,864.746,-249.023,906.250
1742120463.222,967.285,999.512,103.027,970.215
1742120463.226,966.797,356.445,208.496,967.773
1742120463.230,966.797,-1000.000,234.863,967.773
1742120463.234,903.320,-194.336,234.863,904.297
1742120463.238,999.512,999.512,278.809,999.512
1742120463.241,187.012,-41.504,207.031,187.012
1742120463.245,-1000.000,-1000.000,-34.668,-1000.000
1742120463.249,-990.234,-928.223,-96.680,-990.234
1742120463.253,-946.777,-976.074,-376.465,-945.801
1742120463.257,-990.234,-1000.000,-476.074,-996.094
1742120463.259,-1000.000,211.914,21.973,-1000.000
1742120463.263,103.027,999.512,376.953,119.629
1742120463.267,999.512,999.512,475.586,999.512
1742120463.271,522.949,266.602,47.363,518.555
1742120463.275,-787.598,-1000.000,-515.625,-785.645
1742120463.279,-1000.000,-1000.000,-244.141,-1000.000
1742120463.283,-286.133,91.309,213.867,-295.898
1742120463.286,913.086,999.512,145.020,906.250
1742120463.290,999.512,999.512,-219.238,999.512
1742120463.294,135.254,123.047,-525.879,152.344
1742120463.298,-1000.000,-1000.000,-488.770,-1000.000
1742120463.302,-1000.000,-1000.000,-270.508,-1000.000
1742120463.259,-1000.000,211.914,21.973,-1000.000
1742120463.263,103.027,999.512,376.953,119.629
1742120463.267,999.512,999.512,475.586,999.512
1742120463.271,522.949,266.602,47.363,518.555
1742120463.275,-787.598,-1000.000,-515.625,-785.645
1742120463.279,-1000.000,-1000.000,-244.141,-1000.000
1742120463.283,-286.133,91.309,213.867,-295.898
1742120463.286,913.086,999.512,145.020,906.250
1742120463.290,999.512,999.512,-219.238,999.512
1742120463.294,135.254,123.047,-525.879,152.344
1742120463.298,-1000.000,-1000.000,-488.770,-1000.000
1742120463.302,-1000.000,-1000.000,-270.508,-1000.000
1742120463.318,-785.156,-214.355,9.277,-823.242
1742120463.322,597.656,961.426,111.816,520.996
1742120463.326,999.512,999.512,-206.055,999.512
1742120463.330,905.762,712.891,-322.266,907.715
1742120463.334,957.031,-429.688,-133.789,955.566
1742120463.338,940.918,491.211,148.438,941.406
1742120463.342,999.512,999.512,149.902,999.512
1742120463.345,-156.738,-566.895,-286.133,-145.996
1742120463.349,-1000.000,-1000.000,-243.652,-1000.000
1742120463.353,-942.871,-930.664,355.469,-945.801
1742120463.357,-997.070,-954.590,637.207,-996.094
1742120463.361,-1000.000,-1000.000,390.137,-1000.000
1742120463.318,-785.156,-214.355,9.277,-823.242
1742120463.322,597.656,961.426,111.816,520.996
1742120463.326,999.512,999.512,-206.055,999.512
1742120463.330,905.762,712.891,-322.266,907.715
1742120463.334,957.031,-429.688,-133.789,955.566
1742120463.338,940.918,491.211,148.438,941.406
1742120463.342,999.512,999.512,149.902,999.512
1742120463.345,-156.738,-566.895,-286.133,-145.996
1742120463.349,-1000.000,-1000.000,-243.652,-1000.000
1742120463.353,-942.871,-930.664,355.469,-945.801
1742120463.357,-997.070,-954.590,637.207,-996.094
1742120463.361,-1000.000,-1000.000,390.137,-1000.000
1742120463.363,-925.781,-133.789,130.371,-930.176
1742120463.367,-1000.000,999.512,186.035,-1000.000
1742120463.371,-565.430,914.062,306.641,-618.164
1742120463.375,877.441,935.059,486.328,812.500
1742120463.379,999.512,984.375,350.586,999.512
1742120463.383,911.133,895.020,81.543,909.668
1742120463.387,982.422,999.512,99.609,981.934
1742120463.390,964.355,338.379,240.723,964.355
1742120463.394,907.227,-1000.000,269.043,909.180
1742120463.398,999.512,-1000.000,237.793,999.512
1742120463.402,143.066,-972.656,-60.547,138.184
1742120463.406,-1000.000,-950.195,-211.914,-1000.000
1742120463.363,-925.781,-133.789,130.371,-930.176
1742120463.367,-1000.000,999.512,186.035,-1000.000
1742120463.371,-565.430,914.062,306.641,-618.164
1742120463.375,877.441,935.059,486.328,812.500
1742120463.379,999.512,984.375,350.586,999.512
1742120463.383,911.133,895.020,81.543,909.668
1742120463.387,982.422,999.512,99.609,981.934
1742120463.390,964.355,338.379,240.723,964.355
1742120463.394,907.227,-1000.000,269.043,909.180
1742120463.398,999.512,-1000.000,237.793,999.512
1742120463.402,143.066,-972.656,-60.547,138.184
1742120463.406,-1000.000,-950.195,-211.914,-1000.000
1742120463.408,-905.273,-1000.000,0.488,-909.180
1742120463.412,-1000.000,-688.477,50.781,-1000.000
1742120463.416,-618.164,701.172,169.922,-582.031
1742120463.420,832.031,999.512,162.109,830.078
1742120463.424,999.512,908.691,98.145,999.512
1742120463.428,871.582,918.945,540.039,882.324
1742120463.432,989.258,999.512,904.297,977.051
1742120463.435,967.285,155.273,548.340,987.305
1742120463.439,-346.191,-1000.000,-80.078,-272.949
1742120463.443,-1000.000,-958.496,-99.609,-1000.000
1742120463.447,-872.559,-949.219,361.816,-879.395
1742120463.451,-1000.000,-1000.000,469.727,-1000.000
1742120463.408,-905.273,-1000.000,0.488,-909.180
1742120463.412,-1000.000,-688.477,50.781,-1000.000
1742120463.416,-618.164,701.172,169.922,-582.031
1742120463.420,832.031,999.512,162.109,830.078
1742120463.424,999.512,908.691,98.145,999.512
1742120463.428,871.582,918.945,540.039,882.324
1742120463.432,989.258,999.512,904.297,977.051
1742120463.435,967.285,155.273,548.340,987.305
1742120463.439,-346.191,-1000.000,-80.078,-272.949
1742120463.443,-1000.000,-958.496,-99.609,-1000.000
1742120463.447,-872.559,-949.219,361.816,-879.395
1742120463.451,-1000.000,-1000.000,469.727,-1000.000
1742120463.453,-221.191,103.516,646.973,-210.449
1742120463.457,999.512,999.512,545.898,999.512
1742120463.461,950.195,914.062,35.156,949.219
1742120463.465,952.148,976.074,207.031,952.148
1742120463.469,920.898,899.414,559.082,927.734
1742120463.473,999.512,999.512,678.223,998.535
1742120463.477,844.727,591.797,469.238,894.043
1742120463.480,-547.363,-833.984,-156.738,-466.797
1742120463.484,-1000.000,-1000.000,-158.691,-1000.000
1742120463.488,-933.594,-877.930,465.820,-934.082
1742120463.492,-1000.000,-1000.000,595.703,-1000.000
1742120463.496,-1000.000,-627.441,335.449,-1000.000
1742120463.453,-221.191,103.516,646.973,-210.449
1742120463.457,999.512,999.512,545.898,999.512
1742120463.461,950.195,914.062,35.156,949.219
1742120463.465,952.148,976.074,207.031,952.148
1742120463.469,920.898,899.414,559.082,927.734
1742120463.473,999.512,999.512,678.223,998.535
1742120463.477,844.727,591.797,469.238,894.043
1742120463.480,-547.363,-833.984,-156.738,-466.797
1742120463.484,-1000.000,-1000.000,-158.691,-1000.000
1742120463.488,-933.594,-877.930,465.820,-934.082
1742120463.492,-1000.000,-1000.000,595.703,-1000.000
1742120463.496,-1000.000,-627.441,335.449,-1000.000
1742120463.963,999.512,999.512,927.246,999.512
1742120463.967,903.320,837.402,758.789,907.227
1742120463.971,967.773,999.512,-105.469,966.309
1742120463.975,966.797,320.801,-195.801,967.285
1742120463.979,966.797,-1000.000,-88.379,972.656
1742120463.983,903.809,-216.309,-601.074,898.926
1742120463.987,999.512,999.512,-937.988,999.512
1742120463.990,186.523,104.004,-996.582,283.203
1742120463.994,-1000.000,-1000.000,-953.125,-972.656
1742120463.998,-1000.000,-1000.000,-291.504,-1000.000
1742120464.002,-180.176,-93.262,386.230,-171.875
1742120464.006,956.055,986.328,-380.371,955.078
1742120463.498,-1000.000,798.828,117.676,-1000.000
1742120463.502,-1000.000,993.164,103.027,-1000.000
1742120463.506,-932.617,-262.207,308.105,-943.359
1742120463.510,-1000.000,-1000.000,311.035,-1000.000
1742120463.514,-693.848,-273.926,86.426,-807.617
1742120463.518,748.047,926.270,-136.719,594.727
1742120463.522,999.512,999.512,-191.895,999.512
1742120463.525,904.785,305.664,-225.586,902.832
1742120463.529,981.445,-961.426,-261.719,979.004
1742120463.533,966.309,-1000.000,-222.168,966.797
1742120463.537,976.562,-24.414,-519.043,979.980
1742120463.541,894.043,985.352,-706.543,893.555
1742120463.544,999.512,999.512,-322.266,999.512
1742120463.548,389.160,146.484,-268.066,482.422
1742120463.552,-995.117,-1000.000,-573.242,-940.430
1742120463.556,-997.070,-945.801,-841.797,-1000.000
1742120463.560,-931.152,-1000.000,-926.270,-926.758
1742120463.564,-1000.000,33.203,-332.520,-1000.000
1742120463.568,126.465,999.512,70.801,125.977
1742120463.571,999.512,877.930,-223.633,999.512
1742120463.575,999.512,999.512,-574.219,999.512
1742120463.579,258.301,17.578,-506.836,260.742
1742120463.583,-1000.000,-1000.000,-337.402,-1000.000
1742120463.587,-996.094,-979.004,-212.402,-997.070
1742120463.544,999.512,999.512,-322.266,999.512
1742120463.548,389.160,146.484,-268.066,482.422
1742120463.552,-995.117,-1000.000,-573.242,-940.430
1742120463.556,-997.070,-945.801,-841.797,-1000.000
1742120463.560,-931.152,-1000.000,-926.270,-926.758
1742120463.564,-1000.000,33.203,-332.520,-1000.000
1742120463.568,126.465,999.512,70.801,125.977
1742120463.571,999.512,877.930,-223.633,999.512
1742120463.575,999.512,999.512,-574.219,999.512
1742120463.579,258.301,17.578,-506.836,260.742
1742120463.583,-1000.000,-1000.000,-337.402,-1000.000
1742120463.587,-996.094,-979.004,-212.402,-997.070
1742120463.587,-975.098,-928.711,-154.785,-979.980
1742120463.591,-938.477,-1000.000,-509.277,-936.035
1742120463.595,-1000.000,-805.176,-722.656,-1000.000
1742120463.599,-378.906,580.078,-468.750,-527.832
1742120463.603,976.074,999.512,-450.195,896.973
1742120463.607,914.062,851.562,-751.465,942.383
1742120463.611,999.512,999.512,-1000.000,999.512
1742120463.614,209.473,93.262,-997.559,231.934
1742120463.618,-1000.000,-1000.000,-994.629,-1000.000
1742120463.622,-985.840,-963.379,-1000.000,-988.770
1742120463.626,-972.168,-931.152,-1000.000,-970.703
1742120463.630,-1000.000,-1000.000,-1000.000,-1000.000
1742120463.587,-975.098,-928.711,-154.785,-979.980
1742120463.591,-938.477,-1000.000,-509.277,-936.035
1742120463.595,-1000.000,-805.176,-722.656,-1000.000
1742120463.599,-378.906,580.078,-468.750,-527.832
1742120463.603,976.074,999.512,-450.195,896.973
1742120463.607,914.062,851.562,-751.465,942.383
1742120463.611,999.512,999.512,-1000.000,999.512
1742120463.614,209.473,93.262,-997.559,231.934
1742120463.618,-1000.000,-1000.000,-994.629,-1000.000
1742120463.622,-985.840,-963.379,-1000.000,-988.770
1742120463.626,-972.168,-931.152,-1000.000,-970.703
1742120463.630,-1000.000,-1000.000,-1000.000,-1000.000
1742120463.633,-933.594,-78.125,-1000.000,-931.152
1742120463.637,-1000.000,999.512,-1000.000,-1000.000
1742120463.641,-282.715,932.617,-1000.000,-346.191
1742120463.645,999.512,950.195,-1000.000,989.746
1742120463.649,959.961,982.910,-1000.000,972.168
1742120463.653,934.082,917.480,-1000.000,929.688
1742120463.657,990.234,999.512,-1000.000,991.211
1742120463.660,900.879,841.797,-1000.000,903.320
1742120463.664,999.512,-524.414,-1000.000,999.512
1742120463.668,696.289,-1000.000,-1000.000,684.570
1742120463.672,-753.418,-925.781,-995.605,-746.094
1742120463.676,-1000.000,-966.309,-1000.000,-1000.000
1742120463.633,-933.594,-78.125,-1000.000,-931.152
1742120463.637,-1000.000,999.512,-1000.000,-1000.000
1742120463.641,-282.715,932.617,-1000.000,-346.191
1742120463.645,999.512,950.195,-1000.000,989.746
1742120463.649,959.961,982.910,-1000.000,972.168
1742120463.653,934.082,917.480,-1000.000,929.688
1742120463.657,990.234,999.512,-1000.000,991.211
1742120463.660,900.879,841.797,-1000.000,903.320
1742120463.664,999.512,-524.414,-1000.000,999.512
1742120463.668,696.289,-1000.000,-1000.000,684.570
1742120463.672,-753.418,-925.781,-995.605,-746.094
1742120463.676,-1000.000,-966.309,-1000.000,-1000.000
1742120463.693,-973.145,-1000.000,-990.234,-979.980
1742120463.697,-929.199,-50.293,-815.430,-885.742
1742120463.701,458.496,999.512,-786.621,478.516
1742120463.705,999.512,938.965,-980.469,999.512
1742120463.709,910.645,921.387,-1000.000,913.574
1742120463.713,933.105,965.820,-992.676,938.965
1742120463.717,989.258,988.770,-1000.000,976.562
1742120463.720,921.387,-251.465,-1000.000,950.684
1742120463.724,-424.805,-1000.000,-1000.000,-346.191
1742120463.728,-1000.000,-931.152,-1000.000,-1000.000
1742120463.732,-871.582,-958.008,-1000.000,-875.977
1742120463.736,-1000.000,-1000.000,-1000.000,-1000.000
1742120463.693,-973.145,-1000.000,-990.234,-979.980
1742120463.697,-929.199,-50.293,-815.430,-885.742
1742120463.701,458.496,999.512,-786.621,478.516
1742120463.705,999.512,938.965,-980.469,999.512
1742120463.709,910.645,921.387,-1000.000,913.574
1742120463.713,933.105,965.820,-992.676,938.965
1742120463.717,989.258,988.770,-1000.000,976.562
1742120463.720,921.387,-251.465,-1000.000,950.684
1742120463.724,-424.805,-1000.000,-1000.000,-346.191
1742120463.728,-1000.000,-931.152,-1000.000,-1000.000
1742120463.732,-871.582,-958.008,-1000.000,-875.977
1742120463.736,-1000.000,-1000.000,-1000.000,-1000.000
1742120463.737,-220.703,-8.789,-1000.000,-220.703
1742120463.741,999.512,999.512,-989.746,999.512
1742120463.745,950.195,924.316,-1000.000,950.684
1742120463.749,950.195,960.449,-947.266,950.684
1742120463.753,899.902,902.344,-708.496,900.879
1742120463.757,999.512,999.512,-658.691,999.512
1742120463.761,407.715,274.414,-870.605,414.551
1742120463.764,-982.422,-1000.000,-1000.000,-976.074
1742120463.768,-1000.000,-1000.000,-993.652,-1000.000
1742120463.772,-955.078,-956.543,-1000.000,-954.590
1742120463.776,-1000.000,-962.891,-993.164,-1000.000
1742120463.780,-964.844,-1000.000,-998.047,-993.164
1742120463.737,-220.703,-8.789,-1000.000,-220.703
1742120463.741,999.512,999.512,-989.746,999.512
1742120463.745,950.195,924.316,-1000.000,950.684
1742120463.749,950.195,960.449,-947.266,950.684
1742120463.753,899.902,902.344,-708.496,900.879
1742120463.757,999.512,999.512,-658.691,999.512
1742120463.761,407.715,274.414,-870.605,414.551
1742120463.764,-982.422,-1000.000,-1000.000,-976.074
1742120463.768,-1000.000,-1000.000,-993.652,-1000.000
1742120463.772,-955.078,-956.543,-1000.000,-954.590
1742120463.776,-1000.000,-962.891,-993.164,-1000.000
1742120463.780,-964.844,-1000.000,-998.047,-993.164
1742120463.782,-1000.000,-59.082,-981.445,-949.707
1742120463.786,-996.582,999.512,-654.297,-1000.000
1742120463.790,298.828,930.176,-221.191,-96.191
1742120463.794,999.512,955.566,-295.898,999.512
1742120463.798,904.297,951.660,-799.805,934.570
1742120463.802,969.727,938.477,-511.230,948.730
1742120463.806,981.934,999.512,411.133,984.863
1742120463.809,895.508,-102.051,754.395,897.949
1742120463.813,999.512,-1000.000,769.043,999.512
1742120463.817,607.422,-946.289,559.082,584.961
1742120463.821,-775.391,-940.430,82.520,-780.762
1742120463.825,-1000.000,-1000.000,150.879,-1000.000
1742120463.782,-1000.000,-59.082,-981.445,-949.707
1742120463.786,-996.582,999.512,-654.297,-1000.000
1742120463.790,298.828,930.176,-221.191,-96.191
1742120463.794,999.512,955.566,-295.898,999.512
1742120463.798,904.297,951.660,-799.805,934.570
1742120463.802,969.727,938.477,-511.230,948.730
1742120463.806,981.934,999.512,411.133,984.863
1742120463.809,895.508,-102.051,754.395,897.949
1742120463.813,999.512,-1000.000,769.043,999.512
1742120463.817,607.422,-946.289,559.082,584.961
1742120463.821,-775.391,-940.430,82.520,-780.762
1742120463.825,-1000.000,-1000.000,150.879,-1000.000
1742120463.828,-821.777,-103.516,729.004,-783.691
1742120463.832,413.574,999.512,999.512,439.453
1742120463.836,999.512,999.512,789.062,999.512
1742120463.840,218.262,256.836,179.199,225.586
1742120463.844,-1000.000,-1000.000,-129.883,-1000.000
1742120463.848,-1000.000,-495.605,349.609,-1000.000
1742120463.852,-966.309,999.512,686.035,-965.332
1742120463.855,-1000.000,84.961,226.562,-1000.000
1742120463.859,-948.730,-1000.000,34.180,-940.918
1742120463.863,-1000.000,-917.480,599.121,-1000.000
1742120463.867,-98.633,329.590,975.586,-180.664
1742120463.871,999.512,999.512,957.520,999.512
1742120463.828,-821.777,-103.516,729.004,-783.691
1742120463.832,413.574,999.512,999.512,439.453
1742120463.836,999.512,999.512,789.062,999.512
1742120463.840,218.262,256.836,179.199,225.586
1742120463.844,-1000.000,-1000.000,-129.883,-1000.000
1742120463.848,-1000.000,-495.605,349.609,-1000.000
1742120463.852,-966.309,999.512,686.035,-965.332
1742120463.855,-1000.000,84.961,226.562,-1000.000
1742120463.859,-948.730,-1000.000,34.180,-940.918
1742120463.863,-1000.000,-917.480,599.121,-1000.000
1742120463.867,-98.633,329.590,975.586,-180.664
1742120463.871,999.512,999.512,957.520,999.512
1742120463.873,933.105,882.812,959.473,944.824
1742120463.877,948.242,958.496,969.238,942.383
1742120463.881,970.215,988.770,966.797,972.656
1742120463.885,969.238,-155.273,966.797,972.656
1742120463.889,951.660,-1000.000,967.285,942.871
1742120463.893,926.758,-83.008,955.566,949.707
1742120463.897,999.512,999.512,999.512,999.512
1742120463.900,-49.316,-57.617,808.105,-175.781
1742120463.904,-1000.000,-1000.000,744.141,-1000.000
1742120463.908,-953.613,-928.223,980.957,-948.730
1742120463.912,-990.723,-969.727,973.633,-995.605
1742120463.916,-1000.000,-1000.000,937.988,-1000.000
1742120463.918,-936.523,149.414,946.289,-934.570
1742120463.922,-1000.000,999.512,979.980,-1000.000
1742120463.926,-240.234,912.109,911.621,-269.531
1742120463.930,969.727,901.367,999.512,963.379
1742120463.934,999.512,999.512,628.418,999.512
1742120463.938,138.184,187.500,-699.219,107.910
1742120463.942,-1000.000,-1000.000,-1000.000,-1000.000
1742120463.945,-988.281,-996.094,-949.707,-983.887
1742120463.949,-945.312,-918.457,-983.398,-949.707
1742120463.953,-995.117,-1000.000,-1000.000,-991.211
1742120463.957,-1000.000,-805.664,-684.570,-1000.000
1742120463.961,211.914,577.148,215.820,184.082
1742120463.918,-936.523,149.414,946.289,-934.570
1742120463.922,-1000.000,999.512,979.980,-1000.000
1742120463.926,-240.234,912.109,911.621,-269.531
1742120463.930,969.727,901.367,999.512,963.379
1742120463.934,999.512,999.512,628.418,999.512
1742120463.938,138.184,187.500,-699.219,107.910
1742120463.942,-1000.000,-1000.000,-1000.000,-1000.000
1742120463.945,-988.281,-996.094,-949.707,-983.887
1742120463.949,-945.312,-918.457,-983.398,-949.707
1742120463.953,-995.117,-1000.000,-1000.000,-991.211
1742120463.957,-1000.000,-805.664,-684.570,-1000.000
1742120463.961,211.914,577.148,215.820,184.082
1742120464.008,999.512,999.512,-1000.000,999.512
1742120464.012,450.684,252.441,-970.215,467.285
1742120464.016,-937.500,-1000.000,-992.188,-922.852
1742120464.020,-1000.000,-937.988,-988.281,-1000.000
1742120464.024,-949.707,-1000.000,-1000.000,-948.242
1742120464.028,-1000.000,-239.258,-797.363,-1000.000
1742120464.032,-1000.000,999.512,-712.402,-1000.000
1742120464.035,-1000.000,67.871,-1000.000,-1000.000
1742120464.039,-929.688,-1000.000,-1000.000,-1000.000
1742120464.043,-1000.000,-1000.000,-989.746,-1000.000
1742120464.047,-564.941,-40.039,-1000.000,-1000.000
1742120464.051,852.539,999.512,-997.070,-1000.000
1742120464.008,999.512,999.512,-1000.000,999.512
1742120464.012,450.684,252.441,-970.215,467.285
1742120464.016,-937.500,-1000.000,-992.188,-922.852
1742120464.020,-1000.000,-937.988,-988.281,-1000.000
1742120464.024,-949.707,-1000.000,-1000.000,-948.242
1742120464.028,-1000.000,-239.258,-797.363,-1000.000
1742120464.032,-1000.000,999.512,-712.402,-1000.000
1742120464.035,-1000.000,67.871,-1000.000,-1000.000
1742120464.039,-929.688,-1000.000,-1000.000,-1000.000
1742120464.043,-1000.000,-1000.000,-989.746,-1000.000
1742120464.047,-564.941,-40.039,-1000.000,-1000.000
1742120464.051,852.539,999.512,-997.070,-1000.000
1742120464.068,999.512,891.113,-957.520,-1000.000
1742120464.072,913.086,983.398,-989.258,-1000.000
1742120464.076,980.469,861.816,-996.582,-1000.000
1742120464.080,966.797,-421.387,-530.762,-1000.000
1742120464.084,967.285,-1000.000,-44.434,-1000.000
1742120464.088,903.809,-93.262,18.066,-1000.000
1742120464.092,999.512,999.512,-398.438,-1000.000
1742120464.095,187.012,-26.855,-481.934,-1000.000
1742120464.099,-1000.000,-1000.000,270.996,-1000.000
1742120464.103,-984.375,-944.336,352.051,-1000.000
1742120464.107,-911.133,-946.777,-286.133,-928.711
1742120464.111,-1000.000,-1000.000,-446.289,-1000.000
1742120464.068,999.512,891.113,-957.520,-1000.000
1742120464.072,913.086,983.398,-989.258,-1000.000
1742120464.076,980.469,861.816,-996.582,-1000.000
1742120464.080,966.797,-421.387,-530.762,-1000.000
1742120464.084,967.285,-1000.000,-44.434,-1000.000
1742120464.088,903.809,-93.262,18.066,-1000.000
1742120464.092,999.512,999.512,-398.438,-1000.000
1742120464.095,187.012,-26.855,-481.934,-1000.000
1742120464.099,-1000.000,-1000.000,270.996,-1000.000
1742120464.103,-984.375,-944.336,352.051,-1000.000
1742120464.107,-911.133,-946.777,-286.133,-928.711
1742120464.111,-1000.000,-1000.000,-446.289,-1000.000
1742120464.113,-288.086,-60.059,-124.023,-552.246
1742120464.117,999.512,999.512,14.160,999.512
1742120464.121,527.344,488.281,-510.254,368.652
1742120464.125,-866.211,-874.023,-604.004,-982.910
1742120464.129,-1000.000,-1000.000,77.637,-1000.000
1742120464.133,-232.422,-107.422,637.695,-560.059
1742120464.137,999.512,999.512,869.141,985.840
1742120464.140,651.855,366.699,614.746,570.801
1742120464.144,-804.688,-998.535,-90.332,-949.707
1742120464.148,-1000.000,-1000.000,-151.367,-1000.000
1742120464.152,-937.988,-881.836,260.254,-946.289
1742120464.156,-1000.000,-1000.000,-60.547,-1000.000
1742120464.113,-288.086,-60.059,-124.023,-552.246
1742120464.117,999.512,999.512,14.160,999.512
1742120464.121,527.344,488.281,-510.254,368.652
1742120464.125,-866.211,-874.023,-604.004,-982.910
1742120464.129,-1000.000,-1000.000,77.637,-1000.000
1742120464.133,-232.422,-107.422,637.695,-560.059
1742120464.137,999.512,999.512,869.141,985.840
1742120464.140,651.855,366.699,614.746,570.801
1742120464.144,-804.688,-998.535,-90.332,-949.707
1742120464.148,-1000.000,-1000.000,-151.367,-1000.000
1742120464.152,-937.988,-881.836,260.254,-946.289
1742120464.156,-1000.000,-1000.000,-60.547,-1000.000
1742120464.158,-1000.000,-225.586,-562.988,-1000.000
1742120464.162,-1000.000,956.055,-769.043,-1000.000
1742120464.166,-983.887,999.512,-593.262,-998.047
1742120464.170,-964.355,324.707,-203.613,-941.406
1742120464.174,-1000.000,-1000.000,54.688,-1000.000
1742120464.178,41.504,108.887,229.492,-174.316
1742120464.182,999.512,999.512,54.688,999.512
1742120464.185,916.992,445.312,-24.902,944.336
1742120464.189,973.633,-1000.000,206.055,955.566
1742120464.193,899.414,-817.383,476.562,902.832
1742120464.197,999.512,804.199,443.359,999.512
1742120464.201,660.645,812.500,17.578,513.672
1742120464.158,-1000.000,-225.586,-562.988,-1000.000
1742120464.162,-1000.000,956.055,-769.043,-1000.000
1742120464.166,-983.887,999.512,-593.262,-998.047
1742120464.170,-964.355,324.707,-203.613,-941.406
1742120464.174,-1000.000,-1000.000,54.688,-1000.000
1742120464.178,41.504,108.887,229.492,-174.316
1742120464.182,999.512,999.512,54.688,999.512
1742120464.185,916.992,445.312,-24.902,944.336
1742120464.189,973.633,-1000.000,206.055,955.566
1742120464.193,899.414,-817.383,476.562,902.832
1742120464.197,999.512,804.199,443.359,999.512
1742120464.201,660.645,812.500,17.578,513.672
1742120464.203,-785.645,-740.234,-123.047,-890.625
1742120464.207,-1000.000,-1000.000,106.934,-1000.000
1742120464.211,-953.125,-912.109,176.270,-962.891
1742120464.215,-941.895,-995.605,-77.148,-945.801
1742120464.219,-1000.000,-1000.000,-374.023,-1000.000
1742120464.223,-575.684,137.695,-168.457,-661.621
1742120464.227,866.699,999.512,321.289,769.531
1742120464.230,999.512,868.652,62.500,999.512
1742120464.234,910.645,999.512,-414.062,907.715
1742120464.238,981.445,48.828,-573.730,981.445
1742120464.242,966.309,-1000.000,-421.875,966.797
1742120464.246,970.703,-1000.000,21.484,967.773
1742120464.203,-785.645,-740.234,-123.047,-890.625
1742120464.207,-1000.000,-1000.000,106.934,-1000.000
1742120464.211,-953.125,-912.109,176.270,-962.891
1742120464.215,-941.895,-995.605,-77.148,-945.801
1742120464.219,-1000.000,-1000.000,-374.023,-1000.000
1742120464.223,-575.684,137.695,-168.457,-661.621
1742120464.227,866.699,999.512,321.289,769.531
1742120464.230,999.512,868.652,62.500,999.512
1742120464.234,910.645,999.512,-414.062,907.715
1742120464.238,981.445,48.828,-573.730,981.445
1742120464.242,966.309,-1000.000,-421.875,966.797
1742120464.246,970.703,-1000.000,21.484,967.773
1742120464.247,946.777,-186.035,391.113,962.891
1742120464.251,936.035,999.512,625.000,910.645
1742120464.255,999.512,705.566,302.246,999.512
1742120464.259,-40.527,-603.516,-86.426,188.965
1742120464.263,-1000.000,-1000.000,97.656,-1000.000
1742120464.267,-521.973,-272.949,375.488,-439.453
1742120464.271,877.930,922.852,585.449,953.125
1742120464.274,999.512,999.512,299.316,989.746
1742120464.278,910.156,194.336,-128.906,919.922
1742120464.282,983.887,-1000.000,153.809,993.652
1742120464.286,902.344,-101.074,501.953,905.273
1742120464.290,999.512,778.320,367.188,999.512
1742120464.293,203.125,-722.168,64.453,700.684
1742120464.297,-1000.000,-1000.000,-353.027,-696.777
1742120464.301,-924.805,-882.812,-458.984,-1000.000
1742120464.305,-1000.000,-1000.000,-6.348,-1000.000
1742120464.309,-218.750,-133.301,267.090,-51.758
1742120464.313,999.512,991.211,301.270,999.512
1742120464.317,948.730,999.512,82.031,929.688
1742120464.320,939.453,271.973,-76.172,952.148
1742120464.324,986.328,-1000.000,166.992,976.562
1742120464.328,910.156,-1000.000,488.770,941.406
1742120464.332,999.512,538.086,468.750,950.195
1742120464.336,799.316,558.105,133.301,999.512
1742120464.293,203.125,-722.168,64.453,700.684
1742120464.297,-1000.000,-1000.000,-353.027,-696.777
1742120464.301,-924.805,-882.812,-458.984,-1000.000
1742120464.305,-1000.000,-1000.000,-6.348,-1000.000
1742120464.309,-218.750,-133.301,267.090,-51.758
1742120464.313,999.512,991.211,301.270,999.512
1742120464.317,948.730,999.512,82.031,929.688
1742120464.320,939.453,271.973,-76.172,952.148
1742120464.324,986.328,-1000.000,166.992,976.562
1742120464.328,910.156,-1000.000,488.770,941.406
1742120464.332,999.512,538.086,468.750,950.195
1742120464.336,799.316,558.105,133.301,999.512
1742120464.339,-604.004,-1000.000,119.141,-195.801
1742120464.343,-1000.000,-1000.000,486.816,-1000.000
1742120464.347,-939.941,-939.453,588.867,-948.242
1742120464.351,-944.336,-972.168,486.816,-931.152
1742120464.355,-1000.000,-1000.000,195.801,-1000.000
1742120464.359,-310.547,-34.668,79.102,-294.434
1742120464.363,999.512,999.512,480.957,999.512
1742120464.366,964.355,947.754,557.129,962.891
1742120464.370,932.129,-73.242,177.246,934.082
1742120464.374,975.586,-1000.000,-119.629,976.074
1742120464.378,968.262,-1000.000,-228.027,967.773
1742120464.382,955.078,-218.262,-26.367,965.332
1742120464.339,-604.004,-1000.000,119.141,-195.801
1742120464.343,-1000.000,-1000.000,486.816,-1000.000
1742120464.347,-939.941,-939.453,588.867,-948.242
1742120464.351,-944.336,-972.168,486.816,-931.152
1742120464.355,-1000.000,-1000.000,195.801,-1000.000
1742120464.359,-310.547,-34.668,79.102,-294.434
1742120464.363,999.512,999.512,480.957,999.512
1742120464.366,964.355,947.754,557.129,962.891
1742120464.370,932.129,-73.242,177.246,934.082
1742120464.374,975.586,-1000.000,-119.629,976.074
1742120464.378,968.262,-1000.000,-228.027,967.773
1742120464.382,955.078,-218.262,-26.367,965.332
1742120464.383,920.898,999.512,288.574,908.203
1742120464.387,999.512,888.672,198.730,999.512
1742120464.391,-5.371,-428.223,-418.457,141.602
1742120464.395,-1000.000,-1000.000,-942.383,-1000.000
1742120464.399,-1000.000,-1000.000,-805.176,-1000.000
1742120464.403,-344.238,-178.711,-451.660,-253.906
1742120464.407,949.219,999.512,-461.914,961.426
1742120464.410,999.512,311.035,-888.184,999.512
1742120464.414,6.836,-949.707,-1000.000,132.812
1742120464.418,-1000.000,-1000.000,-908.203,-1000.000
1742120464.422,-445.801,-416.504,-441.406,-356.934
1742120464.426,935.547,928.711,252.441,992.676
1742120464.383,920.898,999.512,288.574,908.203
1742120464.387,999.512,888.672,198.730,999.512
1742120464.391,-5.371,-428.223,-418.457,141.602
1742120464.395,-1000.000,-1000.000,-942.383,-1000.000
1742120464.399,-1000.000,-1000.000,-805.176,-1000.000
1742120464.403,-344.238,-178.711,-451.660,-253.906
1742120464.407,949.219,999.512,-461.914,961.426
1742120464.410,999.512,311.035,-888.184,999.512
1742120464.414,6.836,-949.707,-1000.000,132.812
1742120464.418,-1000.000,-1000.000,-908.203,-1000.000
1742120464.422,-445.801,-416.504,-441.406,-356.934
1742120464.426,935.547,928.711,252.441,992.676
1742120464.443,995.117,996.094,340.332,974.121
1742120464.447,916.992,846.191,214.844,926.758
1742120464.451,980.469,999.512,444.336,978.027
1742120464.455,966.309,250.488,446.777,966.797
1742120464.459,980.957,-1000.000,239.258,966.797
1742120464.463,897.461,206.055,204.102,966.797
1742120464.467,999.512,999.512,317.383,966.797
1742120464.470,623.047,196.777,259.766,974.121
1742120464.474,-811.523,-1000.000,194.824,938.477
1742120464.478,-1000.000,-999.023,399.414,952.148
1742120464.482,-877.930,-902.344,126.953,999.512
1742120464.486,-1000.000,-1000.000,-279.297,-321.777
1742120464.443,995.117,996.094,340.332,974.121
1742120464.447,916.992,846.191,214.844,926.758
1742120464.451,980.469,999.512,444.336,978.027
1742120464.455,966.309,250.488,446.777,966.797
1742120464.459,980.957,-1000.000,239.258,966.797
1742120464.463,897.461,206.055,204.102,966.797
1742120464.467,999.512,999.512,317.383,966.797
1742120464.470,623.047,196.777,259.766,974.121
1742120464.474,-811.523,-1000.000,194.824,938.477
1742120464.478,-1000.000,-999.023,399.414,952.148
1742120464.482,-877.930,-902.344,126.953,999.512
1742120464.486,-1000.000,-1000.000,-279.297,-321.777
1742120464.488,-761.719,-241.211,113.770,-689.941
1742120464.492,669.922,956.055,697.754,867.676
1742120464.496,999.512,999.512,680.664,999.512
1742120464.500,901.855,338.379,353.027,907.715
1742120464.504,995.605,-1000.000,339.844,981.445
1742120464.508,895.508,-79.102,703.613,975.098
1742120464.512,999.512,999.512,999.512,934.570
1742120464.515,599.121,197.754,752.930,967.773
1742120464.519,-839.844,-1000.000,325.684,975.098
1742120464.523,-1000.000,-1000.000,-69.824,-303.223
1742120464.527,-919.922,-898.438,-264.648,-1000.000
1742120464.531,-989.258,-1000.000,-167.480,-953.125
1742120464.488,-761.719,-241.211,113.770,-689.941
1742120464.492,669.922,956.055,697.754,867.676
1742120464.496,999.512,999.512,680.664,999.512
1742120464.500,901.855,338.379,353.027,907.715
1742120464.504,995.605,-1000.000,339.844,981.445
1742120464.508,895.508,-79.102,703.613,975.098
1742120464.512,999.512,999.512,999.512,934.570
1742120464.515,599.121,197.754,752.930,967.773
1742120464.519,-839.844,-1000.000,325.684,975.098
1742120464.523,-1000.000,-1000.000,-69.824,-303.223
1742120464.527,-919.922,-898.438,-264.648,-1000.000
1742120464.531,-989.258,-1000.000,-167.480,-953.125
1742120464.532,-1000.000,-534.668,-203.125,-980.469
1742120464.536,119.629,818.359,-412.109,326.660
1742120464.540,999.512,999.512,-787.109,999.512
1742120464.544,909.668,824.219,-994.141,904.297
1742120464.548,963.867,-520.508,-889.160,975.098
1742120464.552,903.809,-146.484,-563.965,900.879
1742120464.556,999.512,999.512,-513.184,999.512
1742120464.559,172.363,82.520,-889.648,233.398
1742120464.563,-1000.000,-1000.000,-1000.000,-985.840
1742120464.567,-1000.000,-1000.000,-732.422,-1000.000
1742120464.571,-778.809,-455.078,-315.918,-695.801
1742120464.575,608.398,911.621,-335.938,691.895
1742120464.532,-1000.000,-534.668,-203.125,-980.469
1742120464.536,119.629,818.359,-412.109,326.660
1742120464.540,999.512,999.512,-787.109,999.512
1742120464.544,909.668,824.219,-994.141,904.297
1742120464.548,963.867,-520.508,-889.160,975.098
1742120464.552,903.809,-146.484,-563.965,900.879
1742120464.556,999.512,999.512,-513.184,999.512
1742120464.559,172.363,82.520,-889.648,233.398
1742120464.563,-1000.000,-1000.000,-1000.000,-985.840
1742120464.567,-1000.000,-1000.000,-732.422,-1000.000
1742120464.571,-778.809,-455.078,-315.918,-695.801
1742120464.575,608.398,911.621,-335.938,691.895
1742120464.578,999.512,946.289,-706.055,999.512
1742120464.582,900.391,999.512,-630.859,904.785
1742120464.586,979.980,132.324,-413.574,980.957
1742120464.590,966.309,-1000.000,-246.582,967.285
1742120464.594,966.797,-998.047,-39.062,970.215
1742120464.598,903.809,235.352,153.320,900.879
1742120464.602,999.512,999.512,69.336,999.512
1742120464.605,187.012,-78.613,-113.770,240.234
1742120464.609,-1000.000,-1000.000,63.965,-1000.000
1742120464.613,-997.559,-958.008,343.750,-1000.000
1742120464.617,-912.109,-938.477,261.719,-913.574
1742120464.621,-1000.000,-1000.000,147.461,-1000.000
1742120464.578,999.512,946.289,-706.055,999.512
1742120464.582,900.391,999.512,-630.859,904.785
1742120464.586,979.980,132.324,-413.574,980.957
1742120464.590,966.309,-1000.000,-246.582,967.285
1742120464.594,966.797,-998.047,-39.062,970.215
1742120464.598,903.809,235.352,153.320,900.879
1742120464.602,999.512,999.512,69.336,999.512
1742120464.605,187.012,-78.613,-113.770,240.234
1742120464.609,-1000.000,-1000.000,63.965,-1000.000
1742120464.613,-997.559,-958.008,343.750,-1000.000
1742120464.617,-912.109,-938.477,261.719,-913.574
1742120464.621,-1000.000,-1000.000,147.461,-1000.000
1742120464.624,-724.121,-198.242,435.547,-779.297
1742120464.628,684.570,944.824,858.887,605.469
1742120464.632,997.559,999.512,911.133,999.512
1742120464.636,999.512,726.562,466.797,999.512
1742120464.640,82.520,-529.785,-64.453,75.684
1742120464.644,-1000.000,-1000.000,-61.523,-1000.000
1742120464.648,-1000.000,-256.836,364.746,-1000.000
1742120464.651,-187.500,991.699,471.680,-83.496
1742120464.655,999.512,977.539,304.199,999.512
1742120464.659,947.754,855.957,134.766,938.965
1742120464.663,949.707,999.512,136.230,956.543
1742120464.667,900.391,347.656,341.309,900.391
1742120464.624,-724.121,-198.242,435.547,-779.297
1742120464.628,684.570,944.824,858.887,605.469
1742120464.632,997.559,999.512,911.133,999.512
1742120464.636,999.512,726.562,466.797,999.512
1742120464.640,82.520,-529.785,-64.453,75.684
1742120464.644,-1000.000,-1000.000,-61.523,-1000.000
1742120464.648,-1000.000,-256.836,364.746,-1000.000
1742120464.651,-187.500,991.699,471.680,-83.496
1742120464.655,999.512,977.539,304.199,999.512
1742120464.659,947.754,855.957,134.766,938.965
1742120464.663,949.707,999.512,136.230,956.543
1742120464.667,900.391,347.656,341.309,900.391
1742120464.668,999.512,-846.191,481.934,999.512
1742120464.672,370.605,-607.422,78.125,376.953
1742120464.676,-1000.000,-889.160,-535.156,-994.629
1742120464.680,-1000.000,-1000.000,-238.770,-1000.000
1742120464.684,-958.008,-1000.000,296.875,-963.379
1742120464.688,-1000.000,62.012,529.297,-995.117
1742120464.692,-1000.000,987.793,458.496,-980.957
1742120464.695,-930.664,-453.125,-154.297,-941.406
1742120464.699,-1000.000,-1000.000,-202.637,-1000.000
1742120464.703,-664.551,-311.523,341.797,-797.852
1742120464.707,781.250,965.332,562.500,616.699
1742120464.711,999.512,978.027,410.645,999.512
1742120464.668,999.512,-846.191,481.934,999.512
1742120464.672,370.605,-607.422,78.125,376.953
1742120464.676,-1000.000,-889.160,-535.156,-994.629
1742120464.680,-1000.000,-1000.000,-238.770,-1000.000
1742120464.684,-958.008,-1000.000,296.875,-963.379
1742120464.688,-1000.000,62.012,529.297,-995.117
1742120464.692,-1000.000,987.793,458.496,-980.957
1742120464.695,-930.664,-453.125,-154.297,-941.406
1742120464.699,-1000.000,-1000.000,-202.637,-1000.000
1742120464.703,-664.551,-311.523,341.797,-797.852
1742120464.707,781.250,965.332,562.500,616.699
1742120464.711,999.512,978.027,410.645,999.512
1742120464.712,905.762,931.641,-49.805,902.344
1742120464.716,982.422,958.496,-329.590,982.910
1742120464.720,903.320,941.895,-3.906,901.855
1742120464.724,999.512,999.512,356.934,999.512
1742120464.728,187.012,-109.375,55.176,228.516
1742120464.732,-1000.000,-1000.000,-444.336,-1000.000
1742120464.736,-983.887,-967.773,-487.305,-990.723
1742120464.739,-973.145,-934.570,-666.016,-969.727
1742120464.743,-1000.000,-1000.000,-930.664,-1000.000
1742120464.747,-1000.000,-821.289,-967.773,-1000.000
1742120464.751,-949.707,769.531,-976.074,-963.379
1742120464.755,-1000.000,694.824,-1000.000,-1000.000
1742120464.712,905.762,931.641,-49.805,902.344
1742120464.716,982.422,958.496,-329.590,982.910
1742120464.720,903.320,941.895,-3.906,901.855
1742120464.724,999.512,999.512,356.934,999.512
1742120464.728,187.012,-109.375,55.176,228.516
1742120464.732,-1000.000,-1000.000,-444.336,-1000.000
1742120464.736,-983.887,-967.773,-487.305,-990.723
1742120464.739,-973.145,-934.570,-666.016,-969.727
1742120464.743,-1000.000,-1000.000,-930.664,-1000.000
1742120464.747,-1000.000,-821.289,-967.773,-1000.000
1742120464.751,-949.707,769.531,-976.074,-963.379
1742120464.755,-1000.000,694.824,-1000.000,-1000.000
1742120464.758,-889.648,-346.191,-745.605,-993.652
1742120464.762,487.793,652.344,-1.953,296.875
1742120464.766,999.512,999.512,324.707,999.512
1742120464.770,999.512,238.281,-84.961,968.262
1742120464.774,143.555,-954.590,-499.023,-45.898
1742120464.778,-1000.000,-1000.000,170.898,-1000.000
1742120464.782,-188.477,-133.301,694.336,-186.035
1742120464.785,999.512,999.512,-161.133,999.512
1742120464.789,946.289,879.395,-692.383,950.195
1742120464.793,938.965,999.512,130.371,938.965
1742120464.797,973.145,576.660,842.773,974.609
1742120464.801,966.797,-819.824,966.309,965.820
1742120464.758,-889.648,-346.191,-745.605,-993.652
1742120464.762,487.793,652.344,-1.953,296.875
1742120464.766,999.512,999.512,324.707,999.512
1742120464.770,999.512,238.281,-84.961,968.262
1742120464.774,143.555,-954.590,-499.023,-45.898
1742120464.778,-1000.000,-1000.000,170.898,-1000.000
1742120464.782,-188.477,-133.301,694.336,-186.035
1742120464.785,999.512,999.512,-161.133,999.512
1742120464.789,946.289,879.395,-692.383,950.195
1742120464.793,938.965,999.512,130.371,938.965
1742120464.797,973.145,576.660,842.773,974.609
1742120464.801,966.797,-819.824,966.309,965.820
1742120464.818,903.320,-1000.000,950.684,907.227
1742120464.822,999.512,-956.543,968.750,999.512
1742120464.826,187.012,-971.191,967.285,154.785
1742120464.830,-1000.000,-1000.000,967.285,-1000.000
1742120464.834,-983.887,-986.328,966.797,-979.492
1742120464.838,-973.145,380.859,966.797,-975.586
1742120464.842,-1000.000,999.512,968.750,-1000.000
1742120464.845,-987.793,-315.918,954.590,-989.746
1742120464.849,-957.520,-1000.000,957.031,-955.078
1742120464.853,-1000.000,-827.637,969.727,-1000.000
1742120464.857,-12.695,452.637,966.309,-41.992
1742120464.861,999.512,999.512,966.797,999.512
1742120464.818,903.320,-1000.000,950.684,907.227
1742120464.822,999.512,-956.543,968.750,999.512
1742120464.826,187.012,-971.191,967.285,154.785
1742120464.830,-1000.000,-1000.000,967.285,-1000.000
1742120464.834,-983.887,-986.328,966.797,-979.492
1742120464.838,-973.145,380.859,966.797,-975.586
1742120464.842,-1000.000,999.512,968.750,-1000.000
1742120464.845,-987.793,-315.918,954.590,-989.746
1742120464.849,-957.520,-1000.000,957.031,-955.078
1742120464.853,-1000.000,-827.637,969.727,-1000.000
1742120464.857,-12.695,452.637,966.309,-41.992
1742120464.861,999.512,999.512,966.797,999.512
1742120464.863,922.363,999.512,967.285,927.246
1742120464.867,954.102,172.852,967.285,952.637
1742120464.871,968.262,-1000.000,965.820,969.727
1742120464.875,966.309,-1000.000,964.355,967.285
1742120464.879,966.797,-750.977,978.027,971.191
1742120464.883,903.809,546.387,883.789,899.902
1742120464.887,999.512,999.512,867.188,999.512
1742120464.890,186.523,37.109,969.727,258.301
1742120464.894,-1000.000,-1000.000,940.918,-1000.000
1742120464.898,-993.164,-974.121,880.859,-1000.000
1742120464.902,-936.523,-916.016,629.883,-922.363
1742120464.906,-1000.000,-1000.000,468.262,-1000.000
1742120464.863,922.363,999.512,967.285,927.246
1742120464.867,954.102,172.852,967.285,952.637
1742120464.871,968.262,-1000.000,965.820,969.727
1742120464.875,966.309,-1000.000,964.355,967.285
1742120464.879,966.797,-750.977,978.027,971.191
1742120464.883,903.809,546.387,883.789,899.902
1742120464.887,999.512,999.512,867.188,999.512
1742120464.890,186.523,37.109,969.727,258.301
1742120464.894,-1000.000,-1000.000,940.918,-1000.000
1742120464.898,-993.164,-974.121,880.859,-1000.000
1742120464.902,-936.523,-916.016,629.883,-922.363
1742120464.906,-1000.000,-1000.000,468.262,-1000.000
1742120464.908,-999.023,-219.238,770.508,-909.668
1742120464.912,278.320,962.891,971.191,406.250
1742120464.916,999.512,999.512,994.141,999.512
1742120464.920,949.707,431.641,766.113,957.520
1742120464.924,-173.828,-861.328,437.988,-109.863
1742120464.928,-1000.000,-1000.000,728.516,-1000.000
1742120464.932,-878.418,-273.926,993.164,-762.695
1742120464.935,433.594,995.117,812.988,583.496
1742120464.939,999.512,898.926,229.492,999.512
1742120464.943,922.852,999.512,-274.414,869.141
1742120464.947,925.293,448.730,-199.219,999.512
1742120464.951,-426.758,-940.918,-241.211,-76.172
1742120464.908,-999.023,-219.238,770.508,-909.668
1742120464.912,278.320,962.891,971.191,406.250
1742120464.916,999.512,999.512,994.141,999.512
1742120464.920,949.707,431.641,766.113,957.520
1742120464.924,-173.828,-861.328,437.988,-109.863
1742120464.928,-1000.000,-1000.000,728.516,-1000.000
1742120464.932,-878.418,-273.926,993.164,-762.695
1742120464.935,433.594,995.117,812.988,583.496
1742120464.939,999.512,898.926,229.492,999.512
1742120464.943,922.852,999.512,-274.414,869.141
1742120464.947,925.293,448.730,-199.219,999.512
1742120464.951,-426.758,-940.918,-241.211,-76.172
1742120464.953,-1000.000,-1000.000,-448.730,-1000.000
1742120464.957,-914.551,-899.414,-790.039,-932.129
1742120464.961,-978.516,-1000.000,-911.133,-963.867
1742120464.965,-1000.000,-838.379,-520.508,-1000.000
1742120464.969,95.703,546.875,45.898,103.516
1742120464.973,999.512,999.512,359.863,999.512
1742120464.977,999.512,999.512,-291.992,999.512
1742120464.980,181.152,69.824,-1000.000,216.309
1742120464.984,-1000.000,-1000.000,-933.105,-998.047
1742120464.988,-1000.000,-1000.000,-447.754,-1000.000
1742120464.992,-193.848,-204.590,63.965,-172.852
1742120464.996,999.512,999.512,24.902,999.512
1742120464.953,-1000.000,-1000.000,-448.730,-1000.000
1742120464.957,-914.551,-899.414,-790.039,-932.129
1742120464.961,-978.516,-1000.000,-911.133,-963.867
1742120464.965,-1000.000,-838.379,-520.508,-1000.000
1742120464.969,95.703,546.875,45.898,103.516
1742120464.973,999.512,999.512,359.863,999.512
1742120464.977,999.512,999.512,-291.992,999.512
1742120464.980,181.152,69.824,-1000.000,216.309
1742120464.984,-1000.000,-1000.000,-933.105,-998.047
1742120464.988,-1000.000,-1000.000,-447.754,-1000.000
1742120464.992,-193.848,-204.590,63.965,-172.852
1742120464.996,999.512,999.512,24.902,999.512
1742120464.997,950.195,961.914,-519.043,948.242
1742120465.001,939.453,878.418,-777.832,940.918
1742120465.005,972.168,999.512,-698.730,973.145
1742120465.009,967.285,682.129,-563.965,967.285
1742120465.013,974.121,-889.648,-569.336,981.445
1742120465.017,884.766,-323.730,-790.039,896.973
1742120465.021,999.512,999.512,-997.070,999.512
1742120465.024,362.793,187.500,-991.699,594.727
1742120465.028,-1000.000,-1000.000,-1000.000,-839.355
1742120465.032,-1000.000,-976.562,-905.762,-1000.000
1742120465.036,-895.996,-918.457,-835.449,-881.348
1742120465.040,-1000.000,-1000.000,-639.160,-1000.000
1742120465.043,-220.703,-103.027,144.531,-202.148
1742120465.047,999.512,991.211,504.395,999.512
1742120465.051,949.707,999.512,164.062,948.242
1742120465.055,938.965,359.863,-157.715,940.918
1742120465.059,983.398,-1000.000,-126.953,986.328
1742120465.063,894.043,-137.207,318.359,912.109
1742120465.067,999.512,999.512,401.367,999.512
1742120465.070,397.949,111.328,-65.918,795.898
1742120465.074,-984.375,-1000.000,-364.258,-596.680
1742120465.078,-958.496,-913.574,-108.398,-1000.000
1742120465.082,-1000.000,-1000.000,389.160,-1000.000
1742120465.086,-233.398,-223.145,714.355,-205.078
1742120465.043,-220.703,-103.027,144.531,-202.148
1742120465.047,999.512,991.211,504.395,999.512
1742120465.051,949.707,999.512,164.062,948.242
1742120465.055,938.965,359.863,-157.715,940.918
1742120465.059,983.398,-1000.000,-126.953,986.328
1742120465.063,894.043,-137.207,318.359,912.109
1742120465.067,999.512,999.512,401.367,999.512
1742120465.070,397.949,111.328,-65.918,795.898
1742120465.074,-984.375,-1000.000,-364.258,-596.680
1742120465.078,-958.496,-913.574,-108.398,-1000.000
1742120465.082,-1000.000,-1000.000,389.160,-1000.000
1742120465.086,-233.398,-223.145,714.355,-205.078
1742120465.087,999.512,999.512,780.273,999.512
1742120465.091,883.301,917.480,312.988,875.977
1742120465.095,999.512,999.512,-324.219,999.512
1742120465.099,294.434,44.922,-467.285,597.656
1742120465.103,-1000.000,-1000.000,-258.301,-917.480
1742120465.107,-1000.000,-439.941,112.305,-951.660
1742120465.111,289.062,999.512,97.168,495.605
1742120465.114,999.512,520.508,-601.562,999.512
1742120465.118,-375.977,-924.316,-878.418,-131.836
1742120465.122,-1000.000,-1000.000,-462.402,-1000.000
1742120465.126,-1000.000,-1000.000,-202.637,-1000.000
1742120465.130,-224.609,50.293,-325.195,-199.219
1742120465.087,999.512,999.512,780.273,999.512
1742120465.091,883.301,917.480,312.988,875.977
1742120465.095,999.512,999.512,-324.219,999.512
1742120465.099,294.434,44.922,-467.285,597.656
1742120465.103,-1000.000,-1000.000,-258.301,-917.480
1742120465.107,-1000.000,-439.941,112.305,-951.660
1742120465.111,289.062,999.512,97.168,495.605
1742120465.114,999.512,520.508,-601.562,999.512
1742120465.118,-375.977,-924.316,-878.418,-131.836
1742120465.122,-1000.000,-1000.000,-462.402,-1000.000
1742120465.126,-1000.000,-1000.000,-202.637,-1000.000
1742120465.130,-224.609,50.293,-325.195,-199.219
1742120465.134,999.512,999.512,-471.191,999.512
1742120465.138,932.617,851.562,-625.000,949.219
1742120465.142,907.227,999.512,-656.250,878.418
1742120465.146,999.512,285.156,-719.727,999.512
1742120465.150,-83.984,-1000.000,-954.102,183.105
1742120465.154,-1000.000,-1000.000,-997.559,-1000.000
1742120465.158,-954.590,-960.938,-1000.000,-982.910
1742120465.161,-928.223,-955.078,-935.059,-912.109
1742120465.165,-1000.000,-1000.000,-658.203,-1000.000
1742120465.169,-220.703,-143.066,-530.273,-202.637
1742120465.173,999.512,999.512,-586.426,999.512
1742120465.177,953.125,946.289,-560.059,949.707
1742120465.134,999.512,999.512,-471.191,999.512
1742120465.138,932.617,851.562,-625.000,949.219
1742120465.142,907.227,999.512,-656.250,878.418
1742120465.146,999.512,285.156,-719.727,999.512
1742120465.150,-83.984,-1000.000,-954.102,183.105
1742120465.154,-1000.000,-1000.000,-997.559,-1000.000
1742120465.158,-954.590,-960.938,-1000.000,-982.910
1742120465.161,-928.223,-955.078,-935.059,-912.109
1742120465.165,-1000.000,-1000.000,-658.203,-1000.000
1742120465.169,-220.703,-143.066,-530.273,-202.637
1742120465.173,999.512,999.512,-586.426,999.512
1742120465.177,953.125,946.289,-560.059,949.707
1742120465.193,924.805,877.930,-145.996,934.082
1742120465.197,933.594,999.512,356.445,922.363
1742120465.201,999.512,260.254,104.492,999.512
1742120465.205,-13.672,-973.145,-689.941,103.027
1742120465.209,-1000.000,-1000.000,-949.219,-1000.000
1742120465.213,-982.422,-304.688,-307.617,-933.594
1742120465.217,180.664,912.109,285.156,278.809
1742120465.220,999.512,999.512,191.406,999.512
1742120465.224,593.750,250.977,-332.031,629.883
1742120465.228,-793.945,-1000.000,-542.480,-737.793
1742120465.232,-1000.000,-951.660,-281.250,-1000.000
1742120465.236,-1000.000,-1000.000,-242.188,-1000.000
1742120465.193,924.805,877.930,-145.996,934.082
1742120465.197,933.594,999.512,356.445,922.363
1742120465.201,999.512,260.254,104.492,999.512
1742120465.205,-13.672,-973.145,-689.941,103.027
1742120465.209,-1000.000,-1000.000,-949.219,-1000.000
1742120465.213,-982.422,-304.688,-307.617,-933.594
1742120465.217,180.664,912.109,285.156,278.809
1742120465.220,999.512,999.512,191.406,999.512
1742120465.224,593.750,250.977,-332.031,629.883
1742120465.228,-793.945,-1000.000,-542.480,-737.793
1742120465.232,-1000.000,-951.660,-281.250,-1000.000
1742120465.236,-1000.000,-1000.000,-242.188,-1000.000
1742120465.238,-378.906,-99.609,-153.809,-410.645
1742120465.242,983.887,999.512,-214.844,966.309
1742120465.246,974.121,934.082,-349.609,981.445
1742120465.250,937.500,954.102,96.191,935.059
1742120465.254,904.297,903.809,391.113,906.738
1742120465.258,999.512,999.512,316.406,999.512
1742120465.262,376.465,268.066,-44.434,376.465
1742120465.265,-998.047,-1000.000,-687.012,-994.629
1742120465.269,-1000.000,-997.559,-635.742,-1000.000
1742120465.273,-958.008,-976.562,-118.164,-957.520
1742120465.277,-1000.000,-965.332,-6.348,-1000.000
1742120465.281,-931.641,-1000.000,-236.328,-931.641
1742120465.238,-378.906,-99.609,-153.809,-410.645
1742120465.242,983.887,999.512,-214.844,966.309
1742120465.246,974.121,934.082,-349.609,981.445
1742120465.250,937.500,954.102,96.191,935.059
1742120465.254,904.297,903.809,391.113,906.738
1742120465.258,999.512,999.512,316.406,999.512
1742120465.262,376.465,268.066,-44.434,376.465
1742120465.265,-998.047,-1000.000,-687.012,-994.629
1742120465.269,-1000.000,-997.559,-635.742,-1000.000
1742120465.273,-958.008,-976.562,-118.164,-957.520
1742120465.277,-1000.000,-965.332,-6.348,-1000.000
1742120465.281,-931.641,-1000.000,-236.328,-931.641
1742120465.283,-1000.000,-897.461,-451.660,-1000.000
1742120465.287,-330.566,427.734,-151.855,-654.297
1742120465.291,996.094,999.512,388.184,777.832
1742120465.295,968.262,906.738,587.891,999.512
1742120465.299,930.664,984.863,99.609,910.156
1742120465.303,972.656,894.531,-322.754,973.633
1742120465.307,909.668,999.512,-54.199,918.945
1742120465.310,999.512,438.965,233.887,999.512
1742120465.314,117.676,-965.820,126.465,53.223
1742120465.318,-1000.000,-1000.000,-142.090,-1000.000
1742120465.322,-911.621,-923.828,-242.188,-900.879
1742120465.326,-1000.000,-1000.000,-16.602,-1000.000
1742120465.283,-1000.000,-897.461,-451.660,-1000.000
1742120465.287,-330.566,427.734,-151.855,-654.297
1742120465.291,996.094,999.512,388.184,777.832
1742120465.295,968.262,906.738,587.891,999.512
1742120465.299,930.664,984.863,99.609,910.156
1742120465.303,972.656,894.531,-322.754,973.633
1742120465.307,909.668,999.512,-54.199,918.945
1742120465.310,999.512,438.965,233.887,999.512
1742120465.314,117.676,-965.820,126.465,53.223
1742120465.318,-1000.000,-1000.000,-142.090,-1000.000
1742120465.322,-911.621,-923.828,-242.188,-900.879
1742120465.326,-1000.000,-1000.000,-16.602,-1000.000
1742120465.328,-225.098,83.496,527.344,-304.199
1742120465.332,974.609,999.512,780.762,948.242
1742120465.336,999.512,999.512,288.086,999.512
1742120465.340,158.691,203.613,-437.988,136.230
1742120465.344,-1000.000,-1000.000,-532.715,-1000.000
1742120465.348,-1000.000,-317.383,84.473,-1000.000
1742120465.352,-193.359,999.512,577.637,-193.359
1742120465.355,999.512,973.145,375.977,999.512
1742120465.359,954.102,861.328,-109.375,956.543
1742120465.363,919.434,999.512,67.383,912.598
1742120465.367,942.383,338.867,406.250,964.844
1742120465.371,999.512,-1000.000,364.258,992.188
1742120465.328,-225.098,83.496,527.344,-304.199
1742120465.332,974.609,999.512,780.762,948.242
1742120465.336,999.512,999.512,288.086,999.512
1742120465.340,158.691,203.613,-437.988,136.230
1742120465.344,-1000.000,-1000.000,-532.715,-1000.000
1742120465.348,-1000.000,-317.383,84.473,-1000.000
1742120465.352,-193.359,999.512,577.637,-193.359
1742120465.355,999.512,973.145,375.977,999.512
1742120465.359,954.102,861.328,-109.375,956.543
1742120465.363,919.434,999.512,67.383,912.598
1742120465.367,942.383,338.867,406.250,964.844
1742120465.371,999.512,-1000.000,364.258,992.188
1742120465.373,-117.676,-1000.000,141.602,-226.562
1742120465.377,-1000.000,-959.961,-105.469,-1000.000
1742120465.381,-913.086,-950.195,-18.066,-925.293
1742120465.385,-995.117,-1000.000,208.008,-972.656
1742120465.389,-1000.000,-187.500,303.711,-1000.000
1742120465.393,231.445,972.168,504.883,60.547
1742120465.397,999.512,999.512,302.246,999.512
1742120465.400,886.230,371.582,-119.629,802.246
1742120465.404,-376.465,-983.887,-5.859,-512.207
1742120465.408,-1000.000,-972.656,352.051,-1000.000
1742120465.412,-907.715,-1000.000,491.699,-928.223
1742120465.416,-992.676,-768.555,235.840,-959.961
1742120465.418,-1000.000,573.730,232.422,-1000.000
1742120465.422,198.730,977.051,704.102,-64.453
1742120465.426,999.512,999.512,911.133,998.047
1742120465.430,999.512,527.832,787.598,999.512
1742120465.434,522.949,-894.531,204.590,458.984
1742120465.438,-916.016,-1000.000,-51.270,-930.176
1742120465.442,-1000.000,-916.016,340.820,-1000.000
1742120465.445,-945.801,-1000.000,453.125,-950.195
1742120465.449,-1000.000,-979.004,565.918,-1000.000
1742120465.453,-1000.000,169.434,562.988,-1000.000
1742120465.457,-941.895,999.512,287.598,-945.312
1742120465.461,-1000.000,206.055,290.039,-1000.000
1742120465.418,-1000.000,573.730,232.422,-1000.000
1742120465.422,198.730,977.051,704.102,-64.453
1742120465.426,999.512,999.512,911.133,998.047
1742120465.430,999.512,527.832,787.598,999.512
1742120465.434,522.949,-894.531,204.590,458.984
1742120465.438,-916.016,-1000.000,-51.270,-930.176
1742120465.442,-1000.000,-916.016,340.820,-1000.000
1742120465.445,-945.801,-1000.000,453.125,-950.195
1742120465.449,-1000.000,-979.004,565.918,-1000.000
1742120465.453,-1000.000,169.434,562.988,-1000.000
1742120465.457,-941.895,999.512,287.598,-945.312
1742120465.461,-1000.000,206.055,290.039,-1000.000
1742120465.464,-813.965,-929.688,539.062,-825.684
1742120465.468,603.516,393.066,858.887,564.453
1742120465.472,999.512,999.512,644.531,999.512
1742120465.476,900.391,350.586,-22.461,893.066
1742120465.480,993.652,-1000.000,197.754,962.402
1742120465.484,906.738,-117.676,840.820,912.109
1742120465.488,999.512,999.512,984.863,999.512
1742120465.491,768.066,120.117,739.746,814.453
1742120465.495,-651.855,-1000.000,242.188,-574.707
1742120465.499,-1000.000,-963.867,216.797,-1000.000
1742120465.503,-934.570,-923.828,454.590,-935.547
1742120465.507,-1000.000,-1000.000,102.051,-1000.000
1742120465.508,-1000.000,92.773,-298.828,-1000.000
1742120465.512,-1000.000,796.387,-663.574,-1000.000
1742120465.516,-931.641,-691.895,-828.125,-930.176
1742120465.520,-1000.000,-1000.000,-720.703,-1000.000
1742120465.524,-318.848,-152.344,-586.914,-361.816
1742120465.528,999.512,966.309,-307.617,982.910
1742120465.532,965.820,999.512,-659.180,977.539
1742120465.535,931.152,219.238,-1000.000,915.039
1742120465.539,988.281,-1000.000,-667.969,976.562
1742120465.543,892.090,-614.258,-407.715,895.996
1742120465.547,999.512,989.258,-536.133,999.512
1742120465.551,440.430,345.215,-801.270,450.195
1742120465.508,-1000.000,92.773,-298.828,-1000.000
1742120465.512,-1000.000,796.387,-663.574,-1000.000
1742120465.516,-931.641,-691.895,-828.125,-930.176
1742120465.520,-1000.000,-1000.000,-720.703,-1000.000
1742120465.524,-318.848,-152.344,-586.914,-361.816
1742120465.528,999.512,966.309,-307.617,982.910
1742120465.532,965.820,999.512,-659.180,977.539
1742120465.535,931.152,219.238,-1000.000,915.039
1742120465.539,988.281,-1000.000,-667.969,976.562
1742120465.543,892.090,-614.258,-407.715,895.996
1742120465.547,999.512,989.258,-536.133,999.512
1742120465.551,440.430,345.215,-801.270,450.195
1742120465.568,-965.820,-1000.000,-852.539,-957.031
1742120465.572,-1000.000,-949.707,-511.719,-1000.000
1742120465.576,-952.637,-1000.000,-330.566,-952.148
1742120465.580,-1000.000,-74.219,-458.008,-1000.000
1742120465.584,-937.500,999.512,-752.441,-937.500
1742120465.588,-1000.000,937.988,-718.262,-1000.000
1742120465.592,-221.191,946.289,-231.445,-218.750
1742120465.595,999.512,914.062,91.309,999.512
1742120465.599,876.465,999.512,85.449,883.301
1742120465.603,999.512,129.883,-202.637,999.512
1742120465.607,498.535,-1000.000,-286.621,396.484
1742120465.611,-1000.000,-1000.000,-22.461,-1000.000
1742120465.568,-965.820,-1000.000,-852.539,-957.031
1742120465.572,-1000.000,-949.707,-511.719,-1000.000
1742120465.576,-952.637,-1000.000,-330.566,-952.148
1742120465.580,-1000.000,-74.219,-458.008,-1000.000
1742120465.584,-937.500,999.512,-752.441,-937.500
1742120465.588,-1000.000,937.988,-718.262,-1000.000
1742120465.592,-221.191,946.289,-231.445,-218.750
1742120465.595,999.512,914.062,91.309,999.512
1742120465.599,876.465,999.512,85.449,883.301
1742120465.603,999.512,129.883,-202.637,999.512
1742120465.607,498.535,-1000.000,-286.621,396.484
1742120465.611,-1000.000,-1000.000,-22.461,-1000.000
1742120465.613,-725.586,-316.406,333.496,-739.746
1742120465.617,791.504,963.379,632.324,735.352
1742120465.621,999.512,958.008,323.730,999.512
1742120465.625,904.297,999.512,-10.254,904.785
1742120465.629,982.422,-248.535,216.309,981.934
1742120465.633,903.320,-240.234,649.414,904.297
1742120465.637,999.512,999.512,812.012,999.512
1742120465.640,187.012,-83.008,133.301,187.012
1742120465.644,-1000.000,-1000.000,-506.348,-1000.000
1742120465.648,-983.887,-949.707,-134.277,-983.887
1742120465.652,-973.145,-994.141,124.023,-973.145
1742120465.656,-1000.000,-986.328,-69.336,-1000.000
1742120465.613,-725.586,-316.406,333.496,-739.746
1742120465.617,791.504,963.379,632.324,735.352
1742120465.621,999.512,958.008,323.730,999.512
1742120465.625,904.297,999.512,-10.254,904.785
