timestamps,TP9,AF7,AF8,TP10
1742122351.331,914.551,-172.363,-85.938,913.086
1742122351.335,959.473,-107.910,-79.102,963.379
1742122351.339,975.586,-65.430,-65.918,977.051
1742122351.343,933.594,-104.004,-68.359,928.223
1742122351.347,962.891,67.871,-60.547,981.934
1742122351.351,999.512,54.199,-64.941,933.105
1742122351.355,-289.551,-548.340,-100.586,-375.000
1742122351.358,-1000.000,-488.281,-73.730,-1000.000
1742122351.362,-936.035,-264.160,-27.344,-938.477
1742122351.366,-1000.000,-572.266,-353.027,-1000.000
1742122351.370,-1000.000,-655.762,-616.211,-1000.000
1742122351.374,-927.246,-518.555,-511.230,-929.688
1742122351.376,-1000.000,-604.492,-443.359,-1000.000
1742122351.380,-604.492,-215.332,-383.301,-571.777
1742122351.384,841.797,360.352,-277.832,847.656
1742122351.388,999.512,-81.055,-203.125,999.512
1742122351.392,908.691,-365.723,-159.180,912.598
1742122351.396,983.398,-69.824,-106.445,985.352
1742122351.400,957.520,22.949,-62.988,948.242
1742122351.403,916.992,-208.984,-24.414,939.453
1742122351.407,999.512,-254.395,-3.906,999.512
1742122351.411,37.598,-541.992,-0.488,-97.656
1742122351.415,-1000.000,-433.594,32.227,-1000.000
1742122351.419,-963.379,-28.809,75.195,-956.055
1742122351.376,-1000.000,-604.492,-443.359,-1000.000
1742122351.380,-604.492,-215.332,-383.301,-571.777
1742122351.384,841.797,360.352,-277.832,847.656
1742122351.388,999.512,-81.055,-203.125,999.512
1742122351.392,908.691,-365.723,-159.180,912.598
1742122351.396,983.398,-69.824,-106.445,985.352
1742122351.400,957.520,22.949,-62.988,948.242
1742122351.403,916.992,-208.984,-24.414,939.453
1742122351.407,999.512,-254.395,-3.906,999.512
1742122351.411,37.598,-541.992,-0.488,-97.656
1742122351.415,-1000.000,-433.594,32.227,-1000.000
1742122351.419,-963.379,-28.809,75.195,-956.055
1742122351.436,-984.375,-53.711,85.938,-990.723
1742122351.440,-1000.000,-46.387,103.027,-1000.000
1742122351.444,-926.270,-35.645,131.836,-928.711
1742122351.448,-1000.000,-137.207,159.668,-1000.000
1742122351.452,-494.629,133.789,209.961,-456.543
1742122351.456,919.434,701.172,283.203,932.617
1742122351.460,999.023,270.996,277.832,993.652
1742122351.463,916.504,-196.289,254.883,920.410
1742122351.467,980.469,-251.465,272.949,979.980
1742122351.471,970.703,-69.336,301.758,971.680
1742122351.475,898.926,-89.844,319.824,899.902
1742122351.479,999.512,1.465,330.078,999.512
1742122351.436,-984.375,-53.711,85.938,-990.723
1742122351.440,-1000.000,-46.387,103.027,-1000.000
1742122351.444,-926.270,-35.645,131.836,-928.711
1742122351.448,-1000.000,-137.207,159.668,-1000.000
1742122351.452,-494.629,133.789,209.961,-456.543
1742122351.456,919.434,701.172,283.203,932.617
1742122351.460,999.023,270.996,277.832,993.652
1742122351.463,916.504,-196.289,254.883,920.410
1742122351.467,980.469,-251.465,272.949,979.980
1742122351.471,970.703,-69.336,301.758,971.680
1742122351.475,898.926,-89.844,319.824,899.902
1742122351.479,999.512,1.465,330.078,999.512
1742122351.480,255.859,-398.438,327.148,264.160
1742122351.484,-1000.000,-628.418,349.121,-1000.000
1742122351.488,-995.117,-1.953,380.859,-997.070
1742122351.492,-967.773,-3.418,375.000,-966.797
1742122351.496,-1000.000,-39.551,336.426,-1000.000
1742122351.500,-1000.000,155.273,270.996,-999.512
1742122351.504,-937.500,45.898,208.984,-939.941
1742122351.507,-1000.000,-242.676,194.336,-1000.000
1742122351.511,-221.191,406.250,191.406,-194.336
1742122351.515,999.512,619.141,153.320,999.512
1742122351.519,950.684,-117.676,95.215,936.523
1742122351.523,875.977,-36.133,46.387,902.832
1742122351.480,255.859,-398.438,327.148,264.160
1742122351.484,-1000.000,-628.418,349.121,-1000.000
1742122351.488,-995.117,-1.953,380.859,-997.070
1742122351.492,-967.773,-3.418,375.000,-966.797
1742122351.496,-1000.000,-39.551,336.426,-1000.000
1742122351.500,-1000.000,155.273,270.996,-999.512
1742122351.504,-937.500,45.898,208.984,-939.941
1742122351.507,-1000.000,-242.676,194.336,-1000.000
1742122351.511,-221.191,406.250,191.406,-194.336
1742122351.515,999.512,619.141,153.320,999.512
1742122351.519,950.684,-117.676,95.215,936.523
1742122351.523,875.977,-36.133,46.387,902.832
1742122351.525,999.512,25.391,16.113,999.512
1742122351.529,187.012,-539.062,-2.441,22.949
1742122351.533,-1000.000,-457.520,-25.879,-1000.000
1742122351.537,-996.582,-26.367,-25.879,-982.910
1742122351.541,-898.926,-62.012,47.852,-909.668
1742122351.545,-1000.000,-5.371,129.883,-1000.000
1742122351.549,-480.469,425.293,160.645,-431.641
1742122351.552,928.711,650.879,175.293,947.266
1742122351.556,996.094,-104.004,179.688,988.281
1742122351.560,917.969,-196.289,216.797,922.363
1742122351.564,982.910,80.566,244.141,984.375
1742122351.568,950.684,55.176,253.906,944.336
1742122351.525,999.512,25.391,16.113,999.512
1742122351.529,187.012,-539.062,-2.441,22.949
1742122351.533,-1000.000,-457.520,-25.879,-1000.000
1742122351.537,-996.582,-26.367,-25.879,-982.910
1742122351.541,-898.926,-62.012,47.852,-909.668
1742122351.545,-1000.000,-5.371,129.883,-1000.000
1742122351.549,-480.469,425.293,160.645,-431.641
1742122351.552,928.711,650.879,175.293,947.266
1742122351.556,996.094,-104.004,179.688,988.281
1742122351.560,917.969,-196.289,216.797,922.363
1742122351.564,982.910,80.566,244.141,984.375
1742122351.568,950.684,55.176,253.906,944.336
1742122351.574,928.711,-69.336,221.680,947.754
1742122351.578,999.512,6.348,182.617,999.512
1742122351.582,-64.941,-259.766,186.523,-159.668
1742122351.586,-1000.000,-392.578,170.410,-1000.000
1742122351.590,-951.660,-123.535,142.090,-950.195
1742122351.594,-991.211,120.605,129.395,-994.629
1742122351.598,-1000.000,123.535,82.520,-1000.000
1742122351.601,-925.781,-151.855,62.988,-928.223
1742122351.605,-1000.000,-289.062,114.746,-1000.000
1742122351.609,-507.324,234.863,155.273,-468.262
1742122351.613,912.598,698.730,165.527,927.246
1742122351.617,999.512,164.551,152.344,995.605
1742122351.574,928.711,-69.336,221.680,947.754
1742122351.578,999.512,6.348,182.617,999.512
1742122351.582,-64.941,-259.766,186.523,-159.668
1742122351.586,-1000.000,-392.578,170.410,-1000.000
1742122351.590,-951.660,-123.535,142.090,-950.195
1742122351.594,-991.211,120.605,129.395,-994.629
1742122351.598,-1000.000,123.535,82.520,-1000.000
1742122351.601,-925.781,-151.855,62.988,-928.223
1742122351.605,-1000.000,-289.062,114.746,-1000.000
1742122351.609,-507.324,234.863,155.273,-468.262
1742122351.613,912.598,698.730,165.527,927.246
1742122351.617,999.512,164.551,152.344,995.605
1742122351.616,916.016,-103.027,186.035,919.922
1742122351.620,980.957,-47.363,191.895,980.469
1742122351.624,969.727,51.270,156.738,970.703
1742122351.628,900.391,-75.195,126.953,900.879
1742122351.632,999.512,181.152,80.078,999.512
1742122351.636,238.281,-192.871,23.438,246.094
1742122351.640,-1000.000,-574.219,-19.043,-1000.000
1742122351.643,-992.188,-69.824,-6.348,-993.652
1742122351.647,-968.750,-231.445,27.344,-968.262
1742122351.651,-1000.000,-135.254,67.383,-1000.000
1742122351.655,-995.117,39.551,68.359,-988.770
1742122351.659,-945.801,2.930,48.340,-958.984
1742122351.661,-1000.000,-76.172,41.504,-1000.000
1742122351.665,-124.512,334.473,26.855,-38.574
1742122351.669,999.512,464.844,3.906,999.512
1742122351.673,936.523,-5.371,33.691,931.152
1742122351.677,946.777,-21.484,36.621,953.613
1742122351.681,967.773,160.156,17.090,962.891
1742122351.685,908.203,77.148,31.738,918.945
1742122351.688,999.512,-86.914,-15.625,999.512
1742122351.692,130.859,-605.469,-41.016,60.059
1742122351.696,-1000.000,-553.711,10.254,-1000.000
1742122351.700,-976.074,15.625,61.523,-970.215
1742122351.704,-977.051,-15.625,112.793,-981.445
1742122351.661,-1000.000,-76.172,41.504,-1000.000
1742122351.665,-124.512,334.473,26.855,-38.574
1742122351.669,999.512,464.844,3.906,999.512
1742122351.673,936.523,-5.371,33.691,931.152
1742122351.677,946.777,-21.484,36.621,953.613
1742122351.681,967.773,160.156,17.090,962.891
1742122351.685,908.203,77.148,31.738,918.945
1742122351.688,999.512,-86.914,-15.625,999.512
1742122351.692,130.859,-605.469,-41.016,60.059
1742122351.696,-1000.000,-553.711,10.254,-1000.000
1742122351.700,-976.074,15.625,61.523,-970.215
1742122351.704,-977.051,-15.625,112.793,-981.445
1742122351.706,-1000.000,-11.719,118.164,-1000.000
1742122351.710,-997.070,-0.977,45.410,-992.676
1742122351.714,-943.359,45.898,-8.789,-951.172
1742122351.718,-1000.000,-23.438,22.461,-1000.000
1742122351.722,-153.809,254.395,91.309,-96.680
1742122351.726,999.512,561.035,140.137,999.512
1742122351.730,940.430,216.797,140.625,932.129
1742122351.733,943.848,-96.191,117.676,956.055
1742122351.737,977.051,-333.008,47.363,956.543
1742122351.741,941.406,-32.715,-26.855,885.254
1742122351.745,946.289,100.098,-62.012,966.309
1742122351.749,999.512,-81.543,-92.773,973.145
1742122351.706,-1000.000,-11.719,118.164,-1000.000
1742122351.710,-997.070,-0.977,45.410,-992.676
1742122351.714,-943.359,45.898,-8.789,-951.172
1742122351.718,-1000.000,-23.438,22.461,-1000.000
1742122351.722,-153.809,254.395,91.309,-96.680
1742122351.726,999.512,561.035,140.137,999.512
1742122351.730,940.430,216.797,140.625,932.129
1742122351.733,943.848,-96.191,117.676,956.055
1742122351.737,977.051,-333.008,47.363,956.543
1742122351.741,941.406,-32.715,-26.855,885.254
1742122351.745,946.289,100.098,-62.012,966.309
1742122351.749,999.512,-81.543,-92.773,973.145
1742122351.750,-191.406,-509.277,-85.449,-289.062
1742122351.754,-1000.000,-371.582,10.742,-1000.000
1742122351.758,-941.406,120.605,91.797,-942.383
1742122351.762,-999.023,-11.719,88.379,-1000.000
1742122351.766,-1000.000,-162.598,-40.527,-1000.000
1742122351.770,-928.223,116.211,-160.645,-930.176
1742122351.774,-1000.000,17.578,-160.156,-1000.000
1742122351.777,-619.629,17.578,-72.266,-575.195
1742122351.781,826.172,503.418,21.973,842.285
1742122351.785,999.512,196.777,21.484,999.512
1742122351.789,908.203,-0.488,-23.438,913.086
1742122351.793,981.934,17.578,-71.777,980.957
1742122351.750,-191.406,-509.277,-85.449,-289.062
1742122351.754,-1000.000,-371.582,10.742,-1000.000
1742122351.758,-941.406,120.605,91.797,-942.383
1742122351.762,-999.023,-11.719,88.379,-1000.000
1742122351.766,-1000.000,-162.598,-40.527,-1000.000
1742122351.770,-928.223,116.211,-160.645,-930.176
1742122351.774,-1000.000,17.578,-160.156,-1000.000
1742122351.777,-619.629,17.578,-72.266,-575.195
1742122351.781,826.172,503.418,21.973,842.285
1742122351.785,999.512,196.777,21.484,999.512
1742122351.789,908.203,-0.488,-23.438,913.086
1742122351.793,981.934,17.578,-71.777,980.957
1742122351.810,981.445,93.262,-110.352,979.492
1742122351.814,892.090,-4.395,-122.070,896.484
1742122351.818,999.512,87.402,-96.191,999.512
1742122351.822,550.781,-127.930,-84.961,513.184
1742122351.826,-894.531,-697.754,-97.168,-897.461
1742122351.830,-1000.000,-58.105,-63.477,-1000.000
1742122351.834,-943.848,274.902,-45.898,-948.242
1742122351.837,-1000.000,-8.789,-48.828,-1000.000
1742122351.841,-964.355,-97.656,-13.672,-958.496
1742122351.845,-1000.000,-188.477,-3.418,-1000.000
1742122351.849,-1000.000,0.977,7.324,-938.477
1742122351.853,299.316,484.375,44.922,389.160
1742122351.810,981.445,93.262,-110.352,979.492
1742122351.814,892.090,-4.395,-122.070,896.484
1742122351.818,999.512,87.402,-96.191,999.512
1742122351.822,550.781,-127.930,-84.961,513.184
1742122351.826,-894.531,-697.754,-97.168,-897.461
1742122351.830,-1000.000,-58.105,-63.477,-1000.000
1742122351.834,-943.848,274.902,-45.898,-948.242
1742122351.837,-1000.000,-8.789,-48.828,-1000.000
1742122351.841,-964.355,-97.656,-13.672,-958.496
1742122351.845,-1000.000,-188.477,-3.418,-1000.000
1742122351.849,-1000.000,0.977,7.324,-938.477
1742122351.853,299.316,484.375,44.922,389.160
1742122351.859,999.512,215.820,40.527,999.512
1742122351.863,901.367,-103.516,10.742,904.297
1742122351.867,970.703,118.652,-49.316,973.145
1742122351.871,976.074,48.340,-99.121,977.539
1742122351.875,927.734,-127.441,-77.637,924.805
1742122351.879,977.051,118.652,-22.949,991.211
1742122351.883,958.984,45.410,-25.879,906.738
1742122351.886,-362.305,-640.625,-71.777,-426.270
1742122351.890,-1000.000,-455.566,-87.891,-1000.000
1742122351.894,-935.059,7.324,-101.074,-936.523
1742122351.898,-1000.000,-10.254,-139.648,-1000.000
1742122351.902,-1000.000,7.324,-137.207,-995.605
1742122351.859,999.512,215.820,40.527,999.512
1742122351.863,901.367,-103.516,10.742,904.297
1742122351.867,970.703,118.652,-49.316,973.145
1742122351.871,976.074,48.340,-99.121,977.539
1742122351.875,927.734,-127.441,-77.637,924.805
1742122351.879,977.051,118.652,-22.949,991.211
1742122351.883,958.984,45.410,-25.879,906.738
1742122351.886,-362.305,-640.625,-71.777,-426.270
1742122351.890,-1000.000,-455.566,-87.891,-1000.000
1742122351.894,-935.059,7.324,-101.074,-936.523
1742122351.898,-1000.000,-10.254,-139.648,-1000.000
1742122351.902,-1000.000,7.324,-137.207,-995.605
1742122351.901,-938.965,-65.430,-93.262,-946.777
1742122351.905,-1000.000,-87.402,-55.176,-1000.000
1742122351.909,-202.637,478.027,-47.363,-133.301
1742122351.913,999.512,491.699,-58.105,999.512
1742122351.917,947.266,13.672,-91.309,939.941
1742122351.921,940.430,136.230,-115.723,945.801
1742122351.925,973.633,67.871,-77.637,974.121
1742122351.928,959.961,6.348,-44.434,956.543
1742122351.932,914.062,-168.457,-51.270,923.340
1742122351.936,999.512,-139.160,-38.086,999.512
1742122351.940,68.359,-431.641,-36.621,16.113
1742122351.944,-1000.000,-508.789,-42.480,-1000.000
1742122351.901,-938.965,-65.430,-93.262,-946.777
1742122351.905,-1000.000,-87.402,-55.176,-1000.000
1742122351.909,-202.637,478.027,-47.363,-133.301
1742122351.913,999.512,491.699,-58.105,999.512
1742122351.917,947.266,13.672,-91.309,939.941
1742122351.921,940.430,136.230,-115.723,945.801
1742122351.925,973.633,67.871,-77.637,974.121
1742122351.928,959.961,6.348,-44.434,956.543
1742122351.932,914.062,-168.457,-51.270,923.340
1742122351.936,999.512,-139.160,-38.086,999.512
1742122351.940,68.359,-431.641,-36.621,16.113
1742122351.944,-1000.000,-508.789,-42.480,-1000.000
1742122351.946,-967.285,-81.055,-54.199,-964.355
1742122351.950,-981.934,-25.391,-71.289,-984.863
1742122351.954,-1000.000,24.414,-92.773,-1000.000
1742122351.958,-930.176,-13.184,-117.676,-931.152
1742122351.962,-1000.000,-91.309,-130.371,-1000.000
1742122351.966,-353.516,442.383,-140.625,-341.797
1742122351.970,988.281,618.652,-153.809,991.211
1742122351.973,972.168,-21.973,-153.809,971.680
1742122351.977,928.223,-243.164,-160.156,930.176
1742122351.981,977.051,-176.758,-140.625,978.027
1742122351.985,966.797,-2.441,-93.262,964.355
1742122351.989,903.320,-49.805,-92.773,909.668
1742122351.946,-967.285,-81.055,-54.199,-964.355
1742122351.950,-981.934,-25.391,-71.289,-984.863
1742122351.954,-1000.000,24.414,-92.773,-1000.000
1742122351.958,-930.176,-13.184,-117.676,-931.152
1742122351.962,-1000.000,-91.309,-130.371,-1000.000
1742122351.966,-353.516,442.383,-140.625,-341.797
1742122351.970,988.281,618.652,-153.809,991.211
1742122351.973,972.168,-21.973,-153.809,971.680
1742122351.977,928.223,-243.164,-160.156,930.176
1742122351.981,977.051,-176.758,-140.625,978.027
1742122351.985,966.797,-2.441,-93.262,964.355
1742122351.989,903.320,-49.805,-92.773,909.668
1742122351.990,999.512,-52.246,-108.887,999.512
1742122351.994,187.012,-488.770,-110.352,138.672
1742122351.998,-1000.000,-570.801,-126.953,-1000.000
1742122352.002,-984.863,-36.621,-142.090,-973.633
1742122352.006,-910.156,-97.656,-143.066,-924.316
1742122352.010,-1000.000,-82.520,-142.578,-1000.000
1742122352.014,-220.703,546.387,-137.695,-149.414
1742122352.017,999.512,482.910,-128.906,999.512
1742122352.021,951.660,-281.738,-115.234,950.195
1742122352.025,929.688,-52.734,-71.777,925.781
1742122352.029,924.805,116.699,-57.129,942.871
1742122352.033,999.512,-113.770,-90.820,999.512
1742122351.990,999.512,-52.246,-108.887,999.512
1742122351.994,187.012,-488.770,-110.352,138.672
1742122351.998,-1000.000,-570.801,-126.953,-1000.000
1742122352.002,-984.863,-36.621,-142.090,-973.633
1742122352.006,-910.156,-97.656,-143.066,-924.316
1742122352.010,-1000.000,-82.520,-142.578,-1000.000
1742122352.014,-220.703,546.387,-137.695,-149.414
1742122352.017,999.512,482.910,-128.906,999.512
1742122352.021,951.660,-281.738,-115.234,950.195
1742122352.025,929.688,-52.734,-71.777,925.781
1742122352.029,924.805,116.699,-57.129,942.871
1742122352.033,999.512,-113.770,-90.820,999.512
1742122352.036,27.832,-496.094,-109.863,-86.914
1742122352.040,-1000.000,-456.055,-106.445,-1000.000
1742122352.044,-962.402,-30.762,-104.492,-955.078
1742122352.048,-984.863,-52.246,-103.027,-990.723
1742122352.052,-1000.000,-198.730,-111.816,-1000.000
1742122352.056,-925.781,74.707,-117.188,-928.223
1742122352.060,-1000.000,-11.719,-112.793,-1000.000
1742122352.063,-507.812,34.668,-103.516,-458.496
1742122352.067,912.109,482.422,-99.121,932.617
1742122352.071,999.512,50.781,-96.680,993.652
1742122352.075,916.016,-90.332,-73.242,920.410
1742122352.079,980.957,-47.363,-42.480,980.957
1742122352.036,27.832,-496.094,-109.863,-86.914
1742122352.040,-1000.000,-456.055,-106.445,-1000.000
1742122352.044,-962.402,-30.762,-104.492,-955.078
1742122352.048,-984.863,-52.246,-103.027,-990.723
1742122352.052,-1000.000,-198.730,-111.816,-1000.000
1742122352.056,-925.781,74.707,-117.188,-928.223
1742122352.060,-1000.000,-11.719,-112.793,-1000.000
1742122352.063,-507.812,34.668,-103.516,-458.496
1742122352.067,912.109,482.422,-99.121,932.617
1742122352.071,999.512,50.781,-96.680,993.652
1742122352.075,916.016,-90.332,-73.242,920.410
1742122352.079,980.957,-47.363,-42.480,980.957
1742122352.082,966.309,-77.148,-35.156,962.402
1742122352.086,903.809,-113.770,-48.828,912.109
1742122352.090,999.512,-6.836,-32.715,999.512
1742122352.094,180.664,-415.039,-14.648,108.398
1742122352.098,-1000.000,-662.598,-23.926,-1000.000
1742122352.102,-982.910,20.996,-11.230,-974.121
1742122352.106,-973.633,238.281,-11.719,-978.516
1742122352.109,-1000.000,-134.277,-45.898,-1000.000
1742122352.113,-974.121,-306.152,-64.941,-967.285
1742122352.117,-982.910,-231.445,-78.613,-1000.000
1742122352.121,-1000.000,-85.449,-72.266,-1000.000
1742122352.125,171.387,429.688,-56.641,264.648
1742122352.082,966.309,-77.148,-35.156,962.402
1742122352.086,903.809,-113.770,-48.828,912.109
1742122352.090,999.512,-6.836,-32.715,999.512
1742122352.094,180.664,-415.039,-14.648,108.398
1742122352.098,-1000.000,-662.598,-23.926,-1000.000
1742122352.102,-982.910,20.996,-11.230,-974.121
1742122352.106,-973.633,238.281,-11.719,-978.516
1742122352.109,-1000.000,-134.277,-45.898,-1000.000
1742122352.113,-974.121,-306.152,-64.941,-967.285
1742122352.117,-982.910,-231.445,-78.613,-1000.000
1742122352.121,-1000.000,-85.449,-72.266,-1000.000
1742122352.125,171.387,429.688,-56.641,264.648
1742122352.126,999.512,229.004,-54.688,999.512
1742122352.130,906.250,-202.148,-68.359,906.738
1742122352.134,965.820,76.172,-73.242,968.750
1742122352.138,976.074,75.684,-72.266,975.098
1742122352.142,894.043,-247.070,-95.215,896.973
1742122352.146,999.512,89.355,-87.891,999.512
1742122352.150,370.117,-237.305,-85.449,341.309
1742122352.153,-1000.000,-839.355,-89.355,-1000.000
1742122352.157,-1000.000,-246.582,-74.707,-1000.000
1742122352.161,-958.496,-4.883,-63.477,-960.449
1742122352.165,-1000.000,-34.180,-32.227,-1000.000
1742122352.169,-978.516,-30.273,-25.879,-972.656
1742122352.126,999.512,229.004,-54.688,999.512
1742122352.130,906.250,-202.148,-68.359,906.738
1742122352.134,965.820,76.172,-73.242,968.750
1742122352.138,976.074,75.684,-72.266,975.098
1742122352.142,894.043,-247.070,-95.215,896.973
1742122352.146,999.512,89.355,-87.891,999.512
1742122352.150,370.117,-237.305,-85.449,341.309
1742122352.153,-1000.000,-839.355,-89.355,-1000.000
1742122352.157,-1000.000,-246.582,-74.707,-1000.000
1742122352.161,-958.496,-4.883,-63.477,-960.449
1742122352.165,-1000.000,-34.180,-32.227,-1000.000
1742122352.169,-978.516,-30.273,-25.879,-972.656
1742122352.186,-974.121,-167.969,-40.039,-990.723
1742122352.190,-1000.000,-63.965,-28.809,-1000.000
1742122352.194,117.188,454.590,-26.855,195.801
1742122352.198,999.512,331.055,-37.598,999.512
1742122352.202,909.180,-99.609,-50.293,911.621
1742122352.206,964.844,42.480,-57.617,969.238
1742122352.210,956.055,86.426,-52.734,948.730
1742122352.213,920.898,47.852,-31.738,942.383
1742122352.217,999.512,-138.184,-3.906,999.512
1742122352.221,5.371,-619.629,-11.230,-105.469
1742122352.225,-1000.000,-428.711,-16.113,-1000.000
1742122352.229,-959.961,-10.254,-8.301,-957.520
1742122352.186,-974.121,-167.969,-40.039,-990.723
1742122352.190,-1000.000,-63.965,-28.809,-1000.000
1742122352.194,117.188,454.590,-26.855,195.801
1742122352.198,999.512,331.055,-37.598,999.512
1742122352.202,909.180,-99.609,-50.293,911.621
1742122352.206,964.844,42.480,-57.617,969.238
1742122352.210,956.055,86.426,-52.734,948.730
1742122352.213,920.898,47.852,-31.738,942.383
1742122352.217,999.512,-138.184,-3.906,999.512
1742122352.221,5.371,-619.629,-11.230,-105.469
1742122352.225,-1000.000,-428.711,-16.113,-1000.000
1742122352.229,-959.961,-10.254,-8.301,-957.520
1742122352.186,-974.121,-167.969,-40.039,-990.723
1742122352.190,-1000.000,-63.965,-28.809,-1000.000
1742122352.194,117.188,454.590,-26.855,195.801
1742122352.198,999.512,331.055,-37.598,999.512
1742122352.202,909.180,-99.609,-50.293,911.621
1742122352.206,964.844,42.480,-57.617,969.238
1742122352.210,956.055,86.426,-52.734,948.730
1742122352.213,920.898,47.852,-31.738,942.383
1742122352.217,999.512,-138.184,-3.906,999.512
1742122352.221,5.371,-619.629,-11.230,-105.469
1742122352.225,-1000.000,-428.711,-16.113,-1000.000
1742122352.229,-959.961,-10.254,-8.301,-957.520
1742122352.230,-986.328,-65.918,2.441,-990.234
1742122352.234,-1000.000,-9.277,11.230,-1000.000
1742122352.238,-1000.000,37.598,-11.719,-998.047
1742122352.242,-938.477,-23.926,-29.297,-942.383
1742122352.246,-1000.000,-73.730,-28.320,-1000.000
1742122352.250,-212.402,485.352,-32.227,-170.898
1742122352.254,999.512,620.117,-34.668,999.512
1742122352.257,948.730,57.617,-28.320,944.336
1742122352.261,939.453,-84.961,-29.297,943.359
1742122352.265,987.305,-117.676,-48.828,985.840
1742122352.269,904.785,19.043,-53.711,906.250
1742122352.273,999.512,81.055,-53.223,999.512
1742122352.230,-986.328,-65.918,2.441,-990.234
1742122352.234,-1000.000,-9.277,11.230,-1000.000
1742122352.238,-1000.000,37.598,-11.719,-998.047
1742122352.242,-938.477,-23.926,-29.297,-942.383
1742122352.246,-1000.000,-73.730,-28.320,-1000.000
1742122352.250,-212.402,485.352,-32.227,-170.898
1742122352.254,999.512,620.117,-34.668,999.512
1742122352.257,948.730,57.617,-28.320,944.336
1742122352.261,939.453,-84.961,-29.297,943.359
1742122352.265,987.305,-117.676,-48.828,985.840
1742122352.269,904.785,19.043,-53.711,906.250
1742122352.273,999.512,81.055,-53.223,999.512
1742122352.276,745.117,-205.078,-48.340,696.289
1742122352.280,-680.664,-623.047,-57.129,-707.031
1742122352.284,-1000.000,-227.051,-58.105,-1000.000
1742122352.288,-864.746,73.730,-49.316,-870.605
1742122352.292,-1000.000,-28.320,-29.297,-1000.000
1742122352.296,-642.090,351.562,-8.301,-540.039
1742122352.300,803.711,725.586,-16.113,861.816
1742122352.303,999.512,142.090,-35.645,999.512
1742122352.307,910.645,-270.996,-38.086,919.434
1742122352.311,915.039,-68.359,-26.367,913.574
1742122352.315,999.512,264.648,-19.043,999.512
1742122352.319,249.512,-409.180,-35.645,251.465
1742122352.276,745.117,-205.078,-48.340,696.289
1742122352.280,-680.664,-623.047,-57.129,-707.031
1742122352.284,-1000.000,-227.051,-58.105,-1000.000
1742122352.288,-864.746,73.730,-49.316,-870.605
1742122352.292,-1000.000,-28.320,-29.297,-1000.000
1742122352.296,-642.090,351.562,-8.301,-540.039
1742122352.300,803.711,725.586,-16.113,861.816
1742122352.303,999.512,142.090,-35.645,999.512
1742122352.307,910.645,-270.996,-38.086,919.434
1742122352.311,915.039,-68.359,-26.367,913.574
1742122352.315,999.512,264.648,-19.043,999.512
1742122352.319,249.512,-409.180,-35.645,251.465
1742122352.321,-1000.000,-734.375,-45.410,-1000.000
1742122352.325,-994.141,-48.340,-5.371,-994.629
1742122352.329,-968.262,48.340,19.531,-967.773
1742122352.333,-1000.000,18.555,14.648,-1000.000
1742122352.337,-986.328,-46.387,5.371,-978.516
1742122352.341,-959.961,135.742,10.254,-980.957
1742122352.345,-1000.000,113.281,21.973,-1000.000
1742122352.348,5.371,274.414,59.082,116.211
1742122352.352,999.512,283.691,85.938,999.512
1742122352.356,920.410,-37.109,54.199,919.922
1742122352.360,955.566,6.836,41.992,959.473
1742122352.364,983.398,14.648,48.340,982.422
1742122352.321,-1000.000,-734.375,-45.410,-1000.000
1742122352.325,-994.141,-48.340,-5.371,-994.629
1742122352.329,-968.262,48.340,19.531,-967.773
1742122352.333,-1000.000,18.555,14.648,-1000.000
1742122352.337,-986.328,-46.387,5.371,-978.516
1742122352.341,-959.961,135.742,10.254,-980.957
1742122352.345,-1000.000,113.281,21.973,-1000.000
1742122352.348,5.371,274.414,59.082,116.211
1742122352.352,999.512,283.691,85.938,999.512
1742122352.356,920.410,-37.109,54.199,919.922
1742122352.360,955.566,6.836,41.992,959.473
1742122352.364,983.398,14.648,48.340,982.422
1742122352.367,903.809,108.887,124.023,902.344
1742122352.371,999.512,94.238,240.234,999.512
1742122352.375,732.422,-189.941,229.492,651.855
1742122352.379,-697.266,-585.449,175.781,-764.160
1742122352.383,-1000.000,-341.797,150.391,-1000.000
1742122352.387,-936.035,165.039,115.234,-940.918
1742122352.391,-1000.000,250.488,99.609,-1000.000
1742122352.394,-1000.000,-31.738,81.055,-1000.000
1742122352.398,-937.500,-303.223,36.621,-939.453
1742122352.402,-1000.000,-189.941,65.430,-1000.000
1742122352.406,-221.191,474.609,180.664,-201.660
1742122352.410,999.512,533.691,253.418,999.512
1742122352.411,950.195,-110.840,282.227,947.754
1742122352.415,938.965,-103.027,266.113,940.918
1742122352.419,973.633,42.969,193.848,974.609
1742122352.423,965.332,24.414,196.289,960.449
1742122352.427,906.250,-195.801,204.102,915.039
1742122352.431,999.512,81.543,172.363,999.512
1742122352.435,155.762,-340.332,131.348,83.008
1742122352.438,-1000.000,-715.820,80.078,-1000.000
1742122352.442,-979.492,-73.242,44.922,-971.191
1742122352.446,-975.586,25.879,17.578,-980.469
1742122352.450,-1000.000,-20.996,35.645,-1000.000
1742122352.454,-926.270,3.906,89.355,-928.223
1742122352.922,913.574,-105.469,-11.719,920.898
1742122352.926,999.512,58.105,-20.020,999.512
1742122352.930,68.848,-455.566,-46.875,18.066
1742122352.934,-1000.000,-617.188,-57.617,-1000.000
1742122352.938,-920.898,-58.594,-39.062,-964.355
1742122352.942,-1000.000,81.055,-23.926,-953.613
1742122352.946,-94.238,476.074,-34.180,180.176
1742122352.949,999.512,339.844,-54.688,999.512
1742122352.953,912.598,-363.770,-60.059,713.867
1742122352.957,-389.648,-636.719,-41.504,-596.191
1742122352.961,-1000.000,-216.309,-17.090,-1000.000
1742122352.965,-939.453,-20.020,-40.527,-947.266
1742122352.455,-1000.000,-255.371,112.305,-1000.000
1742122352.459,-479.980,175.781,176.758,-453.613
1742122352.463,929.199,705.078,290.527,936.035
1742122352.467,995.605,104.980,233.398,992.676
1742122352.471,917.969,-165.527,166.504,920.898
1742122352.475,980.469,84.473,175.293,980.469
1742122352.479,966.797,176.758,198.242,964.355
1742122352.482,903.320,-24.414,237.793,909.180
1742122352.486,999.512,-69.336,184.570,999.512
1742122352.490,187.012,-600.586,142.578,136.719
1742122352.494,-1000.000,-655.762,129.883,-1000.000
1742122352.498,-983.887,-83.984,117.188,-977.539
1742122352.455,-1000.000,-255.371,112.305,-1000.000
1742122352.459,-479.980,175.781,176.758,-453.613
1742122352.463,929.199,705.078,290.527,936.035
1742122352.467,995.605,104.980,233.398,992.676
1742122352.471,917.969,-165.527,166.504,920.898
1742122352.475,980.469,84.473,175.293,980.469
1742122352.479,966.797,176.758,198.242,964.355
1742122352.482,903.320,-24.414,237.793,909.180
1742122352.486,999.512,-69.336,184.570,999.512
1742122352.490,187.012,-600.586,142.578,136.719
1742122352.494,-1000.000,-655.762,129.883,-1000.000
1742122352.498,-983.887,-83.984,117.188,-977.539
1742122352.517,-973.145,-108.398,93.750,-976.562
1742122352.521,-1000.000,-60.547,99.609,-1000.000
1742122352.525,-1000.000,17.090,89.844,-996.094
1742122352.529,-939.453,-30.762,48.828,-944.824
1742122352.533,-1000.000,-180.664,22.461,-1000.000
1742122352.537,-200.195,436.523,26.855,-146.484
1742122352.541,999.512,539.062,-0.977,999.512
1742122352.544,946.777,-126.953,-29.785,940.918
1742122352.548,940.430,-164.062,-24.902,944.824
1742122352.552,986.816,-161.133,-19.531,985.352
1742122352.556,906.250,-42.480,3.418,906.738
1742122352.560,999.512,25.879,7.324,999.512
1742122352.517,-973.145,-108.398,93.750,-976.562
1742122352.521,-1000.000,-60.547,99.609,-1000.000
1742122352.525,-1000.000,17.090,89.844,-996.094
1742122352.529,-939.453,-30.762,48.828,-944.824
1742122352.533,-1000.000,-180.664,22.461,-1000.000
1742122352.537,-200.195,436.523,26.855,-146.484
1742122352.541,999.512,539.062,-0.977,999.512
1742122352.544,946.777,-126.953,-29.785,940.918
1742122352.548,940.430,-164.062,-24.902,944.824
1742122352.552,986.816,-161.133,-19.531,985.352
1742122352.556,906.250,-42.480,3.418,906.738
1742122352.560,999.512,25.879,7.324,999.512
1742122352.561,762.207,-186.035,-32.715,718.262
1742122352.565,-659.668,-607.910,-57.129,-687.500
1742122352.569,-1000.000,-218.750,-50.293,-1000.000
1742122352.573,-865.234,66.406,-44.922,-870.605
1742122352.577,-1000.000,-133.301,-64.453,-1000.000
1742122352.581,-664.062,246.094,-74.219,-524.902
1742122352.585,781.738,618.652,-88.867,864.746
1742122352.588,999.512,84.961,-97.168,999.512
1742122352.592,906.250,-322.754,-97.656,918.457
1742122352.596,918.945,-226.562,-112.305,916.016
1742122352.600,999.512,173.828,-109.375,999.512
1742122352.604,187.012,-396.484,-117.676,202.148
1742122352.561,762.207,-186.035,-32.715,718.262
1742122352.565,-659.668,-607.910,-57.129,-687.500
1742122352.569,-1000.000,-218.750,-50.293,-1000.000
1742122352.573,-865.234,66.406,-44.922,-870.605
1742122352.577,-1000.000,-133.301,-64.453,-1000.000
1742122352.581,-664.062,246.094,-74.219,-524.902
1742122352.585,781.738,618.652,-88.867,864.746
1742122352.588,999.512,84.961,-97.168,999.512
1742122352.592,906.250,-322.754,-97.656,918.457
1742122352.596,918.945,-226.562,-112.305,916.016
1742122352.600,999.512,173.828,-109.375,999.512
1742122352.604,187.012,-396.484,-117.676,202.148
1742122352.606,-1000.000,-770.996,-128.906,-1000.000
1742122352.610,-983.887,-75.684,-99.609,-986.328
1742122352.614,-973.145,41.992,-89.844,-972.656
1742122352.618,-1000.000,-2.930,-99.121,-1000.000
1742122352.622,-937.500,-41.992,-109.863,-940.918
1742122352.626,-1000.000,-6.348,-98.633,-1000.000
1742122352.630,-220.703,418.945,-73.730,-184.082
1742122352.633,999.512,345.703,-67.871,999.512
1742122352.637,950.195,-146.484,-64.941,945.801
1742122352.641,938.965,-120.605,-44.922,942.383
1742122352.645,973.145,-62.988,-37.109,973.145
1742122352.649,971.191,-73.730,-25.879,972.168
1742122352.606,-1000.000,-770.996,-128.906,-1000.000
1742122352.610,-983.887,-75.684,-99.609,-986.328
1742122352.614,-973.145,41.992,-89.844,-972.656
1742122352.618,-1000.000,-2.930,-99.121,-1000.000
1742122352.622,-937.500,-41.992,-109.863,-940.918
1742122352.626,-1000.000,-6.348,-98.633,-1000.000
1742122352.630,-220.703,418.945,-73.730,-184.082
1742122352.633,999.512,345.703,-67.871,999.512
1742122352.637,950.195,-146.484,-64.941,945.801
1742122352.641,938.965,-120.605,-44.922,942.383
1742122352.645,973.145,-62.988,-37.109,973.145
1742122352.649,971.191,-73.730,-25.879,972.168
1742122352.651,898.438,-79.590,-38.086,899.414
1742122352.655,999.512,104.492,-65.918,999.512
1742122352.659,274.414,-379.883,-81.055,278.320
1742122352.663,-1000.000,-702.148,-88.867,-1000.000
1742122352.667,-999.023,-143.555,-93.262,-989.746
1742122352.671,-903.320,119.141,-91.309,-922.852
1742122352.675,-1000.000,94.238,-87.402,-1000.000
1742122352.678,-220.703,317.871,-124.023,-74.219
1742122352.682,999.512,122.559,-157.227,999.512
1742122352.686,950.684,-181.152,-106.445,941.406
1742122352.690,933.594,67.871,-47.852,936.035
1742122352.694,918.945,9.766,-45.410,930.664
1742122352.651,898.438,-79.590,-38.086,899.414
1742122352.655,999.512,104.492,-65.918,999.512
1742122352.659,274.414,-379.883,-81.055,278.320
1742122352.663,-1000.000,-702.148,-88.867,-1000.000
1742122352.667,-999.023,-143.555,-93.262,-989.746
1742122352.671,-903.320,119.141,-91.309,-922.852
1742122352.675,-1000.000,94.238,-87.402,-1000.000
1742122352.678,-220.703,317.871,-124.023,-74.219
1742122352.682,999.512,122.559,-157.227,999.512
1742122352.686,950.684,-181.152,-106.445,941.406
1742122352.690,933.594,67.871,-47.852,936.035
1742122352.694,918.945,9.766,-45.410,930.664
1742122352.696,999.512,7.324,-46.387,999.512
1742122352.700,88.867,-451.172,-45.410,-3.906
1742122352.704,-1000.000,-465.820,-39.551,-1000.000
1742122352.708,-903.809,160.156,-30.762,-897.949
1742122352.712,-1000.000,-109.863,-38.574,-1000.000
1742122352.716,-289.062,351.562,-41.016,-263.184
1742122352.720,999.512,610.352,-48.828,999.512
1742122352.723,960.449,-143.555,-52.734,957.520
1742122352.727,934.570,-117.188,-54.688,937.988
1742122352.731,912.109,15.137,-45.410,911.133
1742122352.735,999.512,147.949,-42.969,999.512
1742122352.739,187.012,-406.250,-67.871,201.172
1742122352.741,-1000.000,-754.395,-66.406,-1000.000
1742122352.745,-966.309,-39.062,-45.410,-948.730
1742122352.749,-938.965,106.934,-40.039,-997.559
1742122352.753,-1000.000,-25.879,-30.762,-877.441
1742122352.757,57.129,274.902,-25.879,381.836
1742122352.761,999.512,341.797,-13.184,999.512
1742122352.765,918.945,127.441,-5.859,919.434
1742122352.768,893.066,20.508,-18.066,902.344
1742122352.772,999.512,9.277,-17.090,999.512
1742122352.776,239.746,-529.785,-38.086,235.352
1742122352.780,-1000.000,-791.504,-48.340,-1000.000
1742122352.784,-992.676,-116.699,-21.973,-991.699
1742122352.787,-968.750,-78.125,7.324,-969.238
1742122352.791,-1000.000,-110.840,-6.836,-1000.000
1742122352.795,-930.664,38.574,-39.062,-932.129
1742122352.799,-1000.000,-105.957,-38.574,-1000.000
1742122352.803,-343.750,240.234,-34.668,-320.312
1742122352.807,992.188,756.348,-17.090,999.512
1742122352.811,970.703,195.312,-6.836,967.773
1742122352.814,929.199,-267.578,-21.973,931.641
1742122352.818,976.562,-164.551,-23.438,976.562
1742122352.822,972.168,-148.926,-27.832,972.656
1742122352.826,897.949,-121.094,-28.809,898.926
1742122352.830,999.512,37.109,-28.809,999.512
1742122352.787,-968.750,-78.125,7.324,-969.238
1742122352.791,-1000.000,-110.840,-6.836,-1000.000
1742122352.795,-930.664,38.574,-39.062,-932.129
1742122352.799,-1000.000,-105.957,-38.574,-1000.000
1742122352.803,-343.750,240.234,-34.668,-320.312
1742122352.807,992.188,756.348,-17.090,999.512
1742122352.811,970.703,195.312,-6.836,967.773
1742122352.814,929.199,-267.578,-21.973,931.641
1742122352.818,976.562,-164.551,-23.438,976.562
1742122352.822,972.168,-148.926,-27.832,972.656
1742122352.826,897.949,-121.094,-28.809,898.926
1742122352.830,999.512,37.109,-28.809,999.512
1742122352.830,284.668,-461.426,-53.711,288.086
1742122352.834,-1000.000,-708.496,-52.246,-1000.000
1742122352.838,-1000.000,-68.359,-37.109,-1000.000
1742122352.842,-965.332,2.930,-43.945,-964.844
1742122352.846,-1000.000,5.859,-58.105,-1000.000
1742122352.850,-1000.000,89.355,-72.266,-1000.000
1742122352.854,-927.734,82.520,-104.004,-930.664
1742122352.857,-1000.000,-180.664,-96.680,-1000.000
1742122352.861,-414.551,26.855,-64.453,-366.211
1742122352.865,961.914,492.188,-58.594,971.680
1742122352.869,920.410,185.059,-66.895,927.246
1742122352.873,999.512,27.344,-71.777,999.512
1742122352.830,284.668,-461.426,-53.711,288.086
1742122352.834,-1000.000,-708.496,-52.246,-1000.000
1742122352.838,-1000.000,-68.359,-37.109,-1000.000
1742122352.842,-965.332,2.930,-43.945,-964.844
1742122352.846,-1000.000,5.859,-58.105,-1000.000
1742122352.850,-1000.000,89.355,-72.266,-1000.000
1742122352.854,-927.734,82.520,-104.004,-930.664
1742122352.857,-1000.000,-180.664,-96.680,-1000.000
1742122352.861,-414.551,26.855,-64.453,-366.211
1742122352.865,961.914,492.188,-58.594,971.680
1742122352.869,920.410,185.059,-66.895,927.246
1742122352.873,999.512,27.344,-71.777,999.512
1742122352.876,198.730,-607.422,-63.965,83.496
1742122352.880,-1000.000,-581.543,-47.363,-1000.000
1742122352.884,-984.375,-5.859,-37.109,-972.168
1742122352.888,-973.633,-91.797,-36.133,-981.445
1742122352.892,-944.336,-57.617,-24.414,-941.895
1742122352.896,-1000.000,60.059,-11.230,-1000.000
1742122352.900,-221.191,387.207,-7.324,-227.051
1742122352.903,999.512,342.285,-7.812,999.512
1742122352.907,949.707,-171.387,-24.414,951.660
1742122352.911,938.965,-130.371,-37.598,938.965
1742122352.915,974.121,25.391,-22.461,976.074
1742122352.919,959.961,-9.766,-4.395,956.543
1742122352.876,198.730,-607.422,-63.965,83.496
1742122352.880,-1000.000,-581.543,-47.363,-1000.000
1742122352.884,-984.375,-5.859,-37.109,-972.168
1742122352.888,-973.633,-91.797,-36.133,-981.445
1742122352.892,-944.336,-57.617,-24.414,-941.895
1742122352.896,-1000.000,60.059,-11.230,-1000.000
1742122352.900,-221.191,387.207,-7.324,-227.051
1742122352.903,999.512,342.285,-7.812,999.512
1742122352.907,949.707,-171.387,-24.414,951.660
1742122352.911,938.965,-130.371,-37.598,938.965
1742122352.915,974.121,25.391,-22.461,976.074
1742122352.919,959.961,-9.766,-4.395,956.543
1742122352.981,-984.375,-83.496,-68.848,-981.934
1742122352.985,-974.121,-95.215,-83.496,-988.281
1742122352.989,-1000.000,-68.359,-87.402,-1000.000
1742122352.993,117.676,514.648,-51.758,190.918
1742122352.997,999.512,274.902,-47.363,999.512
1742122353.001,846.680,-60.059,-51.270,863.770
1742122353.005,999.512,57.129,-49.805,999.512
1742122353.008,187.500,-597.656,-35.645,53.711
1742122353.012,-1000.000,-649.414,-2.930,-1000.000
1742122353.016,-984.375,-101.074,-3.418,-971.680
1742122353.020,-973.633,-67.871,-13.672,-981.445
1742122353.024,-944.336,-77.637,-7.324,-943.359
1742122352.981,-984.375,-83.496,-68.848,-981.934
1742122352.985,-974.121,-95.215,-83.496,-988.281
1742122352.989,-1000.000,-68.359,-87.402,-1000.000
1742122352.993,117.676,514.648,-51.758,190.918
1742122352.997,999.512,274.902,-47.363,999.512
1742122353.001,846.680,-60.059,-51.270,863.770
1742122353.005,999.512,57.129,-49.805,999.512
1742122353.008,187.500,-597.656,-35.645,53.711
1742122353.012,-1000.000,-649.414,-2.930,-1000.000
1742122353.016,-984.375,-101.074,-3.418,-971.680
1742122353.020,-973.633,-67.871,-13.672,-981.445
1742122353.024,-944.336,-77.637,-7.324,-943.359
1742122353.026,-1000.000,-264.160,3.906,-1000.000
1742122353.030,-209.961,312.500,27.344,-196.777
1742122353.034,994.141,645.996,33.691,980.957
1742122353.038,972.656,-13.184,11.719,999.512
1742122353.042,895.508,-252.930,7.812,645.508
1742122353.046,-419.434,-452.637,25.391,-711.426
1742122353.050,-1000.000,-104.980,51.758,-1000.000
1742122353.053,-933.594,83.984,46.387,-942.383
1742122353.057,-1000.000,-219.727,-11.230,-1000.000
1742122353.061,-927.734,-313.477,-55.176,-929.688
1742122353.065,-1000.000,-237.793,-60.547,-1000.000
1742122353.069,-416.016,255.859,-48.340,-392.090
1742122353.026,-1000.000,-264.160,3.906,-1000.000
1742122353.030,-209.961,312.500,27.344,-196.777
1742122353.034,994.141,645.996,33.691,980.957
1742122353.038,972.656,-13.184,11.719,999.512
1742122353.042,895.508,-252.930,7.812,645.508
1742122353.046,-419.434,-452.637,25.391,-711.426
1742122353.050,-1000.000,-104.980,51.758,-1000.000
1742122353.053,-933.594,83.984,46.387,-942.383
1742122353.057,-1000.000,-219.727,-11.230,-1000.000
1742122353.061,-927.734,-313.477,-55.176,-929.688
1742122353.065,-1000.000,-237.793,-60.547,-1000.000
1742122353.069,-416.016,255.859,-48.340,-392.090
1742122353.071,970.703,503.418,-45.898,970.703
1742122353.075,911.133,-56.152,-33.203,916.016
1742122353.079,999.512,13.184,-8.789,999.512
1742122353.083,395.020,-363.770,-4.395,249.512
1742122353.087,-994.141,-724.609,17.578,-1000.000
1742122353.091,-1000.000,25.391,37.109,-993.652
1742122353.095,-969.727,76.660,24.414,-980.957
1742122353.098,-963.379,-262.695,11.230,-956.055
1742122353.102,-1000.000,-193.359,16.113,-1000.000
1742122353.106,-903.320,-12.695,43.457,-844.727
1742122353.110,479.492,432.129,46.875,531.250
1742122353.114,999.512,165.527,23.926,999.512
1742122353.071,970.703,503.418,-45.898,970.703
1742122353.075,911.133,-56.152,-33.203,916.016
1742122353.079,999.512,13.184,-8.789,999.512
1742122353.083,395.020,-363.770,-4.395,249.512
1742122353.087,-994.141,-724.609,17.578,-1000.000
1742122353.091,-1000.000,25.391,37.109,-993.652
1742122353.095,-969.727,76.660,24.414,-980.957
1742122353.098,-963.379,-262.695,11.230,-956.055
1742122353.102,-1000.000,-193.359,16.113,-1000.000
1742122353.106,-903.320,-12.695,43.457,-844.727
1742122353.110,479.492,432.129,46.875,531.250
1742122353.114,999.512,165.527,23.926,999.512
1742122353.116,999.512,-151.855,26.855,999.512
1742122353.120,260.254,-447.754,45.898,132.812
1742122353.124,-1000.000,-541.016,55.176,-1000.000
1742122353.128,-994.141,-74.707,38.574,-979.004
1742122353.132,-979.492,-121.582,5.371,-987.793
1742122353.136,-962.891,5.859,1.953,-958.984
1742122353.140,-1000.000,73.730,22.949,-1000.000
1742122353.143,-935.547,64.453,42.969,-891.113
1742122353.147,440.430,219.727,33.691,475.098
1742122353.151,999.512,66.406,25.879,999.512
1742122353.155,940.430,97.168,37.109,989.258
1742122353.159,873.535,-70.312,19.531,664.062
1742122353.161,-517.090,-716.309,-12.207,-741.699
1742122353.165,-1000.000,-309.082,-8.301,-1000.000
1742122353.169,-937.012,112.305,-8.301,-946.777
1742122353.173,-993.652,-82.520,-19.043,-991.699
1742122353.177,-965.332,-73.730,-7.812,-974.609
1742122353.181,-1000.000,141.602,19.531,-1000.000
1742122353.185,56.152,481.445,42.969,111.328
1742122353.188,999.512,175.293,40.527,999.512
1742122353.192,898.438,-199.707,30.762,959.961
1742122353.196,999.512,-129.395,59.570,805.176
1742122353.200,-205.078,-460.938,80.566,-526.367
1742122353.204,-1000.000,-271.484,71.289,-1000.000
1742122353.161,-517.090,-716.309,-12.207,-741.699
1742122353.165,-1000.000,-309.082,-8.301,-1000.000
1742122353.169,-937.012,112.305,-8.301,-946.777
1742122353.173,-993.652,-82.520,-19.043,-991.699
1742122353.177,-965.332,-73.730,-7.812,-974.609
1742122353.181,-1000.000,141.602,19.531,-1000.000
1742122353.185,56.152,481.445,42.969,111.328
1742122353.188,999.512,175.293,40.527,999.512
1742122353.192,898.438,-199.707,30.762,959.961
1742122353.196,999.512,-129.395,59.570,805.176
1742122353.200,-205.078,-460.938,80.566,-526.367
1742122353.204,-1000.000,-271.484,71.289,-1000.000
1742122353.207,-940.430,-33.691,39.551,-940.918
1742122353.211,-1000.000,30.273,22.949,-1000.000
1742122353.215,-937.988,34.180,18.066,-936.523
1742122353.219,-1000.000,-239.258,30.273,-1000.000
1742122353.223,-217.773,316.406,64.941,-231.934
1742122353.227,999.512,738.281,69.824,996.582
1742122353.231,914.551,231.934,66.406,960.938
1742122353.234,999.512,-134.766,66.895,919.922
1742122353.238,-75.195,-740.234,55.176,-316.895
1742122353.242,-1000.000,-483.398,60.547,-1000.000
1742122353.246,-950.195,64.453,60.059,-941.895
1742122353.250,-1000.000,-120.117,10.742,-1000.000
1742122353.207,-940.430,-33.691,39.551,-940.918
1742122353.211,-1000.000,30.273,22.949,-1000.000
1742122353.215,-937.988,34.180,18.066,-936.523
1742122353.219,-1000.000,-239.258,30.273,-1000.000
1742122353.223,-217.773,316.406,64.941,-231.934
1742122353.227,999.512,738.281,69.824,996.582
1742122353.231,914.551,231.934,66.406,960.938
1742122353.234,999.512,-134.766,66.895,919.922
1742122353.238,-75.195,-740.234,55.176,-316.895
1742122353.242,-1000.000,-483.398,60.547,-1000.000
1742122353.246,-950.195,64.453,60.059,-941.895
1742122353.250,-1000.000,-120.117,10.742,-1000.000
1742122353.251,-927.246,-129.883,-12.207,-928.223
1742122353.255,-1000.000,-171.875,-25.391,-1000.000
1742122353.259,-527.344,202.148,-3.906,-488.770
1742122353.263,916.016,721.680,41.992,929.199
1742122353.267,936.035,105.957,50.293,929.688
1742122353.271,999.512,-17.090,43.945,999.512
1742122353.275,656.250,-228.027,31.738,488.281
1742122353.278,-804.688,-782.715,34.180,-918.457
1742122353.282,-1000.000,-317.383,43.945,-1000.000
1742122353.286,-945.312,-14.160,29.785,-958.984
1742122353.290,-989.746,-66.406,-7.812,-979.980
1742122353.294,-982.910,-104.004,-17.090,-1000.000
1742122353.251,-927.246,-129.883,-12.207,-928.223
1742122353.255,-1000.000,-171.875,-25.391,-1000.000
1742122353.259,-527.344,202.148,-3.906,-488.770
1742122353.263,916.016,721.680,41.992,929.199
1742122353.267,936.035,105.957,50.293,929.688
1742122353.271,999.512,-17.090,43.945,999.512
1742122353.275,656.250,-228.027,31.738,488.281
1742122353.278,-804.688,-782.715,34.180,-918.457
1742122353.282,-1000.000,-317.383,43.945,-1000.000
1742122353.286,-945.312,-14.160,29.785,-958.984
1742122353.290,-989.746,-66.406,-7.812,-979.980
1742122353.294,-982.910,-104.004,-17.090,-1000.000
1742122353.251,-927.246,-129.883,-12.207,-928.223
1742122353.255,-1000.000,-171.875,-25.391,-1000.000
1742122353.259,-527.344,202.148,-3.906,-488.770
1742122353.263,916.016,721.680,41.992,929.199
1742122353.267,936.035,105.957,50.293,929.688
1742122353.271,999.512,-17.090,43.945,999.512
1742122353.275,656.250,-228.027,31.738,488.281
1742122353.278,-804.688,-782.715,34.180,-918.457
1742122353.282,-1000.000,-317.383,43.945,-1000.000
1742122353.286,-945.312,-14.160,29.785,-958.984
1742122353.290,-989.746,-66.406,-7.812,-979.980
1742122353.294,-982.910,-104.004,-17.090,-1000.000
1742122353.311,-1000.000,-20.508,-0.488,-1000.000
1742122353.315,177.734,486.328,-0.977,266.602
1742122353.319,999.512,332.031,-5.859,999.512
1742122353.323,999.512,-63.965,-23.438,999.512
1742122353.327,254.395,-498.535,-37.109,212.402
1742122353.331,-986.328,-503.906,-36.621,-1000.000
1742122353.335,-1000.000,67.383,-15.137,-1000.000
1742122353.338,-236.816,388.184,9.277,-39.551
1742122353.342,999.512,250.977,-5.859,999.512
1742122353.346,215.332,-695.801,-18.555,134.277
1742122353.350,-1000.000,-601.562,0.977,-1000.000
1742122353.354,-1000.000,-88.867,7.812,-1000.000
1742122353.311,-1000.000,-20.508,-0.488,-1000.000
1742122353.315,177.734,486.328,-0.977,266.602
1742122353.319,999.512,332.031,-5.859,999.512
1742122353.323,999.512,-63.965,-23.438,999.512
1742122353.327,254.395,-498.535,-37.109,212.402
1742122353.331,-986.328,-503.906,-36.621,-1000.000
1742122353.335,-1000.000,67.383,-15.137,-1000.000
1742122353.338,-236.816,388.184,9.277,-39.551
1742122353.342,999.512,250.977,-5.859,999.512
1742122353.346,215.332,-695.801,-18.555,134.277
1742122353.350,-1000.000,-601.562,0.977,-1000.000
1742122353.354,-1000.000,-88.867,7.812,-1000.000
1742122353.356,-528.809,184.570,1.465,-372.070
1742122353.360,871.582,538.086,-9.277,949.219
1742122353.364,999.512,86.426,-16.602,983.398
1742122353.368,927.246,-71.289,8.789,939.453
1742122353.372,913.086,6.348,38.086,910.156
1742122353.376,999.512,177.246,23.438,999.512
1742122353.380,653.320,-112.793,-11.719,608.887
1742122353.383,-793.945,-828.125,-28.809,-822.754
1742122353.387,-1000.000,-312.988,20.020,-1000.000
1742122353.391,-876.465,118.652,72.754,-910.156
1742122353.395,-1000.000,-113.770,58.594,-1000.000
1742122353.399,-210.938,334.961,41.992,5.859
1742122353.356,-528.809,184.570,1.465,-372.070
1742122353.360,871.582,538.086,-9.277,949.219
1742122353.364,999.512,86.426,-16.602,983.398
1742122353.368,927.246,-71.289,8.789,939.453
1742122353.372,913.086,6.348,38.086,910.156
1742122353.376,999.512,177.246,23.438,999.512
1742122353.380,653.320,-112.793,-11.719,608.887
1742122353.383,-793.945,-828.125,-28.809,-822.754
1742122353.387,-1000.000,-312.988,20.020,-1000.000
1742122353.391,-876.465,118.652,72.754,-910.156
1742122353.395,-1000.000,-113.770,58.594,-1000.000
1742122353.399,-210.938,334.961,41.992,5.859
1742122353.401,999.512,296.875,30.273,999.512
1742122353.405,951.172,-100.098,20.996,936.523
1742122353.409,925.293,113.281,32.715,931.152
1742122353.413,933.105,85.449,22.949,947.754
1742122353.417,999.512,-135.742,7.324,999.512
1742122353.421,-47.852,-382.324,1.953,-140.625
1742122353.425,-1000.000,-281.738,-10.742,-1000.000
1742122353.428,-887.695,40.527,-8.301,-883.789
1742122353.432,-1000.000,-271.484,-5.371,-1000.000
1742122353.436,-724.609,-38.086,-20.996,-555.176
1742122353.440,716.309,537.109,-28.320,833.984
1742122353.444,999.512,241.211,-13.672,999.512
1742122353.401,999.512,296.875,30.273,999.512
1742122353.405,951.172,-100.098,20.996,936.523
1742122353.409,925.293,113.281,32.715,931.152
1742122353.413,933.105,85.449,22.949,947.754
1742122353.417,999.512,-135.742,7.324,999.512
1742122353.421,-47.852,-382.324,1.953,-140.625
1742122353.425,-1000.000,-281.738,-10.742,-1000.000
1742122353.428,-887.695,40.527,-8.301,-883.789
1742122353.432,-1000.000,-271.484,-5.371,-1000.000
1742122353.436,-724.609,-38.086,-20.996,-555.176
1742122353.440,716.309,537.109,-28.320,833.984
1742122353.444,999.512,241.211,-13.672,999.512
1742122353.447,906.738,-121.582,-10.254,918.457
1742122353.451,915.039,-166.504,-2.930,914.062
1742122353.455,999.512,115.234,-13.184,999.512
1742122353.459,225.098,-421.387,-49.316,214.355
1742122353.463,-1000.000,-729.492,-51.270,-997.070
1742122353.467,-1000.000,20.996,-21.973,-1000.000
1742122353.471,-911.621,221.191,-32.227,-657.715
1742122353.474,409.668,323.242,-54.688,693.359
1742122353.478,999.512,-5.371,-72.754,999.512
1742122353.482,899.414,-121.582,-70.312,909.668
1742122353.486,975.586,27.832,-40.039,979.980
1742122353.490,903.320,-36.621,-36.133,903.809
1742122353.447,906.738,-121.582,-10.254,918.457
1742122353.451,915.039,-166.504,-2.930,914.062
1742122353.455,999.512,115.234,-13.184,999.512
1742122353.459,225.098,-421.387,-49.316,214.355
1742122353.463,-1000.000,-729.492,-51.270,-997.070
1742122353.467,-1000.000,20.996,-21.973,-1000.000
1742122353.471,-911.621,221.191,-32.227,-657.715
1742122353.474,409.668,323.242,-54.688,693.359
1742122353.478,999.512,-5.371,-72.754,999.512
1742122353.482,899.414,-121.582,-70.312,909.668
1742122353.486,975.586,27.832,-40.039,979.980
1742122353.490,903.320,-36.621,-36.133,903.809
1742122353.492,999.512,-44.434,-59.570,999.512
1742122353.496,186.523,-477.051,-76.172,193.848
1742122353.500,-1000.000,-583.496,-65.918,-1000.000
1742122353.504,-921.387,-153.320,-46.875,-936.035
1742122353.508,-1000.000,-129.883,-22.949,-1000.000
1742122353.512,-227.539,460.938,-19.531,-104.492
1742122353.516,999.512,562.012,-53.223,999.512
1742122353.519,950.195,-84.961,-55.664,936.035
1742122353.523,952.637,-281.738,-33.691,961.426
1742122353.527,916.504,-145.996,-23.926,914.062
1742122353.531,999.512,108.398,-20.996,999.512
1742122353.535,802.734,-126.465,-29.297,759.277
1742122353.536,-610.352,-679.688,-35.645,-639.648
1742122353.540,-1000.000,-292.969,-17.578,-1000.000
1742122353.544,-1000.000,32.715,-3.418,-1000.000
1742122353.548,-280.762,357.422,-17.578,-208.984
1742122353.552,999.512,563.477,-37.109,999.512
1742122353.556,957.520,81.543,-35.645,947.754
1742122353.560,935.547,-88.379,-19.531,942.383
1742122353.563,975.098,-189.453,22.461,969.727
1742122353.567,903.320,-88.379,46.875,911.133
1742122353.571,999.512,2.930,50.781,999.512
1742122353.575,188.477,-176.758,301.758,131.348
1742122353.579,-1000.000,-235.840,348.633,-1000.000
1742122353.536,-610.352,-679.688,-35.645,-639.648
1742122353.540,-1000.000,-292.969,-17.578,-1000.000
1742122353.544,-1000.000,32.715,-3.418,-1000.000
1742122353.548,-280.762,357.422,-17.578,-208.984
1742122353.552,999.512,563.477,-37.109,999.512
1742122353.556,957.520,81.543,-35.645,947.754
1742122353.560,935.547,-88.379,-19.531,942.383
1742122353.563,975.098,-189.453,22.461,969.727
1742122353.567,903.320,-88.379,46.875,911.133
1742122353.571,999.512,2.930,50.781,999.512
1742122353.575,188.477,-176.758,301.758,131.348
1742122353.579,-1000.000,-235.840,348.633,-1000.000
1742122353.581,-1000.000,108.398,157.715,-1000.000
1742122353.585,-156.250,663.086,596.191,-40.527
1742122353.589,999.512,999.023,932.129,999.512
1742122353.593,944.336,934.082,887.207,931.152
1742122353.597,941.895,967.285,970.215,951.172
1742122353.601,981.445,972.168,966.797,979.004
1742122353.605,894.043,925.293,966.309,896.484
1742122353.608,999.512,999.512,967.285,999.512
1742122353.612,345.703,536.133,967.285,341.797
1742122353.616,-938.477,168.945,966.309,-934.570
1742122353.620,-1000.000,852.539,967.285,-1000.000
1742122353.624,-675.781,956.543,958.008,-425.293
1742122353.581,-1000.000,108.398,157.715,-1000.000
1742122353.585,-156.250,663.086,596.191,-40.527
1742122353.589,999.512,999.023,932.129,999.512
1742122353.593,944.336,934.082,887.207,931.152
1742122353.597,941.895,967.285,970.215,951.172
1742122353.601,981.445,972.168,966.797,979.004
1742122353.605,894.043,925.293,966.309,896.484
1742122353.608,999.512,999.512,967.285,999.512
1742122353.612,345.703,536.133,967.285,341.797
1742122353.616,-938.477,168.945,966.309,-934.570
1742122353.620,-1000.000,852.539,967.285,-1000.000
1742122353.624,-675.781,956.543,958.008,-425.293
1742122353.626,712.891,949.219,914.551,905.273
1742122353.630,999.512,944.336,845.703,995.605
1742122353.634,903.320,844.727,788.086,920.410
1742122353.638,990.234,773.438,738.770,988.770
1742122353.642,894.531,658.691,714.355,895.508
1742122353.646,999.512,965.820,733.887,999.512
1742122353.650,343.262,438.965,710.449,364.258
1742122353.653,-977.051,-291.016,671.875,-935.547
1742122353.657,-1000.000,410.645,684.570,-1000.000
1742122353.661,-980.469,780.273,671.875,-662.598
1742122353.665,171.875,841.797,601.562,587.891
1742122353.669,999.512,653.320,520.020,999.512
1742122353.626,712.891,949.219,914.551,905.273
1742122353.630,999.512,944.336,845.703,995.605
1742122353.634,903.320,844.727,788.086,920.410
1742122353.638,990.234,773.438,738.770,988.770
1742122353.642,894.531,658.691,714.355,895.508
1742122353.646,999.512,965.820,733.887,999.512
1742122353.650,343.262,438.965,710.449,364.258
1742122353.653,-977.051,-291.016,671.875,-935.547
1742122353.657,-1000.000,410.645,684.570,-1000.000
1742122353.661,-980.469,780.273,671.875,-662.598
1742122353.665,171.875,841.797,601.562,587.891
1742122353.669,999.512,653.320,520.020,999.512
1742122353.686,568.848,83.008,467.773,506.836
1742122353.690,-809.082,-174.805,445.801,-829.102
1742122353.694,-1000.000,332.520,427.734,-1000.000
1742122353.698,-952.148,397.949,413.574,-958.008
1742122353.702,-965.820,240.234,413.574,-956.543
1742122353.706,-1000.000,376.465,405.762,-1000.000
1742122353.710,-898.438,520.996,393.555,-790.527
1742122353.713,482.910,761.230,370.605,599.121
1742122353.717,999.512,336.914,329.102,999.512
1742122353.721,899.414,47.852,283.691,910.156
1742122353.725,976.562,203.125,254.883,966.797
1742122353.729,978.516,327.637,254.395,941.895
1742122353.686,568.848,83.008,467.773,506.836
1742122353.690,-809.082,-174.805,445.801,-829.102
1742122353.694,-1000.000,332.520,427.734,-1000.000
1742122353.698,-952.148,397.949,413.574,-958.008
1742122353.702,-965.820,240.234,413.574,-956.543
1742122353.706,-1000.000,376.465,405.762,-1000.000
1742122353.710,-898.438,520.996,393.555,-790.527
1742122353.713,482.910,761.230,370.605,599.121
1742122353.717,999.512,336.914,329.102,999.512
1742122353.721,899.414,47.852,283.691,910.156
1742122353.725,976.562,203.125,254.883,966.797
1742122353.729,978.516,327.637,254.395,941.895
1742122353.732,916.992,218.262,255.371,911.133
1742122353.736,999.512,72.266,251.953,999.512
1742122353.740,869.141,97.656,209.961,815.430
1742122353.744,-512.207,-346.191,154.785,-561.523
1742122353.748,-1000.000,-118.652,158.203,-1000.000
1742122353.752,-1000.000,248.535,178.711,-1000.000
1742122353.756,-324.707,596.680,202.637,-284.668
1742122353.759,999.512,596.191,187.500,999.512
1742122353.763,713.867,-351.074,113.281,570.312
1742122353.767,-645.020,-533.203,126.953,-769.043
1742122353.771,-1000.000,10.742,190.430,-1000.000
1742122353.775,-559.082,382.812,182.129,-407.715
1742122353.732,916.992,218.262,255.371,911.133
1742122353.736,999.512,72.266,251.953,999.512
1742122353.740,869.141,97.656,209.961,815.430
1742122353.744,-512.207,-346.191,154.785,-561.523
1742122353.748,-1000.000,-118.652,158.203,-1000.000
1742122353.752,-1000.000,248.535,178.711,-1000.000
1742122353.756,-324.707,596.680,202.637,-284.668
1742122353.759,999.512,596.191,187.500,999.512
1742122353.763,713.867,-351.074,113.281,570.312
1742122353.767,-645.020,-533.203,126.953,-769.043
1742122353.771,-1000.000,10.742,190.430,-1000.000
1742122353.775,-559.082,382.812,182.129,-407.715
1742122353.777,809.082,566.406,127.930,906.250
1742122353.781,999.512,207.031,73.242,995.117
1742122353.785,907.715,139.648,57.617,920.898
1742122353.789,982.910,-59.082,60.547,978.516
1742122353.793,903.809,-60.059,54.688,906.250
1742122353.797,999.512,204.590,-6.348,999.512
1742122353.801,187.012,-414.062,-106.934,163.086
1742122353.804,-1000.000,-730.957,-158.203,-1000.000
1742122353.808,-921.875,-293.945,-148.926,-915.039
1742122353.812,-1000.000,-201.660,-119.141,-1000.000
1742122353.816,-778.809,146.484,-102.539,-591.797
1742122353.820,655.762,521.484,-108.887,805.664
1742122353.777,809.082,566.406,127.930,906.250
1742122353.781,999.512,207.031,73.242,995.117
1742122353.785,907.715,139.648,57.617,920.898
1742122353.789,982.910,-59.082,60.547,978.516
1742122353.793,903.809,-60.059,54.688,906.250
1742122353.797,999.512,204.590,-6.348,999.512
1742122353.801,187.012,-414.062,-106.934,163.086
1742122353.804,-1000.000,-730.957,-158.203,-1000.000
1742122353.808,-921.875,-293.945,-148.926,-915.039
1742122353.812,-1000.000,-201.660,-119.141,-1000.000
1742122353.816,-778.809,146.484,-102.539,-591.797
1742122353.820,655.762,521.484,-108.887,805.664
1742122353.821,999.512,102.051,-114.746,999.512
1742122353.825,916.992,-23.926,-83.496,927.246
1742122353.829,908.203,68.359,-37.598,908.691
1742122353.833,999.512,80.566,-4.395,999.512
1742122353.837,597.656,-302.734,-12.207,525.879
1742122353.841,-849.609,-569.336,-41.016,-886.230
1742122353.845,-998.535,-43.945,-42.969,-992.676
1742122353.848,-1000.000,-127.441,-20.508,-1000.000
1742122353.852,-236.816,268.066,-5.859,-160.156
1742122353.856,999.512,484.375,-35.156,999.512
1742122353.860,950.195,-10.254,-48.828,941.895
1742122353.864,947.266,-25.391,-17.578,954.590
1742122353.821,999.512,102.051,-114.746,999.512
1742122353.825,916.992,-23.926,-83.496,927.246
1742122353.829,908.203,68.359,-37.598,908.691
1742122353.833,999.512,80.566,-4.395,999.512
1742122353.837,597.656,-302.734,-12.207,525.879
1742122353.841,-849.609,-569.336,-41.016,-886.230
1742122353.845,-998.535,-43.945,-42.969,-992.676
1742122353.848,-1000.000,-127.441,-20.508,-1000.000
1742122353.852,-236.816,268.066,-5.859,-160.156
1742122353.856,999.512,484.375,-35.156,999.512
1742122353.860,950.195,-10.254,-48.828,941.895
1742122353.864,947.266,-25.391,-17.578,954.590
1742122353.866,940.918,3.906,20.996,930.664
1742122353.870,961.914,-6.836,61.523,990.234
1742122353.874,999.512,-84.961,61.035,900.391
1742122353.878,-268.066,-518.555,23.438,-380.859
1742122353.882,-1000.000,-421.875,19.531,-1000.000
1742122353.886,-1000.000,186.523,38.574,-890.137
1742122353.890,-39.062,537.109,30.762,235.840
1742122353.893,999.512,373.047,5.371,999.512
1742122353.897,632.812,-363.770,-2.441,505.859
1742122353.901,-784.180,-770.508,35.156,-856.445
1742122353.905,-1000.000,-165.039,38.086,-986.328
1742122353.909,-1000.000,-32.715,36.133,-1000.000
1742122353.866,940.918,3.906,20.996,930.664
1742122353.870,961.914,-6.836,61.523,990.234
1742122353.874,999.512,-84.961,61.035,900.391
1742122353.878,-268.066,-518.555,23.438,-380.859
1742122353.882,-1000.000,-421.875,19.531,-1000.000
1742122353.886,-1000.000,186.523,38.574,-890.137
1742122353.890,-39.062,537.109,30.762,235.840
1742122353.893,999.512,373.047,5.371,999.512
1742122353.897,632.812,-363.770,-2.441,505.859
1742122353.901,-784.180,-770.508,35.156,-856.445
1742122353.905,-1000.000,-165.039,38.086,-986.328
1742122353.909,-1000.000,-32.715,36.133,-1000.000
1742122353.911,-571.777,177.246,71.289,-482.910
1742122353.915,882.324,540.039,99.121,901.855
1742122353.919,999.512,134.277,114.258,997.559
1742122353.923,912.598,59.570,132.324,921.387
1742122353.927,918.945,5.371,191.895,916.016
1742122353.931,999.512,282.227,223.145,999.512
1742122353.935,176.758,-221.680,191.895,176.270
1742122353.938,-1000.000,-746.094,200.684,-1000.000
1742122353.942,-1000.000,-133.789,268.066,-1000.000
1742122353.946,-862.305,305.664,301.270,-706.055
1742122353.950,419.922,642.578,271.973,596.191
1742122353.954,999.512,265.625,197.754,999.512
1742122353.911,-571.777,177.246,71.289,-482.910
1742122353.915,882.324,540.039,99.121,901.855
1742122353.919,999.512,134.277,114.258,997.559
1742122353.923,912.598,59.570,132.324,921.387
1742122353.927,918.945,5.371,191.895,916.016
1742122353.931,999.512,282.227,223.145,999.512
1742122353.935,176.758,-221.680,191.895,176.270
1742122353.938,-1000.000,-746.094,200.684,-1000.000
1742122353.942,-1000.000,-133.789,268.066,-1000.000
1742122353.946,-862.305,305.664,301.270,-706.055
1742122353.950,419.922,642.578,271.973,596.191
1742122353.954,999.512,265.625,197.754,999.512
1742122353.956,157.227,-485.840,160.156,113.281
1742122353.960,-1000.000,-484.375,173.340,-1000.000
1742122353.964,-990.234,201.172,161.621,-982.910
1742122353.968,-980.957,123.047,120.605,-983.398
1742122353.972,-935.059,-72.266,84.473,-935.547
1742122353.976,-1000.000,35.156,88.379,-1000.000
1742122353.980,-433.105,586.426,118.652,-414.062
1742122353.983,951.660,730.469,90.332,942.871
1742122353.987,925.293,59.570,24.414,945.801
1742122353.991,999.512,-77.148,7.812,999.512
1742122353.995,187.012,-433.105,59.570,3.418
1742122353.999,-1000.000,-339.844,136.230,-1000.000
1742122353.956,157.227,-485.840,160.156,113.281
1742122353.960,-1000.000,-484.375,173.340,-1000.000
1742122353.964,-990.234,201.172,161.621,-982.910
1742122353.968,-980.957,123.047,120.605,-983.398
1742122353.972,-935.059,-72.266,84.473,-935.547
1742122353.976,-1000.000,35.156,88.379,-1000.000
1742122353.980,-433.105,586.426,118.652,-414.062
1742122353.983,951.660,730.469,90.332,942.871
1742122353.987,925.293,59.570,24.414,945.801
1742122353.991,999.512,-77.148,7.812,999.512
1742122353.995,187.012,-433.105,59.570,3.418
1742122353.999,-1000.000,-339.844,136.230,-1000.000
1742122354.004,-982.422,114.258,210.938,-981.445
1742122354.008,-974.609,-5.859,224.121,-940.918
1742122354.012,-1000.000,56.641,161.621,-870.117
1742122354.016,-943.359,23.438,97.656,-938.477
1742122354.020,-1000.000,-65.918,20.996,-1000.000
1742122354.024,-140.625,520.508,-12.207,-106.934
1742122354.028,980.469,580.078,4.395,991.211
1742122354.031,999.512,-151.367,-22.461,999.512
1742122354.035,418.945,-442.383,-22.949,267.090
1742122354.039,-948.730,-550.293,45.898,-1000.000
1742122354.043,-983.398,-90.332,125.000,-988.770
1742122354.047,-1000.000,36.133,163.086,-977.539
1742122354.004,-982.422,114.258,210.938,-981.445
1742122354.008,-974.609,-5.859,224.121,-940.918
1742122354.012,-1000.000,56.641,161.621,-870.117
1742122354.016,-943.359,23.438,97.656,-938.477
1742122354.020,-1000.000,-65.918,20.996,-1000.000
1742122354.024,-140.625,520.508,-12.207,-106.934
1742122354.028,980.469,580.078,4.395,991.211
1742122354.031,999.512,-151.367,-22.461,999.512
1742122354.035,418.945,-442.383,-22.949,267.090
1742122354.039,-948.730,-550.293,45.898,-1000.000
1742122354.043,-983.398,-90.332,125.000,-988.770
1742122354.047,-1000.000,36.133,163.086,-977.539
1742122354.061,-55.664,330.078,149.414,134.277
1742122354.065,999.512,316.406,135.254,999.512
1742122354.069,931.152,168.457,145.996,930.664
1742122354.073,929.688,153.320,146.484,925.293
1742122354.077,944.336,39.062,120.117,972.656
1742122354.081,999.512,215.332,97.656,969.727
1742122354.085,-160.156,-292.480,62.012,-312.012
1742122354.088,-1000.000,-350.586,36.133,-1000.000
1742122354.092,-942.871,-81.543,21.484,-939.453
1742122354.096,-997.559,19.531,11.230,-1000.000
1742122354.100,-1000.000,120.605,-11.230,-1000.000
1742122354.104,-926.270,55.176,-44.922,-928.711
1742122354.061,-55.664,330.078,149.414,134.277
1742122354.065,999.512,316.406,135.254,999.512
1742122354.069,931.152,168.457,145.996,930.664
1742122354.073,929.688,153.320,146.484,925.293
1742122354.077,944.336,39.062,120.117,972.656
1742122354.081,999.512,215.332,97.656,969.727
1742122354.085,-160.156,-292.480,62.012,-312.012
1742122354.088,-1000.000,-350.586,36.133,-1000.000
1742122354.092,-942.871,-81.543,21.484,-939.453
1742122354.096,-997.559,19.531,11.230,-1000.000
1742122354.100,-1000.000,120.605,-11.230,-1000.000
1742122354.104,-926.270,55.176,-44.922,-928.711
1742122354.105,-1000.000,-57.129,-71.777,-1000.000
1742122354.109,-470.215,320.801,-68.359,-430.664
1742122354.113,949.219,805.176,-83.008,953.125
1742122354.117,922.852,170.410,-144.043,926.758
1742122354.121,999.512,-10.254,-185.059,999.512
1742122354.125,620.117,-55.176,-171.875,352.051
1742122354.129,-839.355,-414.551,-166.504,-973.145
1742122354.132,-1000.000,-222.656,-182.129,-1000.000
1742122354.136,-953.613,-199.219,-191.895,-972.656
1742122354.140,-966.797,-102.051,-178.223,-957.520
1742122354.144,-1000.000,-47.852,-152.344,-1000.000
1742122354.148,-903.320,74.219,-124.512,-837.891
1742122354.105,-1000.000,-57.129,-71.777,-1000.000
1742122354.109,-470.215,320.801,-68.359,-430.664
1742122354.113,949.219,805.176,-83.008,953.125
1742122354.117,922.852,170.410,-144.043,926.758
1742122354.121,999.512,-10.254,-185.059,999.512
1742122354.125,620.117,-55.176,-171.875,352.051
1742122354.129,-839.355,-414.551,-166.504,-973.145
1742122354.132,-1000.000,-222.656,-182.129,-1000.000
1742122354.136,-953.613,-199.219,-191.895,-972.656
1742122354.140,-966.797,-102.051,-178.223,-957.520
1742122354.144,-1000.000,-47.852,-152.344,-1000.000
1742122354.148,-903.320,74.219,-124.512,-837.891
1742122354.151,476.074,516.113,-81.055,556.152
1742122354.155,999.512,267.578,-44.434,999.512
1742122354.159,838.867,-58.594,-10.742,890.137
1742122354.163,999.512,11.230,14.160,973.633
1742122354.167,159.668,-434.570,0.488,-164.062
1742122354.171,-1000.000,-278.320,-10.742,-1000.000
1742122354.175,-980.469,157.715,-42.480,-962.402
1742122354.178,-974.609,28.809,-97.656,-985.840
1742122354.182,-944.824,-159.180,-127.930,-948.730
1742122354.186,-1000.000,-321.777,-135.254,-1000.000
1742122354.190,-199.219,424.805,-115.723,-128.906
1742122354.194,999.512,492.188,-124.512,999.512
1742122354.151,476.074,516.113,-81.055,556.152
1742122354.155,999.512,267.578,-44.434,999.512
1742122354.159,838.867,-58.594,-10.742,890.137
1742122354.163,999.512,11.230,14.160,973.633
1742122354.167,159.668,-434.570,0.488,-164.062
1742122354.171,-1000.000,-278.320,-10.742,-1000.000
1742122354.175,-980.469,157.715,-42.480,-962.402
1742122354.178,-974.609,28.809,-97.656,-985.840
1742122354.182,-944.824,-159.180,-127.930,-948.730
1742122354.186,-1000.000,-321.777,-135.254,-1000.000
1742122354.190,-199.219,424.805,-115.723,-128.906
1742122354.194,999.512,492.188,-124.512,999.512
1742122354.196,918.457,-77.637,-143.066,969.238
1742122354.200,999.512,-94.238,-119.141,837.402
1742122354.204,-124.512,-489.258,-100.586,-438.477
1742122354.208,-1000.000,-304.688,-90.332,-1000.000
1742122354.212,-945.801,17.578,-92.285,-942.871
1742122354.216,-996.094,41.504,-83.984,-1000.000
1742122354.220,-938.477,28.809,-55.664,-939.941
1742122354.223,-1000.000,-295.410,-41.504,-1000.000
1742122354.227,-220.703,206.543,2.930,-194.824
1742122354.231,999.512,558.594,35.645,999.512
1742122354.235,887.207,-43.457,20.508,902.344
1742122354.239,999.512,-226.562,0.000,999.512
1742122354.196,918.457,-77.637,-143.066,969.238
1742122354.200,999.512,-94.238,-119.141,837.402
1742122354.204,-124.512,-489.258,-100.586,-438.477
1742122354.208,-1000.000,-304.688,-90.332,-1000.000
1742122354.212,-945.801,17.578,-92.285,-942.871
1742122354.216,-996.094,41.504,-83.984,-1000.000
1742122354.220,-938.477,28.809,-55.664,-939.941
1742122354.223,-1000.000,-295.410,-41.504,-1000.000
1742122354.227,-220.703,206.543,2.930,-194.824
1742122354.231,999.512,558.594,35.645,999.512
1742122354.235,887.207,-43.457,20.508,902.344
1742122354.239,999.512,-226.562,0.000,999.512
1742122354.241,193.359,-538.086,32.227,56.641
1742122354.245,-1000.000,-612.793,70.801,-1000.000
1742122354.249,-984.375,-29.297,75.684,-971.680
1742122354.253,-973.633,-15.137,81.543,-983.398
1742122354.257,-944.336,-243.652,86.914,-940.918
1742122354.261,-1000.000,-86.914,85.449,-1000.000
1742122354.265,-221.191,547.363,47.852,-246.582
1742122354.268,999.512,514.160,-15.137,999.512
1742122354.272,950.195,-191.406,-19.043,954.590
1742122354.276,938.965,-120.117,28.809,937.500
1742122354.280,975.098,65.430,51.270,977.051
1742122354.284,955.078,129.883,54.199,950.195
1742122354.241,193.359,-538.086,32.227,56.641
1742122354.245,-1000.000,-612.793,70.801,-1000.000
1742122354.249,-984.375,-29.297,75.684,-971.680
1742122354.253,-973.633,-15.137,81.543,-983.398
1742122354.257,-944.336,-243.652,86.914,-940.918
1742122354.261,-1000.000,-86.914,85.449,-1000.000
1742122354.265,-221.191,547.363,47.852,-246.582
1742122354.268,999.512,514.160,-15.137,999.512
1742122354.272,950.195,-191.406,-19.043,954.590
1742122354.276,938.965,-120.117,28.809,937.500
1742122354.280,975.098,65.430,51.270,977.051
1742122354.284,955.078,129.883,54.199,950.195
1742122354.287,921.387,123.047,44.922,933.105
1742122354.291,999.512,25.879,36.621,999.512
1742122354.295,-11.230,-386.230,25.879,-79.102
1742122354.299,-1000.000,-368.164,32.715,-1000.000
1742122354.303,-947.754,84.961,60.547,-1000.000
1742122354.307,-1000.000,330.566,53.711,-805.176
1742122354.311,137.695,509.766,41.992,453.613
1742122354.314,999.512,130.859,6.348,999.512
1742122354.318,536.133,-332.520,-28.320,389.648
1742122354.322,-845.703,-550.781,-12.207,-923.828
1742122354.326,-1000.000,-108.887,21.973,-1000.000
1742122354.330,-955.566,80.078,25.391,-966.309
1742122354.287,921.387,123.047,44.922,933.105
1742122354.291,999.512,25.879,36.621,999.512
1742122354.295,-11.230,-386.230,25.879,-79.102
1742122354.299,-1000.000,-368.164,32.715,-1000.000
1742122354.303,-947.754,84.961,60.547,-1000.000
1742122354.307,-1000.000,330.566,53.711,-805.176
1742122354.311,137.695,509.766,41.992,453.613
1742122354.314,999.512,130.859,6.348,999.512
1742122354.318,536.133,-332.520,-28.320,389.648
1742122354.322,-845.703,-550.781,-12.207,-923.828
1742122354.326,-1000.000,-108.887,21.973,-1000.000
1742122354.330,-955.566,80.078,25.391,-966.309
1742122354.332,-958.008,-93.750,10.742,-954.102
1742122354.336,-1000.000,-137.695,1.953,-1000.000
1742122354.340,-824.219,255.859,-1.465,-779.785
1742122354.344,591.309,664.551,22.461,625.488
1742122354.348,999.512,189.453,33.691,999.512
1742122354.352,899.902,103.027,39.062,904.297
1742122354.356,979.004,200.195,35.645,979.492
1742122354.359,973.633,-70.801,33.203,973.633
1742122354.363,896.484,-292.480,18.555,897.949
1742122354.367,999.512,-15.625,14.648,999.512
1742122354.371,318.848,-311.035,14.160,305.664
1742122354.375,-1000.000,-685.059,-13.672,-1000.000
1742122354.332,-958.008,-93.750,10.742,-954.102
1742122354.336,-1000.000,-137.695,1.953,-1000.000
1742122354.340,-824.219,255.859,-1.465,-779.785
1742122354.344,591.309,664.551,22.461,625.488
1742122354.348,999.512,189.453,33.691,999.512
1742122354.352,899.902,103.027,39.062,904.297
1742122354.356,979.004,200.195,35.645,979.492
1742122354.359,973.633,-70.801,33.203,973.633
1742122354.363,896.484,-292.480,18.555,897.949
1742122354.367,999.512,-15.625,14.648,999.512
1742122354.371,318.848,-311.035,14.160,305.664
1742122354.375,-1000.000,-685.059,-13.672,-1000.000
1742122354.375,-1000.000,-122.070,-48.828,-1000.000
1742122354.379,-962.402,106.445,-60.547,-963.379
1742122354.383,-1000.000,120.605,-56.641,-1000.000
1742122354.387,-952.637,28.809,-72.266,-951.660
1742122354.391,-1000.000,9.277,-63.965,-1000.000
1742122354.395,-917.480,277.832,-41.504,-871.582
1742122354.399,458.008,747.070,-32.227,495.605
1742122354.402,999.512,252.441,-55.176,999.512
1742122354.406,867.188,-288.086,-99.121,925.293
1742122354.410,999.512,-57.617,-99.121,899.902
1742122354.414,-105.957,-312.500,-48.340,-399.414
1742122354.418,-1000.000,-220.215,4.883,-1000.000
1742122354.375,-1000.000,-122.070,-48.828,-1000.000
1742122354.379,-962.402,106.445,-60.547,-963.379
1742122354.383,-1000.000,120.605,-56.641,-1000.000
1742122354.387,-952.637,28.809,-72.266,-951.660
1742122354.391,-1000.000,9.277,-63.965,-1000.000
1742122354.395,-917.480,277.832,-41.504,-871.582
1742122354.399,458.008,747.070,-32.227,495.605
1742122354.402,999.512,252.441,-55.176,999.512
1742122354.406,867.188,-288.086,-99.121,925.293
1742122354.410,999.512,-57.617,-99.121,899.902
1742122354.414,-105.957,-312.500,-48.340,-399.414
1742122354.418,-1000.000,-220.215,4.883,-1000.000
1742122354.436,-947.754,83.496,45.898,-942.871
1742122354.440,-1000.000,-14.160,41.016,-1000.000
1742122354.444,-929.688,24.902,-5.371,-930.664
1742122354.448,-1000.000,-91.309,-19.043,-1000.000
1742122354.452,-385.254,345.215,-26.367,-364.746
1742122354.456,984.375,782.715,-47.852,991.699
1742122354.460,942.383,175.293,-84.473,923.828
1742122354.463,929.199,-103.027,-117.188,984.863
1742122354.467,991.211,-194.336,-119.141,772.461
1742122354.471,-325.195,-620.117,-109.375,-592.285
1742122354.475,-1000.000,-333.496,-88.379,-1000.000
1742122354.479,-949.707,2.930,-70.312,-954.590
1742122354.436,-947.754,83.496,45.898,-942.871
1742122354.440,-1000.000,-14.160,41.016,-1000.000
1742122354.444,-929.688,24.902,-5.371,-930.664
1742122354.448,-1000.000,-91.309,-19.043,-1000.000
1742122354.452,-385.254,345.215,-26.367,-364.746
1742122354.456,984.375,782.715,-47.852,991.699
1742122354.460,942.383,175.293,-84.473,923.828
1742122354.463,929.199,-103.027,-117.188,984.863
1742122354.467,991.211,-194.336,-119.141,772.461
1742122354.471,-325.195,-620.117,-109.375,-592.285
1742122354.475,-1000.000,-333.496,-88.379,-1000.000
1742122354.479,-949.707,2.930,-70.312,-954.590
1742122354.481,-947.754,-152.832,-78.125,-950.684
1742122354.485,-1000.000,-146.484,-66.895,-1000.000
1742122354.489,-830.566,167.969,-42.969,-778.809
1742122354.493,583.008,579.102,-36.621,625.977
1742122354.497,999.512,145.508,-42.969,999.512
1742122354.501,837.402,-71.289,-51.758,853.027
1742122354.505,999.512,113.770,-57.129,999.512
1742122354.508,187.012,-549.805,-62.012,92.285
1742122354.512,-1000.000,-731.934,-66.406,-1000.000
1742122354.516,-984.375,-22.949,-82.520,-975.586
1742122354.520,-971.680,83.496,-109.863,-973.145
1742122354.524,-947.266,-149.902,-109.863,-953.125
1742122354.481,-947.754,-152.832,-78.125,-950.684
1742122354.485,-1000.000,-146.484,-66.895,-1000.000
1742122354.489,-830.566,167.969,-42.969,-778.809
1742122354.493,583.008,579.102,-36.621,625.977
1742122354.497,999.512,145.508,-42.969,999.512
1742122354.501,837.402,-71.289,-51.758,853.027
1742122354.505,999.512,113.770,-57.129,999.512
1742122354.508,187.012,-549.805,-62.012,92.285
1742122354.512,-1000.000,-731.934,-66.406,-1000.000
1742122354.516,-984.375,-22.949,-82.520,-975.586
1742122354.520,-971.680,83.496,-109.863,-973.145
1742122354.524,-947.266,-149.902,-109.863,-953.125
1742122354.526,-1000.000,-183.105,-81.543,-1000.000
1742122354.530,-173.828,404.785,-62.988,-104.004
1742122354.534,991.699,484.375,-80.078,995.117
1742122354.538,999.512,-45.410,-106.934,999.512
1742122354.542,792.969,-270.508,-108.887,580.078
1742122354.546,-579.590,-493.164,-93.750,-795.410
1742122354.550,-1000.000,-49.316,-82.031,-1000.000
1742122354.553,-934.082,36.133,-84.473,-945.312
1742122354.557,-1000.000,-336.914,-126.953,-1000.000
1742122354.561,-937.500,-225.586,-145.508,-941.406
1742122354.565,-1000.000,-84.961,-104.004,-1000.000
1742122354.569,-220.703,365.234,-74.219,-180.176
1742122354.526,-1000.000,-183.105,-81.543,-1000.000
1742122354.530,-173.828,404.785,-62.988,-104.004
1742122354.534,991.699,484.375,-80.078,995.117
1742122354.538,999.512,-45.410,-106.934,999.512
1742122354.542,792.969,-270.508,-108.887,580.078
1742122354.546,-579.590,-493.164,-93.750,-795.410
1742122354.550,-1000.000,-49.316,-82.031,-1000.000
1742122354.553,-934.082,36.133,-84.473,-945.312
1742122354.557,-1000.000,-336.914,-126.953,-1000.000
1742122354.561,-937.500,-225.586,-145.508,-941.406
1742122354.565,-1000.000,-84.961,-104.004,-1000.000
1742122354.569,-220.703,365.234,-74.219,-180.176
1742122354.571,999.512,654.785,-53.711,999.512
1742122354.575,964.844,-0.977,-62.012,940.918
1742122354.579,868.164,-236.816,-64.941,911.621
1742122354.583,999.512,12.695,-24.414,882.324
1742122354.587,585.449,-269.531,-11.230,177.246
1742122354.591,-851.562,-333.496,-25.879,-871.582
1742122354.595,-1000.000,20.508,-57.617,-1000.000
1742122354.598,-880.859,-168.457,-79.102,-899.414
1742122354.602,-1000.000,-146.484,-32.227,-1000.000
1742122354.606,-763.672,217.285,23.438,-662.598
1742122354.610,625.488,600.098,37.109,692.383
1742122354.614,999.512,313.965,14.648,999.512
1742122354.571,999.512,654.785,-53.711,999.512
1742122354.575,964.844,-0.977,-62.012,940.918
1742122354.579,868.164,-236.816,-64.941,911.621
1742122354.583,999.512,12.695,-24.414,882.324
1742122354.587,585.449,-269.531,-11.230,177.246
1742122354.591,-851.562,-333.496,-25.879,-871.582
1742122354.595,-1000.000,20.508,-57.617,-1000.000
1742122354.598,-880.859,-168.457,-79.102,-899.414
1742122354.602,-1000.000,-146.484,-32.227,-1000.000
1742122354.606,-763.672,217.285,23.438,-662.598
1742122354.610,625.488,600.098,37.109,692.383
1742122354.614,999.512,313.965,14.648,999.512
1742122354.615,934.570,-165.527,-21.484,723.633
1742122354.619,-194.824,-450.684,-7.324,-497.559
1742122354.623,-1000.000,-130.371,42.480,-1000.000
1742122354.627,-291.504,543.457,75.684,-218.262
1742122354.631,984.375,525.391,66.895,999.512
1742122354.635,972.168,124.512,39.551,960.449
1742122354.639,929.199,181.152,51.270,937.012
1742122354.642,971.680,40.039,82.520,966.797
1742122354.646,912.109,-141.113,92.773,918.945
1742122354.650,999.512,3.906,70.801,999.512
1742122354.654,88.867,-466.797,10.254,44.922
1742122354.658,-1000.000,-562.988,-21.484,-1000.000
1742122354.615,934.570,-165.527,-21.484,723.633
1742122354.619,-194.824,-450.684,-7.324,-497.559
1742122354.623,-1000.000,-130.371,42.480,-1000.000
1742122354.627,-291.504,543.457,75.684,-218.262
1742122354.631,984.375,525.391,66.895,999.512
1742122354.635,972.168,124.512,39.551,960.449
1742122354.639,929.199,181.152,51.270,937.012
1742122354.642,971.680,40.039,82.520,966.797
1742122354.646,912.109,-141.113,92.773,918.945
1742122354.650,999.512,3.906,70.801,999.512
1742122354.654,88.867,-466.797,10.254,44.922
1742122354.658,-1000.000,-562.988,-21.484,-1000.000
1742122354.663,-970.215,-66.895,-6.348,-966.309
1742122354.667,-980.469,-33.691,-26.855,-982.910
1742122354.671,-1000.000,58.105,-67.383,-1000.000
1742122354.675,-935.547,61.035,-43.457,-936.035
1742122354.679,-1000.000,-166.504,-26.367,-1000.000
1742122354.683,-740.234,151.367,-31.250,-708.496
1742122354.687,695.801,816.895,7.812,707.520
1742122354.690,986.816,174.316,-38.574,990.723
1742122354.694,999.512,-376.465,-92.285,999.512
1742122354.698,189.941,-575.684,-55.664,107.910
1742122354.702,-1000.000,-500.488,-65.918,-1000.000
1742122354.706,-1000.000,-41.992,-82.520,-1000.000
1742122354.663,-970.215,-66.895,-6.348,-966.309
1742122354.667,-980.469,-33.691,-26.855,-982.910
1742122354.671,-1000.000,58.105,-67.383,-1000.000
1742122354.675,-935.547,61.035,-43.457,-936.035
1742122354.679,-1000.000,-166.504,-26.367,-1000.000
1742122354.683,-740.234,151.367,-31.250,-708.496
1742122354.687,695.801,816.895,7.812,707.520
1742122354.690,986.816,174.316,-38.574,990.723
1742122354.694,999.512,-376.465,-92.285,999.512
1742122354.698,189.941,-575.684,-55.664,107.910
1742122354.702,-1000.000,-500.488,-65.918,-1000.000
1742122354.706,-1000.000,-41.992,-82.520,-1000.000
1742122354.706,-913.574,14.160,-54.199,-741.211
1742122354.710,413.574,469.727,-59.570,593.750
1742122354.714,999.512,226.074,-68.848,999.512
1742122354.718,911.621,-102.051,-41.992,921.387
1742122354.722,926.270,47.363,-35.645,920.898
1742122354.726,999.512,200.684,-30.762,999.512
1742122354.730,872.559,-13.184,-57.617,784.180
1742122354.733,-505.371,-647.461,-85.938,-611.328
1742122354.737,-1000.000,-567.383,-53.711,-1000.000
1742122354.741,-933.594,-179.199,-17.090,-936.523
1742122354.745,-1000.000,-23.438,-30.762,-1000.000
1742122354.749,-1000.000,-58.105,-47.363,-998.535
1742122354.706,-913.574,14.160,-54.199,-741.211
1742122354.710,413.574,469.727,-59.570,593.750
1742122354.714,999.512,226.074,-68.848,999.512
1742122354.718,911.621,-102.051,-41.992,921.387
1742122354.722,926.270,47.363,-35.645,920.898
1742122354.726,999.512,200.684,-30.762,999.512
1742122354.730,872.559,-13.184,-57.617,784.180
1742122354.733,-505.371,-647.461,-85.938,-611.328
1742122354.737,-1000.000,-567.383,-53.711,-1000.000
1742122354.741,-933.594,-179.199,-17.090,-936.523
1742122354.745,-1000.000,-23.438,-30.762,-1000.000
1742122354.749,-1000.000,-58.105,-47.363,-998.535
1742122354.751,-937.500,-163.086,-24.902,-941.406
1742122354.755,-1000.000,-170.410,21.484,-1000.000
1742122354.759,-220.703,458.496,32.227,-180.176
1742122354.763,999.512,583.984,-20.508,999.512
1742122354.767,950.195,-125.000,-52.734,945.312
1742122354.771,938.965,9.277,-32.715,942.871
1742122354.775,976.074,66.406,2.441,978.027
1742122354.778,950.195,-170.410,25.391,945.312
1742122354.782,929.199,-126.953,12.207,943.848
1742122354.786,999.512,-56.152,-34.180,999.512
1742122354.790,-69.824,-410.156,-52.246,-145.996
1742122354.794,-1000.000,-532.227,-44.434,-1000.000
1742122354.751,-937.500,-163.086,-24.902,-941.406
1742122354.755,-1000.000,-170.410,21.484,-1000.000
1742122354.759,-220.703,458.496,32.227,-180.176
1742122354.763,999.512,583.984,-20.508,999.512
1742122354.767,950.195,-125.000,-52.734,945.312
1742122354.771,938.965,9.277,-32.715,942.871
1742122354.775,976.074,66.406,2.441,978.027
1742122354.778,950.195,-170.410,25.391,945.312
1742122354.782,929.199,-126.953,12.207,943.848
1742122354.786,999.512,-56.152,-34.180,999.512
1742122354.790,-69.824,-410.156,-52.246,-145.996
1742122354.794,-1000.000,-532.227,-44.434,-1000.000
1742122354.811,-951.172,-131.836,-27.832,-948.730
1742122354.815,-991.699,-32.227,4.883,-995.117
1742122354.819,-1000.000,-42.480,4.883,-1000.000
1742122354.823,-937.500,-66.406,-11.719,-937.500
1742122354.827,-1000.000,-182.617,27.832,-1000.000
1742122354.831,-215.820,438.965,84.473,-214.355
1742122354.835,999.512,749.512,53.223,994.141
1742122354.838,924.316,48.340,-5.371,978.516
1742122354.842,999.512,-332.031,5.371,854.004
1742122354.846,-148.438,-618.652,14.648,-422.852
1742122354.850,-1000.000,-289.551,-15.625,-1000.000
1742122354.854,-1000.000,-30.762,-21.973,-1000.000
1742122354.811,-951.172,-131.836,-27.832,-948.730
1742122354.815,-991.699,-32.227,4.883,-995.117
1742122354.819,-1000.000,-42.480,4.883,-1000.000
1742122354.823,-937.500,-66.406,-11.719,-937.500
1742122354.827,-1000.000,-182.617,27.832,-1000.000
1742122354.831,-215.820,438.965,84.473,-214.355
1742122354.835,999.512,749.512,53.223,994.141
1742122354.838,924.316,48.340,-5.371,978.516
1742122354.842,999.512,-332.031,5.371,854.004
1742122354.846,-148.438,-618.652,14.648,-422.852
1742122354.850,-1000.000,-289.551,-15.625,-1000.000
1742122354.854,-1000.000,-30.762,-21.973,-1000.000
1742122354.855,-217.773,285.156,-44.434,-107.910
1742122354.859,999.512,396.484,-72.266,999.512
1742122354.863,950.195,-45.898,-43.945,938.965
1742122354.867,951.660,-61.523,-32.227,957.520
1742122354.871,898.926,-83.984,-8.301,900.391
1742122354.875,999.512,139.648,47.363,999.512
1742122354.879,446.777,-248.535,-15.137,398.926
1742122354.882,-962.402,-876.465,6.836,-980.957
1742122354.886,-1000.000,-371.094,15.137,-1000.000
1742122354.890,-952.148,-0.488,-3.418,-956.055
1742122354.894,-1000.000,-47.363,13.184,-1000.000
1742122354.898,-999.023,-107.422,-55.176,-995.605
1742122354.855,-217.773,285.156,-44.434,-107.910
1742122354.859,999.512,396.484,-72.266,999.512
1742122354.863,950.195,-45.898,-43.945,938.965
1742122354.867,951.660,-61.523,-32.227,957.520
1742122354.871,898.926,-83.984,-8.301,900.391
1742122354.875,999.512,139.648,47.363,999.512
1742122354.879,446.777,-248.535,-15.137,398.926
1742122354.882,-962.402,-876.465,6.836,-980.957
1742122354.886,-1000.000,-371.094,15.137,-1000.000
1742122354.890,-952.148,-0.488,-3.418,-956.055
1742122354.894,-1000.000,-47.363,13.184,-1000.000
1742122354.898,-999.023,-107.422,-55.176,-995.605
1742122354.901,-940.430,-206.055,-95.703,-946.289
1742122354.905,-1000.000,-177.246,-58.594,-1000.000
1742122354.909,-189.453,469.727,-20.996,-132.812
1742122354.913,999.512,609.863,-2.930,999.512
1742122354.917,945.312,-113.770,8.301,938.965
1742122354.921,941.406,-109.863,-3.418,946.289
1742122354.925,985.840,90.820,44.922,984.863
1742122354.928,912.109,-101.074,76.660,910.156
1742122354.932,999.512,-234.375,9.277,999.512
1742122354.936,824.219,-263.184,-40.039,766.602
1742122354.940,-576.172,-632.812,16.602,-633.789
1742122354.944,-1000.000,-337.891,87.891,-1000.000
1742122354.901,-940.430,-206.055,-95.703,-946.289
1742122354.905,-1000.000,-177.246,-58.594,-1000.000
1742122354.909,-189.453,469.727,-20.996,-132.812
1742122354.913,999.512,609.863,-2.930,999.512
1742122354.917,945.312,-113.770,8.301,938.965
1742122354.921,941.406,-109.863,-3.418,946.289
1742122354.925,985.840,90.820,44.922,984.863
1742122354.928,912.109,-101.074,76.660,910.156
1742122354.932,999.512,-234.375,9.277,999.512
1742122354.936,824.219,-263.184,-40.039,766.602
1742122354.940,-576.172,-632.812,16.602,-633.789
1742122354.944,-1000.000,-337.891,87.891,-1000.000
1742122354.948,-871.094,-14.648,79.102,-889.160
1742122354.952,-1000.000,-140.625,45.898,-1000.000
1742122354.956,-220.703,340.332,95.703,-103.027
1742122354.960,999.512,396.484,163.086,999.512
1742122354.964,953.613,-173.340,96.680,944.824
1742122354.968,920.410,44.434,17.578,923.340
1742122354.972,940.430,205.078,-6.348,951.172
1742122354.975,999.512,-133.789,-76.660,999.512
1742122354.979,-105.957,-756.836,-98.145,-174.316
1742122354.983,-1000.000,-535.156,-95.215,-1000.000
1742122354.987,-908.203,12.207,-125.000,-947.754
1742122354.991,-1000.000,-6.836,-68.359,-987.793
1742122354.948,-871.094,-14.648,79.102,-889.160
1742122354.952,-1000.000,-140.625,45.898,-1000.000
1742122354.956,-220.703,340.332,95.703,-103.027
1742122354.960,999.512,396.484,163.086,999.512
1742122354.964,953.613,-173.340,96.680,944.824
1742122354.968,920.410,44.434,17.578,923.340
1742122354.972,940.430,205.078,-6.348,951.172
1742122354.975,999.512,-133.789,-76.660,999.512
1742122354.979,-105.957,-756.836,-98.145,-174.316
1742122354.983,-1000.000,-535.156,-95.215,-1000.000
1742122354.987,-908.203,12.207,-125.000,-947.754
1742122354.991,-1000.000,-6.836,-68.359,-987.793
1742122354.991,10.254,372.559,-23.438,248.535
1742122354.995,999.512,283.691,-49.316,999.512
1742122354.999,919.922,-53.711,-5.371,912.109
1742122355.003,964.844,29.785,-5.859,972.656
1742122355.007,896.484,62.500,-49.316,898.438
1742122355.011,999.512,253.418,-15.625,999.512
1742122355.015,350.586,-207.031,7.812,310.547
1742122355.018,-1000.000,-702.148,12.695,-1000.000
1742122355.022,-1000.000,-347.656,20.996,-1000.000
1742122355.026,-959.961,-172.363,-5.859,-962.891
1742122355.030,-1000.000,-25.879,25.879,-1000.000
1742122355.034,-981.445,-16.602,20.508,-975.586
1742122355.036,-968.750,-79.102,-15.137,-981.934
1742122355.040,-1000.000,-67.871,35.645,-1000.000
1742122355.044,78.125,472.656,60.059,149.414
1742122355.048,999.512,456.055,12.207,999.512
1742122355.052,913.086,-106.934,-16.602,912.109
1742122355.056,960.449,30.762,27.344,963.379
1742122355.060,982.910,66.895,102.051,980.957
1742122355.063,893.555,-199.219,157.715,895.996
1742122355.067,999.512,-142.578,125.488,999.512
1742122355.071,574.219,-285.156,33.203,526.855
1742122355.075,-871.582,-509.766,31.738,-890.137
1742122355.079,-1000.000,-159.180,59.082,-1000.000
1742122355.036,-968.750,-79.102,-15.137,-981.934
1742122355.040,-1000.000,-67.871,35.645,-1000.000
1742122355.044,78.125,472.656,60.059,149.414
1742122355.048,999.512,456.055,12.207,999.512
1742122355.052,913.086,-106.934,-16.602,912.109
1742122355.056,960.449,30.762,27.344,963.379
1742122355.060,982.910,66.895,102.051,980.957
1742122355.063,893.555,-199.219,157.715,895.996
1742122355.067,999.512,-142.578,125.488,999.512
1742122355.071,574.219,-285.156,33.203,526.855
1742122355.075,-871.582,-509.766,31.738,-890.137
1742122355.079,-1000.000,-159.180,59.082,-1000.000
1742122355.081,-942.871,-118.164,66.406,-946.777
1742122355.085,-1000.000,-59.082,133.301,-1000.000
1742122355.089,-1000.000,102.051,167.480,-998.047
1742122355.093,-938.477,62.988,183.594,-941.895
1742122355.097,-1000.000,-144.043,204.102,-1000.000
1742122355.101,-195.312,466.797,251.953,-164.062
1742122355.105,978.516,748.047,301.270,979.492
1742122355.108,999.512,125.977,282.715,999.512
1742122355.112,716.309,-480.957,266.113,520.996
1742122355.116,-687.988,-685.059,261.719,-860.352
1742122355.120,-1000.000,-50.293,256.836,-984.375
1742122355.124,-1000.000,14.160,238.770,-1000.000
1742122355.081,-942.871,-118.164,66.406,-946.777
1742122355.085,-1000.000,-59.082,133.301,-1000.000
1742122355.089,-1000.000,102.051,167.480,-998.047
1742122355.093,-938.477,62.988,183.594,-941.895
1742122355.097,-1000.000,-144.043,204.102,-1000.000
1742122355.101,-195.312,466.797,251.953,-164.062
1742122355.105,978.516,748.047,301.270,979.492
1742122355.108,999.512,125.977,282.715,999.512
1742122355.112,716.309,-480.957,266.113,520.996
1742122355.116,-687.988,-685.059,261.719,-860.352
1742122355.120,-1000.000,-50.293,256.836,-984.375
1742122355.124,-1000.000,14.160,238.770,-1000.000
1742122355.127,-418.457,319.336,224.609,-336.914
1742122355.131,965.820,688.477,187.988,993.652
1742122355.135,981.445,34.668,172.363,969.727
1742122355.139,925.781,-49.316,209.473,933.105
1742122355.143,914.062,-23.438,205.078,912.598
1742122355.147,999.512,244.629,195.801,999.512
1742122355.151,207.031,-257.324,164.062,209.473
1742122355.154,-1000.000,-815.430,103.027,-1000.000
1742122355.158,-987.305,-182.129,91.309,-987.793
1742122355.162,-971.680,-0.488,119.629,-971.191
1742122355.166,-1000.000,25.391,98.633,-1000.000
1742122355.170,-938.965,61.523,114.746,-936.523
1742122355.186,-1000.000,-101.562,163.574,-1000.000
1742122355.190,-781.250,132.812,163.086,-712.402
1742122355.194,645.020,659.180,75.195,706.055
1742122355.198,999.512,384.277,-41.504,999.512
1742122355.202,901.367,-49.316,-118.164,906.250
1742122355.206,980.469,-20.508,-147.949,980.469
1742122355.210,967.285,119.141,-102.051,968.750
1742122355.213,903.320,-166.016,-26.855,903.320
1742122355.217,999.512,-169.922,-34.668,999.512
1742122355.221,187.012,-500.488,-125.977,202.148
1742122355.225,-1000.000,-755.859,-184.570,-1000.000
1742122355.229,-998.535,-133.301,-172.852,-993.652
1742122355.186,-1000.000,-101.562,163.574,-1000.000
1742122355.190,-781.250,132.812,163.086,-712.402
1742122355.194,645.020,659.180,75.195,706.055
1742122355.198,999.512,384.277,-41.504,999.512
1742122355.202,901.367,-49.316,-118.164,906.250
1742122355.206,980.469,-20.508,-147.949,980.469
1742122355.210,967.285,119.141,-102.051,968.750
1742122355.213,903.320,-166.016,-26.855,903.320
1742122355.217,999.512,-169.922,-34.668,999.512
1742122355.221,187.012,-500.488,-125.977,202.148
1742122355.225,-1000.000,-755.859,-184.570,-1000.000
1742122355.229,-998.535,-133.301,-172.852,-993.652
1742122355.231,-899.902,-55.664,-128.418,-908.691
1742122355.235,-1000.000,-125.977,-135.254,-1000.000
1742122355.239,-583.496,306.152,-147.461,-444.824
1742122355.243,854.980,554.688,-146.973,894.531
1742122355.247,999.512,83.496,-140.137,999.512
1742122355.251,879.395,59.570,-108.398,882.812
1742122355.255,973.633,202.637,-60.547,995.605
1742122355.258,999.512,-120.605,-50.293,927.246
1742122355.262,-271.484,-766.602,-48.828,-398.926
1742122355.266,-1000.000,-443.359,-24.902,-1000.000
1742122355.270,-913.574,2.441,-36.621,-965.820
1742122355.274,-1000.000,20.996,-74.707,-904.785
1742122355.231,-899.902,-55.664,-128.418,-908.691
1742122355.235,-1000.000,-125.977,-135.254,-1000.000
1742122355.239,-583.496,306.152,-147.461,-444.824
1742122355.243,854.980,554.688,-146.973,894.531
1742122355.247,999.512,83.496,-140.137,999.512
1742122355.251,879.395,59.570,-108.398,882.812
1742122355.255,973.633,202.637,-60.547,995.605
1742122355.258,999.512,-120.605,-50.293,927.246
1742122355.262,-271.484,-766.602,-48.828,-398.926
1742122355.266,-1000.000,-443.359,-24.902,-1000.000
1742122355.270,-913.574,2.441,-36.621,-965.820
1742122355.274,-1000.000,20.996,-74.707,-904.785
1742122355.276,136.719,425.781,-97.168,407.715
1742122355.280,999.512,275.391,-107.422,999.512
1742122355.284,909.180,-21.973,-127.930,910.645
1742122355.288,958.008,32.227,-122.559,961.426
1742122355.292,913.086,9.766,-96.680,922.363
1742122355.296,999.512,109.863,-128.906,999.512
1742122355.300,83.008,-342.773,-182.129,17.578
1742122355.303,-1000.000,-590.820,-178.223,-1000.000
1742122355.307,-969.238,-53.711,-137.695,-963.867
1742122355.311,-980.957,-80.078,-134.277,-984.863
1742122355.315,-1000.000,-222.656,-152.832,-1000.000
1742122355.319,-926.270,-120.605,-169.434,-928.223
1742122355.276,136.719,425.781,-97.168,407.715
1742122355.280,999.512,275.391,-107.422,999.512
1742122355.284,909.180,-21.973,-127.930,910.645
1742122355.288,958.008,32.227,-122.559,961.426
1742122355.292,913.086,9.766,-96.680,922.363
1742122355.296,999.512,109.863,-128.906,999.512
1742122355.300,83.008,-342.773,-182.129,17.578
1742122355.303,-1000.000,-590.820,-178.223,-1000.000
1742122355.307,-969.238,-53.711,-137.695,-963.867
1742122355.311,-980.957,-80.078,-134.277,-984.863
1742122355.315,-1000.000,-222.656,-152.832,-1000.000
1742122355.319,-926.270,-120.605,-169.434,-928.223
1742122355.321,-1000.000,-355.957,-177.734,-1000.000
1742122355.325,-481.445,124.023,-146.484,-451.660
1742122355.329,928.223,687.988,-145.020,937.500
1742122355.333,996.094,-0.977,-186.035,992.188
1742122355.337,917.969,-121.094,-165.039,920.898
1742122355.341,980.469,117.188,-131.836,980.469
1742122355.345,966.797,-31.250,-129.395,966.309
1742122355.348,903.320,-204.102,-132.324,906.250
1742122355.352,999.512,-125.977,-146.484,999.512
1742122355.356,187.012,-525.879,-143.555,163.574
1742122355.360,-1000.000,-570.801,-124.512,-1000.000
1742122355.364,-983.887,-6.836,-102.051,-980.957
1742122355.321,-1000.000,-355.957,-177.734,-1000.000
1742122355.325,-481.445,124.023,-146.484,-451.660
1742122355.329,928.223,687.988,-145.020,937.500
1742122355.333,996.094,-0.977,-186.035,992.188
1742122355.337,917.969,-121.094,-165.039,920.898
1742122355.341,980.469,117.188,-131.836,980.469
1742122355.345,966.797,-31.250,-129.395,966.309
1742122355.348,903.320,-204.102,-132.324,906.250
1742122355.352,999.512,-125.977,-146.484,999.512
1742122355.356,187.012,-525.879,-143.555,163.574
1742122355.360,-1000.000,-570.801,-124.512,-1000.000
1742122355.364,-983.887,-6.836,-102.051,-980.957
1742122355.366,-973.145,-141.602,-98.145,-974.609
1742122355.370,-1000.000,-101.562,-97.656,-1000.000
1742122355.374,-981.445,2.930,-116.211,-978.027
1742122355.378,-968.750,-88.379,-145.996,-977.051
1742122355.382,-1000.000,-159.180,-138.672,-1000.000
1742122355.386,92.285,498.535,-110.352,133.789
1742122355.390,999.512,604.004,-82.520,999.512
1742122355.393,976.074,-69.824,-89.355,999.512
1742122355.397,784.668,-463.379,-133.301,589.355
1742122355.401,-624.023,-698.730,-170.898,-809.082
1742122355.405,-1000.000,-215.820,-172.852,-1000.000
1742122355.409,-934.082,4.395,-162.598,-945.312
1742122355.366,-973.145,-141.602,-98.145,-974.609
1742122355.370,-1000.000,-101.562,-97.656,-1000.000
1742122355.374,-981.445,2.930,-116.211,-978.027
1742122355.378,-968.750,-88.379,-145.996,-977.051
1742122355.382,-1000.000,-159.180,-138.672,-1000.000
1742122355.386,92.285,498.535,-110.352,133.789
1742122355.390,999.512,604.004,-82.520,999.512
1742122355.393,976.074,-69.824,-89.355,999.512
1742122355.397,784.668,-463.379,-133.301,589.355
1742122355.401,-624.023,-698.730,-170.898,-809.082
1742122355.405,-1000.000,-215.820,-172.852,-1000.000
1742122355.409,-934.082,4.395,-162.598,-945.312
1742122355.412,-1000.000,-112.305,-168.945,-1000.000
1742122355.416,-937.500,-27.344,-194.336,-941.895
1742122355.420,-1000.000,-201.172,-197.754,-1000.000
1742122355.424,-221.191,227.539,-175.293,-177.246
1742122355.428,999.512,394.531,-187.500,999.512
1742122355.432,949.707,24.414,-209.961,944.824
1742122355.436,938.965,-50.781,-204.102,942.871
1742122355.439,977.539,-281.738,-188.965,979.004
1742122355.443,945.801,-258.789,-200.684,939.453
1742122355.447,937.988,-120.117,-201.660,956.055
1742122355.451,999.512,-51.270,-193.359,999.512
1742122355.455,-134.277,-556.641,-201.660,-226.562
1742122355.412,-1000.000,-112.305,-168.945,-1000.000
1742122355.416,-937.500,-27.344,-194.336,-941.895
1742122355.420,-1000.000,-201.172,-197.754,-1000.000
1742122355.424,-221.191,227.539,-175.293,-177.246
1742122355.428,999.512,394.531,-187.500,999.512
1742122355.432,949.707,24.414,-209.961,944.824
1742122355.436,938.965,-50.781,-204.102,942.871
1742122355.439,977.539,-281.738,-188.965,979.004
1742122355.443,945.801,-258.789,-200.684,939.453
1742122355.447,937.988,-120.117,-201.660,956.055
1742122355.451,999.512,-51.270,-193.359,999.512
1742122355.455,-134.277,-556.641,-201.660,-226.562
1742122355.456,-1000.000,-547.852,-199.707,-1000.000
1742122355.460,-926.758,-44.434,-165.039,-909.180
1742122355.464,-962.891,-19.531,-144.043,-1000.000
1742122355.468,-1000.000,4.395,-162.598,-889.648
1742122355.472,63.477,325.195,-166.016,334.961
1742122355.476,999.512,298.340,-161.133,999.512
1742122355.480,916.016,81.543,-149.414,917.969
1742122355.483,896.484,-153.320,-145.508,905.762
1742122355.487,999.512,-276.855,-123.535,999.512
1742122355.491,187.012,-617.676,-118.164,156.250
1742122355.495,-1000.000,-627.930,-114.746,-1000.000
1742122355.499,-928.223,-25.879,-86.914,-918.945
1742122355.456,-1000.000,-547.852,-199.707,-1000.000
1742122355.460,-926.758,-44.434,-165.039,-909.180
1742122355.464,-962.891,-19.531,-144.043,-1000.000
1742122355.468,-1000.000,4.395,-162.598,-889.648
1742122355.472,63.477,325.195,-166.016,334.961
1742122355.476,999.512,298.340,-161.133,999.512
1742122355.480,916.016,81.543,-149.414,917.969
1742122355.483,896.484,-153.320,-145.508,905.762
1742122355.487,999.512,-276.855,-123.535,999.512
1742122355.491,187.012,-617.676,-118.164,156.250
1742122355.495,-1000.000,-627.930,-114.746,-1000.000
1742122355.499,-928.223,-25.879,-86.914,-918.945
1742122355.501,-1000.000,-142.578,-82.520,-1000.000
1742122355.505,-849.609,16.113,-68.848,-676.758
1742122355.509,563.477,540.039,-65.918,714.355
1742122355.513,999.512,183.594,-55.664,999.512
1742122355.517,902.832,-190.430,-45.898,913.574
1742122355.521,913.086,94.238,-47.363,913.086
1742122355.525,999.512,184.082,-38.086,999.512
1742122355.528,233.398,-527.344,-77.637,228.027
1742122355.532,-1000.000,-840.820,-106.934,-1000.000
1742122355.536,-991.699,-251.465,-69.824,-990.723
1742122355.540,-969.238,-101.562,-58.105,-969.727
1742122355.544,-1000.000,-157.715,-77.637,-1000.000
1742122355.501,-1000.000,-142.578,-82.520,-1000.000
1742122355.505,-849.609,16.113,-68.848,-676.758
1742122355.509,563.477,540.039,-65.918,714.355
1742122355.513,999.512,183.594,-55.664,999.512
1742122355.517,902.832,-190.430,-45.898,913.574
1742122355.521,913.086,94.238,-47.363,913.086
1742122355.525,999.512,184.082,-38.086,999.512
1742122355.528,233.398,-527.344,-77.637,228.027
1742122355.532,-1000.000,-840.820,-106.934,-1000.000
1742122355.536,-991.699,-251.465,-69.824,-990.723
1742122355.540,-969.238,-101.562,-58.105,-969.727
1742122355.544,-1000.000,-157.715,-77.637,-1000.000
1742122355.561,-989.746,-222.656,-95.703,-984.863
1742122355.565,-954.590,-206.543,-86.426,-964.355
1742122355.569,-1000.000,-142.090,-52.246,-1000.000
1742122355.573,-39.062,285.645,-42.480,21.484
1742122355.577,999.512,251.953,-54.688,999.512
1742122355.581,925.781,-52.246,-62.012,922.852
1742122355.585,952.637,28.320,-49.316,956.543
1742122355.588,981.445,-209.961,-43.945,979.980
1742122355.592,892.090,-261.230,-54.688,895.020
1742122355.596,999.512,-128.418,-87.402,999.512
1742122355.600,448.242,-528.809,-108.887,417.969
1742122355.604,-961.914,-804.688,-118.164,-970.703
1742122355.561,-989.746,-222.656,-95.703,-984.863
1742122355.565,-954.590,-206.543,-86.426,-964.355
1742122355.569,-1000.000,-142.090,-52.246,-1000.000
1742122355.573,-39.062,285.645,-42.480,21.484
1742122355.577,999.512,251.953,-54.688,999.512
1742122355.581,925.781,-52.246,-62.012,922.852
1742122355.585,952.637,28.320,-49.316,956.543
1742122355.588,981.445,-209.961,-43.945,979.980
1742122355.592,892.090,-261.230,-54.688,895.020
1742122355.596,999.512,-128.418,-87.402,999.512
1742122355.600,448.242,-528.809,-108.887,417.969
1742122355.604,-961.914,-804.688,-118.164,-970.703
1742122355.608,-1000.000,-390.625,-106.934,-1000.000
1742122355.612,-951.660,-129.883,-69.336,-954.590
1742122355.616,-1000.000,-96.191,-35.645,-1000.000
1742122355.620,-1000.000,-150.391,-27.832,-1000.000
1742122355.624,-937.500,-127.930,-70.801,-937.988
1742122355.628,-1000.000,-144.531,-69.824,-1000.000
1742122355.632,-220.703,301.758,-14.648,-217.773
1742122355.635,999.512,359.375,103.516,999.512
1742122355.639,950.195,-327.148,236.816,950.195
1742122355.643,938.965,-301.758,269.043,939.941
1742122355.647,984.375,-174.805,302.734,984.863
1742122355.651,920.410,-100.098,323.730,919.434
1742122355.608,-1000.000,-390.625,-106.934,-1000.000
1742122355.612,-951.660,-129.883,-69.336,-954.590
1742122355.616,-1000.000,-96.191,-35.645,-1000.000
1742122355.620,-1000.000,-150.391,-27.832,-1000.000
1742122355.624,-937.500,-127.930,-70.801,-937.988
1742122355.628,-1000.000,-144.531,-69.824,-1000.000
1742122355.632,-220.703,301.758,-14.648,-217.773
1742122355.635,999.512,359.375,103.516,999.512
1742122355.639,950.195,-327.148,236.816,950.195
1742122355.643,938.965,-301.758,269.043,939.941
1742122355.647,984.375,-174.805,302.734,984.863
1742122355.651,920.410,-100.098,323.730,919.434
1742122355.650,995.605,-213.867,232.910,999.512
1742122355.654,902.832,-320.312,33.203,862.305
1742122355.658,-465.820,-696.777,-102.539,-504.395
1742122355.662,-1000.000,-565.430,-115.234,-1000.000
1742122355.666,-908.203,-137.207,-71.289,-966.797
1742122355.670,-1000.000,-9.277,1.465,-900.391
1742122355.674,112.793,471.191,4.883,386.719
1742122355.677,999.512,149.902,30.762,999.512
1742122355.681,999.512,-417.969,56.641,881.348
1742122355.685,-9.766,-668.945,26.855,-270.508
1742122355.689,-1000.000,-518.066,74.219,-1000.000
1742122355.693,-958.496,-133.789,66.406,-951.172
1742122355.697,-987.305,-260.254,26.367,-992.188
1742122355.701,-940.918,-138.184,41.504,-948.242
1742122355.705,-1000.000,-101.562,-0.488,-1000.000
1742122355.709,-208.984,177.246,-52.734,-126.953
1742122355.713,999.512,257.324,-80.078,999.512
1742122355.717,948.242,-30.762,-113.281,938.965
1742122355.721,939.941,-26.855,-145.508,946.777
1742122355.724,976.074,-260.254,-163.086,974.121
1742122355.728,899.902,-234.863,-167.480,900.391
1742122355.732,999.512,-44.434,-200.684,999.512
1742122355.736,239.258,-517.578,-227.051,242.676
1742122355.740,-1000.000,-818.848,-234.863,-1000.000
1742122355.697,-987.305,-260.254,26.367,-992.188
1742122355.701,-940.918,-138.184,41.504,-948.242
1742122355.705,-1000.000,-101.562,-0.488,-1000.000
1742122355.709,-208.984,177.246,-52.734,-126.953
1742122355.713,999.512,257.324,-80.078,999.512
1742122355.717,948.242,-30.762,-113.281,938.965
1742122355.721,939.941,-26.855,-145.508,946.777
1742122355.724,976.074,-260.254,-163.086,974.121
1742122355.728,899.902,-234.863,-167.480,900.391
1742122355.732,999.512,-44.434,-200.684,999.512
1742122355.736,239.258,-517.578,-227.051,242.676
1742122355.740,-1000.000,-818.848,-234.863,-1000.000
1742122355.741,-917.969,-191.895,-239.746,-923.828
1742122355.745,-1000.000,-96.191,-183.594,-1000.000
1742122355.749,-519.531,212.891,-120.117,-388.672
1742122355.753,910.156,547.363,-128.418,969.727
1742122355.757,999.512,43.457,-120.117,979.004
1742122355.761,930.664,-28.320,-107.910,939.941
1742122355.765,907.715,63.965,-125.977,907.715
1742122355.768,999.512,-32.715,-133.789,999.512
1742122355.772,567.383,-464.844,-147.949,539.062
1742122355.776,-878.418,-804.199,-145.020,-880.371
1742122355.780,-1000.000,-336.914,-147.949,-1000.000
1742122355.784,-942.871,-21.484,-155.273,-946.289
1742122355.741,-917.969,-191.895,-239.746,-923.828
1742122355.745,-1000.000,-96.191,-183.594,-1000.000
1742122355.749,-519.531,212.891,-120.117,-388.672
1742122355.753,910.156,547.363,-128.418,969.727
1742122355.757,999.512,43.457,-120.117,979.004
1742122355.761,930.664,-28.320,-107.910,939.941
1742122355.765,907.715,63.965,-125.977,907.715
1742122355.768,999.512,-32.715,-133.789,999.512
1742122355.772,567.383,-464.844,-147.949,539.062
1742122355.776,-878.418,-804.199,-145.020,-880.371
1742122355.780,-1000.000,-336.914,-147.949,-1000.000
1742122355.784,-942.871,-21.484,-155.273,-946.289
1742122355.786,-1000.000,-70.312,-136.230,-1000.000
1742122355.790,-1000.000,-111.328,-131.836,-1000.000
1742122355.794,-937.500,-93.750,-123.047,-937.988
1742122355.798,-1000.000,-187.500,-62.012,-1000.000
1742122355.802,-220.703,246.582,-25.879,-212.402
1742122355.806,999.512,649.902,-45.898,999.512
1742122355.810,888.672,152.344,-69.336,918.945
1742122355.813,999.512,-223.633,-79.590,999.512
1742122355.817,174.316,-720.215,-55.664,-53.711
1742122355.821,-1000.000,-566.895,5.371,-1000.000
1742122355.825,-981.445,-52.734,40.039,-1000.000
1742122355.829,-989.258,-39.551,2.930,-828.125
1742122355.786,-1000.000,-70.312,-136.230,-1000.000
1742122355.790,-1000.000,-111.328,-131.836,-1000.000
1742122355.794,-937.500,-93.750,-123.047,-937.988
1742122355.798,-1000.000,-187.500,-62.012,-1000.000
1742122355.802,-220.703,246.582,-25.879,-212.402
1742122355.806,999.512,649.902,-45.898,999.512
1742122355.810,888.672,152.344,-69.336,918.945
1742122355.813,999.512,-223.633,-79.590,999.512
1742122355.817,174.316,-720.215,-55.664,-53.711
1742122355.821,-1000.000,-566.895,5.371,-1000.000
1742122355.825,-981.445,-52.734,40.039,-1000.000
1742122355.829,-989.258,-39.551,2.930,-828.125
1742122355.831,-945.801,-176.758,-40.039,-648.438
1742122355.835,-1000.000,-305.664,-72.754,-1000.000
1742122355.839,-786.133,75.684,-98.633,-743.652
1742122355.843,639.160,492.188,-110.840,691.895
1742122355.847,999.512,17.578,-126.465,999.512
1742122355.851,900.879,-135.254,-154.785,905.273
1742122355.855,979.980,138.672,-146.484,980.469
1742122355.858,966.797,-101.074,-116.699,967.285
1742122355.862,903.320,-399.902,-116.211,905.273
1742122355.866,999.512,-82.031,-107.422,999.512
1742122355.870,187.012,-501.465,-137.695,175.293
1742122355.874,-1000.000,-783.203,-144.531,-1000.000
1742122355.831,-945.801,-176.758,-40.039,-648.438
1742122355.835,-1000.000,-305.664,-72.754,-1000.000
1742122355.839,-786.133,75.684,-98.633,-743.652
1742122355.843,639.160,492.188,-110.840,691.895
1742122355.847,999.512,17.578,-126.465,999.512
1742122355.851,900.879,-135.254,-154.785,905.273
1742122355.855,979.980,138.672,-146.484,980.469
1742122355.858,966.797,-101.074,-116.699,967.285
1742122355.862,903.320,-399.902,-116.211,905.273
1742122355.866,999.512,-82.031,-107.422,999.512
1742122355.870,187.012,-501.465,-137.695,175.293
1742122355.874,-1000.000,-783.203,-144.531,-1000.000
1742122355.891,-909.668,-219.727,-56.641,-915.039
1742122355.895,-1000.000,-161.621,-9.766,-1000.000
1742122355.899,-502.441,239.258,-30.762,-354.492
1742122355.903,919.434,456.543,-36.133,980.957
1742122355.907,999.023,-123.535,-16.602,974.121
1742122355.911,925.293,-36.621,7.812,937.012
1742122355.915,909.180,45.898,18.555,907.227
1742122355.918,999.512,-165.039,36.133,999.512
1742122355.922,347.168,-567.871,32.715,330.078
1742122355.926,-1000.000,-727.539,-4.395,-1000.000
1742122355.930,-1000.000,-180.176,-42.969,-1000.000
1742122355.934,-959.961,58.594,-11.719,-957.520
1742122355.891,-909.668,-219.727,-56.641,-915.039
1742122355.895,-1000.000,-161.621,-9.766,-1000.000
1742122355.899,-502.441,239.258,-30.762,-354.492
1742122355.903,919.434,456.543,-36.133,980.957
1742122355.907,999.023,-123.535,-16.602,974.121
1742122355.911,925.293,-36.621,7.812,937.012
1742122355.915,909.180,45.898,18.555,907.227
1742122355.918,999.512,-165.039,36.133,999.512
1742122355.922,347.168,-567.871,32.715,330.078
1742122355.926,-1000.000,-727.539,-4.395,-1000.000
1742122355.930,-1000.000,-180.176,-42.969,-1000.000
1742122355.934,-959.961,58.594,-11.719,-957.520
1742122355.922,-1000.000,-65.430,126.465,-1000.000
1742122355.926,-986.328,-227.539,185.059,-987.793
1742122355.930,-974.121,-72.266,123.047,-973.145
1742122355.934,-1000.000,-65.430,75.684,-1000.000
1742122355.938,-25.879,443.848,83.008,-43.457
1742122355.942,961.914,676.758,43.945,948.242
1742122355.946,999.512,83.496,-56.641,999.512
1742122355.949,770.020,-259.766,-132.324,573.242
1742122355.953,-552.734,-865.234,-161.621,-750.488
1742122355.957,-1000.000,-564.453,-126.465,-1000.000
1742122355.961,-193.848,460.449,-92.285,-166.992
1742122355.965,999.512,472.656,-144.531,999.512
1742122355.922,-1000.000,-65.430,126.465,-1000.000
1742122355.926,-986.328,-227.539,185.059,-987.793
1742122355.930,-974.121,-72.266,123.047,-973.145
1742122355.934,-1000.000,-65.430,75.684,-1000.000
1742122355.938,-25.879,443.848,83.008,-43.457
1742122355.942,961.914,676.758,43.945,948.242
1742122355.946,999.512,83.496,-56.641,999.512
1742122355.949,770.020,-259.766,-132.324,573.242
1742122355.953,-552.734,-865.234,-161.621,-750.488
1742122355.957,-1000.000,-564.453,-126.465,-1000.000
1742122355.961,-193.848,460.449,-92.285,-166.992
1742122355.965,999.512,472.656,-144.531,999.512
1742122356.447,-943.359,-83.008,-48.828,-949.707
1742122356.451,-1000.000,-79.102,-46.387,-1000.000
1742122356.455,-1000.000,10.742,-59.570,-999.512
1742122356.459,-937.500,-55.176,-67.871,-939.941
1742122356.463,-1000.000,-192.871,-69.336,-1000.000
1742122356.467,-218.262,449.707,-46.875,-187.012
1742122356.471,999.512,583.496,-48.828,999.512
1742122356.474,911.133,-237.793,-79.590,957.031
1742122356.478,999.512,-194.824,-81.543,907.227
1742122356.482,-47.852,-539.062,-68.848,-330.078
1742122356.486,-1000.000,-458.984,-36.133,-1000.000
1742122356.490,-904.297,58.594,-11.230,-957.031
1742122356.491,-1000.000,1.953,-21.973,-843.262
1742122356.495,-84.473,254.883,-54.199,256.348
1742122356.499,999.512,275.879,-58.105,999.512
1742122356.503,938.965,-52.246,-27.344,942.383
1742122356.507,879.883,-5.859,-2.930,889.648
1742122356.511,999.512,182.129,-0.977,999.512
1742122356.515,296.387,-283.691,21.484,249.512
1742122356.518,-1000.000,-748.535,95.215,-1000.000
1742122356.522,-1000.000,-440.918,176.758,-994.141
1742122356.526,-964.355,-153.320,202.148,-968.262
1742122356.530,-1000.000,-34.668,173.340,-1000.000
1742122356.534,-969.238,-100.586,116.699,-960.938
1742122356.536,-993.164,-186.035,86.426,-1000.000
1742122356.540,-1000.000,-109.375,88.867,-963.379
1742122356.544,236.328,579.590,92.773,349.609
1742122356.548,999.512,316.406,86.426,999.512
1742122356.552,902.344,-332.520,54.688,904.297
1742122356.556,968.750,-80.078,55.664,971.680
1742122356.560,976.562,23.438,50.781,975.586
1742122356.563,893.555,-207.520,34.180,896.484
1742122356.567,999.512,-220.215,92.285,999.512
1742122356.571,382.812,-432.129,166.016,352.051
1742122356.575,-994.141,-798.340,208.496,-1000.000
1742122356.579,-1000.000,-307.617,262.207,-1000.000
1742122356.536,-993.164,-186.035,86.426,-1000.000
1742122356.540,-1000.000,-109.375,88.867,-963.379
1742122356.544,236.328,579.590,92.773,349.609
1742122356.548,999.512,316.406,86.426,999.512
1742122356.552,902.344,-332.520,54.688,904.297
1742122356.556,968.750,-80.078,55.664,971.680
1742122356.560,976.562,23.438,50.781,975.586
1742122356.563,893.555,-207.520,34.180,896.484
1742122356.567,999.512,-220.215,92.285,999.512
1742122356.571,382.812,-432.129,166.016,352.051
1742122356.575,-994.141,-798.340,208.496,-1000.000
1742122356.579,-1000.000,-307.617,262.207,-1000.000
1742122356.581,-957.031,-152.344,270.508,-959.961
1742122356.585,-1000.000,-158.691,260.254,-1000.000
1742122356.589,-999.512,-72.266,225.098,-994.629
1742122356.593,-939.941,-134.766,174.805,-947.266
1742122356.597,-1000.000,-206.055,166.016,-1000.000
1742122356.601,-178.223,402.832,165.039,-113.281
1742122356.605,969.727,579.590,108.398,986.816
1742122356.608,999.512,-31.738,42.480,999.512
1742122356.612,506.836,-560.547,20.020,396.484
1742122356.616,-905.762,-800.293,19.043,-959.961
1742122356.620,-984.863,-208.984,50.781,-971.680
1742122356.624,-1000.000,-95.703,118.652,-1000.000
1742122356.581,-957.031,-152.344,270.508,-959.961
1742122356.585,-1000.000,-158.691,260.254,-1000.000
1742122356.589,-999.512,-72.266,225.098,-994.629
1742122356.593,-939.941,-134.766,174.805,-947.266
1742122356.597,-1000.000,-206.055,166.016,-1000.000
1742122356.601,-178.223,402.832,165.039,-113.281
1742122356.605,969.727,579.590,108.398,986.816
1742122356.608,999.512,-31.738,42.480,999.512
1742122356.612,506.836,-560.547,20.020,396.484
1742122356.616,-905.762,-800.293,19.043,-959.961
1742122356.620,-984.863,-208.984,50.781,-971.680
1742122356.624,-1000.000,-95.703,118.652,-1000.000
1742122356.626,-236.816,279.297,166.992,-156.250
1742122356.630,999.512,400.391,187.988,999.512
1742122356.634,950.195,-70.312,255.859,942.383
1742122356.638,939.941,-47.363,324.707,944.824
1742122356.642,910.156,-125.977,350.098,911.133
1742122356.646,999.512,164.062,370.117,999.512
1742122356.650,187.012,-334.961,358.887,172.852
1742122356.653,-1000.000,-730.957,345.215,-1000.000
1742122356.657,-983.887,-218.750,350.586,-981.934
1742122356.661,-973.145,-132.324,322.266,-974.121
1742122356.665,-1000.000,-24.414,322.266,-1000.000
1742122356.669,-934.082,-66.895,332.520,-935.547
1742122356.626,-236.816,279.297,166.992,-156.250
1742122356.630,999.512,400.391,187.988,999.512
1742122356.634,950.195,-70.312,255.859,942.383
1742122356.638,939.941,-47.363,324.707,944.824
1742122356.642,910.156,-125.977,350.098,911.133
1742122356.646,999.512,164.062,370.117,999.512
1742122356.650,187.012,-334.961,358.887,172.852
1742122356.653,-1000.000,-730.957,345.215,-1000.000
1742122356.657,-983.887,-218.750,350.586,-981.934
1742122356.661,-973.145,-132.324,322.266,-974.121
1742122356.665,-1000.000,-24.414,322.266,-1000.000
1742122356.669,-934.082,-66.895,332.520,-935.547
1742122356.671,-1000.000,-150.879,330.566,-1000.000
1742122356.675,-718.262,90.820,312.988,-698.242
1742122356.679,723.633,531.250,278.320,706.055
1742122356.683,982.422,179.688,244.629,999.512
1742122356.687,999.512,-206.055,197.266,977.051
1742122356.691,201.660,-446.777,212.402,-10.742
1742122356.695,-1000.000,-346.680,231.934,-1000.000
1742122356.698,-983.887,-69.336,191.895,-967.285
1742122356.702,-979.980,-331.543,180.176,-992.188
1742122356.706,-979.004,-182.617,210.449,-974.121
1742122356.710,-986.816,39.551,253.906,-995.117
1742122356.714,-1000.000,-179.688,275.879,-1000.000
1742122356.671,-1000.000,-150.879,330.566,-1000.000
1742122356.675,-718.262,90.820,312.988,-698.242
1742122356.679,723.633,531.250,278.320,706.055
1742122356.683,982.422,179.688,244.629,999.512
1742122356.687,999.512,-206.055,197.266,977.051
1742122356.691,201.660,-446.777,212.402,-10.742
1742122356.695,-1000.000,-346.680,231.934,-1000.000
1742122356.698,-983.887,-69.336,191.895,-967.285
1742122356.702,-979.980,-331.543,180.176,-992.188
1742122356.706,-979.004,-182.617,210.449,-974.121
1742122356.710,-986.816,39.551,253.906,-995.117
1742122356.714,-1000.000,-179.688,275.879,-1000.000
1742122356.731,195.312,275.879,280.273,233.398
1742122356.735,999.512,335.449,262.207,999.512
1742122356.739,904.785,-70.801,214.844,912.109
1742122356.743,966.797,-129.883,184.082,951.660
1742122356.747,967.285,-138.184,228.027,941.406
1742122356.751,903.320,109.375,245.117,906.250
1742122356.755,999.512,76.660,210.938,999.512
1742122356.758,187.012,-687.500,162.598,184.570
1742122356.762,-1000.000,-749.512,128.418,-1000.000
1742122356.766,-983.887,-160.156,102.539,-983.887
1742122356.770,-973.145,-68.848,83.496,-973.145
1742122356.774,-1000.000,-29.297,70.801,-1000.000
1742122356.731,195.312,275.879,280.273,233.398
1742122356.735,999.512,335.449,262.207,999.512
1742122356.739,904.785,-70.801,214.844,912.109
1742122356.743,966.797,-129.883,184.082,951.660
1742122356.747,967.285,-138.184,228.027,941.406
1742122356.751,903.320,109.375,245.117,906.250
1742122356.755,999.512,76.660,210.938,999.512
1742122356.758,187.012,-687.500,162.598,184.570
1742122356.762,-1000.000,-749.512,128.418,-1000.000
1742122356.766,-983.887,-160.156,102.539,-983.887
1742122356.770,-973.145,-68.848,83.496,-973.145
1742122356.774,-1000.000,-29.297,70.801,-1000.000
1742122356.775,-983.398,-58.594,43.945,-979.980
1742122356.779,-965.332,-92.773,62.500,-973.633
1742122356.783,-1000.000,10.254,94.238,-1000.000
1742122356.787,49.316,559.570,142.090,93.262
1742122356.791,999.512,341.797,181.152,999.512
1742122356.795,916.016,52.246,176.270,915.527
1742122356.799,958.496,253.906,151.367,960.449
1742122356.802,981.934,-23.438,132.812,981.934
1742122356.806,906.738,-217.773,84.473,908.203
1742122356.810,999.512,-58.594,-7.812,999.512
1742122356.814,762.695,-109.375,-83.496,746.582
1742122356.818,-663.086,-608.887,-188.477,-668.457
1742122356.775,-983.398,-58.594,43.945,-979.980
1742122356.779,-965.332,-92.773,62.500,-973.633
1742122356.783,-1000.000,10.254,94.238,-1000.000
1742122356.787,49.316,559.570,142.090,93.262
1742122356.791,999.512,341.797,181.152,999.512
1742122356.795,916.016,52.246,176.270,915.527
1742122356.799,958.496,253.906,151.367,960.449
1742122356.802,981.934,-23.438,132.812,981.934
1742122356.806,906.738,-217.773,84.473,908.203
1742122356.810,999.512,-58.594,-7.812,999.512
1742122356.814,762.695,-109.375,-83.496,746.582
1742122356.818,-663.086,-608.887,-188.477,-668.457
1742122356.823,-1000.000,-337.891,-297.363,-1000.000
1742122356.827,-901.367,29.297,-300.293,-944.824
1742122356.831,-1000.000,90.332,-211.914,-993.164
1742122356.835,63.477,480.957,-110.840,292.969
1742122356.839,999.512,171.875,-45.898,999.512
1742122356.843,915.039,5.371,-12.207,910.156
1742122356.847,956.055,133.789,42.969,960.938
1742122356.850,910.645,-138.672,40.039,917.969
1742122356.854,999.512,-171.387,-12.207,999.512
1742122356.858,119.141,-517.578,-49.316,61.035
1742122356.862,-1000.000,-422.363,-56.152,-1000.000
1742122356.866,-974.609,69.824,-60.547,-968.750
1742122356.823,-1000.000,-337.891,-297.363,-1000.000
1742122356.827,-901.367,29.297,-300.293,-944.824
1742122356.831,-1000.000,90.332,-211.914,-993.164
1742122356.835,63.477,480.957,-110.840,292.969
1742122356.839,999.512,171.875,-45.898,999.512
1742122356.843,915.039,5.371,-12.207,910.156
1742122356.847,956.055,133.789,42.969,960.938
1742122356.850,910.645,-138.672,40.039,917.969
1742122356.854,999.512,-171.387,-12.207,999.512
1742122356.858,119.141,-517.578,-49.316,61.035
1742122356.862,-1000.000,-422.363,-56.152,-1000.000
1742122356.866,-974.609,69.824,-60.547,-968.750
1742122356.866,-978.027,-17.578,-74.707,-981.934
1742122356.870,-1000.000,-54.688,-84.473,-1000.000
1742122356.874,-925.781,62.500,-79.590,-927.734
1742122356.878,-1000.000,-91.797,-38.574,-1000.000
1742122356.882,-528.320,255.371,5.859,-476.074
1742122356.886,915.527,785.645,-40.039,935.059
1742122356.890,931.641,269.531,-172.363,925.781
1742122356.893,999.512,66.406,-235.840,999.512
1742122356.897,569.336,-367.676,-209.473,476.074
1742122356.901,-891.602,-796.387,-144.531,-935.059
1742122356.905,-1000.000,-121.094,-47.852,-1000.000
1742122356.909,-945.801,134.766,-12.695,-954.590
1742122356.911,-1000.000,-95.703,-41.016,-998.047
1742122356.915,-954.590,-82.520,-82.520,-964.355
1742122356.919,-1000.000,11.230,-108.887,-1000.000
1742122356.923,-40.039,482.422,-103.027,27.832
1742122356.927,999.512,406.738,-161.621,999.512
1742122356.931,863.281,131.836,-252.441,876.953
1742122356.935,999.512,159.668,-282.715,999.512
1742122356.938,189.453,-459.961,-325.684,45.898
1742122356.942,-1000.000,-515.137,-348.145,-1000.000
1742122356.946,-984.375,-87.891,-342.773,-970.215
1742122356.950,-973.633,25.391,-355.469,-980.957
1742122356.954,-944.336,6.836,-346.680,-944.824
1742122356.956,-1000.000,-24.414,-320.801,-1000.000
1742122356.960,-221.191,473.633,-295.898,-190.430
1742122356.964,999.512,598.633,-236.816,999.512
1742122356.968,949.707,22.461,-192.383,946.289
1742122356.972,938.965,-152.344,-165.527,941.895
