timestamps,TP9,AF7,AF8,TP10
1742121641.157,-963.867,-1000.000,-990.234,-951.172
1742121641.161,-983.887,-749.512,-1000.000,-992.676
1742121641.165,-1000.000,541.992,-1000.000,-1000.000
1742121641.169,-941.895,999.512,-1000.000,-953.613
1742121641.173,-1000.000,11.719,-1000.000,-1000.000
1742121641.177,-812.988,-531.738,-1000.000,-916.992
1742121641.181,605.469,938.965,-1000.000,446.289
1742121641.184,999.512,993.164,-1000.000,999.512
1742121641.188,900.391,912.598,-1000.000,901.367
1742121641.192,979.492,988.281,-1000.000,976.074
1742121641.196,981.445,-286.621,-1000.000,979.980
1742121641.200,903.320,-1000.000,-1000.000,909.668
1742121641.202,999.512,-941.895,-1000.000,999.512
1742121641.206,721.680,-999.512,-1000.000,752.930
1742121641.210,-709.473,-981.445,-1000.000,-644.043
1742121641.214,-1000.000,-966.797,-1000.000,-1000.000
1742121641.218,-1000.000,-1000.000,-1000.000,-1000.000
1742121641.222,-234.863,40.039,-1000.000,-212.891
1742121641.226,999.512,999.512,-1000.000,999.512
1742121641.229,950.195,999.512,-1000.000,947.754
1742121641.233,938.965,64.941,-1000.000,940.918
1742121641.237,973.145,-1000.000,-1000.000,973.145
1742121641.241,966.797,-1000.000,-1000.000,967.285
1742121641.245,964.355,-32.715,-1000.000,968.750
1742121641.246,907.715,999.512,-1000.000,903.320
1742121641.250,999.512,867.188,-1000.000,999.512
1742121641.254,127.930,-341.797,-1000.000,189.941
1742121641.258,-1000.000,-1000.000,-1000.000,-1000.000
1742121641.262,-1000.000,-1000.000,-1000.000,-1000.000
1742121641.266,-746.582,-172.852,-1000.000,-612.305
1742121641.270,652.344,999.512,-1000.000,760.742
1742121641.273,999.512,897.461,-1000.000,999.512
1742121641.277,901.855,999.512,-1000.000,910.156
1742121641.281,980.469,64.941,-1000.000,980.469
1742121641.285,966.309,-1000.000,-1000.000,966.797
1742121641.289,966.309,-1000.000,-1000.000,966.797
1742121641.246,907.715,999.512,-1000.000,903.320
1742121641.250,999.512,867.188,-1000.000,999.512
1742121641.254,127.930,-341.797,-1000.000,189.941
1742121641.258,-1000.000,-1000.000,-1000.000,-1000.000
1742121641.262,-1000.000,-1000.000,-1000.000,-1000.000
1742121641.266,-746.582,-172.852,-1000.000,-612.305
1742121641.270,652.344,999.512,-1000.000,760.742
1742121641.273,999.512,897.461,-1000.000,999.512
1742121641.277,901.855,999.512,-1000.000,910.156
1742121641.281,980.469,64.941,-1000.000,980.469
1742121641.285,966.309,-1000.000,-1000.000,966.797
1742121641.289,966.309,-1000.000,-1000.000,966.797
1742121641.293,966.309,-168.457,-1000.000,967.773
1742121641.297,904.785,999.512,-1000.000,904.297
1742121641.301,999.512,999.512,-1000.000,999.512
1742121641.305,188.477,-25.879,-1000.000,215.820
1742121641.309,-1000.000,-1000.000,-1000.000,-1000.000
1742121641.313,-1000.000,-473.145,-1000.000,-1000.000
1742121641.317,47.363,826.172,-1000.000,234.375
1742121641.320,999.512,999.512,-1000.000,999.512
1742121641.324,918.945,165.039,-1000.000,909.180
1742121641.328,956.543,-993.652,-1000.000,966.309
1742121641.332,967.773,-1000.000,-1000.000,967.773
1742121641.336,981.934,-126.465,-1000.000,980.957
1742121641.293,966.309,-168.457,-1000.000,967.773
1742121641.297,904.785,999.512,-1000.000,904.297
1742121641.301,999.512,999.512,-1000.000,999.512
1742121641.305,188.477,-25.879,-1000.000,215.820
1742121641.309,-1000.000,-1000.000,-1000.000,-1000.000
1742121641.313,-1000.000,-473.145,-1000.000,-1000.000
1742121641.317,47.363,826.172,-1000.000,234.375
1742121641.320,999.512,999.512,-1000.000,999.512
1742121641.324,918.945,165.039,-1000.000,909.180
1742121641.328,956.543,-993.652,-1000.000,966.309
1742121641.332,967.773,-1000.000,-1000.000,967.773
1742121641.336,981.934,-126.465,-1000.000,980.957
1742121641.353,896.484,967.285,-1000.000,908.203
1742121641.357,999.512,999.512,-1000.000,999.512
1742121641.361,620.605,375.000,-1000.000,762.695
1742121641.365,-814.453,-905.762,-1000.000,-619.629
1742121641.369,-1000.000,-1000.000,-1000.000,-1000.000
1742121641.373,-1000.000,-198.242,-1000.000,-961.426
1742121641.377,-87.402,947.754,-1000.000,140.625
1742121641.380,999.512,999.512,-999.512,999.512
1742121641.384,929.688,300.781,-994.141,918.945
1742121641.388,965.820,-1000.000,-1000.000,975.586
1742121641.392,896.484,-943.848,-884.277,899.414
1742121641.396,999.512,628.906,-808.105,999.512
1742121641.353,896.484,967.285,-1000.000,908.203
1742121641.357,999.512,999.512,-1000.000,999.512
1742121641.361,620.605,375.000,-1000.000,762.695
1742121641.365,-814.453,-905.762,-1000.000,-619.629
1742121641.369,-1000.000,-1000.000,-1000.000,-1000.000
1742121641.373,-1000.000,-198.242,-1000.000,-961.426
1742121641.377,-87.402,947.754,-1000.000,140.625
1742121641.380,999.512,999.512,-999.512,999.512
1742121641.384,929.688,300.781,-994.141,918.945
1742121641.388,965.820,-1000.000,-1000.000,975.586
1742121641.392,896.484,-943.848,-884.277,899.414
1742121641.396,999.512,628.906,-808.105,999.512
1742121641.397,572.754,549.316,-983.887,600.098
1742121641.401,-874.023,-1000.000,-990.234,-833.496
1742121641.405,-1000.000,-1000.000,-562.988,-1000.000
1742121641.409,-955.566,-931.641,-213.379,-953.613
1742121641.413,-964.844,-1000.000,-617.188,-968.262
1742121641.417,-1000.000,160.156,-937.012,-1000.000
1742121641.421,-881.836,999.512,-854.004,-902.832
1742121641.424,506.836,999.512,-502.930,456.055
1742121641.428,999.512,534.180,-308.594,999.512
1742121641.432,842.773,-876.953,-517.090,867.676
1742121641.436,999.512,-1000.000,-644.531,999.512
1742121641.440,121.582,-953.613,-679.688,-24.414
1742121641.397,572.754,549.316,-983.887,600.098
1742121641.401,-874.023,-1000.000,-990.234,-833.496
1742121641.405,-1000.000,-1000.000,-562.988,-1000.000
1742121641.409,-955.566,-931.641,-213.379,-953.613
1742121641.413,-964.844,-1000.000,-617.188,-968.262
1742121641.417,-1000.000,160.156,-937.012,-1000.000
1742121641.421,-881.836,999.512,-854.004,-902.832
1742121641.424,506.836,999.512,-502.930,456.055
1742121641.428,999.512,534.180,-308.594,999.512
1742121641.432,842.773,-876.953,-517.090,867.676
1742121641.436,999.512,-1000.000,-644.531,999.512
1742121641.440,121.582,-953.613,-679.688,-24.414
1742121641.442,-1000.000,-984.863,-611.816,-1000.000
1742121641.446,-975.586,-996.094,-426.758,-970.215
1742121641.450,-915.527,-1000.000,-381.348,-917.969
1742121641.454,-1000.000,219.238,-521.973,-1000.000
1742121641.458,-205.566,999.512,-307.617,-296.875
1742121641.462,968.262,855.957,246.094,939.453
1742121641.466,999.512,999.512,221.191,999.512
1742121641.469,620.605,126.953,-462.402,622.559
1742121641.473,-805.664,-1000.000,-1000.000,-770.020
1742121641.477,-997.070,-908.203,-854.004,-1000.000
1742121641.481,-1000.000,-1000.000,-409.180,-1000.000
1742121641.485,-561.035,-326.660,-178.223,-591.309
1742121641.442,-1000.000,-984.863,-611.816,-1000.000
1742121641.446,-975.586,-996.094,-426.758,-970.215
1742121641.450,-915.527,-1000.000,-381.348,-917.969
1742121641.454,-1000.000,219.238,-521.973,-1000.000
1742121641.458,-205.566,999.512,-307.617,-296.875
1742121641.462,968.262,855.957,246.094,939.453
1742121641.466,999.512,999.512,221.191,999.512
1742121641.469,620.605,126.953,-462.402,622.559
1742121641.473,-805.664,-1000.000,-1000.000,-770.020
1742121641.477,-997.070,-908.203,-854.004,-1000.000
1742121641.481,-1000.000,-1000.000,-409.180,-1000.000
1742121641.485,-561.035,-326.660,-178.223,-591.309
1742121641.486,889.648,999.023,-44.922,853.027
1742121641.490,999.512,966.797,-374.512,999.512
1742121641.494,841.797,872.070,-647.949,839.355
1742121641.498,999.512,999.512,-500.977,999.512
1742121641.502,335.938,156.250,-616.211,418.945
1742121641.506,-1000.000,-1000.000,-882.324,-972.656
1742121641.510,-1000.000,-979.980,-984.863,-1000.000
1742121641.513,-975.586,-979.980,-1000.000,-968.262
1742121641.517,-936.523,-939.453,-977.051,-941.406
1742121641.521,-1000.000,-1000.000,-965.820,-1000.000
1742121641.525,-549.316,-299.805,-1000.000,-583.984
1742121641.529,887.207,999.512,-1000.000,846.680
1742121641.486,889.648,999.023,-44.922,853.027
1742121641.490,999.512,966.797,-374.512,999.512
1742121641.494,841.797,872.070,-647.949,839.355
1742121641.498,999.512,999.512,-500.977,999.512
1742121641.502,335.938,156.250,-616.211,418.945
1742121641.506,-1000.000,-1000.000,-882.324,-972.656
1742121641.510,-1000.000,-979.980,-984.863,-1000.000
1742121641.513,-975.586,-979.980,-1000.000,-968.262
1742121641.517,-936.523,-939.453,-977.051,-941.406
1742121641.521,-1000.000,-1000.000,-965.820,-1000.000
1742121641.525,-549.316,-299.805,-1000.000,-583.984
1742121641.529,887.207,999.512,-1000.000,846.680
1742121641.531,999.512,903.809,-999.023,999.512
1742121641.535,918.457,999.512,-1000.000,916.992
1742121641.539,956.543,669.922,-1000.000,956.543
1742121641.543,947.266,-730.469,-1000.000,953.125
1742121641.547,999.512,-1000.000,-1000.000,999.512
1742121641.551,-192.383,-942.383,-1000.000,-193.359
1742121641.555,-1000.000,-1000.000,-1000.000,-1000.000
1742121641.558,-892.578,-931.152,-1000.000,-901.855
1742121641.562,-1000.000,-1000.000,-993.164,-1000.000
1742121641.566,-908.203,-560.059,-1000.000,-905.762
1742121641.570,470.215,767.090,-946.289,458.496
1742121641.574,999.512,999.512,-795.898,999.512
1742121641.531,999.512,903.809,-999.023,999.512
1742121641.535,918.457,999.512,-1000.000,916.992
1742121641.539,956.543,669.922,-1000.000,956.543
1742121641.543,947.266,-730.469,-1000.000,953.125
1742121641.547,999.512,-1000.000,-1000.000,999.512
1742121641.551,-192.383,-942.383,-1000.000,-193.359
1742121641.555,-1000.000,-1000.000,-1000.000,-1000.000
1742121641.558,-892.578,-931.152,-1000.000,-901.855
1742121641.562,-1000.000,-1000.000,-993.164,-1000.000
1742121641.566,-908.203,-560.059,-1000.000,-905.762
1742121641.570,470.215,767.090,-946.289,458.496
1742121641.574,999.512,999.512,-795.898,999.512
1742121641.578,899.414,467.773,-890.137,901.855
1742121641.582,987.305,-1000.000,-1000.000,987.793
1742121641.586,893.066,-192.383,-838.379,894.043
1742121641.590,999.512,999.512,-609.375,999.512
1742121641.594,407.227,29.785,-541.504,443.848
1742121641.598,-981.934,-1000.000,-386.230,-957.520
1742121641.602,-1000.000,-1000.000,-125.488,-1000.000
1742121641.605,-955.566,-312.012,-250.977,-952.637
1742121641.609,-1000.000,921.387,-769.531,-1000.000
1742121641.613,-937.500,-332.031,-980.957,-938.477
1742121641.617,-1000.000,-1000.000,-714.844,-1000.000
1742121641.621,-220.703,-148.926,-111.816,-209.473
1742121641.578,899.414,467.773,-890.137,901.855
1742121641.582,987.305,-1000.000,-1000.000,987.793
1742121641.586,893.066,-192.383,-838.379,894.043
1742121641.590,999.512,999.512,-609.375,999.512
1742121641.594,407.227,29.785,-541.504,443.848
1742121641.598,-981.934,-1000.000,-386.230,-957.520
1742121641.602,-1000.000,-1000.000,-125.488,-1000.000
1742121641.605,-955.566,-312.012,-250.977,-952.637
1742121641.609,-1000.000,921.387,-769.531,-1000.000
1742121641.613,-937.500,-332.031,-980.957,-938.477
1742121641.617,-1000.000,-1000.000,-714.844,-1000.000
1742121641.621,-220.703,-148.926,-111.816,-209.473
1742121641.623,999.512,999.512,333.496,999.512
1742121641.627,950.195,964.355,122.070,949.219
1742121641.631,952.148,875.977,172.852,950.195
1742121641.635,919.922,999.512,476.074,925.293
1742121641.639,999.512,677.734,529.297,999.512
1742121641.643,831.543,-742.188,488.281,780.273
1742121641.647,-563.965,-1000.000,96.191,-562.500
1742121641.650,-1000.000,-893.066,-665.527,-1000.000
1742121641.654,-871.094,-1000.000,-880.371,-876.953
1742121641.658,-1000.000,-858.887,-508.789,-1000.000
1742121641.662,-221.191,415.527,-99.609,-232.910
1742121641.666,999.512,999.512,71.777,999.512
1742121641.623,999.512,999.512,333.496,999.512
1742121641.627,950.195,964.355,122.070,949.219
1742121641.631,952.148,875.977,172.852,950.195
1742121641.635,919.922,999.512,476.074,925.293
1742121641.639,999.512,677.734,529.297,999.512
1742121641.643,831.543,-742.188,488.281,780.273
1742121641.647,-563.965,-1000.000,96.191,-562.500
1742121641.650,-1000.000,-893.066,-665.527,-1000.000
1742121641.654,-871.094,-1000.000,-880.371,-876.953
1742121641.658,-1000.000,-858.887,-508.789,-1000.000
1742121641.662,-221.191,415.527,-99.609,-232.910
1742121641.666,999.512,999.512,71.777,999.512
1742121641.666,950.195,694.824,-53.223,952.637
1742121641.670,939.453,-517.090,71.289,941.406
1742121641.674,971.191,-1000.000,290.039,962.402
1742121641.678,907.227,-302.734,305.176,926.270
1742121641.682,999.512,999.512,272.949,999.512
1742121641.686,143.555,184.082,44.434,7.324
1742121641.690,-1000.000,-1000.000,37.109,-1000.000
1742121641.693,-978.027,-987.305,324.707,-965.820
1742121641.697,-977.051,-911.621,145.508,-992.188
1742121641.701,-943.359,-1000.000,-298.340,-934.570
1742121641.705,-1000.000,-683.105,-374.023,-1000.000
1742121641.709,-221.191,710.449,63.477,-360.352
1742121641.666,950.195,694.824,-53.223,952.637
1742121641.670,939.453,-517.090,71.289,941.406
1742121641.674,971.191,-1000.000,290.039,962.402
1742121641.678,907.227,-302.734,305.176,926.270
1742121641.682,999.512,999.512,272.949,999.512
1742121641.686,143.555,184.082,44.434,7.324
1742121641.690,-1000.000,-1000.000,37.109,-1000.000
1742121641.693,-978.027,-987.305,324.707,-965.820
1742121641.697,-977.051,-911.621,145.508,-992.188
1742121641.701,-943.359,-1000.000,-298.340,-934.570
1742121641.705,-1000.000,-683.105,-374.023,-1000.000
1742121641.709,-221.191,710.449,63.477,-360.352
1742121641.711,999.512,999.512,622.559,997.070
1742121641.715,893.066,839.844,805.176,916.504
1742121641.719,999.023,999.512,750.977,996.582
1742121641.723,806.641,334.473,653.320,768.555
1742121641.727,-611.816,-1000.000,765.137,-646.973
1742121641.731,-1000.000,-1000.000,956.543,-1000.000
1742121641.735,-935.059,-958.984,973.633,-942.871
1742121641.738,-949.707,-950.684,961.426,-943.848
1742121641.742,-1000.000,-1000.000,819.824,-1000.000
1742121641.746,-222.656,-176.758,856.934,-321.289
1742121641.750,999.512,981.445,969.727,973.633
1742121641.754,925.293,999.512,974.609,949.219
1742121641.711,999.512,999.512,622.559,997.070
1742121641.715,893.066,839.844,805.176,916.504
1742121641.719,999.023,999.512,750.977,996.582
1742121641.723,806.641,334.473,653.320,768.555
1742121641.727,-611.816,-1000.000,765.137,-646.973
1742121641.731,-1000.000,-1000.000,956.543,-1000.000
1742121641.735,-935.059,-958.984,973.633,-942.871
1742121641.738,-949.707,-950.684,961.426,-943.848
1742121641.742,-1000.000,-1000.000,819.824,-1000.000
1742121641.746,-222.656,-176.758,856.934,-321.289
1742121641.750,999.512,981.445,969.727,973.633
1742121641.754,925.293,999.512,974.609,949.219
1742121641.771,999.512,617.676,900.391,996.582
1742121641.775,-148.438,-764.648,362.793,-175.293
1742121641.779,-1000.000,-1000.000,286.133,-1000.000
1742121641.783,-883.789,-921.387,850.586,-883.789
1742121641.787,-1000.000,-1000.000,877.441,-1000.000
1742121641.791,-168.945,143.066,872.070,-178.711
1742121641.795,972.656,999.512,799.316,976.074
1742121641.798,999.512,999.512,426.270,999.512
1742121641.802,511.719,173.828,357.422,563.477
1742121641.806,-898.926,-1000.000,415.039,-832.031
1742121641.810,-1000.000,-1000.000,522.949,-1000.000
1742121641.814,-945.801,-752.930,518.066,-942.871
1742121641.816,-953.125,617.676,550.293,-953.613
1742121641.820,-1000.000,999.512,551.758,-1000.000
1742121641.824,-277.344,826.660,647.949,-259.766
1742121641.828,999.512,999.512,637.207,999.512
1742121641.832,787.598,357.910,201.172,742.676
1742121641.836,-632.812,-1000.000,-0.977,-669.434
1742121641.840,-1000.000,-1000.000,282.227,-1000.000
1742121641.843,-935.547,-965.820,379.395,-937.500
1742121641.847,-1000.000,-943.359,331.543,-1000.000
1742121641.851,-950.684,-1000.000,132.324,-941.406
1742121641.855,-1000.000,-343.262,-205.566,-1000.000
1742121641.859,-79.102,987.793,64.941,-179.688
1742121641.862,999.512,971.680,478.027,999.512
1742121641.866,868.164,869.141,426.270,882.324
1742121641.870,999.512,999.512,155.762,999.512
1742121641.874,189.453,206.543,-380.859,191.895
1742121641.878,-1000.000,-1000.000,-780.762,-1000.000
1742121641.882,-1000.000,-893.555,-470.703,-1000.000
1742121641.886,-232.910,332.031,27.344,-244.141
1742121641.889,999.512,999.512,-24.902,999.512
1742121641.893,933.594,375.977,-497.559,908.203
1742121641.897,-404.785,-946.289,-608.887,-434.570
1742121641.901,-1000.000,-1000.000,-228.027,-1000.000
1742121641.905,-881.348,-883.789,263.672,-899.414
1742121641.862,999.512,971.680,478.027,999.512
1742121641.866,868.164,869.141,426.270,882.324
1742121641.870,999.512,999.512,155.762,999.512
1742121641.874,189.453,206.543,-380.859,191.895
1742121641.878,-1000.000,-1000.000,-780.762,-1000.000
1742121641.882,-1000.000,-893.555,-470.703,-1000.000
1742121641.886,-232.910,332.031,27.344,-244.141
1742121641.889,999.512,999.512,-24.902,999.512
1742121641.893,933.594,375.977,-497.559,908.203
1742121641.897,-404.785,-946.289,-608.887,-434.570
1742121641.901,-1000.000,-1000.000,-228.027,-1000.000
1742121641.905,-881.348,-883.789,263.672,-899.414
1742121641.906,-1000.000,-1000.000,365.234,-1000.000
1742121641.910,-858.398,-379.395,159.180,-995.117
1742121641.914,537.109,971.680,300.293,310.547
1742121641.918,999.512,986.328,461.426,999.512
1742121641.922,828.613,856.445,290.039,833.008
1742121641.926,999.512,999.512,121.094,999.512
1742121641.930,357.910,332.520,-351.562,354.004
1742121641.933,-1000.000,-1000.000,-868.164,-1000.000
1742121641.937,-1000.000,-1000.000,-479.492,-1000.000
1742121641.941,-940.430,-900.391,138.184,-950.684
1742121641.945,-979.980,-1000.000,279.297,-963.867
1742121641.949,-1000.000,-712.891,166.504,-1000.000
1742121641.906,-1000.000,-1000.000,365.234,-1000.000
1742121641.910,-858.398,-379.395,159.180,-995.117
1742121641.914,537.109,971.680,300.293,310.547
1742121641.918,999.512,986.328,461.426,999.512
1742121641.922,828.613,856.445,290.039,833.008
1742121641.926,999.512,999.512,121.094,999.512
1742121641.930,357.910,332.520,-351.562,354.004
1742121641.933,-1000.000,-1000.000,-868.164,-1000.000
1742121641.937,-1000.000,-1000.000,-479.492,-1000.000
1742121641.941,-940.430,-900.391,138.184,-950.684
1742121641.945,-979.980,-1000.000,279.297,-963.867
1742121641.949,-1000.000,-712.891,166.504,-1000.000
1742121641.952,72.754,687.012,446.777,-67.383
1742121641.956,999.512,999.512,937.012,999.512
1742121641.960,839.844,856.445,972.168,858.398
1742121641.964,999.512,999.512,954.590,999.512
1742121641.968,474.609,77.148,965.332,436.035
1742121641.972,-946.777,-1000.000,962.402,-962.402
1742121641.976,-972.656,-967.285,967.773,-966.309
1742121641.979,-1000.000,-998.535,966.797,-1000.000
1742121641.983,-235.352,217.773,967.285,-228.027
1742121641.987,999.512,999.512,966.797,999.512
1742121641.991,919.434,841.309,966.797,925.781
1742121641.995,932.129,999.512,966.797,922.363
1742121641.996,999.512,317.383,966.797,999.512
1742121642.000,-264.160,-1000.000,967.285,-180.664
1742121642.004,-1000.000,-1000.000,967.285,-1000.000
1742121642.008,-875.977,-909.668,967.285,-881.836
1742121642.012,-1000.000,-1000.000,967.285,-1000.000
1742121642.016,-205.566,-118.652,967.285,-238.770
1742121642.020,967.773,998.047,966.797,960.938
1742121642.023,999.512,999.512,966.797,999.512
1742121642.027,607.422,167.969,967.285,593.262
1742121642.031,-803.711,-1000.000,968.262,-790.527
1742121642.035,-1000.000,-997.070,948.730,-1000.000
1742121642.039,-948.242,-909.180,999.512,-952.148
1742121641.996,999.512,317.383,966.797,999.512
1742121642.000,-264.160,-1000.000,967.285,-180.664
1742121642.004,-1000.000,-1000.000,967.285,-1000.000
1742121642.008,-875.977,-909.668,967.285,-881.836
1742121642.012,-1000.000,-1000.000,967.285,-1000.000
1742121642.016,-205.566,-118.652,967.285,-238.770
1742121642.020,967.773,998.047,966.797,960.938
1742121642.023,999.512,999.512,966.797,999.512
1742121642.027,607.422,167.969,967.285,593.262
1742121642.031,-803.711,-1000.000,968.262,-790.527
1742121642.035,-1000.000,-997.070,948.730,-1000.000
1742121642.039,-948.242,-909.180,999.512,-952.148
1742121642.041,-944.824,-1000.000,778.809,-942.383
1742121642.045,-1000.000,-658.691,417.969,-1000.000
1742121642.049,-379.883,743.652,526.855,-427.246
1742121642.053,990.723,999.512,558.105,961.914
1742121642.057,902.344,835.449,113.281,915.039
1742121642.061,999.512,999.512,-266.602,999.512
1742121642.065,508.789,512.695,-505.859,456.543
1742121642.068,-932.129,-922.363,-652.832,-955.078
1742121642.072,-1000.000,-1000.000,-614.746,-1000.000
1742121642.076,-956.055,-934.082,-361.816,-962.891
1742121642.080,-944.336,-974.121,-362.305,-941.895
1742121642.084,-1000.000,-1000.000,-911.621,-1000.000
1742121642.041,-944.824,-1000.000,778.809,-942.383
1742121642.045,-1000.000,-658.691,417.969,-1000.000
1742121642.049,-379.883,743.652,526.855,-427.246
1742121642.053,990.723,999.512,558.105,961.914
1742121642.057,902.344,835.449,113.281,915.039
1742121642.061,999.512,999.512,-266.602,999.512
1742121642.065,508.789,512.695,-505.859,456.543
1742121642.068,-932.129,-922.363,-652.832,-955.078
1742121642.072,-1000.000,-1000.000,-614.746,-1000.000
1742121642.076,-956.055,-934.082,-361.816,-962.891
1742121642.080,-944.336,-974.121,-362.305,-941.895
1742121642.084,-1000.000,-1000.000,-911.621,-1000.000
1742121642.088,-367.676,-12.207,-902.832,-438.477
1742121642.092,991.699,999.512,-468.750,955.078
1742121642.096,902.344,861.816,-345.703,916.992
1742121642.100,999.512,999.512,-367.676,999.512
1742121642.104,384.277,193.359,-777.344,400.879
1742121642.108,-999.023,-1000.000,-800.293,-989.258
1742121642.112,-1000.000,-984.863,-172.363,-1000.000
1742121642.115,-973.633,-980.469,-27.344,-971.191
1742121642.119,-942.871,-937.500,-180.176,-950.195
1742121642.123,-1000.000,-1000.000,-547.852,-1000.000
1742121642.127,-674.805,-375.488,-684.570,-757.812
1742121642.131,771.484,974.121,-146.973,668.457
1742121642.088,-367.676,-12.207,-902.832,-438.477
1742121642.092,991.699,999.512,-468.750,955.078
1742121642.096,902.344,861.816,-345.703,916.992
1742121642.100,999.512,999.512,-367.676,999.512
1742121642.104,384.277,193.359,-777.344,400.879
1742121642.108,-999.023,-1000.000,-800.293,-989.258
1742121642.112,-1000.000,-984.863,-172.363,-1000.000
1742121642.115,-973.633,-980.469,-27.344,-971.191
1742121642.119,-942.871,-937.500,-180.176,-950.195
1742121642.123,-1000.000,-1000.000,-547.852,-1000.000
1742121642.127,-674.805,-375.488,-684.570,-757.812
1742121642.131,771.484,974.121,-146.973,668.457
1742121642.146,999.512,987.305,192.871,999.512
1742121642.150,905.762,887.207,74.707,905.273
1742121642.154,918.945,996.582,-56.152,916.504
1742121642.158,999.512,921.387,-12.207,999.512
1742121642.162,186.523,-393.066,-120.605,213.867
1742121642.166,-1000.000,-1000.000,124.023,-1000.000
1742121642.170,-989.258,-948.242,520.508,-993.652
1742121642.173,-950.684,-963.379,141.602,-948.242
1742121642.177,-981.934,-1000.000,-199.219,-984.863
1742121642.181,-1000.000,-926.758,5.859,-1000.000
1742121642.185,76.660,319.824,465.820,78.125
1742121642.189,999.512,999.512,521.484,999.512
1742121642.146,999.512,987.305,192.871,999.512
1742121642.150,905.762,887.207,74.707,905.273
1742121642.154,918.945,996.582,-56.152,916.504
1742121642.158,999.512,921.387,-12.207,999.512
1742121642.162,186.523,-393.066,-120.605,213.867
1742121642.166,-1000.000,-1000.000,124.023,-1000.000
1742121642.170,-989.258,-948.242,520.508,-993.652
1742121642.173,-950.684,-963.379,141.602,-948.242
1742121642.177,-981.934,-1000.000,-199.219,-984.863
1742121642.181,-1000.000,-926.758,5.859,-1000.000
1742121642.185,76.660,319.824,465.820,78.125
1742121642.189,999.512,999.512,521.484,999.512
1742121642.191,816.406,290.039,-41.992,794.922
1742121642.195,-505.859,-1000.000,-560.547,-523.926
1742121642.199,-1000.000,-981.445,-483.398,-1000.000
1742121642.203,-870.605,-972.656,-284.668,-873.535
1742121642.207,-1000.000,-877.930,-504.883,-1000.000
1742121642.211,-220.703,351.562,-604.980,-214.355
1742121642.215,999.512,999.512,-441.406,999.512
1742121642.218,950.684,999.512,-460.449,948.730
1742121642.222,876.465,141.602,-557.617,879.883
1742121642.226,999.512,-1000.000,-682.129,999.512
1742121642.230,171.387,-987.793,-886.719,148.438
1742121642.234,-1000.000,-905.273,-999.512,-1000.000
1742121642.191,816.406,290.039,-41.992,794.922
1742121642.195,-505.859,-1000.000,-560.547,-523.926
1742121642.199,-1000.000,-981.445,-483.398,-1000.000
1742121642.203,-870.605,-972.656,-284.668,-873.535
1742121642.207,-1000.000,-877.930,-504.883,-1000.000
1742121642.211,-220.703,351.562,-604.980,-214.355
1742121642.215,999.512,999.512,-441.406,999.512
1742121642.218,950.684,999.512,-460.449,948.730
1742121642.222,876.465,141.602,-557.617,879.883
1742121642.226,999.512,-1000.000,-682.129,999.512
1742121642.230,171.387,-987.793,-886.719,148.438
1742121642.234,-1000.000,-905.273,-999.512,-1000.000
1742121642.236,-1000.000,-1000.000,-958.496,-1000.000
1742121642.240,-668.945,-405.762,-516.113,-703.613
1742121642.244,743.164,878.906,101.074,694.336
1742121642.248,999.512,999.512,38.574,999.512
1742121642.252,903.809,527.344,-320.312,904.297
1742121642.256,994.141,-547.852,-41.992,995.117
1742121642.260,892.090,438.477,368.164,892.578
1742121642.263,999.512,999.512,475.098,999.512
1742121642.267,451.172,205.566,215.332,501.465
1742121642.271,-959.961,-1000.000,-622.559,-928.223
1742121642.275,-1000.000,-1000.000,-731.934,-1000.000
1742121642.279,-951.660,-923.340,-200.684,-947.754
1742121642.236,-1000.000,-1000.000,-958.496,-1000.000
1742121642.240,-668.945,-405.762,-516.113,-703.613
1742121642.244,743.164,878.906,101.074,694.336
1742121642.248,999.512,999.512,38.574,999.512
1742121642.252,903.809,527.344,-320.312,904.297
1742121642.256,994.141,-547.852,-41.992,995.117
1742121642.260,892.090,438.477,368.164,892.578
1742121642.263,999.512,999.512,475.098,999.512
1742121642.267,451.172,205.566,215.332,501.465
1742121642.271,-959.961,-1000.000,-622.559,-928.223
1742121642.275,-1000.000,-1000.000,-731.934,-1000.000
1742121642.279,-951.660,-923.340,-200.684,-947.754
1742121642.283,-1000.000,-1000.000,-296.387,-1000.000
1742121642.287,-1000.000,-907.715,-663.574,-1000.000
1742121642.291,-929.199,405.762,-881.348,-929.199
1742121642.295,-1000.000,999.512,-990.723,-1000.000
1742121642.299,-366.699,906.738,-1000.000,-385.742
1742121642.303,936.523,911.621,-791.504,917.969
1742121642.307,996.094,999.512,-670.898,999.512
1742121642.310,891.113,179.199,-951.172,794.922
1742121642.314,-335.449,-1000.000,-1000.000,-441.406
1742121642.318,-1000.000,-1000.000,-909.180,-1000.000
1742121642.322,-167.969,-9.277,-447.754,-164.551
1742121642.326,988.281,999.512,-350.586,997.070
1742121642.283,-1000.000,-1000.000,-296.387,-1000.000
1742121642.287,-1000.000,-907.715,-663.574,-1000.000
1742121642.291,-929.199,405.762,-881.348,-929.199
1742121642.295,-1000.000,999.512,-990.723,-1000.000
1742121642.299,-366.699,906.738,-1000.000,-385.742
1742121642.303,936.523,911.621,-791.504,917.969
1742121642.307,996.094,999.512,-670.898,999.512
1742121642.310,891.113,179.199,-951.172,794.922
1742121642.314,-335.449,-1000.000,-1000.000,-441.406
1742121642.318,-1000.000,-1000.000,-909.180,-1000.000
1742121642.322,-167.969,-9.277,-447.754,-164.551
1742121642.326,988.281,999.512,-350.586,997.070
1742121642.326,999.512,558.594,-799.316,999.512
1742121642.330,-64.453,-834.961,-1000.000,-94.727
1742121642.334,-1000.000,-999.023,-842.285,-1000.000
1742121642.338,-964.355,-1000.000,-494.629,-959.961
1742121642.342,-988.281,-750.000,-335.449,-995.605
1742121642.346,315.918,629.883,-273.438,289.551
1742121642.350,999.512,999.512,-556.152,999.512
1742121642.353,892.090,913.086,-947.266,895.020
1742121642.357,922.852,-277.832,-1000.000,924.316
1742121642.361,999.512,-1000.000,-991.211,999.512
1742121642.365,21.973,-933.105,-1000.000,30.762
1742121642.369,-1000.000,-962.891,-996.094,-1000.000
1742121642.372,-1000.000,-1000.000,-1000.000,-1000.000
1742121642.376,-847.656,-49.805,-1000.000,-776.855
1742121642.380,484.375,969.727,-830.078,543.457
1742121642.384,999.512,999.512,-859.375,999.512
1742121642.388,925.293,294.922,-1000.000,862.305
1742121642.392,-292.480,-1000.000,-995.605,-366.211
1742121642.396,-1000.000,-1000.000,-998.535,-1000.000
1742121642.399,-916.992,-896.484,-1000.000,-927.246
1742121642.403,-973.145,-1000.000,-1000.000,-962.402
1742121642.407,-1000.000,-621.094,-1000.000,-1000.000
1742121642.411,79.102,788.574,-1000.000,-15.625
1742121642.415,999.512,999.512,-1000.000,999.512
1742121642.372,-1000.000,-1000.000,-1000.000,-1000.000
1742121642.376,-847.656,-49.805,-1000.000,-776.855
1742121642.380,484.375,969.727,-830.078,543.457
1742121642.384,999.512,999.512,-859.375,999.512
1742121642.388,925.293,294.922,-1000.000,862.305
1742121642.392,-292.480,-1000.000,-995.605,-366.211
1742121642.396,-1000.000,-1000.000,-998.535,-1000.000
1742121642.399,-916.992,-896.484,-1000.000,-927.246
1742121642.403,-973.145,-1000.000,-1000.000,-962.402
1742121642.407,-1000.000,-621.094,-1000.000,-1000.000
1742121642.411,79.102,788.574,-1000.000,-15.625
1742121642.415,999.512,999.512,-1000.000,999.512
1742121642.416,844.727,875.488,-1000.000,855.957
1742121642.420,999.512,999.512,-1000.000,999.512
1742121642.424,284.180,-29.297,-1000.000,294.922
1742121642.428,-956.055,-1000.000,-1000.000,-954.102
1742121642.432,-1000.000,-1000.000,-1000.000,-1000.000
1742121642.436,-525.391,-195.801,-1000.000,-506.836
1742121642.440,870.117,974.121,-1000.000,861.328
1742121642.443,999.512,999.512,-1000.000,999.512
1742121642.447,911.621,179.199,-1000.000,915.039
1742121642.451,981.934,-996.582,-1000.000,981.934
1742121642.455,967.285,-1000.000,-1000.000,964.355
1742121642.459,903.809,-228.027,-1000.000,909.668
1742121642.462,999.512,999.512,-986.328,999.512
1742121642.466,186.523,166.016,-1000.000,139.648
1742121642.470,-1000.000,-1000.000,-970.703,-1000.000
1742121642.474,-921.387,-927.246,-364.746,-915.039
1742121642.478,-1000.000,-1000.000,70.801,-1000.000
1742121642.482,-227.539,-114.746,116.699,-237.793
1742121642.486,999.512,999.512,413.574,999.512
1742121642.489,956.055,999.512,396.484,958.496
1742121642.493,870.605,-12.695,126.953,870.117
1742121642.497,999.512,-1000.000,64.941,999.512
1742121642.501,277.832,-976.074,31.738,294.434
1742121642.505,-988.281,-915.039,107.910,-981.445
1742121642.462,999.512,999.512,-986.328,999.512
1742121642.466,186.523,166.016,-1000.000,139.648
1742121642.470,-1000.000,-1000.000,-970.703,-1000.000
1742121642.474,-921.387,-927.246,-364.746,-915.039
1742121642.478,-1000.000,-1000.000,70.801,-1000.000
1742121642.482,-227.539,-114.746,116.699,-237.793
1742121642.486,999.512,999.512,413.574,999.512
1742121642.489,956.055,999.512,396.484,958.496
1742121642.493,870.605,-12.695,126.953,870.117
1742121642.497,999.512,-1000.000,64.941,999.512
1742121642.501,277.832,-976.074,31.738,294.434
1742121642.505,-988.281,-915.039,107.910,-981.445
1742121642.521,-1000.000,-1000.000,580.566,-1000.000
1742121642.525,-896.973,-521.484,837.402,-891.113
1742121642.529,399.414,812.988,909.180,387.695
1742121642.533,999.512,999.512,600.586,999.512
1742121642.537,998.535,634.766,69.824,977.539
1742121642.541,-95.215,-674.316,18.066,-107.910
1742121642.545,-1000.000,-1000.000,398.926,-1000.000
1742121642.548,-958.984,-947.266,723.633,-964.355
1742121642.552,-920.410,-944.336,402.832,-918.945
1742121642.556,-1000.000,-1000.000,-32.715,-1000.000
1742121642.560,-441.406,-287.109,379.395,-486.816
1742121642.564,948.242,999.512,999.512,922.363
1742121642.521,-1000.000,-1000.000,580.566,-1000.000
1742121642.525,-896.973,-521.484,837.402,-891.113
1742121642.529,399.414,812.988,909.180,387.695
1742121642.533,999.512,999.512,600.586,999.512
1742121642.537,998.535,634.766,69.824,977.539
1742121642.541,-95.215,-674.316,18.066,-107.910
1742121642.545,-1000.000,-1000.000,398.926,-1000.000
1742121642.548,-958.984,-947.266,723.633,-964.355
1742121642.552,-920.410,-944.336,402.832,-918.945
1742121642.556,-1000.000,-1000.000,-32.715,-1000.000
1742121642.560,-441.406,-287.109,379.395,-486.816
1742121642.564,948.242,999.512,999.512,922.363
1742121642.568,994.141,971.680,800.293,999.512
1742121642.572,896.484,864.258,326.172,897.949
1742121642.576,958.496,999.512,208.008,954.102
1742121642.580,999.512,420.410,475.098,999.512
1742121642.584,-184.082,-958.984,445.312,-125.000
1742121642.588,-1000.000,-1000.000,424.316,-1000.000
1742121642.592,-950.195,-954.102,353.027,-959.473
1742121642.595,-927.246,-951.660,-262.695,-921.875
1742121642.599,-1000.000,-1000.000,-473.145,-1000.000
1742121642.603,-361.328,-193.359,-88.379,-397.949
1742121642.607,910.156,972.168,341.797,894.043
1742121642.611,999.512,999.512,75.684,999.512
1742121642.568,994.141,971.680,800.293,999.512
1742121642.572,896.484,864.258,326.172,897.949
1742121642.576,958.496,999.512,208.008,954.102
1742121642.580,999.512,420.410,475.098,999.512
1742121642.584,-184.082,-958.984,445.312,-125.000
1742121642.588,-1000.000,-1000.000,424.316,-1000.000
1742121642.592,-950.195,-954.102,353.027,-959.473
1742121642.595,-927.246,-951.660,-262.695,-921.875
1742121642.599,-1000.000,-1000.000,-473.145,-1000.000
1742121642.603,-361.328,-193.359,-88.379,-397.949
1742121642.607,910.156,972.168,341.797,894.043
1742121642.611,999.512,999.512,75.684,999.512
1742121642.611,617.676,318.359,-412.598,615.723
1742121642.615,-780.273,-989.258,-354.004,-762.695
1742121642.619,-1000.000,-976.074,128.418,-1000.000
1742121642.623,-1000.000,-1000.000,370.117,-1000.000
1742121642.627,-383.789,-63.477,267.578,-447.266
1742121642.631,935.059,999.512,131.836,895.996
1742121642.635,923.340,929.688,-100.098,934.082
1742121642.638,999.512,992.676,-50.781,999.512
1742121642.642,299.805,-207.520,-222.656,352.539
1742121642.646,-1000.000,-1000.000,-545.898,-1000.000
1742121642.650,-928.223,-876.465,-569.336,-942.383
1742121642.654,-1000.000,-1000.000,-688.477,-1000.000
1742121642.611,617.676,318.359,-412.598,615.723
1742121642.615,-780.273,-989.258,-354.004,-762.695
1742121642.619,-1000.000,-976.074,128.418,-1000.000
1742121642.623,-1000.000,-1000.000,370.117,-1000.000
1742121642.627,-383.789,-63.477,267.578,-447.266
1742121642.631,935.059,999.512,131.836,895.996
1742121642.635,923.340,929.688,-100.098,934.082
1742121642.638,999.512,992.676,-50.781,999.512
1742121642.642,299.805,-207.520,-222.656,352.539
1742121642.646,-1000.000,-1000.000,-545.898,-1000.000
1742121642.650,-928.223,-876.465,-569.336,-942.383
1742121642.654,-1000.000,-1000.000,-688.477,-1000.000
1742121642.657,-628.906,-314.453,-368.652,-688.477
1742121642.661,827.148,999.512,179.688,757.324
1742121642.665,961.914,909.180,33.691,978.027
1742121642.669,999.512,999.512,-479.492,999.512
1742121642.673,202.637,147.461,-941.406,169.434
1742121642.677,-1000.000,-1000.000,-766.113,-1000.000
1742121642.681,-984.375,-989.746,-324.707,-979.980
1742121642.684,-975.098,-921.387,-584.961,-980.957
1742121642.688,-942.383,-1000.000,-989.746,-937.988
1742121642.692,-1000.000,-768.555,-1000.000,-1000.000
1742121642.696,-250.000,604.980,-989.258,-321.777
1742121642.700,999.512,999.512,-1000.000,999.512
1742121642.657,-628.906,-314.453,-368.652,-688.477
1742121642.661,827.148,999.512,179.688,757.324
1742121642.665,961.914,909.180,33.691,978.027
1742121642.669,999.512,999.512,-479.492,999.512
1742121642.673,202.637,147.461,-941.406,169.434
1742121642.677,-1000.000,-1000.000,-766.113,-1000.000
1742121642.681,-984.375,-989.746,-324.707,-979.980
1742121642.684,-975.098,-921.387,-584.961,-980.957
1742121642.688,-942.383,-1000.000,-989.746,-937.988
1742121642.692,-1000.000,-768.555,-1000.000,-1000.000
1742121642.696,-250.000,604.980,-989.258,-321.777
1742121642.700,999.512,999.512,-1000.000,999.512
1742121642.701,954.590,878.906,-1000.000,967.773
1742121642.705,937.012,977.539,-1000.000,931.641
1742121642.709,974.121,941.895,-999.512,976.562
1742121642.713,966.797,-195.312,-996.094,967.773
1742121642.717,967.285,-1000.000,-1000.000,963.379
1742121642.721,903.809,-66.895,-911.621,911.133
1742121642.725,999.512,999.512,-904.297,999.512
1742121642.728,186.523,144.531,-990.723,123.047
1742121642.732,-1000.000,-1000.000,-1000.000,-1000.000
1742121642.736,-921.387,-928.223,-790.039,-911.133
1742121642.740,-1000.000,-1000.000,-185.547,-1000.000
1742121642.744,-227.539,-139.648,9.277,-263.672
1742121642.747,999.512,999.512,-95.703,999.512
1742121642.751,950.684,914.062,140.137,957.520
1742121642.755,876.465,937.500,319.824,874.023
1742121642.759,999.512,989.746,72.266,999.512
1742121642.763,187.012,-217.285,-410.645,187.012
1742121642.767,-1000.000,-1000.000,-760.254,-1000.000
1742121642.771,-966.797,-893.555,-343.262,-967.285
1742121642.774,-938.477,-1000.000,-73.242,-938.477
1742121642.778,-1000.000,-791.016,-97.168,-1000.000
1742121642.782,55.176,577.637,68.359,41.504
1742121642.786,999.512,989.258,-95.703,999.512
1742121642.790,917.969,999.512,-357.422,927.246
1742121642.747,999.512,999.512,-95.703,999.512
1742121642.751,950.684,914.062,140.137,957.520
1742121642.755,876.465,937.500,319.824,874.023
1742121642.759,999.512,989.746,72.266,999.512
1742121642.763,187.012,-217.285,-410.645,187.012
1742121642.767,-1000.000,-1000.000,-760.254,-1000.000
1742121642.771,-966.797,-893.555,-343.262,-967.285
1742121642.774,-938.477,-1000.000,-73.242,-938.477
1742121642.778,-1000.000,-791.016,-97.168,-1000.000
1742121642.782,55.176,577.637,68.359,41.504
1742121642.786,999.512,989.258,-95.703,999.512
1742121642.790,917.969,999.512,-357.422,927.246
1742121642.792,894.043,319.336,-431.641,882.812
1742121642.796,999.512,-1000.000,-386.719,999.512
1742121642.800,204.102,-991.699,-585.449,257.324
1742121642.804,-985.840,-921.875,-974.121,-969.238
1742121642.808,-1000.000,-1000.000,-1000.000,-1000.000
1742121642.812,-534.668,4.883,-613.281,-534.668
1742121642.816,795.410,999.512,29.785,768.555
1742121642.819,999.512,999.512,13.184,999.512
1742121642.823,676.758,417.969,-506.348,669.434
1742121642.827,-682.129,-960.938,-961.426,-687.012
1742121642.831,-1000.000,-1000.000,-731.445,-1000.000
1742121642.835,-945.801,-951.660,-318.848,-943.848
1742121642.792,894.043,319.336,-431.641,882.812
1742121642.796,999.512,-1000.000,-386.719,999.512
1742121642.800,204.102,-991.699,-585.449,257.324
1742121642.804,-985.840,-921.875,-974.121,-969.238
1742121642.808,-1000.000,-1000.000,-1000.000,-1000.000
1742121642.812,-534.668,4.883,-613.281,-534.668
1742121642.816,795.410,999.512,29.785,768.555
1742121642.819,999.512,999.512,13.184,999.512
1742121642.823,676.758,417.969,-506.348,669.434
1742121642.827,-682.129,-960.938,-961.426,-687.012
1742121642.831,-1000.000,-1000.000,-731.445,-1000.000
1742121642.835,-945.801,-951.660,-318.848,-943.848
1742121642.836,-974.121,-954.590,-510.742,-983.887
1742121642.840,-1000.000,-1000.000,-945.312,-993.164
1742121642.844,-974.121,-180.664,-993.164,-1000.000
1742121642.848,358.398,999.512,-653.320,226.074
1742121642.852,999.512,912.598,-626.465,999.512
1742121642.856,842.773,943.848,-585.938,850.098
1742121642.860,999.512,981.934,-536.133,999.512
1742121642.863,116.211,-304.688,-953.613,104.980
1742121642.867,-1000.000,-1000.000,-815.430,-1000.000
1742121642.871,-1000.000,-1000.000,-313.965,-1000.000
1742121642.875,-558.594,-400.879,-104.492,-595.703
1742121642.879,860.352,958.008,-270.996,812.988
1742121642.836,-974.121,-954.590,-510.742,-983.887
1742121642.840,-1000.000,-1000.000,-945.312,-993.164
1742121642.844,-974.121,-180.664,-993.164,-1000.000
1742121642.848,358.398,999.512,-653.320,226.074
1742121642.852,999.512,912.598,-626.465,999.512
1742121642.856,842.773,943.848,-585.938,850.098
1742121642.860,999.512,981.934,-536.133,999.512
1742121642.863,116.211,-304.688,-953.613,104.980
1742121642.867,-1000.000,-1000.000,-815.430,-1000.000
1742121642.871,-1000.000,-1000.000,-313.965,-1000.000
1742121642.875,-558.594,-400.879,-104.492,-595.703
1742121642.879,860.352,958.008,-270.996,812.988
1742121642.896,999.512,948.730,-797.363,999.512
1742121642.900,910.156,-88.867,-732.422,909.668
1742121642.904,981.934,-1000.000,-364.258,981.934
1742121642.908,966.309,-905.762,-344.238,966.797
1742121642.912,968.262,393.066,-637.207,973.145
1742121642.916,902.344,999.512,-715.332,897.949
1742121642.920,999.512,999.512,-658.203,999.512
1742121642.923,206.543,215.820,-921.875,301.270
1742121642.927,-1000.000,-1000.000,-1000.000,-1000.000
1742121642.931,-1000.000,-988.770,-990.723,-1000.000
1742121642.935,-897.949,-908.203,-1000.000,-893.066
1742121642.939,-1000.000,-1000.000,-1000.000,-1000.000
1742121642.896,999.512,948.730,-797.363,999.512
1742121642.900,910.156,-88.867,-732.422,909.668
1742121642.904,981.934,-1000.000,-364.258,981.934
1742121642.908,966.309,-905.762,-344.238,966.797
1742121642.912,968.262,393.066,-637.207,973.145
1742121642.916,902.344,999.512,-715.332,897.949
1742121642.920,999.512,999.512,-658.203,999.512
1742121642.923,206.543,215.820,-921.875,301.270
1742121642.927,-1000.000,-1000.000,-1000.000,-1000.000
1742121642.931,-1000.000,-988.770,-990.723,-1000.000
1742121642.935,-897.949,-908.203,-1000.000,-893.066
1742121642.939,-1000.000,-1000.000,-1000.000,-1000.000
1742121642.942,-594.727,-216.309,-1000.000,-605.469
1742121642.946,831.543,966.309,-1000.000,796.875
1742121642.950,984.375,999.512,-1000.000,999.512
1742121642.954,999.512,320.801,-1000.000,958.008
1742121642.958,-62.500,-995.605,-1000.000,-169.434
1742121642.962,-1000.000,-1000.000,-1000.000,-1000.000
1742121642.966,-963.867,-972.168,-1000.000,-958.496
1742121642.969,-939.941,-940.430,-1000.000,-954.102
1742121642.973,-1000.000,-1000.000,-1000.000,-1000.000
1742121642.977,-872.559,-516.113,-1000.000,-957.520
1742121642.981,527.344,874.023,-998.047,390.625
1742121642.985,999.512,966.797,-999.023,999.512
1742121642.942,-594.727,-216.309,-1000.000,-605.469
1742121642.946,831.543,966.309,-1000.000,796.875
1742121642.950,984.375,999.512,-1000.000,999.512
1742121642.954,999.512,320.801,-1000.000,958.008
1742121642.958,-62.500,-995.605,-1000.000,-169.434
1742121642.962,-1000.000,-1000.000,-1000.000,-1000.000
1742121642.966,-963.867,-972.168,-1000.000,-958.496
1742121642.969,-939.941,-940.430,-1000.000,-954.102
1742121642.973,-1000.000,-1000.000,-1000.000,-1000.000
1742121642.977,-872.559,-516.113,-1000.000,-957.520
1742121642.981,527.344,874.023,-998.047,390.625
1742121642.985,999.512,966.797,-999.023,999.512
1742121642.986,887.695,999.512,-999.023,925.293
1742121642.990,999.512,14.648,-999.512,893.555
1742121642.994,-238.281,-1000.000,-1000.000,-416.992
1742121642.998,-1000.000,-920.898,-1000.000,-1000.000
1742121643.002,-1000.000,-1000.000,-1000.000,-1000.000
1742121643.006,-221.680,-69.336,-1000.000,-225.098
1742121643.010,999.512,999.512,-998.047,999.512
1742121643.013,950.195,999.512,-986.816,950.684
1742121643.017,938.965,-4.883,-1000.000,939.453
1742121643.021,973.145,-1000.000,-746.582,973.633
1742121643.025,966.309,-1000.000,-379.395,966.797
1742121643.029,966.309,-96.680,-429.688,966.797
1742121643.031,968.262,999.512,-199.707,968.750
1742121643.035,955.566,869.629,520.020,959.473
1742121643.039,920.898,999.512,954.102,916.992
1742121643.043,999.512,340.332,998.535,999.512
1742121643.047,3.418,-1000.000,765.625,56.641
1742121643.051,-1000.000,-956.055,713.867,-1000.000
1742121643.055,-914.551,-1000.000,987.793,-950.684
1742121643.058,-1000.000,-150.391,965.820,-1000.000
1742121643.062,-42.969,999.512,965.820,116.211
1742121643.066,999.512,948.242,952.148,999.512
1742121643.070,873.535,875.488,934.570,883.789
1742121643.074,999.512,999.512,967.285,969.727
1742121643.031,968.262,999.512,-199.707,968.750
1742121643.035,955.566,869.629,520.020,959.473
1742121643.039,920.898,999.512,954.102,916.992
1742121643.043,999.512,340.332,998.535,999.512
1742121643.047,3.418,-1000.000,765.625,56.641
1742121643.051,-1000.000,-956.055,713.867,-1000.000
1742121643.055,-914.551,-1000.000,987.793,-950.684
1742121643.058,-1000.000,-150.391,965.820,-1000.000
1742121643.062,-42.969,999.512,965.820,116.211
1742121643.066,999.512,948.242,952.148,999.512
1742121643.070,873.535,875.488,934.570,883.789
1742121643.074,999.512,999.512,967.285,969.727
1742121643.076,837.891,333.496,967.773,955.566
1742121643.080,-555.176,-1000.000,964.355,-351.562
1742121643.084,-1000.000,-998.535,973.633,-1000.000
1742121643.088,-867.676,-916.504,928.223,-869.629
1742121643.092,-1000.000,-1000.000,932.617,-1000.000
1742121643.096,-291.504,-66.895,950.195,-321.777
1742121643.100,965.820,999.512,979.004,955.566
1742121643.103,999.512,981.934,868.164,999.512
1742121643.107,14.160,-210.938,3.906,0.488
1742121643.111,-1000.000,-1000.000,-564.941,-1000.000
1742121643.115,-964.355,-959.961,-288.574,-963.867
1742121643.119,-993.164,-924.316,-94.238,-990.234
1742121643.121,-965.820,-1000.000,-500.977,-979.004
1742121643.125,-1000.000,-515.625,-1000.000,-981.934
1742121643.129,-989.746,873.047,-800.781,-1000.000
1742121643.133,331.543,999.512,-188.477,158.691
1742121643.137,999.512,878.418,-9.277,999.512
1742121643.141,860.352,990.234,-44.434,870.605
1742121643.145,999.512,951.660,-239.746,999.512
1742121643.148,-47.852,-362.305,-722.656,-47.363
1742121643.152,-1000.000,-1000.000,-437.012,-1000.000
1742121643.156,-965.332,-1000.000,56.641,-952.148
1742121643.160,-981.445,-591.309,98.633,-1000.000
1742121643.164,327.148,836.426,37.109,242.188
1742121643.121,-965.820,-1000.000,-500.977,-979.004
1742121643.125,-1000.000,-515.625,-1000.000,-981.934
1742121643.129,-989.746,873.047,-800.781,-1000.000
1742121643.133,331.543,999.512,-188.477,158.691
1742121643.137,999.512,878.418,-9.277,999.512
1742121643.141,860.352,990.234,-44.434,870.605
1742121643.145,999.512,951.660,-239.746,999.512
1742121643.148,-47.852,-362.305,-722.656,-47.363
1742121643.152,-1000.000,-1000.000,-437.012,-1000.000
1742121643.156,-965.332,-1000.000,56.641,-952.148
1742121643.160,-981.445,-591.309,98.633,-1000.000
1742121643.164,327.148,836.426,37.109,242.188
1742121643.166,999.512,999.512,-87.402,999.512
1742121643.170,831.543,863.281,75.684,834.961
1742121643.174,999.512,999.512,182.617,999.512
1742121643.178,294.434,104.980,-160.156,351.562
1742121643.182,-965.820,-1000.000,-766.113,-943.359
1742121643.186,-1000.000,-900.879,-708.008,-1000.000
1742121643.190,-747.070,401.367,27.832,-753.906
1742121643.193,553.223,999.512,345.215,513.184
1742121643.197,999.512,999.512,348.145,999.512
1742121643.201,234.375,145.020,-36.621,231.445
1742121643.205,-1000.000,-1000.000,-378.418,-1000.000
1742121643.209,-936.523,-916.504,-23.438,-933.594
1742121643.166,999.512,999.512,-87.402,999.512
1742121643.170,831.543,863.281,75.684,834.961
1742121643.174,999.512,999.512,182.617,999.512
1742121643.178,294.434,104.980,-160.156,351.562
1742121643.182,-965.820,-1000.000,-766.113,-943.359
1742121643.186,-1000.000,-900.879,-708.008,-1000.000
1742121643.190,-747.070,401.367,27.832,-753.906
1742121643.193,553.223,999.512,345.215,513.184
1742121643.197,999.512,999.512,348.145,999.512
1742121643.201,234.375,145.020,-36.621,231.445
1742121643.205,-1000.000,-1000.000,-378.418,-1000.000
1742121643.209,-936.523,-916.504,-23.438,-933.594
1742121643.215,-1000.000,-1000.000,142.090,-1000.000
1742121643.219,-287.109,-208.008,254.883,-333.984
1742121643.223,999.512,999.512,-199.219,999.512
1742121643.227,959.473,951.172,-985.840,968.262
1742121643.231,935.547,928.223,-1000.000,932.129
1742121643.235,912.109,933.105,-775.391,914.062
1742121643.239,999.512,999.512,-120.117,999.512
1742121643.242,186.523,-22.949,-371.094,187.012
1742121643.246,-1000.000,-1000.000,-782.227,-1000.000
1742121643.250,-921.387,-905.273,7.324,-919.434
1742121643.254,-1000.000,-1000.000,334.961,-1000.000
1742121643.258,-227.539,-135.254,327.637,-254.395
1742121643.215,-1000.000,-1000.000,142.090,-1000.000
1742121643.219,-287.109,-208.008,254.883,-333.984
1742121643.223,999.512,999.512,-199.219,999.512
1742121643.227,959.473,951.172,-985.840,968.262
1742121643.231,935.547,928.223,-1000.000,932.129
1742121643.235,912.109,933.105,-775.391,914.062
1742121643.239,999.512,999.512,-120.117,999.512
1742121643.242,186.523,-22.949,-371.094,187.012
1742121643.246,-1000.000,-1000.000,-782.227,-1000.000
1742121643.250,-921.387,-905.273,7.324,-919.434
1742121643.254,-1000.000,-1000.000,334.961,-1000.000
1742121643.258,-227.539,-135.254,327.637,-254.395
1742121643.271,999.512,999.512,583.008,999.512
1742121643.275,950.195,939.941,376.953,955.078
1742121643.279,949.219,959.961,-123.535,948.730
1742121643.283,900.879,897.461,-561.523,901.855
1742121643.287,999.512,999.512,-752.930,999.512
1742121643.291,383.301,496.094,-955.078,426.758
1742121643.295,-993.164,-937.500,-993.652,-967.773
1742121643.298,-1000.000,-1000.000,-999.023,-1000.000
1742121643.302,-894.531,-921.875,-964.355,-891.602
1742121643.306,-1000.000,-1000.000,-656.250,-1000.000
1742121643.310,-221.191,74.219,-260.254,-212.402
1742121643.314,999.512,999.512,-383.301,999.512
1742121643.271,999.512,999.512,583.008,999.512
1742121643.275,950.195,939.941,376.953,955.078
1742121643.279,949.219,959.961,-123.535,948.730
1742121643.283,900.879,897.461,-561.523,901.855
1742121643.287,999.512,999.512,-752.930,999.512
1742121643.291,383.301,496.094,-955.078,426.758
1742121643.295,-993.164,-937.500,-993.652,-967.773
1742121643.298,-1000.000,-1000.000,-999.023,-1000.000
1742121643.302,-894.531,-921.875,-964.355,-891.602
1742121643.306,-1000.000,-1000.000,-656.250,-1000.000
1742121643.310,-221.191,74.219,-260.254,-212.402
1742121643.314,999.512,999.512,-383.301,999.512
1742121643.316,962.891,919.922,-576.172,960.449
1742121643.320,887.207,899.414,-152.832,894.043
1742121643.324,999.512,999.512,99.121,999.512
1742121643.328,836.426,158.203,-54.199,864.746
1742121643.332,-469.727,-1000.000,-298.340,-406.250
1742121643.336,-1000.000,-1000.000,119.141,-1000.000
1742121643.340,-344.238,-277.832,824.707,-358.398
1742121643.343,879.883,999.512,983.887,875.977
1742121643.347,999.512,648.926,844.238,999.512
1742121643.351,255.859,-778.809,382.812,250.488
1742121643.355,-1000.000,-1000.000,103.516,-1000.000
1742121643.359,-951.172,-993.164,379.395,-952.637
1742121643.316,962.891,919.922,-576.172,960.449
1742121643.320,887.207,899.414,-152.832,894.043
1742121643.324,999.512,999.512,99.121,999.512
1742121643.328,836.426,158.203,-54.199,864.746
1742121643.332,-469.727,-1000.000,-298.340,-406.250
1742121643.336,-1000.000,-1000.000,119.141,-1000.000
1742121643.340,-344.238,-277.832,824.707,-358.398
1742121643.343,879.883,999.512,983.887,875.977
1742121643.347,999.512,648.926,844.238,999.512
1742121643.351,255.859,-778.809,382.812,250.488
1742121643.355,-1000.000,-1000.000,103.516,-1000.000
1742121643.359,-951.172,-993.164,379.395,-952.637
1742121643.361,-1000.000,-835.449,579.102,-1000.000
1742121643.365,-108.887,539.551,493.652,-98.145
1742121643.369,999.512,981.445,153.320,999.512
1742121643.373,933.105,999.512,-218.262,933.594
1742121643.377,949.219,273.438,-195.312,952.148
1742121643.381,907.227,-474.609,6.836,906.250
1742121643.385,999.512,999.512,17.090,999.512
1742121643.388,186.523,298.340,-551.758,222.168
1742121643.392,-1000.000,-1000.000,-1000.000,-1000.000
1742121643.396,-936.523,-908.203,-898.926,-945.801
1742121643.400,-1000.000,-1000.000,-511.230,-997.070
1742121643.404,-927.246,-459.961,-242.188,-943.848
1742121643.361,-1000.000,-835.449,579.102,-1000.000
1742121643.365,-108.887,539.551,493.652,-98.145
1742121643.369,999.512,981.445,153.320,999.512
1742121643.373,933.105,999.512,-218.262,933.594
1742121643.377,949.219,273.438,-195.312,952.148
1742121643.381,907.227,-474.609,6.836,906.250
1742121643.385,999.512,999.512,17.090,999.512
1742121643.388,186.523,298.340,-551.758,222.168
1742121643.392,-1000.000,-1000.000,-1000.000,-1000.000
1742121643.396,-936.523,-908.203,-898.926,-945.801
1742121643.400,-1000.000,-1000.000,-511.230,-997.070
1742121643.404,-927.246,-459.961,-242.188,-943.848
1742121643.407,450.195,932.617,-233.887,409.180
1742121643.411,999.512,987.305,-325.195,999.512
1742121643.415,836.426,868.652,-104.492,834.473
1742121643.419,999.512,999.512,-26.367,999.512
1742121643.423,192.383,96.191,-637.695,271.973
1742121643.427,-1000.000,-1000.000,-1000.000,-1000.000
1742121643.431,-999.512,-978.516,-983.398,-1000.000
1742121643.434,-912.598,-911.621,-995.117,-912.109
1742121643.438,-1000.000,-1000.000,-1000.000,-1000.000
1742121643.442,-792.969,-308.594,-1000.000,-840.332
1742121643.446,629.883,932.129,-1000.000,553.223
1742121643.450,999.512,999.512,-998.535,999.512
1742121643.407,450.195,932.617,-233.887,409.180
1742121643.411,999.512,987.305,-325.195,999.512
1742121643.415,836.426,868.652,-104.492,834.473
1742121643.419,999.512,999.512,-26.367,999.512
1742121643.423,192.383,96.191,-637.695,271.973
1742121643.427,-1000.000,-1000.000,-1000.000,-1000.000
1742121643.431,-999.512,-978.516,-983.398,-1000.000
1742121643.434,-912.598,-911.621,-995.117,-912.109
1742121643.438,-1000.000,-1000.000,-1000.000,-1000.000
1742121643.442,-792.969,-308.594,-1000.000,-840.332
1742121643.446,629.883,932.129,-1000.000,553.223
1742121643.450,999.512,999.512,-998.535,999.512
1742121643.451,901.367,321.777,-1000.000,902.344
1742121643.455,985.352,-1000.000,-999.023,982.910
1742121643.459,898.438,-268.555,-923.340,899.414
1742121643.463,999.512,999.512,-936.035,999.512
1742121643.467,275.391,219.238,-998.047,268.555
1742121643.471,-1000.000,-1000.000,-1000.000,-1000.000
1742121643.475,-998.535,-1000.000,-933.105,-997.559
1742121643.478,-977.539,-640.625,-773.438,-974.609
1742121643.482,-964.355,-461.426,-887.695,-977.051
1742121643.486,-1000.000,-1000.000,-1000.000,-997.070
1742121643.490,-940.430,-592.285,-943.359,-1000.000
1742121643.494,421.387,844.238,-641.113,251.465
1742121643.499,999.512,983.398,-777.832,999.512
1742121643.503,838.867,918.457,-1000.000,848.145
1742121643.507,999.512,959.961,-981.934,999.512
1742121643.511,235.840,-243.164,-982.910,195.801
1742121643.515,-1000.000,-1000.000,-592.773,-1000.000
1742121643.519,-398.438,-272.949,192.871,-399.902
1742121643.523,922.363,993.164,574.707,916.016
1742121643.526,999.512,996.094,20.996,999.512
1742121643.530,143.555,-222.656,-595.703,125.977
1742121643.534,-1000.000,-1000.000,-239.746,-1000.000
1742121643.538,-999.023,-953.613,381.836,-994.141
1742121643.542,-907.715,-930.176,236.328,-923.828
1742121643.542,-1000.000,-1000.000,-228.516,-1000.000
1742121643.546,-718.262,-257.812,-292.969,-880.859
1742121643.550,716.309,999.512,209.961,500.977
1742121643.554,999.512,957.520,170.410,999.512
1742121643.558,842.285,874.512,-355.469,851.562
1742121643.562,999.512,999.512,-768.555,999.512
1742121643.566,172.363,183.594,-1000.000,77.148
1742121643.569,-1000.000,-1000.000,-927.246,-1000.000
1742121643.573,-981.934,-984.375,-806.641,-972.168
1742121643.577,-977.539,-969.727,-811.035,-986.816
1742121643.581,-940.918,-951.172,-900.391,-936.035
1742121643.585,-1000.000,-1000.000,-1000.000,-1000.000
1742121643.586,-270.996,-154.297,-917.480,-341.309
1742121643.590,999.512,999.512,-468.750,994.141
1742121643.594,958.008,876.953,-361.816,963.867
1742121643.598,873.535,999.512,-745.605,881.348
1742121643.602,999.512,521.484,-1000.000,999.512
1742121643.606,171.875,-864.258,-680.664,71.777
1742121643.610,-1000.000,-1000.000,-347.168,-1000.000
1742121643.613,-983.398,-959.961,-696.289,-973.633
1742121643.617,-964.844,-964.355,-1000.000,-973.145
1742121643.621,-958.984,-1000.000,-982.910,-954.590
1742121643.625,-1000.000,-838.379,-1000.000,-1000.000
1742121643.629,-58.105,507.812,-906.738,-97.168
1742121643.586,-270.996,-154.297,-917.480,-341.309
1742121643.590,999.512,999.512,-468.750,994.141
1742121643.594,958.008,876.953,-361.816,963.867
1742121643.598,873.535,999.512,-745.605,881.348
1742121643.602,999.512,521.484,-1000.000,999.512
1742121643.606,171.875,-864.258,-680.664,71.777
1742121643.610,-1000.000,-1000.000,-347.168,-1000.000
1742121643.613,-983.398,-959.961,-696.289,-973.633
1742121643.617,-964.844,-964.355,-1000.000,-973.145
1742121643.621,-958.984,-1000.000,-982.910,-954.590
1742121643.625,-1000.000,-838.379,-1000.000,-1000.000
1742121643.629,-58.105,507.812,-906.738,-97.168
1742121643.647,999.512,999.512,-808.594,999.512
1742121643.651,928.223,896.973,-956.543,934.570
1742121643.655,951.172,999.512,-1000.000,948.730
1742121643.659,969.238,-182.617,-844.727,970.215
1742121643.663,976.562,-1000.000,-556.152,976.074
1742121643.667,925.293,-25.391,-133.789,929.688
1742121643.671,983.887,999.512,215.820,976.562
1742121643.674,938.965,643.555,54.688,959.473
1742121643.678,-398.926,-746.094,-170.898,-354.492
1742121643.682,-1000.000,-1000.000,23.926,-1000.000
1742121643.686,-934.082,-940.918,269.531,-936.035
1742121643.690,-1000.000,-1000.000,265.625,-1000.000
1742121643.647,999.512,999.512,-808.594,999.512
1742121643.651,928.223,896.973,-956.543,934.570
1742121643.655,951.172,999.512,-1000.000,948.730
1742121643.659,969.238,-182.617,-844.727,970.215
1742121643.663,976.562,-1000.000,-556.152,976.074
1742121643.667,925.293,-25.391,-133.789,929.688
1742121643.671,983.887,999.512,215.820,976.562
1742121643.674,938.965,643.555,54.688,959.473
1742121643.678,-398.926,-746.094,-170.898,-354.492
1742121643.682,-1000.000,-1000.000,23.926,-1000.000
1742121643.686,-934.082,-940.918,269.531,-936.035
1742121643.690,-1000.000,-1000.000,265.625,-1000.000
1742121643.691,-936.523,-952.637,-125.977,-933.594
1742121643.695,-1000.000,-1000.000,-512.695,-1000.000
1742121643.699,-240.723,-89.844,-197.754,-294.922
1742121643.703,999.512,999.512,23.926,999.512
1742121643.707,922.852,889.160,-379.395,932.129
1742121643.711,928.223,984.863,-776.367,929.688
1742121643.715,999.512,874.023,-975.586,999.512
1742121643.718,-258.301,-488.770,-999.023,-272.461
1742121643.722,-1000.000,-1000.000,-1000.000,-1000.000
1742121643.726,-882.324,-869.141,-857.910,-896.973
1742121643.730,-1000.000,-1000.000,-832.520,-1000.000
1742121643.734,-849.609,-291.016,-845.703,-945.801
1742121643.691,-936.523,-952.637,-125.977,-933.594
1742121643.695,-1000.000,-1000.000,-512.695,-1000.000
1742121643.699,-240.723,-89.844,-197.754,-294.922
1742121643.703,999.512,999.512,23.926,999.512
1742121643.707,922.852,889.160,-379.395,932.129
1742121643.711,928.223,984.863,-776.367,929.688
1742121643.715,999.512,874.023,-975.586,999.512
1742121643.718,-258.301,-488.770,-999.023,-272.461
1742121643.722,-1000.000,-1000.000,-1000.000,-1000.000
1742121643.726,-882.324,-869.141,-857.910,-896.973
1742121643.730,-1000.000,-1000.000,-832.520,-1000.000
1742121643.734,-849.609,-291.016,-845.703,-945.801
1742121643.736,551.270,999.512,-673.828,397.461
1742121643.740,999.512,952.148,-476.074,999.512
1742121643.744,837.402,890.137,-240.723,841.797
1742121643.748,999.512,999.512,-466.797,999.512
1742121643.752,209.473,74.707,-965.332,184.570
1742121643.756,-1000.000,-1000.000,-660.645,-1000.000
1742121643.760,-1000.000,-729.004,49.805,-1000.000
1742121643.763,88.379,568.359,412.598,122.559
1742121643.767,999.512,999.512,171.387,999.512
1742121643.771,178.223,63.965,-513.184,192.871
1742121643.775,-1000.000,-1000.000,-441.406,-1000.000
1742121643.779,-935.547,-910.156,138.184,-934.082
1742121643.736,551.270,999.512,-673.828,397.461
1742121643.740,999.512,952.148,-476.074,999.512
1742121643.744,837.402,890.137,-240.723,841.797
1742121643.748,999.512,999.512,-466.797,999.512
1742121643.752,209.473,74.707,-965.332,184.570
1742121643.756,-1000.000,-1000.000,-660.645,-1000.000
1742121643.760,-1000.000,-729.004,49.805,-1000.000
1742121643.763,88.379,568.359,412.598,122.559
1742121643.767,999.512,999.512,171.387,999.512
1742121643.771,178.223,63.965,-513.184,192.871
1742121643.775,-1000.000,-1000.000,-441.406,-1000.000
1742121643.779,-935.547,-910.156,138.184,-934.082
1742121643.785,-1000.000,-1000.000,302.246,-1000.000
1742121643.789,-465.820,-266.602,312.988,-610.840
1742121643.793,878.418,960.449,591.309,782.715
1742121643.797,999.512,999.512,725.098,999.512
1742121643.801,906.250,711.426,556.152,897.949
1742121643.805,933.105,-651.367,426.758,937.500
1742121643.809,999.512,229.980,301.270,999.512
1742121643.812,30.273,207.031,-504.395,4.883
1742121643.816,-1000.000,-1000.000,-849.121,-1000.000
1742121643.820,-911.621,-1000.000,-74.219,-910.645
1742121643.824,-1000.000,-698.730,319.336,-1000.000
1742121643.828,-98.633,673.828,247.070,-103.027
1742121643.785,-1000.000,-1000.000,302.246,-1000.000
1742121643.789,-465.820,-266.602,312.988,-610.840
1742121643.793,878.418,960.449,591.309,782.715
1742121643.797,999.512,999.512,725.098,999.512
1742121643.801,906.250,711.426,556.152,897.949
1742121643.805,933.105,-651.367,426.758,937.500
1742121643.809,999.512,229.980,301.270,999.512
1742121643.812,30.273,207.031,-504.395,4.883
1742121643.816,-1000.000,-1000.000,-849.121,-1000.000
1742121643.820,-911.621,-1000.000,-74.219,-910.645
1742121643.824,-1000.000,-698.730,319.336,-1000.000
1742121643.828,-98.633,673.828,247.070,-103.027
1742121643.826,999.512,999.512,-78.613,999.512
1742121643.830,932.617,842.773,-323.730,935.547
1742121643.834,948.242,999.512,-101.562,948.242
1742121643.838,970.215,678.223,93.750,971.191
1742121643.842,975.098,-891.602,316.895,972.168
1742121643.846,930.664,-315.918,460.938,943.359
1742121643.850,969.727,999.512,678.711,945.312
1742121643.853,979.004,473.633,974.121,999.512
1742121643.857,-325.684,-931.641,965.332,-168.945
1742121643.861,-1000.000,-1000.000,960.449,-1000.000
1742121643.865,-941.406,-948.730,969.238,-951.172
1742121643.869,-936.523,-952.637,971.191,-927.734
1742121643.826,999.512,999.512,-78.613,999.512
1742121643.830,932.617,842.773,-323.730,935.547
1742121643.834,948.242,999.512,-101.562,948.242
1742121643.838,970.215,678.223,93.750,971.191
1742121643.842,975.098,-891.602,316.895,972.168
1742121643.846,930.664,-315.918,460.938,943.359
1742121643.850,969.727,999.512,678.711,945.312
1742121643.853,979.004,473.633,974.121,999.512
1742121643.857,-325.684,-931.641,965.332,-168.945
1742121643.861,-1000.000,-1000.000,960.449,-1000.000
1742121643.865,-941.406,-948.730,969.238,-951.172
1742121643.869,-936.523,-952.637,971.191,-927.734
1742121643.872,-1000.000,-1000.000,944.824,-1000.000
1742121643.876,-311.523,-199.707,983.887,-329.102
1742121643.880,937.500,973.145,853.516,931.152
1742121643.884,999.512,999.512,54.688,999.512
1742121643.888,212.402,239.258,-409.668,200.195
1742121643.892,-1000.000,-1000.000,-359.863,-1000.000
1742121643.896,-993.652,-997.559,-734.375,-992.188
1742121643.899,-976.562,-965.820,-696.289,-979.492
1742121643.903,-937.500,-949.219,-209.473,-936.035
1742121643.907,-1000.000,-1000.000,-357.910,-1000.000
1742121643.911,-374.512,-192.383,-416.504,-426.758
1742121643.915,985.352,999.512,262.695,958.984
1742121643.872,-1000.000,-1000.000,944.824,-1000.000
1742121643.876,-311.523,-199.707,983.887,-329.102
1742121643.880,937.500,973.145,853.516,931.152
1742121643.884,999.512,999.512,54.688,999.512
1742121643.888,212.402,239.258,-409.668,200.195
1742121643.892,-1000.000,-1000.000,-359.863,-1000.000
1742121643.896,-993.652,-997.559,-734.375,-992.188
1742121643.899,-976.562,-965.820,-696.289,-979.492
1742121643.903,-937.500,-949.219,-209.473,-936.035
1742121643.907,-1000.000,-1000.000,-357.910,-1000.000
1742121643.911,-374.512,-192.383,-416.504,-426.758
1742121643.915,985.352,999.512,262.695,958.984
1742121643.917,952.637,880.859,534.668,964.355
1742121643.921,902.832,999.512,121.582,900.879
1742121643.925,999.512,558.105,-240.723,999.512
1742121643.929,-102.051,-782.715,-245.605,-91.797
1742121643.933,-1000.000,-1000.000,39.551,-1000.000
1742121643.937,-231.445,-181.641,593.262,-248.535
1742121643.941,999.512,999.512,657.227,999.512
1742121643.944,999.512,964.844,-290.039,999.512
1742121643.948,-189.941,-321.289,-971.680,-214.355
1742121643.952,-1000.000,-1000.000,-983.398,-1000.000
1742121643.956,-958.008,-940.430,-976.562,-957.520
1742121643.960,-931.641,-938.965,-1000.000,-940.430
1742121643.917,952.637,880.859,534.668,964.355
1742121643.921,902.832,999.512,121.582,900.879
1742121643.925,999.512,558.105,-240.723,999.512
1742121643.929,-102.051,-782.715,-245.605,-91.797
1742121643.933,-1000.000,-1000.000,39.551,-1000.000
1742121643.937,-231.445,-181.641,593.262,-248.535
1742121643.941,999.512,999.512,657.227,999.512
1742121643.944,999.512,964.844,-290.039,999.512
1742121643.948,-189.941,-321.289,-971.680,-214.355
1742121643.952,-1000.000,-1000.000,-983.398,-1000.000
1742121643.956,-958.008,-940.430,-976.562,-957.520
1742121643.960,-931.641,-938.965,-1000.000,-940.430
1742121643.961,-1000.000,-1000.000,-1000.000,-1000.000
1742121643.965,-725.098,-232.910,-1000.000,-809.082
1742121643.969,711.426,953.613,-1000.000,595.703
1742121643.973,999.512,999.512,-1000.000,999.512
1742121643.977,903.320,501.465,-1000.000,902.832
1742121643.981,995.117,-941.895,-1000.000,993.652
1742121643.985,892.090,23.926,-1000.000,901.855
1742121643.988,999.512,999.512,-1000.000,999.512
1742121643.992,500.977,83.008,-1000.000,677.246
1742121643.996,-943.359,-1000.000,-1000.000,-761.719
1742121644.000,-980.957,-1000.000,-1000.000,-1000.000
1742121644.004,-1000.000,-812.012,-1000.000,-1000.000
1742121643.961,-1000.000,-1000.000,-1000.000,-1000.000
1742121643.965,-725.098,-232.910,-1000.000,-809.082
1742121643.969,711.426,953.613,-1000.000,595.703
1742121643.973,999.512,999.512,-1000.000,999.512
1742121643.977,903.320,501.465,-1000.000,902.832
1742121643.981,995.117,-941.895,-1000.000,993.652
1742121643.985,892.090,23.926,-1000.000,901.855
1742121643.988,999.512,999.512,-1000.000,999.512
1742121643.992,500.977,83.008,-1000.000,677.246
1742121643.996,-943.359,-1000.000,-1000.000,-761.719
1742121644.000,-980.957,-1000.000,-1000.000,-1000.000
1742121644.004,-1000.000,-812.012,-1000.000,-1000.000
1742121644.008,-804.688,528.809,-1000.000,-730.957
1742121644.012,647.461,999.512,-1000.000,697.266
1742121644.016,985.352,848.145,-1000.000,973.633
1742121644.020,999.512,999.512,-997.559,999.512
1742121644.024,504.883,128.418,-999.512,520.508
1742121644.028,-935.059,-1000.000,-1000.000,-906.250
1742121644.032,-1000.000,-977.051,-895.020,-1000.000
1742121644.035,-954.102,-981.934,-812.012,-955.078
1742121644.039,-946.777,-938.477,-958.496,-944.824
1742121644.043,-1000.000,-1000.000,-922.363,-1000.000
1742121644.047,-318.359,-301.270,-554.688,-347.656
1742121644.051,999.512,999.512,-281.250,990.234
1742121644.008,-804.688,528.809,-1000.000,-730.957
1742121644.012,647.461,999.512,-1000.000,697.266
1742121644.016,985.352,848.145,-1000.000,973.633
1742121644.020,999.512,999.512,-997.559,999.512
1742121644.024,504.883,128.418,-999.512,520.508
1742121644.028,-935.059,-1000.000,-1000.000,-906.250
1742121644.032,-1000.000,-977.051,-895.020,-1000.000
1742121644.035,-954.102,-981.934,-812.012,-955.078
1742121644.039,-946.777,-938.477,-958.496,-944.824
1742121644.043,-1000.000,-1000.000,-922.363,-1000.000
1742121644.047,-318.359,-301.270,-554.688,-347.656
1742121644.051,999.512,999.512,-281.250,990.234
1742121644.070,979.004,962.402,-385.254,985.840
1742121644.074,857.422,874.512,-747.559,858.887
1742121644.078,999.512,999.512,-982.422,999.512
1742121644.082,472.168,147.461,-999.023,558.105
1742121644.086,-945.801,-1000.000,-994.141,-868.164
1742121644.090,-1000.000,-985.840,-1000.000,-1000.000
1742121644.094,-949.707,-945.801,-1000.000,-943.848
1742121644.097,-953.613,-1000.000,-1000.000,-954.590
1742121644.101,-1000.000,-1000.000,-1000.000,-1000.000
1742121644.105,-196.289,234.375,-1000.000,-183.105
1742121644.109,999.512,999.512,-1000.000,999.512
1742121644.113,933.105,999.512,-1000.000,955.566
1742121644.070,979.004,962.402,-385.254,985.840
1742121644.074,857.422,874.512,-747.559,858.887
1742121644.078,999.512,999.512,-982.422,999.512
1742121644.082,472.168,147.461,-999.023,558.105
1742121644.086,-945.801,-1000.000,-994.141,-868.164
1742121644.090,-1000.000,-985.840,-1000.000,-1000.000
1742121644.094,-949.707,-945.801,-1000.000,-943.848
1742121644.097,-953.613,-1000.000,-1000.000,-954.590
1742121644.101,-1000.000,-1000.000,-1000.000,-1000.000
1742121644.105,-196.289,234.375,-1000.000,-183.105
1742121644.109,999.512,999.512,-1000.000,999.512
1742121644.113,933.105,999.512,-1000.000,955.566
1742121644.111,999.512,327.148,-1000.000,923.340
1742121644.115,-227.539,-1000.000,-1000.000,-341.797
1742121644.119,-1000.000,-963.867,-1000.000,-1000.000
1742121644.123,-1000.000,-1000.000,-1000.000,-1000.000
1742121644.127,-415.527,-83.984,-1000.000,-455.566
1742121644.131,962.891,999.512,-1000.000,939.453
1742121644.135,968.262,888.184,-1000.000,974.121
1742121644.138,885.254,999.512,-1000.000,894.043
1742121644.142,999.512,50.781,-1000.000,999.512
1742121644.146,-60.059,-1000.000,-1000.000,-93.262
1742121644.150,-1000.000,-972.656,-1000.000,-1000.000
1742121644.154,-883.789,-915.039,-1000.000,-895.020
1742121644.111,999.512,327.148,-1000.000,923.340
1742121644.115,-227.539,-1000.000,-1000.000,-341.797
1742121644.119,-1000.000,-963.867,-1000.000,-1000.000
1742121644.123,-1000.000,-1000.000,-1000.000,-1000.000
1742121644.127,-415.527,-83.984,-1000.000,-455.566
1742121644.131,962.891,999.512,-1000.000,939.453
1742121644.135,968.262,888.184,-1000.000,974.121
1742121644.138,885.254,999.512,-1000.000,894.043
1742121644.142,999.512,50.781,-1000.000,999.512
1742121644.146,-60.059,-1000.000,-1000.000,-93.262
1742121644.150,-1000.000,-972.656,-1000.000,-1000.000
1742121644.154,-883.789,-915.039,-1000.000,-895.020
1742121644.157,-1000.000,-1000.000,-1000.000,-1000.000
1742121644.161,-688.477,-324.219,-1000.000,-737.305
1742121644.165,758.789,998.047,-1000.000,690.918
1742121644.169,999.512,968.750,-1000.000,999.512
1742121644.173,914.062,945.801,-1000.000,912.109
1742121644.177,945.312,910.156,-1000.000,948.730
1742121644.181,972.656,999.512,-1000.000,963.867
1742121644.184,972.168,628.906,-1000.000,995.605
1742121644.188,-339.844,-806.152,-1000.000,-283.203
1742121644.192,-1000.000,-1000.000,-1000.000,-1000.000
1742121644.196,-872.559,-1000.000,-1000.000,-879.883
1742121644.200,-1000.000,-751.953,-1000.000,-1000.000
1742121644.157,-1000.000,-1000.000,-1000.000,-1000.000
1742121644.161,-688.477,-324.219,-1000.000,-737.305
1742121644.165,758.789,998.047,-1000.000,690.918
1742121644.169,999.512,968.750,-1000.000,999.512
1742121644.173,914.062,945.801,-1000.000,912.109
1742121644.177,945.312,910.156,-1000.000,948.730
1742121644.181,972.656,999.512,-1000.000,963.867
1742121644.184,972.168,628.906,-1000.000,995.605
1742121644.188,-339.844,-806.152,-1000.000,-283.203
1742121644.192,-1000.000,-1000.000,-1000.000,-1000.000
1742121644.196,-872.559,-1000.000,-1000.000,-879.883
1742121644.200,-1000.000,-751.953,-1000.000,-1000.000
1742121644.201,-217.285,644.531,-1000.000,-174.316
1742121644.205,999.512,999.512,-1000.000,999.512
1742121644.209,949.219,908.203,-1000.000,944.336
1742121644.213,946.777,985.840,-1000.000,951.172
1742121644.217,943.848,935.547,-1000.000,938.965
1742121644.221,954.590,961.914,-1000.000,970.215
1742121644.225,999.512,999.512,-1000.000,968.262
1742121644.228,-242.676,-267.090,-997.070,-310.547
1742121644.232,-1000.000,-1000.000,-1000.000,-1000.000
1742121644.236,-937.988,-1000.000,-983.887,-939.941
1742121644.240,-1000.000,-219.727,-948.730,-1000.000
1742121644.244,-1000.000,999.512,-993.164,-1000.000
1742121644.201,-217.285,644.531,-1000.000,-174.316
1742121644.205,999.512,999.512,-1000.000,999.512
1742121644.209,949.219,908.203,-1000.000,944.336
1742121644.213,946.777,985.840,-1000.000,951.172
1742121644.217,943.848,935.547,-1000.000,938.965
1742121644.221,954.590,961.914,-1000.000,970.215
1742121644.225,999.512,999.512,-1000.000,968.262
1742121644.228,-242.676,-267.090,-997.070,-310.547
1742121644.232,-1000.000,-1000.000,-1000.000,-1000.000
1742121644.236,-937.988,-1000.000,-983.887,-939.941
1742121644.240,-1000.000,-219.727,-948.730,-1000.000
1742121644.244,-1000.000,999.512,-993.164,-1000.000
1742121644.246,-939.941,435.547,-1000.000,-945.312
1742121644.250,-1000.000,-1000.000,-997.559,-1000.000
1742121644.254,-793.457,-543.457,-1000.000,-838.379
1742121644.258,630.371,936.035,-983.398,561.035
1742121644.262,999.512,964.355,-1000.000,999.512
1742121644.266,901.367,913.574,-859.863,903.320
1742121644.270,979.980,995.605,-521.973,972.656
1742121644.273,904.297,-272.949,-403.320,916.016
1742121644.277,999.512,-1000.000,-373.047,999.512
1742121644.281,168.457,-928.711,-550.781,83.008
1742121644.285,-1000.000,-960.449,-904.297,-1000.000
1742121644.289,-1000.000,-1000.000,-989.258,-1000.000
1742121644.246,-939.941,435.547,-1000.000,-945.312
1742121644.250,-1000.000,-1000.000,-997.559,-1000.000
1742121644.254,-793.457,-543.457,-1000.000,-838.379
1742121644.258,630.371,936.035,-983.398,561.035
1742121644.262,999.512,964.355,-1000.000,999.512
1742121644.266,901.367,913.574,-859.863,903.320
1742121644.270,979.980,995.605,-521.973,972.656
1742121644.273,904.297,-272.949,-403.320,916.016
1742121644.277,999.512,-1000.000,-373.047,999.512
1742121644.281,168.457,-928.711,-550.781,83.008
1742121644.285,-1000.000,-960.449,-904.297,-1000.000
1742121644.289,-1000.000,-1000.000,-989.258,-1000.000
1742121644.293,-320.801,5.859,-320.801,-375.977
1742121644.297,904.785,999.512,83.496,886.230
1742121644.301,999.512,999.512,-248.535,999.512
1742121644.305,440.918,415.039,-507.812,346.191
1742121644.309,-957.520,-1000.000,-687.988,-980.469
1742121644.313,-1000.000,-580.078,-43.457,-1000.000
1742121644.317,280.762,849.121,889.160,197.266
1742121644.320,999.512,999.512,999.512,999.512
1742121644.324,122.070,-16.113,539.062,126.465
1742121644.328,-1000.000,-1000.000,459.473,-1000.000
1742121644.332,-983.887,-969.727,932.617,-983.398
1742121644.336,-974.609,-967.285,999.512,-984.863
1742121644.293,-320.801,5.859,-320.801,-375.977
1742121644.297,904.785,999.512,83.496,886.230
1742121644.301,999.512,999.512,-248.535,999.512
1742121644.305,440.918,415.039,-507.812,346.191
1742121644.309,-957.520,-1000.000,-687.988,-980.469
1742121644.313,-1000.000,-580.078,-43.457,-1000.000
1742121644.317,280.762,849.121,889.160,197.266
1742121644.320,999.512,999.512,999.512,999.512
1742121644.324,122.070,-16.113,539.062,126.465
1742121644.328,-1000.000,-1000.000,459.473,-1000.000
1742121644.332,-983.887,-969.727,932.617,-983.398
1742121644.336,-974.609,-967.285,999.512,-984.863
1742121644.353,-942.871,-970.215,841.797,-934.082
1742121644.357,-1000.000,-1000.000,279.785,-1000.000
1742121644.361,-241.211,37.598,469.238,-471.680
1742121644.365,999.512,999.512,999.512,943.848
1742121644.369,885.254,848.633,937.500,925.293
1742121644.373,999.512,999.512,973.633,999.512
1742121644.377,671.875,538.086,913.574,607.422
1742121644.380,-781.250,-894.531,222.168,-841.797
1742121644.384,-1000.000,-1000.000,118.164,-1000.000
1742121644.388,-937.988,-945.801,608.887,-942.383
1742121644.392,-1000.000,-1000.000,533.691,-1000.000
1742121644.396,-947.754,-937.988,114.258,-977.051
1742121644.353,-942.871,-970.215,841.797,-934.082
1742121644.357,-1000.000,-1000.000,279.785,-1000.000
1742121644.361,-241.211,37.598,469.238,-471.680
1742121644.365,999.512,999.512,999.512,943.848
1742121644.369,885.254,848.633,937.500,925.293
1742121644.373,999.512,999.512,973.633,999.512
1742121644.377,671.875,538.086,913.574,607.422
1742121644.380,-781.250,-894.531,222.168,-841.797
1742121644.384,-1000.000,-1000.000,118.164,-1000.000
1742121644.388,-937.988,-945.801,608.887,-942.383
1742121644.392,-1000.000,-1000.000,533.691,-1000.000
1742121644.396,-947.754,-937.988,114.258,-977.051
1742121644.397,-1000.000,-1000.000,-188.477,-978.516
1742121644.401,-839.355,-205.566,-144.531,-1000.000
1742121644.405,496.582,999.512,14.160,79.102
1742121644.409,999.512,954.590,-29.785,999.512
1742121644.413,881.836,936.035,-610.840,735.352
1742121644.417,-304.199,-260.254,-790.039,-535.156
1742121644.421,-1000.000,-1000.000,303.223,-1000.000
1742121644.424,-853.027,-678.223,999.512,-889.648
1742121644.428,434.082,648.438,663.574,392.578
1742121644.432,999.512,999.512,-258.301,999.512
1742121644.436,-137.207,-181.641,-980.957,-252.441
1742121644.440,-1000.000,-1000.000,-991.211,-1000.000
1742121644.397,-1000.000,-1000.000,-188.477,-978.516
1742121644.401,-839.355,-205.566,-144.531,-1000.000
1742121644.405,496.582,999.512,14.160,79.102
1742121644.409,999.512,954.590,-29.785,999.512
1742121644.413,881.836,936.035,-610.840,735.352
1742121644.417,-304.199,-260.254,-790.039,-535.156
1742121644.421,-1000.000,-1000.000,303.223,-1000.000
1742121644.424,-853.027,-678.223,999.512,-889.648
1742121644.428,434.082,648.438,663.574,392.578
1742121644.432,999.512,999.512,-258.301,999.512
1742121644.436,-137.207,-181.641,-980.957,-252.441
1742121644.440,-1000.000,-1000.000,-991.211,-1000.000
1742121644.443,-951.172,-984.863,-984.375,-945.312
1742121644.447,-1000.000,-882.812,-1000.000,-1000.000
1742121644.451,-930.664,447.266,-1000.000,-936.035
1742121644.455,-1000.000,999.512,-1000.000,-1000.000
1742121644.459,-639.160,883.301,-1000.000,-677.734
1742121644.463,805.664,949.707,-1000.000,740.723
1742121644.467,999.512,927.734,-1000.000,999.512
1742121644.470,907.227,999.512,-1000.000,907.715
1742121644.474,981.934,25.879,-1000.000,980.469
1742121644.478,966.797,-1000.000,-1000.000,967.285
1742121644.482,967.285,-1000.000,-1000.000,967.285
1742121644.486,903.809,-128.906,-1000.000,904.785
1742121644.443,-951.172,-984.863,-984.375,-945.312
1742121644.447,-1000.000,-882.812,-1000.000,-1000.000
1742121644.451,-930.664,447.266,-1000.000,-936.035
1742121644.455,-1000.000,999.512,-1000.000,-1000.000
1742121644.459,-639.160,883.301,-1000.000,-677.734
1742121644.463,805.664,949.707,-1000.000,740.723
1742121644.467,999.512,927.734,-1000.000,999.512
1742121644.470,907.227,999.512,-1000.000,907.715
1742121644.474,981.934,25.879,-1000.000,980.469
1742121644.478,966.797,-1000.000,-1000.000,967.285
1742121644.482,967.285,-1000.000,-1000.000,967.285
1742121644.486,903.809,-128.906,-1000.000,904.785
1742121644.487,999.512,999.512,-1000.000,999.512
1742121644.491,186.523,-300.781,-996.582,181.152
1742121644.495,-1000.000,-1000.000,-1000.000,-1000.000
1742121644.499,-924.805,-935.547,-990.723,-926.758
1742121644.503,-1000.000,-1000.000,-885.742,-1000.000
1742121644.507,-175.781,188.477,-658.691,-148.438
1742121644.511,978.027,999.512,-775.391,982.910
1742121644.514,999.512,999.512,-1000.000,999.512
1742121644.518,313.965,-5.859,-1000.000,359.375
1742121644.522,-1000.000,-1000.000,-900.879,-984.863
1742121644.526,-1000.000,-973.145,-709.473,-1000.000
1742121644.530,-958.008,-930.176,-935.059,-956.055
1742121644.487,999.512,999.512,-1000.000,999.512
1742121644.491,186.523,-300.781,-996.582,181.152
1742121644.495,-1000.000,-1000.000,-1000.000,-1000.000
1742121644.499,-924.805,-935.547,-990.723,-926.758
1742121644.503,-1000.000,-1000.000,-885.742,-1000.000
1742121644.507,-175.781,188.477,-658.691,-148.438
1742121644.511,978.027,999.512,-775.391,982.910
1742121644.514,999.512,999.512,-1000.000,999.512
1742121644.518,313.965,-5.859,-1000.000,359.375
1742121644.522,-1000.000,-1000.000,-900.879,-984.863
1742121644.526,-1000.000,-973.145,-709.473,-1000.000
1742121644.530,-958.008,-930.176,-935.059,-956.055
1742121644.532,-953.613,-1000.000,-1000.000,-952.637
1742121644.536,-1000.000,-765.137,-986.816,-1000.000
1742121644.540,-160.156,538.086,-1000.000,-193.848
1742121644.544,989.746,999.512,-1000.000,996.094
1742121644.548,999.512,464.844,-995.117,999.512
1742121644.552,164.062,-858.398,-1000.000,49.805
1742121644.556,-1000.000,-1000.000,-967.285,-1000.000
1742121644.559,-983.887,-924.316,-825.684,-971.680
1742121644.563,-911.621,-997.559,-741.699,-917.969
1742121644.567,-1000.000,-1000.000,-772.461,-1000.000
1742121644.571,-208.008,149.902,-500.488,-220.703
1742121644.575,999.512,999.512,-144.043,999.512
1742121644.532,-953.613,-1000.000,-1000.000,-952.637
1742121644.536,-1000.000,-765.137,-986.816,-1000.000
1742121644.540,-160.156,538.086,-1000.000,-193.848
1742121644.544,989.746,999.512,-1000.000,996.094
1742121644.548,999.512,464.844,-995.117,999.512
1742121644.552,164.062,-858.398,-1000.000,49.805
1742121644.556,-1000.000,-1000.000,-967.285,-1000.000
1742121644.559,-983.887,-924.316,-825.684,-971.680
1742121644.563,-911.621,-997.559,-741.699,-917.969
1742121644.567,-1000.000,-1000.000,-772.461,-1000.000
1742121644.571,-208.008,149.902,-500.488,-220.703
1742121644.575,999.512,999.512,-144.043,999.512
1742121644.577,881.836,888.672,-344.727,884.277
1742121644.581,999.512,999.512,-526.855,999.512
1742121644.585,239.746,-85.449,-664.551,250.000
1742121644.589,-981.445,-1000.000,-803.223,-976.562
1742121644.593,-1000.000,-1000.000,-691.406,-1000.000
1742121644.597,-371.582,-201.172,-418.457,-405.273
1742121644.601,942.871,999.512,-342.773,951.660
1742121644.604,999.512,945.801,-782.715,999.512
1742121644.608,-194.336,-357.422,-1000.000,-325.684
1742121644.612,-1000.000,-1000.000,-886.230,-1000.000
1742121644.616,-943.359,-870.605,-452.148,-939.453
1742121644.620,-1000.000,-1000.000,-168.945,-1000.000
1742121644.621,-930.664,-412.598,-251.953,-934.570
1742121644.625,-1000.000,942.383,-524.414,-1000.000
1742121644.629,-368.652,918.945,-387.207,-686.035
1742121644.633,937.012,999.512,-50.293,677.246
1742121644.637,987.305,538.086,-244.629,999.512
1742121644.641,921.387,-874.512,-354.492,717.285
1742121644.645,-348.145,-1000.000,-553.223,-590.332
1742121644.648,-1000.000,-931.152,-657.227,-1000.000
1742121644.652,-872.070,-984.375,-329.590,-867.676
1742121644.656,-1000.000,-1000.000,-111.816,-1000.000
1742121644.660,-234.375,-14.648,122.559,-412.109
1742121644.664,996.582,999.512,111.816,955.078
1742121644.667,999.512,702.637,-56.152,999.512
1742121644.671,-65.430,-623.535,-272.461,-242.188
1742121644.675,-1000.000,-1000.000,-443.848,-1000.000
1742121644.679,-883.789,-885.254,-646.484,-928.711
1742121644.683,-1000.000,-1000.000,-1000.000,-964.355
1742121644.687,-600.586,-150.391,-786.133,-1000.000
1742121644.691,748.047,981.934,-225.098,-33.203
1742121644.694,999.512,999.512,-339.355,999.512
1742121644.698,570.801,345.215,-783.691,502.930
1742121644.702,-807.129,-992.188,-988.770,-891.113
1742121644.706,-1000.000,-1000.000,-1000.000,-1000.000
1742121644.710,-876.953,-906.250,-892.090,-875.488
1742121644.667,999.512,702.637,-56.152,999.512
1742121644.671,-65.430,-623.535,-272.461,-242.188
1742121644.675,-1000.000,-1000.000,-443.848,-1000.000
1742121644.679,-883.789,-885.254,-646.484,-928.711
1742121644.683,-1000.000,-1000.000,-1000.000,-964.355
1742121644.687,-600.586,-150.391,-786.133,-1000.000
1742121644.691,748.047,981.934,-225.098,-33.203
1742121644.694,999.512,999.512,-339.355,999.512
1742121644.698,570.801,345.215,-783.691,502.930
1742121644.702,-807.129,-992.188,-988.770,-891.113
1742121644.706,-1000.000,-1000.000,-1000.000,-1000.000
1742121644.710,-876.953,-906.250,-892.090,-875.488
1742121644.727,-1000.000,-1000.000,-693.848,-1000.000
1742121644.731,-220.703,-105.957,-498.535,-363.281
1742121644.735,999.512,999.512,-408.691,979.004
1742121644.739,887.207,993.164,-588.867,917.969
1742121644.743,999.512,743.164,-545.898,999.512
1742121644.747,193.359,-575.684,-354.492,145.508
1742121644.751,-1000.000,-1000.000,-406.738,-1000.000
1742121644.754,-993.164,-941.895,-658.691,-991.699
1742121644.758,-901.855,-948.242,-910.645,-910.645
1742121644.762,-1000.000,-1000.000,-772.949,-1000.000
1742121644.766,-429.199,-236.328,-331.055,-741.699
1742121644.770,953.613,999.512,-128.418,767.578
1742121644.727,-1000.000,-1000.000,-693.848,-1000.000
1742121644.731,-220.703,-105.957,-498.535,-363.281
1742121644.735,999.512,999.512,-408.691,979.004
1742121644.739,887.207,993.164,-588.867,917.969
1742121644.743,999.512,743.164,-545.898,999.512
1742121644.747,193.359,-575.684,-354.492,145.508
1742121644.751,-1000.000,-1000.000,-406.738,-1000.000
1742121644.754,-993.164,-941.895,-658.691,-991.699
1742121644.758,-901.855,-948.242,-910.645,-910.645
1742121644.762,-1000.000,-1000.000,-772.949,-1000.000
1742121644.766,-429.199,-236.328,-331.055,-741.699
1742121644.770,953.613,999.512,-128.418,767.578
1742121644.771,999.512,834.473,-474.121,948.730
1742121644.775,-297.363,-518.555,-911.621,-548.340
1742121644.779,-1000.000,-1000.000,-536.133,-1000.000
1742121644.783,-1000.000,-1000.000,33.691,-953.125
1742121644.787,-620.117,-250.488,216.797,-975.098
1742121644.791,775.391,950.195,204.590,349.609
1742121644.795,973.633,965.332,-121.094,999.512
1742121644.798,999.512,959.961,-83.984,999.512
1742121644.802,161.133,-179.688,-68.848,72.266
1742121644.806,-1000.000,-1000.000,-175.293,-1000.000
1742121644.810,-978.516,-16.113,136.230,-968.262
1742121644.814,-976.562,519.043,-80.078,-983.887
1742121644.771,999.512,834.473,-474.121,948.730
1742121644.775,-297.363,-518.555,-911.621,-548.340
1742121644.779,-1000.000,-1000.000,-536.133,-1000.000
1742121644.783,-1000.000,-1000.000,33.691,-953.125
1742121644.787,-620.117,-250.488,216.797,-975.098
1742121644.791,775.391,950.195,204.590,349.609
1742121644.795,973.633,965.332,-121.094,999.512
1742121644.798,999.512,959.961,-83.984,999.512
1742121644.802,161.133,-179.688,-68.848,72.266
1742121644.806,-1000.000,-1000.000,-175.293,-1000.000
1742121644.810,-978.516,-16.113,136.230,-968.262
1742121644.814,-976.562,519.043,-80.078,-983.887
1742121644.832,-943.359,-938.477,-288.574,-940.430
1742121644.836,-1000.000,-1000.000,55.176,-1000.000
1742121644.840,-291.016,-8.301,415.527,-312.500
1742121644.844,999.512,999.512,308.594,999.512
1742121644.848,368.164,284.180,-427.246,277.344
1742121644.852,-1000.000,-1000.000,-835.449,-1000.000
1742121644.856,-1000.000,-1000.000,-641.602,-994.141
1742121644.859,-958.984,-959.961,-685.059,-964.844
1742121644.863,-1000.000,-952.637,-890.625,-1000.000
1742121644.867,-953.613,-1000.000,-987.305,-936.523
1742121644.871,-1000.000,-176.270,-1000.000,-1000.000
1742121644.875,-57.129,999.512,-800.781,-221.191
1742121644.832,-943.359,-938.477,-288.574,-940.430
1742121644.836,-1000.000,-1000.000,55.176,-1000.000
1742121644.840,-291.016,-8.301,415.527,-312.500
1742121644.844,999.512,999.512,308.594,999.512
1742121644.848,368.164,284.180,-427.246,277.344
1742121644.852,-1000.000,-1000.000,-835.449,-1000.000
1742121644.856,-1000.000,-1000.000,-641.602,-994.141
1742121644.859,-958.984,-959.961,-685.059,-964.844
1742121644.863,-1000.000,-952.637,-890.625,-1000.000
1742121644.867,-953.613,-1000.000,-987.305,-936.523
1742121644.871,-1000.000,-176.270,-1000.000,-1000.000
1742121644.875,-57.129,999.512,-800.781,-221.191
1742121644.861,999.512,874.512,-522.949,976.562
1742121644.865,966.797,999.512,-622.070,999.512
1742121644.869,852.051,436.035,-643.555,733.887
1742121644.873,-415.527,-889.648,-620.117,-564.453
1742121644.877,-1000.000,-1000.000,-538.574,-1000.000
1742121644.881,-573.730,-202.148,-99.609,-781.738
1742121644.885,733.887,972.168,333.008,506.836
1742121644.888,999.512,999.512,-47.363,999.512
1742121644.892,80.078,-7.812,-695.312,-50.293
1742121644.896,-1000.000,-1000.000,-579.590,-1000.000
1742121644.900,-930.176,-901.855,-221.680,-956.543
1742121644.904,-1000.000,-1000.000,-219.238,-933.105
1742121644.861,999.512,874.512,-522.949,976.562
1742121644.865,966.797,999.512,-622.070,999.512
1742121644.869,852.051,436.035,-643.555,733.887
1742121644.873,-415.527,-889.648,-620.117,-564.453
1742121644.877,-1000.000,-1000.000,-538.574,-1000.000
1742121644.881,-573.730,-202.148,-99.609,-781.738
1742121644.885,733.887,972.168,333.008,506.836
1742121644.888,999.512,999.512,-47.363,999.512
1742121644.892,80.078,-7.812,-695.312,-50.293
1742121644.896,-1000.000,-1000.000,-579.590,-1000.000
1742121644.900,-930.176,-901.855,-221.680,-956.543
1742121644.904,-1000.000,-1000.000,-219.238,-933.105
1742121644.861,999.512,874.512,-522.949,976.562
1742121644.865,966.797,999.512,-622.070,999.512
1742121644.869,852.051,436.035,-643.555,733.887
1742121644.873,-415.527,-889.648,-620.117,-564.453
1742121644.877,-1000.000,-1000.000,-538.574,-1000.000
1742121644.881,-573.730,-202.148,-99.609,-781.738
1742121644.885,733.887,972.168,333.008,506.836
1742121644.888,999.512,999.512,-47.363,999.512
1742121644.892,80.078,-7.812,-695.312,-50.293
1742121644.896,-1000.000,-1000.000,-579.590,-1000.000
1742121644.900,-930.176,-901.855,-221.680,-956.543
1742121644.904,-1000.000,-1000.000,-219.238,-933.105
1742121644.907,-915.039,-270.508,-66.895,-1000.000
1742121644.911,448.730,999.512,160.645,-111.328
1742121644.915,999.512,892.090,481.934,999.512
1742121644.919,873.047,999.512,780.762,903.320
1742121644.923,962.891,362.305,699.219,949.707
1742121644.927,999.512,-1000.000,448.242,976.074
1742121644.931,-238.770,-1000.000,124.023,-303.711
1742121644.934,-1000.000,-937.012,17.578,-1000.000
1742121644.938,-873.535,-992.188,57.617,-872.070
1742121644.942,-1000.000,-1000.000,86.914,-1000.000
1742121644.946,-255.371,120.117,217.773,-320.312
1742121644.950,999.512,999.512,222.168,999.512
1742121644.907,-915.039,-270.508,-66.895,-1000.000
1742121644.911,448.730,999.512,160.645,-111.328
1742121644.915,999.512,892.090,481.934,999.512
1742121644.919,873.047,999.512,780.762,903.320
1742121644.923,962.891,362.305,699.219,949.707
1742121644.927,999.512,-1000.000,448.242,976.074
1742121644.931,-238.770,-1000.000,124.023,-303.711
1742121644.934,-1000.000,-937.012,17.578,-1000.000
1742121644.938,-873.535,-992.188,57.617,-872.070
1742121644.942,-1000.000,-1000.000,86.914,-1000.000
1742121644.946,-255.371,120.117,217.773,-320.312
1742121644.950,999.512,999.512,222.168,999.512
1742121644.952,956.055,878.906,159.668,971.680
1742121644.956,873.535,877.441,254.395,864.746
1742121644.960,999.512,999.512,419.922,999.512
1742121644.964,186.035,163.086,26.367,257.324
1742121644.968,-1000.000,-1000.000,-508.789,-990.234
1742121644.972,-1000.000,-603.516,-231.445,-1000.000
1742121644.976,-211.914,730.469,371.094,-140.625
1742121644.979,998.047,999.512,450.684,994.629
1742121644.983,999.512,548.340,43.457,999.512
1742121644.987,-133.789,-810.059,-343.262,2.930
1742121644.991,-1000.000,-989.746,-98.633,-1000.000
1742121644.995,-1000.000,-1000.000,238.770,-1000.000
1742121644.952,956.055,878.906,159.668,971.680
1742121644.956,873.535,877.441,254.395,864.746
1742121644.960,999.512,999.512,419.922,999.512
1742121644.964,186.035,163.086,26.367,257.324
1742121644.968,-1000.000,-1000.000,-508.789,-990.234
1742121644.972,-1000.000,-603.516,-231.445,-1000.000
1742121644.976,-211.914,730.469,371.094,-140.625
1742121644.979,998.047,999.512,450.684,994.629
1742121644.983,999.512,548.340,43.457,999.512
1742121644.987,-133.789,-810.059,-343.262,2.930
1742121644.991,-1000.000,-989.746,-98.633,-1000.000
1742121644.995,-1000.000,-1000.000,238.770,-1000.000
1742121644.996,-362.793,-463.379,241.699,-231.445
1742121645.000,980.469,957.031,390.625,999.512
1742121645.004,975.098,907.715,226.562,955.566
1742121645.008,927.246,999.512,17.090,937.500
1742121645.012,978.027,443.359,157.715,979.980
1742121645.016,903.320,-603.516,402.832,898.926
1742121645.020,999.512,837.891,533.691,999.512
1742121645.023,182.617,268.066,1.465,270.996
1742121645.027,-1000.000,-1000.000,-274.414,-995.605
1742121645.031,-954.102,-950.684,52.734,-1000.000
1742121645.035,-1000.000,-1000.000,142.578,-889.648
1742121645.039,85.938,172.363,89.355,381.348
1742121644.996,-362.793,-463.379,241.699,-231.445
1742121645.000,980.469,957.031,390.625,999.512
1742121645.004,975.098,907.715,226.562,955.566
1742121645.008,927.246,999.512,17.090,937.500
1742121645.012,978.027,443.359,157.715,979.980
1742121645.016,903.320,-603.516,402.832,898.926
1742121645.020,999.512,837.891,533.691,999.512
1742121645.023,182.617,268.066,1.465,270.996
1742121645.027,-1000.000,-1000.000,-274.414,-995.605
1742121645.031,-954.102,-950.684,52.734,-1000.000
1742121645.035,-1000.000,-1000.000,142.578,-889.648
1742121645.039,85.938,172.363,89.355,381.348
1742121645.041,999.512,999.512,-119.629,999.512
1742121645.045,922.363,918.945,-327.148,906.738
1742121645.049,917.969,894.531,-104.980,969.238
1742121645.053,992.676,999.512,122.070,909.180
1742121645.057,908.691,441.406,14.648,999.512
1742121645.061,-437.500,-951.660,-287.598,153.809
1742121645.065,-1000.000,-968.750,-329.590,-1000.000
1742121645.068,-1000.000,-1000.000,-134.277,-1000.000
1742121645.072,-211.914,-211.426,47.852,72.266
1742121645.076,999.512,971.680,53.223,999.512
1742121645.080,947.754,999.512,-305.664,923.340
1742121645.084,939.941,406.250,-491.699,956.543
1742121645.041,999.512,999.512,-119.629,999.512
1742121645.045,922.363,918.945,-327.148,906.738
1742121645.049,917.969,894.531,-104.980,969.238
1742121645.053,992.676,999.512,122.070,909.180
1742121645.057,908.691,441.406,14.648,999.512
1742121645.061,-437.500,-951.660,-287.598,153.809
1742121645.065,-1000.000,-968.750,-329.590,-1000.000
1742121645.068,-1000.000,-1000.000,-134.277,-1000.000
1742121645.072,-211.914,-211.426,47.852,72.266
1742121645.076,999.512,971.680,53.223,999.512
1742121645.080,947.754,999.512,-305.664,923.340
1742121645.084,939.941,406.250,-491.699,956.543
1742121645.086,972.656,-1000.000,-34.668,969.727
1742121645.090,966.797,-642.090,502.930,971.680
1742121645.094,903.320,787.598,766.602,899.902
1742121645.098,999.512,999.512,507.812,999.512
1742121645.102,186.523,-7.324,-35.645,289.062
1742121645.106,-1000.000,-1000.000,58.105,-1000.000
1742121645.110,-1000.000,-1000.000,207.520,-1000.000
1742121645.113,-185.547,-180.176,157.227,116.211
1742121645.117,999.512,999.512,-46.875,999.512
1742121645.121,948.730,947.266,-339.355,921.875
1742121645.125,949.219,955.078,-224.609,960.449
1742121645.129,934.570,912.598,43.457,958.008
1742121645.086,972.656,-1000.000,-34.668,969.727
1742121645.090,966.797,-642.090,502.930,971.680
1742121645.094,903.320,787.598,766.602,899.902
1742121645.098,999.512,999.512,507.812,999.512
1742121645.102,186.523,-7.324,-35.645,289.062
1742121645.106,-1000.000,-1000.000,58.105,-1000.000
1742121645.110,-1000.000,-1000.000,207.520,-1000.000
1742121645.113,-185.547,-180.176,157.227,116.211
1742121645.117,999.512,999.512,-46.875,999.512
1742121645.121,948.730,947.266,-339.355,921.875
1742121645.125,949.219,955.078,-224.609,960.449
1742121645.129,934.570,912.598,43.457,958.008
1742121645.132,977.051,999.512,329.102,922.852
1742121645.136,942.871,710.449,121.094,999.512
1742121645.140,-293.457,-614.746,-568.359,72.754
1742121645.144,-1000.000,-1000.000,-699.219,-1000.000
1742121645.148,-627.930,-587.402,-248.047,-443.359
1742121645.152,747.559,764.160,235.352,930.176
1742121645.156,999.512,994.629,360.352,995.605
1742121645.159,904.297,997.559,236.816,918.457
1742121645.163,981.934,15.137,165.527,980.469
1742121645.167,966.309,-1000.000,223.633,966.797
1742121645.171,966.309,-919.434,410.156,966.797
1742121645.175,966.309,343.262,263.184,966.797
1742121645.132,977.051,999.512,329.102,922.852
1742121645.136,942.871,710.449,121.094,999.512
1742121645.140,-293.457,-614.746,-568.359,72.754
1742121645.144,-1000.000,-1000.000,-699.219,-1000.000
1742121645.148,-627.930,-587.402,-248.047,-443.359
1742121645.152,747.559,764.160,235.352,930.176
1742121645.156,999.512,994.629,360.352,995.605
1742121645.159,904.297,997.559,236.816,918.457
1742121645.163,981.934,15.137,165.527,980.469
1742121645.167,966.309,-1000.000,223.633,966.797
1742121645.171,966.309,-919.434,410.156,966.797
1742121645.175,966.309,343.262,263.184,966.797
1742121645.192,966.309,999.512,-98.633,966.797
1742121645.196,968.262,908.691,75.195,978.027
1742121645.200,901.855,904.785,462.402,894.531
1742121645.204,999.512,999.512,711.914,999.512
1742121645.208,213.867,169.922,523.438,422.363
1742121645.212,-1000.000,-1000.000,-281.738,-970.703
1742121645.216,-995.605,-984.375,-638.672,-1000.000
1742121645.219,-900.879,-909.668,-664.062,-886.230
1742121645.223,-1000.000,-1000.000,-730.957,-1000.000
1742121645.227,-346.191,-254.395,-395.996,-309.082
1742121645.231,991.699,999.512,-4.395,999.512
1742121645.235,972.656,967.773,-59.570,965.820
1742121645.192,966.309,999.512,-98.633,966.797
1742121645.196,968.262,908.691,75.195,978.027
1742121645.200,901.855,904.785,462.402,894.531
1742121645.204,999.512,999.512,711.914,999.512
1742121645.208,213.867,169.922,523.438,422.363
1742121645.212,-1000.000,-1000.000,-281.738,-970.703
1742121645.216,-995.605,-984.375,-638.672,-1000.000
1742121645.219,-900.879,-909.668,-664.062,-886.230
1742121645.223,-1000.000,-1000.000,-730.957,-1000.000
1742121645.227,-346.191,-254.395,-395.996,-309.082
1742121645.231,991.699,999.512,-4.395,999.512
1742121645.235,972.656,967.773,-59.570,965.820
1742121645.237,918.457,870.605,15.137,930.664
1742121645.241,930.664,999.512,-11.719,916.992
1742121645.245,999.512,539.062,-106.445,999.512
1742121645.249,36.133,-777.344,-400.879,175.293
1742121645.253,-1000.000,-1000.000,-709.961,-1000.000
1742121645.257,-1000.000,-331.543,-254.395,-1000.000
1742121645.261,72.266,880.859,370.117,145.020
1742121645.264,999.512,999.512,367.676,999.512
1742121645.268,488.281,294.434,-246.094,524.414
1742121645.272,-904.297,-1000.000,-762.207,-857.910
1742121645.276,-1000.000,-1000.000,-390.625,-1000.000
1742121645.280,-932.129,-890.137,-113.770,-950.195
1742121645.237,918.457,870.605,15.137,930.664
1742121645.241,930.664,999.512,-11.719,916.992
1742121645.245,999.512,539.062,-106.445,999.512
1742121645.249,36.133,-777.344,-400.879,175.293
1742121645.253,-1000.000,-1000.000,-709.961,-1000.000
1742121645.257,-1000.000,-331.543,-254.395,-1000.000
1742121645.261,72.266,880.859,370.117,145.020
1742121645.264,999.512,999.512,367.676,999.512
1742121645.268,488.281,294.434,-246.094,524.414
1742121645.272,-904.297,-1000.000,-762.207,-857.910
1742121645.276,-1000.000,-1000.000,-390.625,-1000.000
1742121645.280,-932.129,-890.137,-113.770,-950.195
1742121645.282,-974.609,-1000.000,-162.598,-946.289
1742121645.286,-1000.000,-419.434,-190.918,-1000.000
1742121645.290,-34.668,942.871,-128.418,-359.375
1742121645.294,999.512,999.512,242.676,990.234
1742121645.298,907.227,835.938,352.051,939.941
1742121645.302,925.293,851.074,354.980,933.594
1742121645.306,999.512,999.512,406.738,974.609
1742121645.309,-151.855,-174.316,-259.277,-323.242
1742121645.313,-1000.000,-1000.000,-652.344,-1000.000
1742121645.317,-954.102,-911.621,-300.293,-939.453
1742121645.321,-929.688,-998.535,117.676,-1000.000
1742121645.325,-1000.000,-988.770,246.094,-938.965
1742121645.282,-974.609,-1000.000,-162.598,-946.289
1742121645.286,-1000.000,-419.434,-190.918,-1000.000
1742121645.290,-34.668,942.871,-128.418,-359.375
1742121645.294,999.512,999.512,242.676,990.234
1742121645.298,907.227,835.938,352.051,939.941
1742121645.302,925.293,851.074,354.980,933.594
1742121645.306,999.512,999.512,406.738,974.609
1742121645.309,-151.855,-174.316,-259.277,-323.242
1742121645.313,-1000.000,-1000.000,-652.344,-1000.000
1742121645.317,-954.102,-911.621,-300.293,-939.453
1742121645.321,-929.688,-998.535,117.676,-1000.000
1742121645.325,-1000.000,-988.770,246.094,-938.965
1742121645.326,-525.879,236.328,-46.387,-1000.000
1742121645.330,870.605,999.512,-88.867,-203.613
1742121645.334,933.105,845.703,158.203,965.820
1742121645.338,999.512,999.512,-7.812,999.512
1742121645.342,438.477,310.547,-569.824,358.887
1742121645.346,-897.949,-964.355,-929.199,-964.844
1742121645.350,-1000.000,-1000.000,-442.383,-986.816
1742121645.353,-609.863,-169.434,106.445,-1000.000
1742121645.357,692.871,967.773,416.016,-30.273
1742121645.361,999.512,999.512,615.723,999.512
1742121645.365,127.930,160.645,35.645,117.188
1742121645.369,-1000.000,-1000.000,-494.629,-1000.000
1742121645.373,-983.887,-914.551,-582.031,-978.027
1742121645.377,-973.145,-1000.000,-487.793,-975.098
1742121645.381,-1000.000,-477.539,-396.484,-1000.000
1742121645.385,-937.500,909.180,-505.859,-1000.000
1742121645.389,-1000.000,996.582,-535.645,-1000.000
1742121645.393,-294.434,859.863,-266.602,-1000.000
1742121645.397,999.512,999.512,-138.672,-1000.000
1742121645.400,325.195,164.062,-449.707,-1000.000
1742121645.404,-1000.000,-1000.000,-840.332,-1000.000
1742121645.408,-938.965,-925.293,-973.633,-1000.000
1742121645.412,-1000.000,-1000.000,-749.023,-1000.000
1742121645.416,-255.859,-152.344,-626.953,-1000.000
1742121645.373,-983.887,-914.551,-582.031,-978.027
1742121645.377,-973.145,-1000.000,-487.793,-975.098
1742121645.381,-1000.000,-477.539,-396.484,-1000.000
1742121645.385,-937.500,909.180,-505.859,-1000.000
1742121645.389,-1000.000,996.582,-535.645,-1000.000
1742121645.393,-294.434,859.863,-266.602,-1000.000
1742121645.397,999.512,999.512,-138.672,-1000.000
1742121645.400,325.195,164.062,-449.707,-1000.000
1742121645.404,-1000.000,-1000.000,-840.332,-1000.000
1742121645.408,-938.965,-925.293,-973.633,-1000.000
1742121645.412,-1000.000,-1000.000,-749.023,-1000.000
1742121645.416,-255.859,-152.344,-626.953,-1000.000
1742121645.418,956.055,984.375,-664.062,-1000.000
1742121645.422,999.512,999.512,-645.020,-1000.000
1742121645.426,297.363,258.301,-858.398,-1000.000
1742121645.430,-940.918,-979.004,-1000.000,-1000.000
1742121645.434,-1000.000,-1000.000,-979.004,-1000.000
1742121645.438,-327.637,-166.504,-796.387,-1000.000
1742121645.442,999.512,999.512,-837.402,-1000.000
1742121645.445,803.223,625.977,-1000.000,-1000.000
1742121645.449,-634.766,-795.410,-997.070,-1000.000
1742121645.453,-1000.000,-1000.000,-997.070,-1000.000
1742121645.457,-947.754,-949.219,-1000.000,-1000.000
1742121645.461,-958.984,-943.848,-993.164,-1000.000
1742121645.418,956.055,984.375,-664.062,-1000.000
1742121645.422,999.512,999.512,-645.020,-1000.000
1742121645.426,297.363,258.301,-858.398,-1000.000
1742121645.430,-940.918,-979.004,-1000.000,-1000.000
1742121645.434,-1000.000,-1000.000,-979.004,-1000.000
1742121645.438,-327.637,-166.504,-796.387,-1000.000
1742121645.442,999.512,999.512,-837.402,-1000.000
1742121645.445,803.223,625.977,-1000.000,-1000.000
1742121645.449,-634.766,-795.410,-997.070,-1000.000
1742121645.453,-1000.000,-1000.000,-997.070,-1000.000
1742121645.457,-947.754,-949.219,-1000.000,-1000.000
1742121645.461,-958.984,-943.848,-993.164,-1000.000
1742121645.461,-1000.000,-1000.000,-1000.000,-1000.000
1742121645.465,-848.633,-403.809,-962.891,-1000.000
1742121645.469,463.379,892.578,-762.207,-1000.000
1742121645.473,999.512,999.512,-644.043,-1000.000
1742121645.477,298.340,191.895,-824.707,-1000.000
1742121645.481,-992.188,-1000.000,-1000.000,-1000.000
1742121645.485,-1000.000,-964.355,-1000.000,-1000.000
1742121645.488,-905.273,-968.262,-877.930,-1000.000
1742121645.492,-1000.000,-959.961,-729.004,-1000.000
1742121645.496,-120.117,234.863,-650.879,-1000.000
1742121645.500,999.512,999.512,-638.184,-1000.000
1742121645.504,937.012,896.973,-790.527,-1000.000
1742121645.461,-1000.000,-1000.000,-1000.000,-1000.000
1742121645.465,-848.633,-403.809,-962.891,-1000.000
1742121645.469,463.379,892.578,-762.207,-1000.000
1742121645.473,999.512,999.512,-644.043,-1000.000
1742121645.477,298.340,191.895,-824.707,-1000.000
1742121645.481,-992.188,-1000.000,-1000.000,-1000.000
1742121645.485,-1000.000,-964.355,-1000.000,-1000.000
1742121645.488,-905.273,-968.262,-877.930,-1000.000
1742121645.492,-1000.000,-959.961,-729.004,-1000.000
1742121645.496,-120.117,234.863,-650.879,-1000.000
1742121645.500,999.512,999.512,-638.184,-1000.000
1742121645.504,937.012,896.973,-790.527,-1000.000
1742121645.521,883.789,946.777,-647.949,-1000.000
1742121645.525,999.512,999.512,-516.113,-1000.000
1742121645.529,191.406,-154.785,-669.922,-1000.000
1742121645.533,-1000.000,-1000.000,-816.895,-1000.000
1742121645.537,-1000.000,-1000.000,-608.398,-1000.000
1742121645.541,-99.121,-35.156,74.219,-1000.000
1742121645.545,978.027,999.512,427.246,-1000.000
1742121645.548,999.512,999.512,278.320,-1000.000
1742121645.552,393.066,214.355,-71.777,-1000.000
1742121645.556,-976.074,-1000.000,-387.207,-1000.000
1742121645.560,-959.473,-928.711,-23.438,-1000.000
1742121645.564,-1000.000,-1000.000,314.453,-1000.000
1742121645.521,883.789,946.777,-647.949,-1000.000
1742121645.525,999.512,999.512,-516.113,-1000.000
1742121645.529,191.406,-154.785,-669.922,-1000.000
1742121645.533,-1000.000,-1000.000,-816.895,-1000.000
1742121645.537,-1000.000,-1000.000,-608.398,-1000.000
1742121645.541,-99.121,-35.156,74.219,-1000.000
1742121645.545,978.027,999.512,427.246,-1000.000
1742121645.548,999.512,999.512,278.320,-1000.000
1742121645.552,393.066,214.355,-71.777,-1000.000
1742121645.556,-976.074,-1000.000,-387.207,-1000.000
1742121645.560,-959.473,-928.711,-23.438,-1000.000
1742121645.564,-1000.000,-1000.000,314.453,-1000.000
1742121645.567,-263.184,-219.727,346.191,-1000.000
1742121645.571,999.512,999.512,296.875,-1000.000
1742121645.575,917.480,878.418,125.000,-1000.000
1742121645.579,948.242,999.512,125.000,-1000.000
1742121645.583,955.566,393.066,275.391,-1000.000
1742121645.587,-370.605,-993.652,390.625,-1000.000
1742121645.591,-1000.000,-949.707,84.961,-994.141
1742121645.594,-1000.000,-1000.000,-385.742,-948.730
1742121645.598,-665.039,-380.859,-215.820,-1000.000
1742121645.602,797.363,984.375,341.797,-100.586
1742121645.606,963.379,907.227,703.613,987.793
1742121645.610,999.512,999.512,576.172,999.512
1742121645.567,-263.184,-219.727,346.191,-1000.000
1742121645.571,999.512,999.512,296.875,-1000.000
1742121645.575,917.480,878.418,125.000,-1000.000
1742121645.579,948.242,999.512,125.000,-1000.000
1742121645.583,955.566,393.066,275.391,-1000.000
1742121645.587,-370.605,-993.652,390.625,-1000.000
1742121645.591,-1000.000,-949.707,84.961,-994.141
1742121645.594,-1000.000,-1000.000,-385.742,-948.730
1742121645.598,-665.039,-380.859,-215.820,-1000.000
1742121645.602,797.363,984.375,341.797,-100.586
1742121645.606,963.379,907.227,703.613,987.793
1742121645.610,999.512,999.512,576.172,999.512
1742121645.611,653.320,323.242,279.297,531.250
1742121645.615,-796.387,-966.309,322.754,-861.328
1742121645.619,-1000.000,-1000.000,541.504,-1000.000
1742121645.623,-1000.000,-784.180,575.195,-1000.000
1742121645.627,-43.945,531.738,541.992,-88.867
1742121645.631,999.512,999.512,432.617,999.512
1742121645.635,930.664,845.703,537.109,932.617
1742121645.638,926.270,999.512,815.918,944.336
1742121645.642,956.055,158.691,712.402,917.969
1742121645.646,999.512,-1000.000,438.965,999.512
1742121645.650,-215.820,-976.074,231.445,89.355
1742121645.654,-1000.000,-919.434,453.125,-1000.000
1742121645.611,653.320,323.242,279.297,531.250
1742121645.615,-796.387,-966.309,322.754,-861.328
1742121645.619,-1000.000,-1000.000,541.504,-1000.000
1742121645.623,-1000.000,-784.180,575.195,-1000.000
1742121645.627,-43.945,531.738,541.992,-88.867
1742121645.631,999.512,999.512,432.617,999.512
1742121645.635,930.664,845.703,537.109,932.617
1742121645.638,926.270,999.512,815.918,944.336
1742121645.642,956.055,158.691,712.402,917.969
1742121645.646,999.512,-1000.000,438.965,999.512
1742121645.650,-215.820,-976.074,231.445,89.355
1742121645.654,-1000.000,-919.434,453.125,-1000.000
1742121645.658,-1000.000,-1000.000,727.539,-1000.000
1742121645.662,-197.266,-142.090,828.613,-33.691
1742121645.666,999.512,999.512,899.902,999.512
1742121645.670,946.777,943.359,614.258,930.664
1742121645.674,941.406,930.176,617.676,963.379
1742121645.678,909.668,935.547,873.535,900.391
1742121645.682,999.512,999.512,999.512,999.512
1742121645.685,211.914,-26.367,512.207,546.387
1742121645.689,-1000.000,-1000.000,-224.609,-942.383
1742121645.693,-1000.000,-1000.000,229.492,-942.383
1742121645.697,183.594,193.359,953.125,508.789
1742121645.701,999.512,999.512,987.305,999.512
1742121645.658,-1000.000,-1000.000,727.539,-1000.000
1742121645.662,-197.266,-142.090,828.613,-33.691
1742121645.666,999.512,999.512,899.902,999.512
1742121645.670,946.777,943.359,614.258,930.664
1742121645.674,941.406,930.176,617.676,963.379
1742121645.678,909.668,935.547,873.535,900.391
1742121645.682,999.512,999.512,999.512,999.512
1742121645.685,211.914,-26.367,512.207,546.387
1742121645.689,-1000.000,-1000.000,-224.609,-942.383
1742121645.693,-1000.000,-1000.000,229.492,-942.383
1742121645.697,183.594,193.359,953.125,508.789
1742121645.701,999.512,999.512,987.305,999.512
1742121645.702,878.418,843.262,840.820,902.832
1742121645.706,952.148,999.512,668.945,975.586
1742121645.710,999.512,652.344,545.898,966.797
1742121645.714,-168.945,-718.750,397.949,966.797
1742121645.718,-1000.000,-1000.000,672.363,967.285
1742121645.722,-144.043,-12.695,989.746,967.285
1742121645.726,981.934,999.512,813.477,966.797
1742121645.729,999.512,994.629,558.594,966.797
1742121645.733,131.348,-176.758,445.312,966.797
1742121645.737,-1000.000,-1000.000,512.695,966.797
1742121645.741,-928.223,-880.371,604.492,967.285
1742121645.745,-1000.000,-1000.000,327.148,966.797
1742121645.702,878.418,843.262,840.820,902.832
1742121645.706,952.148,999.512,668.945,975.586
1742121645.710,999.512,652.344,545.898,966.797
1742121645.714,-168.945,-718.750,397.949,966.797
1742121645.718,-1000.000,-1000.000,672.363,967.285
1742121645.722,-144.043,-12.695,989.746,967.285
1742121645.726,981.934,999.512,813.477,966.797
1742121645.729,999.512,994.629,558.594,966.797
1742121645.733,131.348,-176.758,445.312,966.797
1742121645.737,-1000.000,-1000.000,512.695,966.797
1742121645.741,-928.223,-880.371,604.492,967.285
1742121645.745,-1000.000,-1000.000,327.148,966.797
1742121645.747,-883.789,-361.328,194.824,966.797
1742121645.751,507.812,976.074,506.836,966.797
1742121645.755,999.512,969.727,632.324,967.285
1742121645.759,911.133,960.938,502.441,966.797
1742121645.763,934.082,846.191,344.238,966.797
1742121645.767,989.258,964.844,251.465,966.797
1742121645.771,919.922,651.367,413.574,966.797
1742121645.774,-429.199,-789.062,279.785,966.797
1742121645.778,-1000.000,-1000.000,122.070,966.797
1742121645.782,-898.926,-969.238,141.602,966.797
1742121645.786,-1000.000,-932.129,286.621,966.797
1742121645.790,45.410,407.715,622.559,966.797
1742121645.747,-883.789,-361.328,194.824,966.797
1742121645.751,507.812,976.074,506.836,966.797
1742121645.755,999.512,969.727,632.324,967.285
1742121645.759,911.133,960.938,502.441,966.797
1742121645.763,934.082,846.191,344.238,966.797
1742121645.767,989.258,964.844,251.465,966.797
1742121645.771,919.922,651.367,413.574,966.797
1742121645.774,-429.199,-789.062,279.785,966.797
1742121645.778,-1000.000,-1000.000,122.070,966.797
1742121645.782,-898.926,-969.238,141.602,966.797
1742121645.786,-1000.000,-932.129,286.621,966.797
1742121645.790,45.410,407.715,622.559,966.797
1742121645.792,999.512,999.512,859.863,967.285
1742121645.796,853.516,851.074,832.031,966.797
1742121645.800,999.512,999.512,539.551,966.797
1742121645.804,257.812,172.852,140.625,966.797
1742121645.808,-1000.000,-1000.000,0.000,967.285
1742121645.812,-321.777,-190.430,472.656,967.285
1742121645.816,951.172,995.605,790.039,967.285
1742121645.819,999.512,999.512,480.469,967.285
1742121645.823,238.770,197.266,-130.371,966.797
1742121645.827,-1000.000,-1000.000,-313.477,966.797
1742121645.831,-936.035,-940.918,133.789,966.797
1742121645.835,-1000.000,-1000.000,208.984,967.285
1742121645.792,999.512,999.512,859.863,967.285
1742121645.796,853.516,851.074,832.031,966.797
1742121645.800,999.512,999.512,539.551,966.797
1742121645.804,257.812,172.852,140.625,966.797
1742121645.808,-1000.000,-1000.000,0.000,967.285
1742121645.812,-321.777,-190.430,472.656,967.285
1742121645.816,951.172,995.605,790.039,967.285
1742121645.819,999.512,999.512,480.469,967.285
1742121645.823,238.770,197.266,-130.371,966.797
1742121645.827,-1000.000,-1000.000,-313.477,966.797
1742121645.831,-936.035,-940.918,133.789,966.797
1742121645.835,-1000.000,-1000.000,208.984,967.285
1742121645.836,-229.980,-106.445,224.121,966.797
1742121645.840,999.512,999.512,218.750,966.797
1742121645.844,890.625,866.211,210.449,966.797
1742121645.848,999.512,999.512,312.500,966.797
1742121645.852,756.348,349.121,250.977,966.797
1742121645.856,-671.387,-1000.000,299.316,966.797
1742121645.860,-1000.000,-939.453,217.285,966.797
1742121645.863,-1000.000,-1000.000,236.816,967.285
1742121645.867,-383.301,-416.504,742.676,967.285
1742121645.871,983.398,947.754,940.430,966.797
1742121645.875,909.180,950.195,720.215,966.797
1742121645.879,999.512,999.512,555.176,966.797
1742121645.836,-229.980,-106.445,224.121,966.797
1742121645.840,999.512,999.512,218.750,966.797
1742121645.844,890.625,866.211,210.449,966.797
1742121645.848,999.512,999.512,312.500,966.797
1742121645.852,756.348,349.121,250.977,966.797
1742121645.856,-671.387,-1000.000,299.316,966.797
1742121645.860,-1000.000,-939.453,217.285,966.797
1742121645.863,-1000.000,-1000.000,236.816,967.285
1742121645.867,-383.301,-416.504,742.676,967.285
1742121645.871,983.398,947.754,940.430,966.797
1742121645.875,909.180,950.195,720.215,966.797
1742121645.879,999.512,999.512,555.176,966.797
1742121645.896,262.207,-37.109,682.129,966.797
1742121645.900,-1000.000,-1000.000,908.203,966.797
1742121645.904,-931.641,-940.918,896.484,966.797
1742121645.908,-1000.000,-1000.000,727.539,966.797
1742121645.912,-672.363,77.148,420.410,966.797
1742121645.916,699.219,999.512,401.367,966.797
1742121645.920,999.512,946.777,616.211,966.797
1742121645.923,947.754,923.340,305.176,966.797
1742121645.927,-256.348,-381.348,-286.621,966.797
1742121645.931,-1000.000,-1000.000,-635.254,966.797
1742121645.935,-1000.000,-1000.000,-561.523,966.797
1742121645.939,-220.703,-94.238,57.129,967.285
1742121645.896,262.207,-37.109,682.129,966.797
1742121645.900,-1000.000,-1000.000,908.203,966.797
1742121645.904,-931.641,-940.918,896.484,966.797
1742121645.908,-1000.000,-1000.000,727.539,966.797
1742121645.912,-672.363,77.148,420.410,966.797
1742121645.916,699.219,999.512,401.367,966.797
1742121645.920,999.512,946.777,616.211,966.797
1742121645.923,947.754,923.340,305.176,966.797
1742121645.927,-256.348,-381.348,-286.621,966.797
1742121645.931,-1000.000,-1000.000,-635.254,966.797
1742121645.935,-1000.000,-1000.000,-561.523,966.797
1742121645.939,-220.703,-94.238,57.129,967.285
1742121645.941,999.512,986.816,147.949,967.285
1742121645.945,905.762,829.102,-131.836,904.785
1742121645.949,999.512,999.512,-32.715,999.512
1742121645.953,32.715,-79.590,-241.699,230.469
1742121645.957,-1000.000,-1000.000,-384.277,-1000.000
1742121645.961,-995.605,-617.188,-15.137,-863.770
1742121645.965,263.672,673.828,278.809,516.602
1742121645.968,999.512,999.512,-62.012,999.512
1742121645.972,912.598,227.051,-171.875,915.039
1742121645.976,897.461,-1000.000,384.766,924.316
1742121645.980,999.512,-1000.000,621.094,999.512
1742121645.984,403.320,-948.730,414.062,825.684
1742121645.941,999.512,986.816,147.949,967.285
1742121645.945,905.762,829.102,-131.836,904.785
1742121645.949,999.512,999.512,-32.715,999.512
1742121645.953,32.715,-79.590,-241.699,230.469
1742121645.957,-1000.000,-1000.000,-384.277,-1000.000
1742121645.961,-995.605,-617.188,-15.137,-863.770
1742121645.965,263.672,673.828,278.809,516.602
1742121645.968,999.512,999.512,-62.012,999.512
1742121645.972,912.598,227.051,-171.875,915.039
1742121645.976,897.461,-1000.000,384.766,924.316
1742121645.980,999.512,-1000.000,621.094,999.512
1742121645.984,403.320,-948.730,414.062,825.684
1742121645.987,-991.211,-976.562,-171.387,-570.312
1742121645.991,-968.750,-1000.000,-464.355,-1000.000
1742121645.995,-1000.000,32.227,245.605,-1000.000
1742121645.999,-869.141,999.512,609.863,-767.578
1742121646.003,545.410,930.176,569.336,626.465
1742121646.007,999.512,927.734,632.324,999.512
1742121646.011,857.422,959.473,545.898,861.816
1742121646.014,999.512,999.512,399.414,999.512
1742121646.018,-26.855,-236.816,-65.918,3.418
1742121646.022,-1000.000,-1000.000,35.645,-1000.000
1742121646.026,-955.566,-922.363,536.133,-958.496
1742121646.030,-927.734,-981.445,438.965,-926.758
1742121645.987,-991.211,-976.562,-171.387,-570.312
1742121645.991,-968.750,-1000.000,-464.355,-1000.000
1742121645.995,-1000.000,32.227,245.605,-1000.000
1742121645.999,-869.141,999.512,609.863,-767.578
1742121646.003,545.410,930.176,569.336,626.465
1742121646.007,999.512,927.734,632.324,999.512
1742121646.011,857.422,959.473,545.898,861.816
1742121646.014,999.512,999.512,399.414,999.512
1742121646.018,-26.855,-236.816,-65.918,3.418
1742121646.022,-1000.000,-1000.000,35.645,-1000.000
1742121646.026,-955.566,-922.363,536.133,-958.496
1742121646.030,-927.734,-981.445,438.965,-926.758
1742121646.032,-1000.000,-1000.000,574.219,-1000.000
1742121646.036,-199.707,119.629,884.277,-187.500
1742121646.040,999.512,999.512,967.773,999.512
1742121646.044,959.961,939.453,959.473,949.219
1742121646.048,887.207,885.742,952.637,926.758
1742121646.052,999.512,999.512,753.418,936.523
1742121646.056,829.102,511.719,422.363,999.512
1742121646.059,-566.895,-904.297,-52.734,-53.711
1742121646.063,-1000.000,-981.445,-278.809,-1000.000
1742121646.067,-1000.000,-1000.000,-220.703,-1000.000
1742121646.071,-232.422,-231.445,117.676,-173.340
1742121646.075,999.512,999.512,735.352,999.512
1742121646.032,-1000.000,-1000.000,574.219,-1000.000
1742121646.036,-199.707,119.629,884.277,-187.500
1742121646.040,999.512,999.512,967.773,999.512
1742121646.044,959.961,939.453,959.473,949.219
1742121646.048,887.207,885.742,952.637,926.758
1742121646.052,999.512,999.512,753.418,936.523
1742121646.056,829.102,511.719,422.363,999.512
1742121646.059,-566.895,-904.297,-52.734,-53.711
1742121646.063,-1000.000,-981.445,-278.809,-1000.000
1742121646.067,-1000.000,-1000.000,-220.703,-1000.000
1742121646.071,-232.422,-231.445,117.676,-173.340
1742121646.075,999.512,999.512,735.352,999.512
1742121646.076,914.062,885.742,879.395,944.824
1742121646.080,944.336,999.512,507.324,880.371
1742121646.084,979.492,633.301,-2.930,999.512
1742121646.088,-271.484,-720.215,-535.645,214.355
1742121646.092,-1000.000,-1000.000,-620.117,-1000.000
1742121646.096,-143.555,-108.887,209.473,-98.145
1742121646.100,978.516,972.656,953.125,999.512
1742121646.103,999.512,999.512,839.844,874.023
1742121646.107,770.508,207.031,476.074,999.512
1742121646.111,-586.426,-1000.000,228.516,137.207
1742121646.115,-1000.000,-1000.000,438.965,-1000.000
1742121646.119,-884.277,-899.414,681.152,-923.340
1742121646.076,914.062,885.742,879.395,944.824
1742121646.080,944.336,999.512,507.324,880.371
1742121646.084,979.492,633.301,-2.930,999.512
1742121646.088,-271.484,-720.215,-535.645,214.355
1742121646.092,-1000.000,-1000.000,-620.117,-1000.000
1742121646.096,-143.555,-108.887,209.473,-98.145
1742121646.100,978.516,972.656,953.125,999.512
1742121646.103,999.512,999.512,839.844,874.023
1742121646.107,770.508,207.031,476.074,999.512
1742121646.111,-586.426,-1000.000,228.516,137.207
1742121646.115,-1000.000,-1000.000,438.965,-1000.000
1742121646.119,-884.277,-899.414,681.152,-923.340
1742121646.121,-1000.000,-1000.000,510.254,-1000.000
1742121646.125,-880.859,-496.094,426.758,-855.469
1742121646.129,509.277,893.066,700.684,542.969
1742121646.133,999.512,999.512,864.258,999.512
1742121646.137,896.973,787.109,884.277,901.855
1742121646.141,916.992,902.832,962.402,978.027
1742121646.145,999.512,959.473,712.891,966.797
1742121646.148,183.594,-354.980,372.559,966.797
1742121646.152,-1000.000,-1000.000,673.828,966.797
1742121646.156,-94.238,45.410,999.512,966.797
1742121646.160,999.512,999.512,885.742,966.797
1742121646.164,142.578,96.191,389.648,966.797
1742121646.121,-1000.000,-1000.000,510.254,-1000.000
1742121646.125,-880.859,-496.094,426.758,-855.469
1742121646.129,509.277,893.066,700.684,542.969
1742121646.133,999.512,999.512,864.258,999.512
1742121646.137,896.973,787.109,884.277,901.855
1742121646.141,916.992,902.832,962.402,978.027
1742121646.145,999.512,959.473,712.891,966.797
1742121646.148,183.594,-354.980,372.559,966.797
1742121646.152,-1000.000,-1000.000,673.828,966.797
1742121646.156,-94.238,45.410,999.512,966.797
1742121646.160,999.512,999.512,885.742,966.797
1742121646.164,142.578,96.191,389.648,966.797
1742121646.166,-1000.000,-1000.000,180.176,967.285
1742121646.170,-980.957,-913.574,401.855,966.309
1742121646.174,-973.145,-1000.000,513.672,906.250
1742121646.178,-1000.000,-67.871,321.777,999.512
1742121646.182,-926.270,317.383,-276.367,232.910
1742121646.186,-1000.000,-1000.000,-295.898,-1000.000
1742121646.190,-486.816,-113.770,171.387,-307.129
1742121646.193,893.555,999.512,111.816,999.512
1742121646.197,999.512,586.426,-239.746,962.402
1742121646.201,-27.832,-731.934,-399.414,931.152
1742121646.205,-1000.000,-1000.000,-75.684,976.562
1742121646.209,-174.805,-163.086,610.840,967.285
1742121646.214,999.512,999.512,980.957,966.797
1742121646.218,947.266,962.891,953.125,966.797
1742121646.222,938.965,865.723,961.426,967.285
1742121646.226,973.145,999.512,971.191,966.797
1742121646.230,969.238,587.402,962.402,967.285
1742121646.234,900.391,-810.059,937.500,967.285
1742121646.238,999.512,433.105,999.512,967.285
1742121646.241,231.934,381.348,413.086,966.797
1742121646.245,-1000.000,-1000.000,-548.828,966.797
1742121646.249,-991.211,-1000.000,-736.816,966.797
1742121646.253,-969.727,-743.164,-703.613,966.797
1742121646.257,-1000.000,844.238,-874.023,966.797
