timestamps,TP9,AF7,AF8,TP10
1742203776.802,999.512,-362.793,-42.969,999.512
1742203776.806,-262.207,-1000.000,-84.961,-266.113
1742203776.810,-1000.000,-687.012,-104.004,-1000.000
1742203776.814,-906.738,615.234,-60.547,-903.320
1742203776.818,-990.234,-511.230,-70.312,-1000.000
1742203776.822,-1000.000,-353.027,-72.266,-1000.000
1742203776.826,198.242,999.512,-75.195,288.574
1742203776.829,999.512,859.863,-96.191,999.512
1742203776.833,921.875,-784.180,-79.102,920.898
1742203776.837,900.879,-660.156,-77.637,904.785
1742203776.841,999.512,851.562,-35.156,999.512
1742203776.845,762.207,-397.461,-38.574,697.754
1742203776.847,-722.656,-1000.000,-79.590,-744.629
1742203776.851,-1000.000,-997.070,-97.656,-1000.000
1742203776.855,-1000.000,-777.832,-104.980,-1000.000
1742203776.859,-469.238,695.312,-100.586,-169.434
1742203776.863,918.945,999.512,-76.660,998.047
1742203776.867,995.117,974.121,-57.617,956.055
1742203776.871,926.758,461.914,-84.473,949.707
1742203776.874,951.660,-1000.000,-97.168,945.312
1742203776.878,950.684,-883.301,-31.738,957.031
1742203776.882,999.512,622.070,14.648,999.512
1742203776.886,-219.238,-280.273,14.648,-238.281
1742203776.890,-1000.000,-1000.000,-5.859,-1000.000
1742203776.847,-722.656,-1000.000,-79.590,-744.629
1742203776.851,-1000.000,-997.070,-97.656,-1000.000
1742203776.855,-1000.000,-777.832,-104.980,-1000.000
1742203776.859,-469.238,695.312,-100.586,-169.434
1742203776.863,918.945,999.512,-76.660,998.047
1742203776.867,995.117,974.121,-57.617,956.055
1742203776.871,926.758,461.914,-84.473,949.707
1742203776.874,951.660,-1000.000,-97.168,945.312
1742203776.878,950.684,-883.301,-31.738,957.031
1742203776.882,999.512,622.070,14.648,999.512
1742203776.886,-219.238,-280.273,14.648,-238.281
1742203776.890,-1000.000,-1000.000,-5.859,-1000.000
1742203776.893,-938.965,196.777,21.484,-940.430
1742203776.897,-1000.000,707.031,10.742,-1000.000
1742203776.901,-1000.000,-489.258,-20.020,-1000.000
1742203776.905,-928.711,441.895,9.277,-929.688
1742203776.909,-1000.000,-452.148,7.812,-1000.000
1742203776.913,-696.777,-238.281,28.809,-662.109
1742203776.917,777.344,999.512,77.637,795.410
1742203776.920,999.512,446.289,27.344,999.512
1742203776.924,901.367,-906.250,-67.871,904.785
1742203776.928,997.559,-1000.000,-90.332,997.559
1742203776.932,916.504,160.645,-94.238,916.992
1742203776.936,999.512,999.512,-65.918,999.512
1742203776.893,-938.965,196.777,21.484,-940.430
1742203776.897,-1000.000,707.031,10.742,-1000.000
1742203776.901,-1000.000,-489.258,-20.020,-1000.000
1742203776.905,-928.711,441.895,9.277,-929.688
1742203776.909,-1000.000,-452.148,7.812,-1000.000
1742203776.913,-696.777,-238.281,28.809,-662.109
1742203776.917,777.344,999.512,77.637,795.410
1742203776.920,999.512,446.289,27.344,999.512
1742203776.924,901.367,-906.250,-67.871,904.785
1742203776.928,997.559,-1000.000,-90.332,997.559
1742203776.932,916.504,160.645,-94.238,916.992
1742203776.936,999.512,999.512,-65.918,999.512
1742203776.939,917.480,297.363,-34.668,913.574
1742203776.943,-498.535,-1000.000,-32.227,-502.930
1742203776.947,-1000.000,-993.164,-69.336,-1000.000
1742203776.951,-926.270,760.742,-45.410,-926.270
1742203776.955,-1000.000,477.051,-38.574,-1000.000
1742203776.959,-1000.000,-734.375,-62.012,-1000.000
1742203776.963,-963.867,634.766,-63.477,-962.402
1742203776.966,-1000.000,-390.625,-60.059,-1000.000
1742203776.970,-1000.000,-1000.000,-75.684,-1000.000
1742203776.974,298.828,583.008,-75.195,318.848
1742203776.978,999.512,999.512,-37.109,999.512
1742203776.982,896.973,938.477,-43.945,897.949
1742203776.939,917.480,297.363,-34.668,913.574
1742203776.943,-498.535,-1000.000,-32.227,-502.930
1742203776.947,-1000.000,-993.164,-69.336,-1000.000
1742203776.951,-926.270,760.742,-45.410,-926.270
1742203776.955,-1000.000,477.051,-38.574,-1000.000
1742203776.959,-1000.000,-734.375,-62.012,-1000.000
1742203776.963,-963.867,634.766,-63.477,-962.402
1742203776.966,-1000.000,-390.625,-60.059,-1000.000
1742203776.970,-1000.000,-1000.000,-75.684,-1000.000
1742203776.974,298.828,583.008,-75.195,318.848
1742203776.978,999.512,999.512,-37.109,999.512
1742203776.982,896.973,938.477,-43.945,897.949
1742203776.982,972.656,-21.973,-73.242,974.121
1742203776.986,983.398,-1000.000,-81.055,979.980
1742203776.990,893.555,-270.508,-71.777,898.926
1742203776.994,999.512,927.246,-54.688,999.512
1742203776.998,629.883,-345.215,-56.152,545.898
1742203777.002,-839.844,-1000.000,-33.203,-870.605
1742203777.006,-1000.000,-749.512,-5.371,-1000.000
1742203777.009,-937.500,543.945,34.180,-944.336
1742203777.013,-1000.000,-286.621,42.969,-1000.000
1742203777.017,-943.359,-1000.000,-24.414,-944.824
1742203777.021,-1000.000,-772.949,-68.359,-1000.000
1742203777.025,-896.973,601.074,-43.457,-909.180
1742203776.982,972.656,-21.973,-73.242,974.121
1742203776.986,983.398,-1000.000,-81.055,979.980
1742203776.990,893.555,-270.508,-71.777,898.926
1742203776.994,999.512,927.246,-54.688,999.512
1742203776.998,629.883,-345.215,-56.152,545.898
1742203777.002,-839.844,-1000.000,-33.203,-870.605
1742203777.006,-1000.000,-749.512,-5.371,-1000.000
1742203777.009,-937.500,543.945,34.180,-944.336
1742203777.013,-1000.000,-286.621,42.969,-1000.000
1742203777.017,-943.359,-1000.000,-24.414,-944.824
1742203777.021,-1000.000,-772.949,-68.359,-1000.000
1742203777.025,-896.973,601.074,-43.457,-909.180
1742203777.029,554.688,999.512,-15.137,535.156
1742203777.033,999.512,973.633,0.488,999.512
1742203777.037,891.602,726.074,-29.785,892.578
1742203777.041,981.934,-888.184,-63.965,982.422
1742203777.045,982.422,-645.020,-38.574,983.398
1742203777.049,908.691,983.398,50.293,907.227
1742203777.053,999.512,54.688,37.109,999.512
1742203777.056,856.934,-1000.000,-2.441,835.449
1742203777.060,-597.656,-896.484,-15.625,-624.023
1742203777.064,-1000.000,-1000.000,-80.078,-1000.000
1742203777.068,-925.781,-907.227,-84.961,-926.758
1742203777.072,-1000.000,670.410,-48.828,-1000.000
1742203777.029,554.688,999.512,-15.137,535.156
1742203777.033,999.512,973.633,0.488,999.512
1742203777.037,891.602,726.074,-29.785,892.578
1742203777.041,981.934,-888.184,-63.965,982.422
1742203777.045,982.422,-645.020,-38.574,983.398
1742203777.049,908.691,983.398,50.293,907.227
1742203777.053,999.512,54.688,37.109,999.512
1742203777.056,856.934,-1000.000,-2.441,835.449
1742203777.060,-597.656,-896.484,-15.625,-624.023
1742203777.064,-1000.000,-1000.000,-80.078,-1000.000
1742203777.068,-925.781,-907.227,-84.961,-926.758
1742203777.072,-1000.000,670.410,-48.828,-1000.000
1742203777.087,-945.312,999.512,-33.691,-946.777
1742203777.091,-1000.000,-821.289,-93.750,-1000.000
1742203777.095,-911.133,-666.504,-106.934,-922.363
1742203777.099,542.480,894.043,-45.410,526.367
1742203777.103,999.512,988.770,-17.090,999.512
1742203777.107,896.484,960.938,-37.109,916.504
1742203777.111,999.512,-142.090,-52.734,950.195
1742203777.114,-350.098,-1000.000,-34.180,-435.059
1742203777.118,-1000.000,-1000.000,7.812,-1000.000
1742203777.122,-1000.000,-878.906,33.691,-1000.000
1742203777.126,-301.758,595.703,55.176,-117.188
1742203777.130,978.516,999.512,46.387,999.512
1742203777.087,-945.312,999.512,-33.691,-946.777
1742203777.091,-1000.000,-821.289,-93.750,-1000.000
1742203777.095,-911.133,-666.504,-106.934,-922.363
1742203777.099,542.480,894.043,-45.410,526.367
1742203777.103,999.512,988.770,-17.090,999.512
1742203777.107,896.484,960.938,-37.109,916.504
1742203777.111,999.512,-142.090,-52.734,950.195
1742203777.114,-350.098,-1000.000,-34.180,-435.059
1742203777.118,-1000.000,-1000.000,7.812,-1000.000
1742203777.122,-1000.000,-878.906,33.691,-1000.000
1742203777.126,-301.758,595.703,55.176,-117.188
1742203777.130,978.516,999.512,46.387,999.512
1742203777.132,969.238,-355.469,28.809,947.266
1742203777.136,949.707,-1000.000,30.273,961.914
1742203777.140,906.738,145.996,-8.301,904.785
1742203777.144,999.512,999.512,-11.230,999.512
1742203777.148,717.285,58.594,14.648,684.570
1742203777.152,-761.230,-988.281,41.504,-780.762
1742203777.156,-1000.000,-1000.000,6.836,-1000.000
1742203777.159,-932.129,-920.898,-10.742,-934.570
1742203777.163,-1000.000,650.391,17.578,-1000.000
1742203777.167,-942.383,741.699,9.277,-943.848
1742203777.171,-1000.000,-992.676,-29.785,-1000.000
1742203777.175,-891.113,-618.164,-46.875,-899.902
1742203777.132,969.238,-355.469,28.809,947.266
1742203777.136,949.707,-1000.000,30.273,961.914
1742203777.140,906.738,145.996,-8.301,904.785
1742203777.144,999.512,999.512,-11.230,999.512
1742203777.148,717.285,58.594,14.648,684.570
1742203777.152,-761.230,-988.281,41.504,-780.762
1742203777.156,-1000.000,-1000.000,6.836,-1000.000
1742203777.159,-932.129,-920.898,-10.742,-934.570
1742203777.163,-1000.000,650.391,17.578,-1000.000
1742203777.167,-942.383,741.699,9.277,-943.848
1742203777.171,-1000.000,-992.676,-29.785,-1000.000
1742203777.175,-891.113,-618.164,-46.875,-899.902
1742203777.177,563.477,999.512,-27.832,550.293
1742203777.181,999.512,781.250,-19.531,999.512
1742203777.185,891.602,-505.371,-39.551,892.578
1742203777.189,981.934,549.805,-41.016,982.910
1742203777.193,983.887,-321.777,-33.691,980.469
1742203777.197,895.020,-496.094,-20.020,899.902
1742203777.201,999.512,311.523,-34.180,999.512
1742203777.204,672.852,-928.223,-34.180,586.914
1742203777.208,-802.246,-1000.000,-22.949,-838.379
1742203777.212,-1000.000,-1000.000,-19.531,-1000.000
1742203777.216,-934.570,-193.359,-2.930,-941.406
1742203777.220,-1000.000,999.512,43.457,-1000.000
1742203777.177,563.477,999.512,-27.832,550.293
1742203777.181,999.512,781.250,-19.531,999.512
1742203777.185,891.602,-505.371,-39.551,892.578
1742203777.189,981.934,549.805,-41.016,982.910
1742203777.193,983.887,-321.777,-33.691,980.469
1742203777.197,895.020,-496.094,-20.020,899.902
1742203777.201,999.512,311.523,-34.180,999.512
1742203777.204,672.852,-928.223,-34.180,586.914
1742203777.208,-802.246,-1000.000,-22.949,-838.379
1742203777.212,-1000.000,-1000.000,-19.531,-1000.000
1742203777.216,-934.570,-193.359,-2.930,-941.406
1742203777.220,-1000.000,999.512,43.457,-1000.000
1742203777.222,-958.008,497.070,43.457,-957.031
1742203777.226,-1000.000,-1000.000,13.184,-1000.000
1742203777.230,-997.559,-755.859,-24.414,-988.770
1742203777.234,375.488,702.637,0.977,388.672
1742203777.238,999.512,999.512,59.082,999.512
1742203777.242,826.172,829.102,54.688,841.797
1742203777.246,999.512,-533.691,58.594,999.512
1742203777.249,735.840,-1000.000,20.508,440.918
1742203777.253,-741.699,-957.031,-7.812,-874.512
1742203777.257,-1000.000,-953.613,-17.090,-1000.000
1742203777.261,-947.266,575.195,-47.852,-968.262
1742203777.265,-959.961,999.512,-29.297,-953.613
1742203777.222,-958.008,497.070,43.457,-957.031
1742203777.226,-1000.000,-1000.000,13.184,-1000.000
1742203777.230,-997.559,-755.859,-24.414,-988.770
1742203777.234,375.488,702.637,0.977,388.672
1742203777.238,999.512,999.512,59.082,999.512
1742203777.242,826.172,829.102,54.688,841.797
1742203777.246,999.512,-533.691,58.594,999.512
1742203777.249,735.840,-1000.000,20.508,440.918
1742203777.253,-741.699,-957.031,-7.812,-874.512
1742203777.257,-1000.000,-953.613,-17.090,-1000.000
1742203777.261,-947.266,575.195,-47.852,-968.262
1742203777.265,-959.961,999.512,-29.297,-953.613
1742203777.267,-1000.000,-762.207,9.277,-1000.000
1742203777.271,-888.184,-677.246,-0.488,-869.629
1742203777.275,567.871,987.305,-9.277,591.309
1742203777.279,999.512,941.406,42.969,999.512
1742203777.283,891.602,-676.758,-9.277,893.066
1742203777.287,993.652,-196.777,-49.316,995.605
1742203777.291,924.805,999.512,-15.137,922.852
1742203777.294,979.980,480.469,-53.711,987.793
1742203777.298,968.750,-910.645,-116.699,948.242
1742203777.302,-397.949,-984.863,-96.191,-432.617
1742203777.306,-1000.000,-1000.000,-118.652,-1000.000
1742203777.310,-928.711,-766.602,-133.301,-928.223
1742203777.267,-1000.000,-762.207,9.277,-1000.000
1742203777.271,-888.184,-677.246,-0.488,-869.629
1742203777.275,567.871,987.305,-9.277,591.309
1742203777.279,999.512,941.406,42.969,999.512
1742203777.283,891.602,-676.758,-9.277,893.066
1742203777.287,993.652,-196.777,-49.316,995.605
1742203777.291,924.805,999.512,-15.137,922.852
1742203777.294,979.980,480.469,-53.711,987.793
1742203777.298,968.750,-910.645,-116.699,948.242
1742203777.302,-397.949,-984.863,-96.191,-432.617
1742203777.306,-1000.000,-1000.000,-118.652,-1000.000
1742203777.310,-928.711,-766.602,-133.301,-928.223
1742203777.314,-1000.000,826.660,-98.145,-1000.000
1742203777.318,-1000.000,779.785,-80.078,-1000.000
1742203777.322,-941.406,-895.020,-130.371,-939.453
1742203777.326,-1000.000,-127.930,-113.770,-1000.000
1742203777.330,-880.371,999.512,-43.457,-848.145
1742203777.334,577.637,999.512,2.441,613.770
1742203777.338,999.512,309.082,-16.602,999.512
1742203777.341,892.090,-1000.000,-84.961,894.043
1742203777.345,982.422,345.703,-57.129,983.398
1742203777.349,978.027,697.266,-24.902,979.492
1742203777.353,924.805,-1000.000,-34.668,922.363
1742203777.357,980.469,141.113,-19.531,988.770
1742203777.314,-1000.000,826.660,-98.145,-1000.000
1742203777.318,-1000.000,779.785,-80.078,-1000.000
1742203777.322,-941.406,-895.020,-130.371,-939.453
1742203777.326,-1000.000,-127.930,-113.770,-1000.000
1742203777.330,-880.371,999.512,-43.457,-848.145
1742203777.334,577.637,999.512,2.441,613.770
1742203777.338,999.512,309.082,-16.602,999.512
1742203777.341,892.090,-1000.000,-84.961,894.043
1742203777.345,982.422,345.703,-57.129,983.398
1742203777.349,978.027,697.266,-24.902,979.492
1742203777.353,924.805,-1000.000,-34.668,922.363
1742203777.357,980.469,141.113,-19.531,988.770
1742203777.357,968.750,999.512,1.465,947.266
1742203777.361,-398.926,-780.273,47.852,-436.523
1742203777.365,-1000.000,-806.641,50.293,-1000.000
1742203777.369,-928.223,687.988,29.785,-927.734
1742203777.373,-1000.000,-605.957,-4.883,-1000.000
1742203777.377,-1000.000,55.176,-25.879,-1000.000
1742203777.381,-942.383,999.512,29.297,-942.383
1742203777.384,-1000.000,-758.301,32.227,-1000.000
1742203777.388,-891.113,-962.402,3.906,-891.113
1742203777.392,563.477,623.535,53.711,563.965
1742203777.396,999.512,999.512,105.957,999.512
1742203777.400,891.602,267.090,76.660,892.578
1742203777.357,968.750,999.512,1.465,947.266
1742203777.361,-398.926,-780.273,47.852,-436.523
1742203777.365,-1000.000,-806.641,50.293,-1000.000
1742203777.369,-928.223,687.988,29.785,-927.734
1742203777.373,-1000.000,-605.957,-4.883,-1000.000
1742203777.377,-1000.000,55.176,-25.879,-1000.000
1742203777.381,-942.383,999.512,29.297,-942.383
1742203777.384,-1000.000,-758.301,32.227,-1000.000
1742203777.388,-891.113,-962.402,3.906,-891.113
1742203777.392,563.477,623.535,53.711,563.965
1742203777.396,999.512,999.512,105.957,999.512
1742203777.400,891.602,267.090,76.660,892.578
1742203777.404,998.535,-1000.000,86.426,999.512
1742203777.408,908.691,75.684,108.398,906.250
1742203777.412,999.512,999.512,63.965,999.512
1742203777.416,856.934,-452.637,10.742,818.848
1742203777.420,-597.656,-1000.000,-13.184,-641.602
1742203777.424,-1000.000,306.152,-0.488,-1000.000
1742203777.428,-925.781,537.109,-16.602,-927.734
1742203777.431,-1000.000,-997.070,-59.082,-1000.000
1742203777.435,-1000.000,-1000.000,-70.312,-1000.000
1742203777.439,-1000.000,321.289,-62.500,-1000.000
1742203777.443,-939.941,999.512,-0.488,-937.012
1742203777.447,-1000.000,-165.527,19.531,-1000.000
1742203777.404,998.535,-1000.000,86.426,999.512
1742203777.408,908.691,75.684,108.398,906.250
1742203777.412,999.512,999.512,63.965,999.512
1742203777.416,856.934,-452.637,10.742,818.848
1742203777.420,-597.656,-1000.000,-13.184,-641.602
1742203777.424,-1000.000,306.152,-0.488,-1000.000
1742203777.428,-925.781,537.109,-16.602,-927.734
1742203777.431,-1000.000,-997.070,-59.082,-1000.000
1742203777.435,-1000.000,-1000.000,-70.312,-1000.000
1742203777.439,-1000.000,321.289,-62.500,-1000.000
1742203777.443,-939.941,999.512,-0.488,-937.012
1742203777.447,-1000.000,-165.527,19.531,-1000.000
1742203777.462,-866.211,-881.836,-51.270,-756.348
1742203777.466,596.680,739.746,-62.500,690.918
1742203777.470,999.512,-163.574,-43.457,999.512
1742203777.474,892.578,-440.918,-48.828,901.367
1742203777.478,995.117,969.727,-51.758,986.328
1742203777.482,895.020,999.512,-35.645,907.715
1742203777.486,999.512,26.855,-92.773,999.512
1742203777.489,487.793,-1000.000,-86.426,330.566
1742203777.493,-923.828,-971.191,2.441,-971.191
1742203777.497,-1000.000,-1000.000,16.602,-1000.000
1742203777.501,-948.730,205.078,-37.598,-960.449
1742203777.505,-1000.000,999.512,-14.160,-1000.000
1742203777.462,-866.211,-881.836,-51.270,-756.348
1742203777.466,596.680,739.746,-62.500,690.918
1742203777.470,999.512,-163.574,-43.457,999.512
1742203777.474,892.578,-440.918,-48.828,901.367
1742203777.478,995.117,969.727,-51.758,986.328
1742203777.482,895.020,999.512,-35.645,907.715
1742203777.486,999.512,26.855,-92.773,999.512
1742203777.489,487.793,-1000.000,-86.426,330.566
1742203777.493,-923.828,-971.191,2.441,-971.191
1742203777.497,-1000.000,-1000.000,16.602,-1000.000
1742203777.501,-948.730,205.078,-37.598,-960.449
1742203777.505,-1000.000,999.512,-14.160,-1000.000
1742203777.507,-967.773,-112.793,-43.457,-966.309
1742203777.511,-1000.000,-1000.000,-138.672,-1000.000
1742203777.515,-918.945,-707.520,-155.273,-906.738
1742203777.519,364.258,615.234,-142.090,381.836
1742203777.523,999.512,999.512,-93.750,999.512
1742203777.527,903.320,920.410,-69.336,904.785
1742203777.531,971.191,-157.227,-94.238,972.656
1742203777.534,983.887,-1000.000,-145.508,982.422
1742203777.538,900.391,-867.188,-137.695,901.855
1742203777.542,999.512,454.590,-111.328,999.512
1742203777.546,766.602,-282.227,-90.332,689.941
1742203777.550,-711.426,-1000.000,-118.652,-761.230
1742203777.507,-967.773,-112.793,-43.457,-966.309
1742203777.511,-1000.000,-1000.000,-138.672,-1000.000
1742203777.515,-918.945,-707.520,-155.273,-906.738
1742203777.519,364.258,615.234,-142.090,381.836
1742203777.523,999.512,999.512,-93.750,999.512
1742203777.527,903.320,920.410,-69.336,904.785
1742203777.531,971.191,-157.227,-94.238,972.656
1742203777.534,983.887,-1000.000,-145.508,982.422
1742203777.538,900.391,-867.188,-137.695,901.855
1742203777.542,999.512,454.590,-111.328,999.512
1742203777.546,766.602,-282.227,-90.332,689.941
1742203777.550,-711.426,-1000.000,-118.652,-761.230
1742203777.552,-1000.000,-985.840,-127.441,-1000.000
1742203777.556,-868.652,-48.828,-89.844,-897.949
1742203777.560,-1000.000,999.512,-62.988,-1000.000
1742203777.564,-319.336,898.926,-57.617,-123.047
1742203777.568,970.215,964.844,-80.078,999.512
1742203777.572,989.258,999.512,-51.270,969.238
1742203777.576,872.559,-530.273,-13.184,885.254
1742203777.579,999.512,-276.855,10.254,999.512
1742203777.583,856.934,557.129,-33.691,854.492
1742203777.587,-597.656,-914.551,-72.754,-602.051
1742203777.591,-1000.000,-1000.000,-81.055,-1000.000
1742203777.595,-925.781,405.273,-83.496,-925.781
1742203777.552,-1000.000,-985.840,-127.441,-1000.000
1742203777.556,-868.652,-48.828,-89.844,-897.949
1742203777.560,-1000.000,999.512,-62.988,-1000.000
1742203777.564,-319.336,898.926,-57.617,-123.047
1742203777.568,970.215,964.844,-80.078,999.512
1742203777.572,989.258,999.512,-51.270,969.238
1742203777.576,872.559,-530.273,-13.184,885.254
1742203777.579,999.512,-276.855,10.254,999.512
1742203777.583,856.934,557.129,-33.691,854.492
1742203777.587,-597.656,-914.551,-72.754,-602.051
1742203777.591,-1000.000,-1000.000,-81.055,-1000.000
1742203777.595,-925.781,405.273,-83.496,-925.781
1742203777.597,-1000.000,999.512,-83.496,-1000.000
1742203777.601,-1000.000,-703.125,-108.887,-1000.000
1742203777.605,-927.734,-1000.000,-140.137,-936.523
1742203777.609,-1000.000,607.910,-107.910,-1000.000
1742203777.613,-567.871,999.512,-71.777,-460.449
1742203777.617,865.723,998.535,12.695,896.973
1742203777.621,999.512,512.695,33.691,999.512
1742203777.624,910.645,-1000.000,-89.844,919.434
1742203777.628,981.445,-22.949,-127.930,979.980
1742203777.632,982.422,916.016,-98.145,983.398
1742203777.636,908.203,-838.379,-101.074,909.180
1742203777.640,999.512,-15.137,-103.027,999.512
1742203777.597,-1000.000,999.512,-83.496,-1000.000
1742203777.601,-1000.000,-703.125,-108.887,-1000.000
1742203777.605,-927.734,-1000.000,-140.137,-936.523
1742203777.609,-1000.000,607.910,-107.910,-1000.000
1742203777.613,-567.871,999.512,-71.777,-460.449
1742203777.617,865.723,998.535,12.695,896.973
1742203777.621,999.512,512.695,33.691,999.512
1742203777.624,910.645,-1000.000,-89.844,919.434
1742203777.628,981.445,-22.949,-127.930,979.980
1742203777.632,982.422,916.016,-98.145,983.398
1742203777.636,908.203,-838.379,-101.074,909.180
1742203777.640,999.512,-15.137,-103.027,999.512
1742203777.642,856.934,999.512,-119.629,855.957
1742203777.646,-597.656,-822.754,-121.094,-600.098
1742203777.650,-1000.000,-717.773,-106.934,-1000.000
1742203777.654,-925.781,596.191,-98.145,-925.781
1742203777.658,-1000.000,-566.895,-150.879,-1000.000
1742203777.662,-1000.000,171.875,-128.906,-1000.000
1742203777.666,-927.246,-218.262,-104.980,-931.641
1742203777.669,-1000.000,-1000.000,-109.863,-1000.000
1742203777.673,-621.094,129.883,-98.145,-535.156
1742203777.677,834.961,989.258,-78.125,870.117
1742203777.681,999.512,629.883,-65.430,999.512
1742203777.685,906.738,755.371,-28.320,914.062
1742203777.642,856.934,999.512,-119.629,855.957
1742203777.646,-597.656,-822.754,-121.094,-600.098
1742203777.650,-1000.000,-717.773,-106.934,-1000.000
1742203777.654,-925.781,596.191,-98.145,-925.781
1742203777.658,-1000.000,-566.895,-150.879,-1000.000
1742203777.662,-1000.000,171.875,-128.906,-1000.000
1742203777.666,-927.246,-218.262,-104.980,-931.641
1742203777.669,-1000.000,-1000.000,-109.863,-1000.000
1742203777.673,-621.094,129.883,-98.145,-535.156
1742203777.677,834.961,989.258,-78.125,870.117
1742203777.681,999.512,629.883,-65.430,999.512
1742203777.685,906.738,755.371,-28.320,914.062
1742203777.688,999.023,-525.879,-10.254,998.047
1742203777.692,907.715,-1000.000,-4.883,905.762
1742203777.696,999.512,739.746,-42.969,999.512
1742203777.700,847.168,473.145,-86.426,817.871
1742203777.704,-610.840,-1000.000,-115.234,-645.020
1742203777.708,-1000.000,11.719,-78.613,-1000.000
1742203777.712,-925.781,954.102,-30.273,-927.246
1742203777.715,-1000.000,-717.773,-104.004,-1000.000
1742203777.719,-1000.000,-1000.000,-138.184,-1000.000
1742203777.723,-968.750,612.793,-134.277,-962.402
1742203777.727,-992.188,580.078,-101.074,-1000.000
1742203777.731,-1000.000,-975.098,-67.871,-1000.000
1742203777.688,999.023,-525.879,-10.254,998.047
1742203777.692,907.715,-1000.000,-4.883,905.762
1742203777.696,999.512,739.746,-42.969,999.512
1742203777.700,847.168,473.145,-86.426,817.871
1742203777.704,-610.840,-1000.000,-115.234,-645.020
1742203777.708,-1000.000,11.719,-78.613,-1000.000
1742203777.712,-925.781,954.102,-30.273,-927.246
1742203777.715,-1000.000,-717.773,-104.004,-1000.000
1742203777.719,-1000.000,-1000.000,-138.184,-1000.000
1742203777.723,-968.750,612.793,-134.277,-962.402
1742203777.727,-992.188,580.078,-101.074,-1000.000
1742203777.731,-1000.000,-975.098,-67.871,-1000.000
1742203777.733,238.770,396.484,-132.324,317.871
1742203777.737,999.512,999.512,-100.098,999.512
1742203777.741,900.391,-552.734,-62.988,898.438
1742203777.745,983.887,152.344,-106.445,987.793
1742203777.749,917.480,999.512,-96.191,916.504
1742203777.753,997.559,753.418,-18.555,999.512
1742203777.757,922.363,-637.695,-19.531,910.645
1742203777.760,-489.258,-1000.000,-93.750,-508.301
1742203777.764,-1000.000,-987.793,-49.316,-1000.000
1742203777.768,-926.270,-895.508,19.043,-926.270
1742203777.772,-1000.000,705.566,-14.648,-1000.000
1742203777.776,-1000.000,701.172,-46.387,-1000.000
1742203777.733,238.770,396.484,-132.324,317.871
1742203777.737,999.512,999.512,-100.098,999.512
1742203777.741,900.391,-552.734,-62.988,898.438
1742203777.745,983.887,152.344,-106.445,987.793
1742203777.749,917.480,999.512,-96.191,916.504
1742203777.753,997.559,753.418,-18.555,999.512
1742203777.757,922.363,-637.695,-19.531,910.645
1742203777.760,-489.258,-1000.000,-93.750,-508.301
1742203777.764,-1000.000,-987.793,-49.316,-1000.000
1742203777.768,-926.270,-895.508,19.043,-926.270
1742203777.772,-1000.000,705.566,-14.648,-1000.000
1742203777.776,-1000.000,701.172,-46.387,-1000.000
1742203777.779,-928.223,-981.445,-67.871,-938.965
1742203777.783,-1000.000,-742.676,-57.617,-1000.000
1742203777.787,-548.340,702.637,4.883,-420.898
1742203777.791,877.930,999.512,71.289,912.109
1742203777.795,999.512,717.773,83.984,994.141
1742203777.799,912.598,-587.891,43.457,922.363
1742203777.803,981.445,236.816,-15.625,979.492
1742203777.806,982.422,-231.934,-41.504,983.398
1742203777.810,908.691,-1000.000,-14.160,909.180
1742203777.814,999.512,479.004,-47.852,999.512
1742203777.818,856.934,944.824,-54.199,854.980
1742203777.822,-597.656,-616.211,-21.484,-601.562
1742203777.779,-928.223,-981.445,-67.871,-938.965
1742203777.783,-1000.000,-742.676,-57.617,-1000.000
1742203777.787,-548.340,702.637,4.883,-420.898
1742203777.791,877.930,999.512,71.289,912.109
1742203777.795,999.512,717.773,83.984,994.141
1742203777.799,912.598,-587.891,43.457,922.363
1742203777.803,981.445,236.816,-15.625,979.492
1742203777.806,982.422,-231.934,-41.504,983.398
1742203777.810,908.691,-1000.000,-14.160,909.180
1742203777.814,999.512,479.004,-47.852,999.512
1742203777.818,856.934,944.824,-54.199,854.980
1742203777.822,-597.656,-616.211,-21.484,-601.562
1742203777.837,-1000.000,-1000.000,-66.406,-1000.000
1742203777.841,-925.781,-832.520,-86.914,-925.781
1742203777.845,-1000.000,719.727,-33.691,-1000.000
1742203777.849,-942.383,869.629,-19.043,-941.895
1742203777.853,-1000.000,-708.984,-115.234,-1000.000
1742203777.857,-891.113,254.883,-118.164,-880.371
1742203777.861,565.918,999.512,-87.891,584.473
1742203777.864,999.512,661.621,-56.641,999.512
1742203777.868,837.891,-699.707,-76.660,878.418
1742203777.872,999.512,-1000.000,-79.590,999.512
1742203777.876,191.895,-862.793,-16.113,-126.465
1742203777.880,-1000.000,-1000.000,-11.719,-1000.000
1742203777.837,-1000.000,-1000.000,-66.406,-1000.000
1742203777.841,-925.781,-832.520,-86.914,-925.781
1742203777.845,-1000.000,719.727,-33.691,-1000.000
1742203777.849,-942.383,869.629,-19.043,-941.895
1742203777.853,-1000.000,-708.984,-115.234,-1000.000
1742203777.857,-891.113,254.883,-118.164,-880.371
1742203777.861,565.918,999.512,-87.891,584.473
1742203777.864,999.512,661.621,-56.641,999.512
1742203777.868,837.891,-699.707,-76.660,878.418
1742203777.872,999.512,-1000.000,-79.590,999.512
1742203777.876,191.895,-862.793,-16.113,-126.465
1742203777.880,-1000.000,-1000.000,-11.719,-1000.000
1742203777.882,-1000.000,-446.777,-29.297,-971.191
1742203777.886,-936.035,958.984,10.254,-955.078
1742203777.890,-1000.000,-369.141,44.434,-1000.000
1742203777.894,-1000.000,-1000.000,44.922,-1000.000
1742203777.898,283.691,684.082,30.762,290.527
1742203777.902,999.512,999.512,75.195,999.512
1742203777.906,897.949,-145.996,75.684,899.414
1742203777.909,972.168,-1000.000,25.879,972.656
1742203777.913,966.309,-338.379,27.832,967.285
1742203777.917,982.422,935.059,64.453,983.398
1742203777.921,908.691,-648.438,50.781,908.203
1742203777.925,999.512,-949.219,8.789,999.512
1742203777.882,-1000.000,-446.777,-29.297,-971.191
1742203777.886,-936.035,958.984,10.254,-955.078
1742203777.890,-1000.000,-369.141,44.434,-1000.000
1742203777.894,-1000.000,-1000.000,44.922,-1000.000
1742203777.898,283.691,684.082,30.762,290.527
1742203777.902,999.512,999.512,75.195,999.512
1742203777.906,897.949,-145.996,75.684,899.414
1742203777.909,972.168,-1000.000,25.879,972.656
1742203777.913,966.309,-338.379,27.832,967.285
1742203777.917,982.422,935.059,64.453,983.398
1742203777.921,908.691,-648.438,50.781,908.203
1742203777.925,999.512,-949.219,8.789,999.512
1742203777.927,856.934,689.941,20.996,843.262
1742203777.931,-597.656,-616.211,30.273,-614.746
1742203777.935,-1000.000,-1000.000,7.812,-1000.000
1742203777.939,-925.781,726.562,81.055,-926.270
1742203777.943,-1000.000,-300.293,44.434,-1000.000
1742203777.947,-1000.000,173.340,36.621,-1000.000
1742203777.951,-930.664,999.512,38.574,-931.641
1742203777.954,-1000.000,-906.250,-22.949,-1000.000
1742203777.958,-744.141,-465.332,-12.695,-702.148
1742203777.962,734.863,999.512,-46.387,758.301
1742203777.966,999.512,-240.234,-118.164,999.512
1742203777.970,898.438,71.777,-112.793,902.344
1742203777.927,856.934,689.941,20.996,843.262
1742203777.931,-597.656,-616.211,30.273,-614.746
1742203777.935,-1000.000,-1000.000,7.812,-1000.000
1742203777.939,-925.781,726.562,81.055,-926.270
1742203777.943,-1000.000,-300.293,44.434,-1000.000
1742203777.947,-1000.000,173.340,36.621,-1000.000
1742203777.951,-930.664,999.512,38.574,-931.641
1742203777.954,-1000.000,-906.250,-22.949,-1000.000
1742203777.958,-744.141,-465.332,-12.695,-702.148
1742203777.962,734.863,999.512,-46.387,758.301
1742203777.966,999.512,-240.234,-118.164,999.512
1742203777.970,898.438,71.777,-112.793,902.344
1742203777.972,991.211,996.094,-68.848,993.652
1742203777.976,937.012,-849.121,-91.309,930.664
1742203777.980,954.102,-840.332,-139.160,970.703
1742203777.984,999.512,800.293,-155.273,989.746
1742203777.988,-247.559,-309.570,-103.027,-332.031
1742203777.992,-1000.000,-1000.000,-58.594,-1000.000
1742203777.996,-936.035,346.680,-47.363,-933.105
1742203777.999,-1000.000,358.887,-41.016,-1000.000
1742203778.003,-969.238,-1000.000,-104.980,-962.891
1742203778.007,-992.188,-514.160,-138.672,-1000.000
1742203778.011,-1000.000,879.883,-160.645,-1000.000
1742203778.015,236.816,947.754,-190.430,315.918
1742203777.972,991.211,996.094,-68.848,993.652
1742203777.976,937.012,-849.121,-91.309,930.664
1742203777.980,954.102,-840.332,-139.160,970.703
1742203777.984,999.512,800.293,-155.273,989.746
1742203777.988,-247.559,-309.570,-103.027,-332.031
1742203777.992,-1000.000,-1000.000,-58.594,-1000.000
1742203777.996,-936.035,346.680,-47.363,-933.105
1742203777.999,-1000.000,358.887,-41.016,-1000.000
1742203778.003,-969.238,-1000.000,-104.980,-962.891
1742203778.007,-992.188,-514.160,-138.672,-1000.000
1742203778.011,-1000.000,879.883,-160.645,-1000.000
1742203778.015,236.816,947.754,-190.430,315.918
1742203778.018,999.512,999.512,-169.434,999.512
1742203778.022,900.391,209.473,-153.320,898.438
1742203778.026,969.727,-595.215,-133.789,973.145
1742203778.030,982.422,474.121,-93.750,983.398
1742203778.034,908.691,-545.410,-76.660,909.180
1742203778.038,999.512,224.121,-76.660,999.512
1742203778.042,856.934,999.512,-87.402,857.910
1742203778.045,-597.656,-702.148,-136.719,-597.656
1742203778.049,-1000.000,-1000.000,-176.758,-1000.000
1742203778.053,-925.781,-983.887,-143.066,-925.781
1742203778.057,-1000.000,112.305,-138.672,-1000.000
1742203778.061,-1000.000,999.512,-117.676,-1000.000
1742203778.018,999.512,999.512,-169.434,999.512
1742203778.022,900.391,209.473,-153.320,898.438
1742203778.026,969.727,-595.215,-133.789,973.145
1742203778.030,982.422,474.121,-93.750,983.398
1742203778.034,908.691,-545.410,-76.660,909.180
1742203778.038,999.512,224.121,-76.660,999.512
1742203778.042,856.934,999.512,-87.402,857.910
1742203778.045,-597.656,-702.148,-136.719,-597.656
1742203778.049,-1000.000,-1000.000,-176.758,-1000.000
1742203778.053,-925.781,-983.887,-143.066,-925.781
1742203778.057,-1000.000,112.305,-138.672,-1000.000
1742203778.061,-1000.000,999.512,-117.676,-1000.000
1742203778.064,-932.129,-354.004,0.000,-941.895
1742203778.068,-1000.000,-928.711,6.348,-1000.000
1742203778.072,-462.402,709.961,-127.930,-337.891
1742203778.076,914.551,999.512,-136.230,952.148
1742203778.080,996.582,920.410,-83.984,978.027
1742203778.084,918.945,936.035,-72.754,933.594
1742203778.088,979.492,-400.879,-85.938,953.613
1742203778.091,983.887,-1000.000,-104.980,958.496
1742203778.095,902.832,-750.000,-105.957,906.738
1742203778.099,999.512,750.488,-95.703,999.512
1742203778.103,798.340,731.445,-84.961,751.953
1742203778.107,-672.852,-830.078,-98.145,-713.379
1742203778.064,-932.129,-354.004,0.000,-941.895
1742203778.068,-1000.000,-928.711,6.348,-1000.000
1742203778.072,-462.402,709.961,-127.930,-337.891
1742203778.076,914.551,999.512,-136.230,952.148
1742203778.080,996.582,920.410,-83.984,978.027
1742203778.084,918.945,936.035,-72.754,933.594
1742203778.088,979.492,-400.879,-85.938,953.613
1742203778.091,983.887,-1000.000,-104.980,958.496
1742203778.095,902.832,-750.000,-105.957,906.738
1742203778.099,999.512,750.488,-95.703,999.512
1742203778.103,798.340,731.445,-84.961,751.953
1742203778.107,-672.852,-830.078,-98.145,-713.379
1742203778.107,-1000.000,-1000.000,-80.078,-1000.000
1742203778.111,-927.734,-169.922,-72.266,-931.152
1742203778.115,-1000.000,999.512,-72.266,-1000.000
1742203778.119,-934.082,588.867,-94.727,-937.500
1742203778.123,-1000.000,-841.797,-121.094,-1000.000
1742203778.127,-577.148,215.332,-58.594,-502.930
1742203778.131,845.703,999.512,7.812,870.605
1742203778.134,958.496,395.996,-14.160,950.684
1742203778.138,980.469,-901.367,-89.355,999.512
1742203778.142,814.453,-980.469,-77.148,596.191
1742203778.146,-669.434,-1000.000,-77.637,-798.340
1742203778.150,-1000.000,-456.543,-98.633,-1000.000
1742203778.107,-1000.000,-1000.000,-80.078,-1000.000
1742203778.111,-927.734,-169.922,-72.266,-931.152
1742203778.115,-1000.000,999.512,-72.266,-1000.000
1742203778.119,-934.082,588.867,-94.727,-937.500
1742203778.123,-1000.000,-841.797,-121.094,-1000.000
1742203778.127,-577.148,215.332,-58.594,-502.930
1742203778.131,845.703,999.512,7.812,870.605
1742203778.134,958.496,395.996,-14.160,950.684
1742203778.138,980.469,-901.367,-89.355,999.512
1742203778.142,814.453,-980.469,-77.148,596.191
1742203778.146,-669.434,-1000.000,-77.637,-798.340
1742203778.150,-1000.000,-456.543,-98.633,-1000.000
1742203778.154,-944.336,999.512,-92.773,-959.473
1742203778.158,-957.031,45.898,-113.770,-952.148
1742203778.162,-1000.000,-1000.000,-149.902,-1000.000
1742203778.166,-864.746,310.547,-148.926,-819.824
1742203778.170,597.656,999.512,-89.844,641.602
1742203778.174,999.512,875.977,-34.180,999.512
1742203778.178,892.578,-428.223,-68.359,895.996
1742203778.181,982.422,-1000.000,-83.008,984.375
1742203778.185,982.910,168.945,-20.996,978.027
1742203778.189,893.066,941.895,61.035,900.879
1742203778.193,999.512,-630.371,14.160,999.512
1742203778.197,621.094,-1000.000,-26.855,512.695
1742203778.154,-944.336,999.512,-92.773,-959.473
1742203778.158,-957.031,45.898,-113.770,-952.148
1742203778.162,-1000.000,-1000.000,-149.902,-1000.000
1742203778.166,-864.746,310.547,-148.926,-819.824
1742203778.170,597.656,999.512,-89.844,641.602
1742203778.174,999.512,875.977,-34.180,999.512
1742203778.178,892.578,-428.223,-68.359,895.996
1742203778.181,982.422,-1000.000,-83.008,984.375
1742203778.185,982.910,168.945,-20.996,978.027
1742203778.189,893.066,941.895,61.035,900.879
1742203778.193,999.512,-630.371,14.160,999.512
1742203778.197,621.094,-1000.000,-26.855,512.695
1742203778.212,-863.281,-977.051,-0.488,-880.859
1742203778.216,-993.652,-894.043,-23.926,-999.023
1742203778.220,-1000.000,571.777,-8.789,-1000.000
1742203778.224,-656.250,999.512,29.785,-334.473
1742203778.228,822.266,839.844,0.977,934.082
1742203778.232,999.512,999.512,40.039,981.934
1742203778.236,908.203,377.441,19.043,933.594
1742203778.239,972.656,-941.895,-82.520,960.938
1742203778.243,922.363,-1000.000,-89.844,934.082
1742203778.247,999.512,226.562,-71.289,999.512
1742203778.251,37.109,-12.207,-61.035,-48.828
1742203778.255,-1000.000,-1000.000,-51.270,-1000.000
1742203778.212,-863.281,-977.051,-0.488,-880.859
1742203778.216,-993.652,-894.043,-23.926,-999.023
1742203778.220,-1000.000,571.777,-8.789,-1000.000
1742203778.224,-656.250,999.512,29.785,-334.473
1742203778.228,822.266,839.844,0.977,934.082
1742203778.232,999.512,999.512,40.039,981.934
1742203778.236,908.203,377.441,19.043,933.594
1742203778.239,972.656,-941.895,-82.520,960.938
1742203778.243,922.363,-1000.000,-89.844,934.082
1742203778.247,999.512,226.562,-71.289,999.512
1742203778.251,37.109,-12.207,-61.035,-48.828
1742203778.255,-1000.000,-1000.000,-51.270,-1000.000
1742203778.257,-968.262,87.402,-85.938,-959.961
1742203778.261,-984.863,877.441,-103.027,-991.211
1742203778.265,-1000.000,-784.180,-68.848,-1000.000
1742203778.269,-939.453,-751.953,-51.758,-948.242
1742203778.273,-1000.000,810.059,-39.551,-1000.000
1742203778.277,-323.730,999.512,-19.531,-249.512
1742203778.281,968.750,960.938,-56.641,979.980
1742203778.284,973.633,-215.820,-75.195,966.797
1742203778.288,929.688,-1000.000,-101.074,935.547
1742203778.292,989.746,130.859,-96.191,989.746
1742203778.296,918.945,999.512,-26.367,917.969
1742203778.300,993.652,206.543,-14.648,999.512
1742203778.257,-968.262,87.402,-85.938,-959.961
1742203778.261,-984.863,877.441,-103.027,-991.211
1742203778.265,-1000.000,-784.180,-68.848,-1000.000
1742203778.269,-939.453,-751.953,-51.758,-948.242
1742203778.273,-1000.000,810.059,-39.551,-1000.000
1742203778.277,-323.730,999.512,-19.531,-249.512
1742203778.281,968.750,960.938,-56.641,979.980
1742203778.284,973.633,-215.820,-75.195,966.797
1742203778.288,929.688,-1000.000,-101.074,935.547
1742203778.292,989.746,130.859,-96.191,989.746
1742203778.296,918.945,999.512,-26.367,917.969
1742203778.300,993.652,206.543,-14.648,999.512
1742203778.303,934.082,-855.957,-68.848,919.922
1742203778.307,-468.750,-1000.000,-70.312,-490.723
1742203778.311,-1000.000,-714.844,-76.660,-1000.000
1742203778.315,-868.652,466.309,-106.445,-866.211
1742203778.319,-1000.000,-510.254,-105.469,-1000.000
1742203778.323,-891.113,100.586,-73.242,-843.750
1742203778.327,563.965,999.512,-92.773,611.328
1742203778.330,999.512,210.449,-134.766,999.512
1742203778.334,906.738,-1000.000,-110.352,910.156
1742203778.338,929.199,-564.941,-92.285,929.688
1742203778.342,999.512,937.988,-86.914,999.512
1742203778.346,895.508,833.008,-44.434,891.602
1742203778.303,934.082,-855.957,-68.848,919.922
1742203778.307,-468.750,-1000.000,-70.312,-490.723
1742203778.311,-1000.000,-714.844,-76.660,-1000.000
1742203778.315,-868.652,466.309,-106.445,-866.211
1742203778.319,-1000.000,-510.254,-105.469,-1000.000
1742203778.323,-891.113,100.586,-73.242,-843.750
1742203778.327,563.965,999.512,-92.773,611.328
1742203778.330,999.512,210.449,-134.766,999.512
1742203778.334,906.738,-1000.000,-110.352,910.156
1742203778.338,929.199,-564.941,-92.285,929.688
1742203778.342,999.512,937.988,-86.914,999.512
1742203778.346,895.508,833.008,-44.434,891.602
1742203778.347,-537.598,-634.766,-35.645,-542.969
1742203778.351,-1000.000,-1000.000,-83.984,-1000.000
1742203778.355,-925.781,-768.555,-92.285,-925.781
1742203778.359,-1000.000,533.203,-73.242,-1000.000
1742203778.363,-1000.000,999.512,-78.125,-1000.000
1742203778.367,-993.652,819.824,-86.914,-984.375
1742203778.371,-952.148,-522.949,-114.746,-968.262
1742203778.374,-1000.000,-1000.000,-107.910,-1000.000
1742203778.378,-145.508,94.238,-52.734,-3.418
1742203778.382,999.512,994.629,3.418,999.512
1742203778.386,946.777,999.512,30.273,931.641
1742203778.390,943.359,43.457,47.363,953.613
1742203778.347,-537.598,-634.766,-35.645,-542.969
1742203778.351,-1000.000,-1000.000,-83.984,-1000.000
1742203778.355,-925.781,-768.555,-92.285,-925.781
1742203778.359,-1000.000,533.203,-73.242,-1000.000
1742203778.363,-1000.000,999.512,-78.125,-1000.000
1742203778.367,-993.652,819.824,-86.914,-984.375
1742203778.371,-952.148,-522.949,-114.746,-968.262
1742203778.374,-1000.000,-1000.000,-107.910,-1000.000
1742203778.378,-145.508,94.238,-52.734,-3.418
1742203778.382,999.512,994.629,3.418,999.512
1742203778.386,946.777,999.512,30.273,931.641
1742203778.390,943.359,43.457,47.363,953.613
1742203778.392,973.145,-960.938,12.207,972.168
1742203778.396,978.027,344.238,6.348,974.609
1742203778.400,895.996,89.844,26.855,902.832
1742203778.404,999.512,429.688,18.066,999.512
1742203778.408,466.797,50.293,25.391,405.762
1742203778.412,-932.617,-1000.000,37.598,-945.801
1742203778.416,-1000.000,-591.309,39.551,-1000.000
1742203778.419,-967.773,603.027,37.109,-967.773
1742203778.423,-943.848,-651.367,-4.883,-945.801
1742203778.427,-1000.000,-1000.000,-28.809,-1000.000
1742203778.431,-710.938,697.266,-7.812,-583.984
1742203778.435,733.398,999.512,46.875,787.598
1742203778.439,999.512,978.516,63.965,999.512
1742203778.443,971.680,209.961,63.477,926.270
1742203778.447,-189.453,-958.008,50.781,-311.523
1742203778.451,-1000.000,-1000.000,17.090,-1000.000
1742203778.455,-1000.000,-180.664,49.316,-1000.000
1742203778.459,-684.082,884.766,61.523,-469.238
1742203778.463,785.645,999.512,20.996,870.117
1742203778.466,999.512,544.434,38.086,999.512
1742203778.470,859.375,-719.727,37.109,874.023
1742203778.474,999.512,324.707,29.785,999.512
1742203778.478,961.426,-197.266,-28.320,944.336
1742203778.482,-424.316,-1000.000,-66.895,-453.125
1742203778.439,999.512,978.516,63.965,999.512
1742203778.443,971.680,209.961,63.477,926.270
1742203778.447,-189.453,-958.008,50.781,-311.523
1742203778.451,-1000.000,-1000.000,17.090,-1000.000
1742203778.455,-1000.000,-180.664,49.316,-1000.000
1742203778.459,-684.082,884.766,61.523,-469.238
1742203778.463,785.645,999.512,20.996,870.117
1742203778.466,999.512,544.434,38.086,999.512
1742203778.470,859.375,-719.727,37.109,874.023
1742203778.474,999.512,324.707,29.785,999.512
1742203778.478,961.426,-197.266,-28.320,944.336
1742203778.482,-424.316,-1000.000,-66.895,-453.125
1742203778.482,-1000.000,-975.586,-57.129,-1000.000
1742203778.486,-933.105,64.453,-20.996,-954.102
1742203778.490,-1000.000,986.816,49.316,-978.516
1742203778.494,316.406,999.512,11.230,422.363
1742203778.498,999.512,765.625,-16.113,999.512
1742203778.502,896.484,-175.781,66.406,895.996
1742203778.506,988.281,476.562,108.398,984.375
1742203778.509,893.555,-422.852,28.809,905.273
1742203778.513,999.512,-1000.000,-27.344,999.512
1742203778.517,547.363,-647.949,8.789,396.484
1742203778.521,-892.578,-1000.000,-19.043,-941.406
1742203778.525,-1000.000,-412.598,-34.180,-1000.000
1742203778.482,-1000.000,-975.586,-57.129,-1000.000
1742203778.486,-933.105,64.453,-20.996,-954.102
1742203778.490,-1000.000,986.816,49.316,-978.516
1742203778.494,316.406,999.512,11.230,422.363
1742203778.498,999.512,765.625,-16.113,999.512
1742203778.502,896.484,-175.781,66.406,895.996
1742203778.506,988.281,476.562,108.398,984.375
1742203778.509,893.555,-422.852,28.809,905.273
1742203778.513,999.512,-1000.000,-27.344,999.512
1742203778.517,547.363,-647.949,8.789,396.484
1742203778.521,-892.578,-1000.000,-19.043,-941.406
1742203778.525,-1000.000,-412.598,-34.180,-1000.000
1742203778.530,-943.848,888.672,-16.113,-955.078
1742203778.534,-1000.000,-445.312,-58.105,-1000.000
1742203778.538,-942.383,-1000.000,-96.680,-942.383
1742203778.542,-1000.000,84.961,-87.891,-1000.000
1742203778.546,-891.113,987.793,-38.086,-888.672
1742203778.550,573.242,939.941,1.953,580.078
1742203778.554,999.512,972.656,-14.648,999.512
1742203778.557,889.648,-319.824,-55.176,921.875
1742203778.561,999.512,-1000.000,-84.473,933.594
1742203778.565,-309.082,-940.918,-41.992,-471.191
1742203778.569,-1000.000,-1000.000,-59.082,-1000.000
1742203778.573,-948.730,472.168,-114.258,-945.801
1742203778.530,-943.848,888.672,-16.113,-955.078
1742203778.534,-1000.000,-445.312,-58.105,-1000.000
1742203778.538,-942.383,-1000.000,-96.680,-942.383
1742203778.542,-1000.000,84.961,-87.891,-1000.000
1742203778.546,-891.113,987.793,-38.086,-888.672
1742203778.550,573.242,939.941,1.953,580.078
1742203778.554,999.512,972.656,-14.648,999.512
1742203778.557,889.648,-319.824,-55.176,921.875
1742203778.561,999.512,-1000.000,-84.473,933.594
1742203778.565,-309.082,-940.918,-41.992,-471.191
1742203778.569,-1000.000,-1000.000,-59.082,-1000.000
1742203778.573,-948.730,472.168,-114.258,-945.801
1742203778.587,-947.754,993.164,-141.602,-952.148
1742203778.591,-1000.000,-735.840,-158.691,-1000.000
1742203778.595,-891.113,44.922,-126.953,-878.418
1742203778.599,580.566,999.512,-108.398,594.238
1742203778.603,999.512,966.309,-145.996,999.512
1742203778.607,958.984,798.828,-163.086,981.445
1742203778.611,820.312,-656.250,-192.383,674.805
1742203778.614,-650.391,-1000.000,-208.496,-753.418
1742203778.618,-1000.000,-1000.000,-171.387,-1000.000
1742203778.622,-1000.000,-480.957,-145.996,-994.629
1742203778.626,-105.469,802.246,-143.066,44.434
1742203778.630,999.512,999.512,-113.770,999.512
1742203778.587,-947.754,993.164,-141.602,-952.148
1742203778.591,-1000.000,-735.840,-158.691,-1000.000
1742203778.595,-891.113,44.922,-126.953,-878.418
1742203778.599,580.566,999.512,-108.398,594.238
1742203778.603,999.512,966.309,-145.996,999.512
1742203778.607,958.984,798.828,-163.086,981.445
1742203778.611,820.312,-656.250,-192.383,674.805
1742203778.614,-650.391,-1000.000,-208.496,-753.418
1742203778.618,-1000.000,-1000.000,-171.387,-1000.000
1742203778.622,-1000.000,-480.957,-145.996,-994.629
1742203778.626,-105.469,802.246,-143.066,44.434
1742203778.630,999.512,999.512,-113.770,999.512
1742203778.632,938.965,876.465,-93.750,928.711
1742203778.636,947.266,-615.723,-73.242,956.055
1742203778.640,980.469,-970.703,-89.844,979.980
1742203778.644,932.617,612.793,-86.426,932.617
1742203778.648,962.891,999.512,-32.715,966.309
1742203778.652,999.512,803.711,-11.230,999.512
1742203778.656,-299.805,-476.074,-4.883,-308.105
1742203778.659,-1000.000,-1000.000,-27.832,-1000.000
1742203778.663,-936.035,-954.102,-22.461,-939.453
1742203778.667,-996.094,575.684,14.648,-987.793
1742203778.671,-956.055,498.535,17.090,-970.215
1742203778.675,-1000.000,-936.523,12.207,-1000.000
1742203778.632,938.965,876.465,-93.750,928.711
1742203778.636,947.266,-615.723,-73.242,956.055
1742203778.640,980.469,-970.703,-89.844,979.980
1742203778.644,932.617,612.793,-86.426,932.617
1742203778.648,962.891,999.512,-32.715,966.309
1742203778.652,999.512,803.711,-11.230,999.512
1742203778.656,-299.805,-476.074,-4.883,-308.105
1742203778.659,-1000.000,-1000.000,-27.832,-1000.000
1742203778.663,-936.035,-954.102,-22.461,-939.453
1742203778.667,-996.094,575.684,14.648,-987.793
1742203778.671,-956.055,498.535,17.090,-970.215
1742203778.675,-1000.000,-936.523,12.207,-1000.000
1742203778.677,-104.492,611.328,1.465,19.043
1742203778.681,999.512,999.512,12.207,999.512
1742203778.685,940.918,-372.070,35.156,928.223
1742203778.689,947.754,481.445,29.785,958.496
1742203778.693,971.680,-133.301,-5.859,964.355
1742203778.697,909.180,164.551,-8.789,922.363
1742203778.701,999.512,453.125,18.066,999.512
1742203778.704,234.863,-1000.000,25.879,140.137
1742203778.708,-1000.000,-1000.000,-42.480,-1000.000
1742203778.712,-999.512,-1000.000,-27.832,-990.234
1742203778.716,-967.773,352.539,14.160,-974.121
1742203778.720,-1000.000,999.512,-14.648,-1000.000
1742203778.677,-104.492,611.328,1.465,19.043
1742203778.681,999.512,999.512,12.207,999.512
1742203778.685,940.918,-372.070,35.156,928.223
1742203778.689,947.754,481.445,29.785,958.496
1742203778.693,971.680,-133.301,-5.859,964.355
1742203778.697,909.180,164.551,-8.789,922.363
1742203778.701,999.512,453.125,18.066,999.512
1742203778.704,234.863,-1000.000,25.879,140.137
1742203778.708,-1000.000,-1000.000,-42.480,-1000.000
1742203778.712,-999.512,-1000.000,-27.832,-990.234
1742203778.716,-967.773,352.539,14.160,-974.121
1742203778.720,-1000.000,999.512,-14.648,-1000.000
1742203778.722,-947.754,-717.773,-41.992,-948.730
1742203778.726,-1000.000,-948.730,-82.031,-1000.000
1742203778.730,-930.664,697.266,-78.613,-936.035
1742203778.734,503.906,999.512,-24.902,495.117
1742203778.738,999.512,842.773,4.883,999.512
1742203778.742,838.379,999.512,-2.930,868.652
1742203778.746,999.512,326.660,-14.648,999.512
1742203778.749,180.664,-860.840,-21.973,-61.035
1742203778.753,-1000.000,-1000.000,-21.484,-1000.000
1742203778.757,-991.211,-695.312,-0.488,-966.797
1742203778.761,-987.305,774.902,4.395,-999.023
1742203778.765,-935.059,-221.680,-1.465,-936.523
1742203778.722,-947.754,-717.773,-41.992,-948.730
1742203778.726,-1000.000,-948.730,-82.031,-1000.000
1742203778.730,-930.664,697.266,-78.613,-936.035
1742203778.734,503.906,999.512,-24.902,495.117
1742203778.738,999.512,842.773,4.883,999.512
1742203778.742,838.379,999.512,-2.930,868.652
1742203778.746,999.512,326.660,-14.648,999.512
1742203778.749,180.664,-860.840,-21.973,-61.035
1742203778.753,-1000.000,-1000.000,-21.484,-1000.000
1742203778.757,-991.211,-695.312,-0.488,-966.797
1742203778.761,-987.305,774.902,4.395,-999.023
1742203778.765,-935.059,-221.680,-1.465,-936.523
1742203778.767,-1000.000,-1000.000,-11.230,-1000.000
1742203778.771,-601.562,333.984,-42.969,-532.715
1742203778.775,845.703,999.512,7.324,870.605
1742203778.779,999.512,787.109,29.785,999.512
1742203778.783,908.203,-720.215,-58.594,914.551
1742203778.787,982.422,76.660,-57.129,981.445
1742203778.791,981.445,565.918,-42.969,982.422
1742203778.794,912.109,-1000.000,-75.684,911.133
1742203778.798,999.512,-786.133,-104.980,999.512
1742203778.802,887.207,652.832,-111.328,874.023
1742203778.806,-551.270,-542.480,-104.492,-571.777
1742203778.810,-1000.000,-1000.000,-124.023,-1000.000
1742203778.815,-925.781,736.328,-106.934,-925.781
1742203778.819,-1000.000,134.766,-125.000,-1000.000
1742203778.823,-1000.000,-1000.000,-146.484,-1000.000
1742203778.827,-942.383,617.188,-120.605,-941.895
1742203778.831,-1000.000,871.094,-101.074,-1000.000
1742203778.835,-891.113,-673.828,-108.887,-884.766
1742203778.839,563.477,577.637,-127.930,572.754
1742203778.842,999.512,999.512,-132.324,999.512
1742203778.846,891.602,-845.703,-142.578,893.066
1742203778.850,999.023,-839.844,-138.184,995.605
1742203778.854,893.555,801.270,-116.211,898.926
1742203778.858,999.512,999.512,-99.609,999.512
1742203778.815,-925.781,736.328,-106.934,-925.781
1742203778.819,-1000.000,134.766,-125.000,-1000.000
1742203778.823,-1000.000,-1000.000,-146.484,-1000.000
1742203778.827,-942.383,617.188,-120.605,-941.895
1742203778.831,-1000.000,871.094,-101.074,-1000.000
1742203778.835,-891.113,-673.828,-108.887,-884.766
1742203778.839,563.477,577.637,-127.930,572.754
1742203778.842,999.512,999.512,-132.324,999.512
1742203778.846,891.602,-845.703,-142.578,893.066
1742203778.850,999.023,-839.844,-138.184,995.605
1742203778.854,893.555,801.270,-116.211,898.926
1742203778.858,999.512,999.512,-99.609,999.512
1742203778.858,628.906,-399.902,-97.168,543.945
1742203778.862,-840.332,-1000.000,-110.840,-873.047
1742203778.866,-1000.000,-359.375,-98.145,-1000.000
1742203778.870,-937.988,970.703,-74.219,-944.336
1742203778.874,-1000.000,-428.223,-88.867,-1000.000
1742203778.878,-1000.000,-272.949,-58.105,-1000.000
1742203778.882,-932.129,423.828,-55.664,-931.641
1742203778.885,-1000.000,-1000.000,-104.980,-1000.000
1742203778.889,-767.090,-543.945,-107.910,-728.027
1742203778.893,711.426,999.512,-81.543,739.746
1742203778.897,999.512,655.273,-53.711,999.512
1742203778.901,896.973,-861.816,-14.160,900.391
1742203778.858,628.906,-399.902,-97.168,543.945
1742203778.862,-840.332,-1000.000,-110.840,-873.047
1742203778.866,-1000.000,-359.375,-98.145,-1000.000
1742203778.870,-937.988,970.703,-74.219,-944.336
1742203778.874,-1000.000,-428.223,-88.867,-1000.000
1742203778.878,-1000.000,-272.949,-58.105,-1000.000
1742203778.882,-932.129,423.828,-55.664,-931.641
1742203778.885,-1000.000,-1000.000,-104.980,-1000.000
1742203778.889,-767.090,-543.945,-107.910,-728.027
1742203778.893,711.426,999.512,-81.543,739.746
1742203778.897,999.512,655.273,-53.711,999.512
1742203778.901,896.973,-861.816,-14.160,900.391
1742203778.903,998.535,-69.336,15.625,999.023
1742203778.907,914.062,999.512,41.016,914.062
1742203778.911,999.512,437.500,63.477,999.512
1742203778.915,902.344,-839.844,56.641,895.020
1742203778.919,-525.391,-1000.000,46.875,-535.645
1742203778.923,-1000.000,-199.219,31.250,-1000.000
1742203778.927,-925.781,420.898,40.039,-925.781
1742203778.930,-1000.000,-918.945,19.531,-1000.000
1742203778.934,-1000.000,-968.262,-24.902,-1000.000
1742203778.938,-942.383,786.133,-26.855,-942.871
1742203778.942,-1000.000,18.555,12.695,-1000.000
1742203778.946,-891.113,-1000.000,26.855,-893.555
1742203778.903,998.535,-69.336,15.625,999.023
1742203778.907,914.062,999.512,41.016,914.062
1742203778.911,999.512,437.500,63.477,999.512
1742203778.915,902.344,-839.844,56.641,895.020
1742203778.919,-525.391,-1000.000,46.875,-535.645
1742203778.923,-1000.000,-199.219,31.250,-1000.000
1742203778.927,-925.781,420.898,40.039,-925.781
1742203778.930,-1000.000,-918.945,19.531,-1000.000
1742203778.934,-1000.000,-968.262,-24.902,-1000.000
1742203778.938,-942.383,786.133,-26.855,-942.871
1742203778.942,-1000.000,18.555,12.695,-1000.000
1742203778.946,-891.113,-1000.000,26.855,-893.555
1742203778.962,563.965,742.676,3.906,560.547
1742203778.966,999.512,952.148,9.766,999.512
1742203778.970,891.602,-494.629,35.156,892.578
1742203778.974,991.211,546.387,69.336,992.188
1742203778.978,921.875,-15.137,25.391,922.363
1742203778.982,999.512,-24.902,11.719,999.512
1742203778.986,811.035,563.965,2.930,807.617
1742203778.989,-544.922,-865.723,17.090,-548.340
1742203778.993,-1000.000,-1000.000,-34.668,-1000.000
1742203778.997,-934.082,-896.973,-92.773,-934.082
1742203779.001,-1000.000,657.227,-82.520,-1000.000
1742203779.005,-1000.000,872.070,-78.613,-1000.000
1742203778.962,563.965,742.676,3.906,560.547
1742203778.966,999.512,952.148,9.766,999.512
1742203778.970,891.602,-494.629,35.156,892.578
1742203778.974,991.211,546.387,69.336,992.188
1742203778.978,921.875,-15.137,25.391,922.363
1742203778.982,999.512,-24.902,11.719,999.512
1742203778.986,811.035,563.965,2.930,807.617
1742203778.989,-544.922,-865.723,17.090,-548.340
1742203778.993,-1000.000,-1000.000,-34.668,-1000.000
1742203778.997,-934.082,-896.973,-92.773,-934.082
1742203779.001,-1000.000,657.227,-82.520,-1000.000
1742203779.005,-1000.000,872.070,-78.613,-1000.000
1742203779.007,-936.523,-881.348,-87.891,-936.035
1742203779.011,-1000.000,-133.789,-66.895,-1000.000
1742203779.015,-824.219,999.512,-36.621,-787.109
1742203779.019,661.133,870.605,-1.953,687.988
1742203779.023,999.512,998.047,24.414,999.512
1742203779.027,922.852,875.977,15.625,942.383
1742203779.031,946.777,-585.449,-8.301,871.582
1742203779.034,-476.074,-1000.000,-10.742,-561.035
1742203779.038,-1000.000,-1000.000,-14.648,-1000.000
1742203779.042,-937.500,-557.129,-2.930,-940.430
1742203779.046,-972.168,792.480,12.695,-971.680
1742203779.050,-1000.000,-585.449,-3.906,-1000.000
1742203779.007,-936.523,-881.348,-87.891,-936.035
1742203779.011,-1000.000,-133.789,-66.895,-1000.000
1742203779.015,-824.219,999.512,-36.621,-787.109
1742203779.019,661.133,870.605,-1.953,687.988
1742203779.023,999.512,998.047,24.414,999.512
1742203779.027,922.852,875.977,15.625,942.383
1742203779.031,946.777,-585.449,-8.301,871.582
1742203779.034,-476.074,-1000.000,-10.742,-561.035
1742203779.038,-1000.000,-1000.000,-14.648,-1000.000
1742203779.042,-937.500,-557.129,-2.930,-940.430
1742203779.046,-972.168,792.480,12.695,-971.680
1742203779.050,-1000.000,-585.449,-3.906,-1000.000
1742203779.052,-1000.000,-997.070,11.230,-996.582
1742203779.056,366.211,650.391,14.160,386.230
1742203779.060,999.512,999.512,48.828,999.512
1742203779.064,948.730,776.367,64.453,959.961
1742203779.068,865.723,-577.637,1.953,817.383
1742203779.072,-597.656,-1000.000,30.273,-646.973
1742203779.076,-1000.000,-803.223,56.152,-1000.000
1742203779.079,-925.781,-877.930,62.012,-928.223
1742203779.083,-1000.000,-943.359,64.453,-1000.000
1742203779.087,-930.176,555.176,63.477,-930.176
1742203779.091,-1000.000,-72.266,96.680,-1000.000
1742203779.095,-729.492,-657.227,94.727,-694.336
1742203779.052,-1000.000,-997.070,11.230,-996.582
1742203779.056,366.211,650.391,14.160,386.230
1742203779.060,999.512,999.512,48.828,999.512
1742203779.064,948.730,776.367,64.453,959.961
1742203779.068,865.723,-577.637,1.953,817.383
1742203779.072,-597.656,-1000.000,30.273,-646.973
1742203779.076,-1000.000,-803.223,56.152,-1000.000
1742203779.079,-925.781,-877.930,62.012,-928.223
1742203779.083,-1000.000,-943.359,64.453,-1000.000
1742203779.087,-930.176,555.176,63.477,-930.176
1742203779.091,-1000.000,-72.266,96.680,-1000.000
1742203779.095,-729.492,-657.227,94.727,-694.336
1742203779.098,748.535,997.559,122.559,770.020
1742203779.102,999.512,929.199,110.840,999.512
1742203779.106,899.414,-762.695,61.523,902.832
1742203779.110,997.559,-846.680,80.078,998.047
1742203779.114,918.457,693.359,87.891,917.480
1742203779.118,995.605,999.512,109.375,999.512
1742203779.122,929.199,730.957,131.348,918.945
1742203779.125,-477.539,-658.691,33.203,-494.141
1742203779.129,-1000.000,-1000.000,-31.250,-1000.000
1742203779.133,-926.270,-985.352,-14.648,-926.270
1742203779.137,-1000.000,-916.504,-47.363,-1000.000
1742203779.141,-1000.000,698.730,-82.520,-1000.000
1742203779.098,748.535,997.559,122.559,770.020
1742203779.102,999.512,929.199,110.840,999.512
1742203779.106,899.414,-762.695,61.523,902.832
1742203779.110,997.559,-846.680,80.078,998.047
1742203779.114,918.457,693.359,87.891,917.480
1742203779.118,995.605,999.512,109.375,999.512
1742203779.122,929.199,730.957,131.348,918.945
1742203779.125,-477.539,-658.691,33.203,-494.141
1742203779.129,-1000.000,-1000.000,-31.250,-1000.000
1742203779.133,-926.270,-985.352,-14.648,-926.270
1742203779.137,-1000.000,-916.504,-47.363,-1000.000
1742203779.141,-1000.000,698.730,-82.520,-1000.000
1742203779.142,-942.383,665.039,-114.746,-941.895
1742203779.146,-1000.000,-1000.000,-93.750,-1000.000
1742203779.150,-891.113,-828.125,-41.016,-886.230
1742203779.154,563.965,829.590,-20.020,570.312
1742203779.158,999.512,940.430,-69.824,999.512
1742203779.162,891.602,-760.742,-125.488,892.578
1742203779.166,987.793,-989.746,-114.258,989.746
1742203779.169,945.801,756.348,-87.402,942.383
1742203779.173,939.453,408.203,-76.660,948.730
1742203779.177,999.512,-1000.000,-69.824,999.512
1742203779.181,-115.723,-937.988,-79.102,-160.156
1742203779.185,-1000.000,-1000.000,-87.891,-1000.000
1742203779.142,-942.383,665.039,-114.746,-941.895
1742203779.146,-1000.000,-1000.000,-93.750,-1000.000
1742203779.150,-891.113,-828.125,-41.016,-886.230
1742203779.154,563.965,829.590,-20.020,570.312
1742203779.158,999.512,940.430,-69.824,999.512
1742203779.162,891.602,-760.742,-125.488,892.578
1742203779.166,987.793,-989.746,-114.258,989.746
1742203779.169,945.801,756.348,-87.402,942.383
1742203779.173,939.453,408.203,-76.660,948.730
1742203779.177,999.512,-1000.000,-69.824,999.512
1742203779.181,-115.723,-937.988,-79.102,-160.156
1742203779.185,-1000.000,-1000.000,-87.891,-1000.000
1742203779.189,-950.684,-402.832,-92.773,-949.707
1742203779.193,-993.652,922.363,-59.570,-995.605
1742203779.197,-1000.000,-291.504,-52.246,-1000.000
1742203779.201,-934.082,-1000.000,-90.332,-935.547
1742203779.205,-1000.000,91.797,-102.539,-1000.000
1742203779.209,-793.945,962.402,-70.312,-771.484
1742203779.213,682.617,999.512,-52.734,688.477
1742203779.216,999.512,754.395,-62.988,999.512
1742203779.220,895.508,-766.602,-65.430,898.438
1742203779.224,983.398,-1000.000,-34.668,983.887
1742203779.228,983.398,691.895,27.832,979.004
1742203779.232,894.043,853.027,28.809,900.391
1742203779.189,-950.684,-402.832,-92.773,-949.707
1742203779.193,-993.652,922.363,-59.570,-995.605
1742203779.197,-1000.000,-291.504,-52.246,-1000.000
1742203779.201,-934.082,-1000.000,-90.332,-935.547
1742203779.205,-1000.000,91.797,-102.539,-1000.000
1742203779.209,-793.945,962.402,-70.312,-771.484
1742203779.213,682.617,999.512,-52.734,688.477
1742203779.216,999.512,754.395,-62.988,999.512
1742203779.220,895.508,-766.602,-65.430,898.438
1742203779.224,983.398,-1000.000,-34.668,983.887
1742203779.228,983.398,691.895,27.832,979.004
1742203779.232,894.043,853.027,28.809,900.391
1742203779.232,999.512,-696.777,-34.668,999.512
1742203779.236,643.555,-1000.000,-58.105,548.340
1742203779.240,-828.125,-837.402,-32.227,-867.188
1742203779.244,-1000.000,579.590,-28.809,-1000.000
1742203779.248,-865.234,-179.688,-24.414,-910.156
1742203779.252,-1000.000,-236.328,-9.277,-1000.000
1742203779.256,-687.500,999.512,-84.473,-250.977
1742203779.259,782.715,999.512,-86.914,910.156
1742203779.263,999.512,192.383,-28.809,982.910
1742203779.267,918.457,-1000.000,-53.223,949.219
1742203779.271,925.781,-896.484,-28.809,916.504
1742203779.275,999.512,716.309,-1.953,999.512
1742203779.232,999.512,-696.777,-34.668,999.512
1742203779.236,643.555,-1000.000,-58.105,548.340
1742203779.240,-828.125,-837.402,-32.227,-867.188
1742203779.244,-1000.000,579.590,-28.809,-1000.000
1742203779.248,-865.234,-179.688,-24.414,-910.156
1742203779.252,-1000.000,-236.328,-9.277,-1000.000
1742203779.256,-687.500,999.512,-84.473,-250.977
1742203779.259,782.715,999.512,-86.914,910.156
1742203779.263,999.512,192.383,-28.809,982.910
1742203779.267,918.457,-1000.000,-53.223,949.219
1742203779.271,925.781,-896.484,-28.809,916.504
1742203779.275,999.512,716.309,-1.953,999.512
1742203779.279,857.422,843.262,15.137,822.754
1742203779.283,-597.656,-852.051,13.184,-639.648
1742203779.287,-1000.000,-1000.000,-25.879,-1000.000
1742203779.291,-925.781,565.430,-2.441,-927.246
1742203779.295,-1000.000,967.285,23.926,-1000.000
1742203779.299,-1000.000,862.305,31.738,-1000.000
1742203779.303,-942.383,704.590,23.438,-940.430
1742203779.306,-1000.000,-841.797,-0.488,-1000.000
1742203779.310,-891.113,-876.953,-0.977,-863.281
1742203779.314,563.965,725.098,11.230,597.656
1742203779.318,999.512,999.512,43.457,999.512
1742203779.322,891.602,-387.695,26.855,893.555
1742203779.279,857.422,843.262,15.137,822.754
1742203779.283,-597.656,-852.051,13.184,-639.648
1742203779.287,-1000.000,-1000.000,-25.879,-1000.000
1742203779.291,-925.781,565.430,-2.441,-927.246
1742203779.295,-1000.000,967.285,23.926,-1000.000
1742203779.299,-1000.000,862.305,31.738,-1000.000
1742203779.303,-942.383,704.590,23.438,-940.430
1742203779.306,-1000.000,-841.797,-0.488,-1000.000
1742203779.310,-891.113,-876.953,-0.977,-863.281
1742203779.314,563.965,725.098,11.230,597.656
1742203779.318,999.512,999.512,43.457,999.512
1742203779.322,891.602,-387.695,26.855,893.555
1742203779.337,982.422,-1000.000,17.090,983.398
1742203779.341,966.309,662.109,25.879,967.285
1742203779.345,966.309,-84.961,24.414,965.332
1742203779.349,982.910,-509.766,3.418,986.816
1742203779.353,908.203,843.262,-22.949,898.926
1742203779.357,999.512,999.512,39.551,999.512
1742203779.361,852.539,106.934,39.551,854.980
1742203779.364,-604.492,-943.359,-54.199,-603.027
1742203779.368,-1000.000,-1000.000,-93.262,-1000.000
1742203779.372,-925.781,-885.254,-49.805,-925.781
1742203779.376,-1000.000,724.609,-23.926,-1000.000
1742203779.380,-1000.000,876.953,-40.527,-1000.000
1742203779.337,982.422,-1000.000,17.090,983.398
1742203779.341,966.309,662.109,25.879,967.285
1742203779.345,966.309,-84.961,24.414,965.332
1742203779.349,982.910,-509.766,3.418,986.816
1742203779.353,908.203,843.262,-22.949,898.926
1742203779.357,999.512,999.512,39.551,999.512
1742203779.361,852.539,106.934,39.551,854.980
1742203779.364,-604.492,-943.359,-54.199,-603.027
1742203779.368,-1000.000,-1000.000,-93.262,-1000.000
1742203779.372,-925.781,-885.254,-49.805,-925.781
1742203779.376,-1000.000,724.609,-23.926,-1000.000
1742203779.380,-1000.000,876.953,-40.527,-1000.000
1742203779.382,-1000.000,-555.176,-15.137,-1000.000
1742203779.386,-943.848,418.945,-39.062,-945.312
1742203779.390,-1000.000,-362.793,-101.562,-1000.000
1742203779.394,-902.344,-918.945,-103.027,-912.598
1742203779.398,545.898,824.219,-91.797,531.250
1742203779.402,999.512,999.512,-56.641,999.512
1742203779.406,891.602,-340.332,-77.637,892.090
1742203779.409,981.934,-1000.000,-105.469,981.934
1742203779.413,966.309,113.770,-94.727,966.797
1742203779.417,982.422,999.512,-77.637,983.398
1742203779.421,908.691,-718.750,-76.660,906.250
1742203779.425,999.512,-687.988,-94.727,999.512
1742203779.382,-1000.000,-555.176,-15.137,-1000.000
1742203779.386,-943.848,418.945,-39.062,-945.312
1742203779.390,-1000.000,-362.793,-101.562,-1000.000
1742203779.394,-902.344,-918.945,-103.027,-912.598
1742203779.398,545.898,824.219,-91.797,531.250
1742203779.402,999.512,999.512,-56.641,999.512
1742203779.406,891.602,-340.332,-77.637,892.090
1742203779.409,981.934,-1000.000,-105.469,981.934
1742203779.413,966.309,113.770,-94.727,966.797
1742203779.417,982.422,999.512,-77.637,983.398
1742203779.421,908.691,-718.750,-76.660,906.250
1742203779.425,999.512,-687.988,-94.727,999.512
1742203779.427,856.934,813.477,-100.098,820.312
1742203779.431,-597.656,-601.074,-77.148,-639.160
1742203779.435,-1000.000,-1000.000,-75.195,-1000.000
1742203779.439,-925.781,812.500,-16.113,-927.246
1742203779.443,-1000.000,873.047,-52.246,-1000.000
1742203779.447,-1000.000,-882.812,-125.977,-1000.000
1742203779.451,-1000.000,39.062,-92.285,-1000.000
1742203779.454,-937.012,354.980,-103.027,-937.012
1742203779.458,-1000.000,-1000.000,-140.625,-1000.000
1742203779.462,-829.102,-170.898,-153.809,-817.383
1742203779.466,642.090,952.637,-137.695,647.461
1742203779.470,999.512,999.512,-70.801,999.512
1742203779.427,856.934,813.477,-100.098,820.312
1742203779.431,-597.656,-601.074,-77.148,-639.160
1742203779.435,-1000.000,-1000.000,-75.195,-1000.000
1742203779.439,-925.781,812.500,-16.113,-927.246
1742203779.443,-1000.000,873.047,-52.246,-1000.000
1742203779.447,-1000.000,-882.812,-125.977,-1000.000
1742203779.451,-1000.000,39.062,-92.285,-1000.000
1742203779.454,-937.012,354.980,-103.027,-937.012
1742203779.458,-1000.000,-1000.000,-140.625,-1000.000
1742203779.462,-829.102,-170.898,-153.809,-817.383
1742203779.466,642.090,952.637,-137.695,647.461
1742203779.470,999.512,999.512,-70.801,999.512
1742203779.472,894.043,762.207,-40.039,895.508
1742203779.476,983.398,-696.777,-72.266,983.887
1742203779.480,966.309,-1000.000,-120.605,966.797
1742203779.484,966.309,471.191,-124.023,966.797
1742203779.488,967.285,974.121,-92.285,969.238
1742203779.492,969.727,473.633,-64.453,964.844
1742203779.496,905.273,-350.586,-70.312,913.574
1742203779.499,999.512,35.645,-85.449,999.512
1742203779.503,291.992,131.348,-87.891,203.613
1742203779.507,-1000.000,-1000.000,-98.145,-1000.000
1742203779.511,-1000.000,-992.676,-100.098,-996.094
1742203779.515,-963.867,557.129,-40.039,-970.215
1742203779.472,894.043,762.207,-40.039,895.508
1742203779.476,983.398,-696.777,-72.266,983.887
1742203779.480,966.309,-1000.000,-120.605,966.797
1742203779.484,966.309,471.191,-124.023,966.797
1742203779.488,967.285,974.121,-92.285,969.238
1742203779.492,969.727,473.633,-64.453,964.844
1742203779.496,905.273,-350.586,-70.312,913.574
1742203779.499,999.512,35.645,-85.449,999.512
1742203779.503,291.992,131.348,-87.891,203.613
1742203779.507,-1000.000,-1000.000,-98.145,-1000.000
1742203779.511,-1000.000,-992.676,-100.098,-996.094
1742203779.515,-963.867,557.129,-40.039,-970.215
1742203779.517,-1000.000,979.980,-19.043,-1000.000
1742203779.521,-942.383,-778.320,-78.125,-941.406
1742203779.525,-1000.000,-291.504,-43.457,-1000.000
1742203779.529,-890.625,999.512,-22.949,-874.023
1742203779.533,573.730,887.695,-71.777,573.730
1742203779.537,999.512,999.512,-19.531,999.512
1742203779.541,999.512,819.336,-41.016,985.352
1742203779.544,445.801,-667.969,-82.031,155.273
1742203779.548,-947.754,-1000.000,-35.156,-1000.000
1742203779.552,-1000.000,-971.680,-50.293,-990.723
1742203779.556,-953.613,-946.289,-62.988,-975.098
1742203779.560,-1000.000,666.992,-52.246,-1000.000
1742203779.564,-934.082,978.027,-38.574,-939.453
1742203779.568,-1000.000,-807.129,-20.020,-1000.000
1742203779.572,-418.945,-196.289,34.668,-358.887
1742203779.576,933.105,999.512,71.289,949.219
1742203779.580,989.258,958.008,91.309,981.934
1742203779.584,922.363,894.531,120.117,927.246
1742203779.588,978.516,-404.785,38.086,978.027
1742203779.591,974.121,-1000.000,-52.734,977.051
1742203779.595,935.059,-877.930,-70.312,928.711
1742203779.599,958.008,535.645,-89.844,974.121
1742203779.603,999.512,999.512,-88.867,981.445
1742203779.607,-269.531,-481.934,-71.289,-354.004
1742203779.564,-934.082,978.027,-38.574,-939.453
1742203779.568,-1000.000,-807.129,-20.020,-1000.000
1742203779.572,-418.945,-196.289,34.668,-358.887
1742203779.576,933.105,999.512,71.289,949.219
1742203779.580,989.258,958.008,91.309,981.934
1742203779.584,922.363,894.531,120.117,927.246
1742203779.588,978.516,-404.785,38.086,978.027
1742203779.591,974.121,-1000.000,-52.734,977.051
1742203779.595,935.059,-877.930,-70.312,928.711
1742203779.599,958.008,535.645,-89.844,974.121
1742203779.603,999.512,999.512,-88.867,981.445
1742203779.607,-269.531,-481.934,-71.289,-354.004
1742203779.607,-1000.000,-1000.000,-133.301,-1000.000
1742203779.611,-934.570,-1000.000,-150.391,-932.129
1742203779.615,-1000.000,-266.113,-101.562,-1000.000
1742203779.619,-927.246,828.125,-103.027,-932.129
1742203779.623,-1000.000,-594.238,-116.699,-1000.000
1742203779.627,-642.578,98.633,-83.496,-549.316
1742203779.631,820.801,999.512,-83.008,859.375
1742203779.634,999.512,697.266,-97.656,999.512
1742203779.638,905.273,-841.309,-96.680,913.086
1742203779.642,982.910,-488.770,-90.332,981.934
1742203779.646,981.445,999.512,-42.969,982.422
1742203779.650,913.574,-320.312,-44.434,912.598
1742203779.607,-1000.000,-1000.000,-133.301,-1000.000
1742203779.611,-934.570,-1000.000,-150.391,-932.129
1742203779.615,-1000.000,-266.113,-101.562,-1000.000
1742203779.619,-927.246,828.125,-103.027,-932.129
1742203779.623,-1000.000,-594.238,-116.699,-1000.000
1742203779.627,-642.578,98.633,-83.496,-549.316
1742203779.631,820.801,999.512,-83.008,859.375
1742203779.634,999.512,697.266,-97.656,999.512
1742203779.638,905.273,-841.309,-96.680,913.086
1742203779.642,982.910,-488.770,-90.332,981.934
1742203779.646,981.445,999.512,-42.969,982.422
1742203779.650,913.574,-320.312,-44.434,912.598
1742203779.655,999.512,-995.117,-83.984,999.512
1742203779.659,895.996,526.367,-77.148,883.789
1742203779.663,-537.109,-379.883,-65.918,-556.641
1742203779.667,-1000.000,-1000.000,-73.242,-1000.000
1742203779.671,-925.781,-514.648,-38.086,-925.781
1742203779.675,-1000.000,785.156,33.691,-1000.000
1742203779.679,-942.383,-259.277,33.203,-942.383
1742203779.682,-1000.000,-1000.000,-2.930,-1000.000
1742203779.686,-891.113,-20.020,-3.906,-887.695
1742203779.690,563.965,999.512,10.254,568.848
1742203779.694,999.512,526.367,16.113,999.512
1742203779.698,891.602,728.516,38.086,892.578
1742203779.655,999.512,-995.117,-83.984,999.512
1742203779.659,895.996,526.367,-77.148,883.789
1742203779.663,-537.109,-379.883,-65.918,-556.641
1742203779.667,-1000.000,-1000.000,-73.242,-1000.000
1742203779.671,-925.781,-514.648,-38.086,-925.781
1742203779.675,-1000.000,785.156,33.691,-1000.000
1742203779.679,-942.383,-259.277,33.203,-942.383
1742203779.682,-1000.000,-1000.000,-2.930,-1000.000
1742203779.686,-891.113,-20.020,-3.906,-887.695
1742203779.690,563.965,999.512,10.254,568.848
1742203779.694,999.512,526.367,16.113,999.512
1742203779.698,891.602,728.516,38.086,892.578
1742203779.712,981.934,702.637,33.203,982.910
1742203779.716,982.910,-919.434,-23.926,983.887
1742203779.720,906.250,-761.719,-16.113,905.273
1742203779.724,999.512,978.027,27.344,999.512
1742203779.728,834.961,547.852,18.066,810.547
1742203779.732,-626.953,-960.449,33.203,-654.297
1742203779.736,-1000.000,-955.078,4.395,-1000.000
1742203779.739,-926.270,-1000.000,-83.008,-927.734
1742203779.743,-1000.000,-536.621,-76.660,-1000.000
1742203779.747,-954.590,792.480,-26.855,-953.613
1742203779.751,-1000.000,-589.355,-23.926,-1000.000
1742203779.755,-979.980,-754.883,-34.180,-967.773
1742203779.712,981.934,702.637,33.203,982.910
1742203779.716,982.910,-919.434,-23.926,983.887
1742203779.720,906.250,-761.719,-16.113,905.273
1742203779.724,999.512,978.027,27.344,999.512
1742203779.728,834.961,547.852,18.066,810.547
1742203779.732,-626.953,-960.449,33.203,-654.297
1742203779.736,-1000.000,-955.078,4.395,-1000.000
1742203779.739,-926.270,-1000.000,-83.008,-927.734
1742203779.743,-1000.000,-536.621,-76.660,-1000.000
1742203779.747,-954.590,792.480,-26.855,-953.613
1742203779.751,-1000.000,-589.355,-23.926,-1000.000
1742203779.755,-979.980,-754.883,-34.180,-967.773
1742203779.757,413.574,899.902,-30.762,428.223
1742203779.761,999.512,999.512,11.230,999.512
1742203779.765,892.578,-337.402,-0.977,894.043
1742203779.769,977.539,-1000.000,-65.918,978.516
1742203779.773,966.309,561.523,-73.242,967.285
1742203779.777,983.887,999.512,-16.113,979.492
1742203779.781,897.949,-595.215,-61.523,901.367
1742203779.784,999.512,-633.789,-93.262,999.512
1742203779.788,724.121,617.188,-83.984,574.219
1742203779.792,-754.395,-739.746,-78.613,-839.355
1742203779.796,-1000.000,-1000.000,-79.102,-1000.000
1742203779.800,-936.523,522.949,-67.871,-949.707
1742203779.757,413.574,899.902,-30.762,428.223
1742203779.761,999.512,999.512,11.230,999.512
1742203779.765,892.578,-337.402,-0.977,894.043
1742203779.769,977.539,-1000.000,-65.918,978.516
1742203779.773,966.309,561.523,-73.242,967.285
1742203779.777,983.887,999.512,-16.113,979.492
1742203779.781,897.949,-595.215,-61.523,901.367
1742203779.784,999.512,-633.789,-93.262,999.512
1742203779.788,724.121,617.188,-83.984,574.219
1742203779.792,-754.395,-739.746,-78.613,-839.355
1742203779.796,-1000.000,-1000.000,-79.102,-1000.000
1742203779.800,-936.523,522.949,-67.871,-949.707
1742203779.802,-999.023,999.512,-54.199,-990.723
1742203779.806,-971.191,-544.922,-67.871,-983.887
1742203779.810,-1000.000,-428.223,-63.477,-1000.000
1742203779.814,76.172,995.605,-71.777,140.625
1742203779.818,999.512,964.355,-70.801,999.512
1742203779.822,964.844,953.613,-19.043,969.238
1742203779.826,874.512,-166.504,-27.832,861.328
1742203779.829,-555.176,-1000.000,-74.219,-579.590
1742203779.833,-1000.000,-896.973,-41.016,-1000.000
1742203779.837,-925.781,-1000.000,-19.531,-925.781
1742203779.841,-1000.000,-901.367,-44.434,-1000.000
1742203779.845,-1000.000,621.094,-15.137,-1000.000
1742203779.802,-999.023,999.512,-54.199,-990.723
1742203779.806,-971.191,-544.922,-67.871,-983.887
1742203779.810,-1000.000,-428.223,-63.477,-1000.000
1742203779.814,76.172,995.605,-71.777,140.625
1742203779.818,999.512,964.355,-70.801,999.512
1742203779.822,964.844,953.613,-19.043,969.238
1742203779.826,874.512,-166.504,-27.832,861.328
1742203779.829,-555.176,-1000.000,-74.219,-579.590
1742203779.833,-1000.000,-896.973,-41.016,-1000.000
1742203779.837,-925.781,-1000.000,-19.531,-925.781
1742203779.841,-1000.000,-901.367,-44.434,-1000.000
1742203779.845,-1000.000,621.094,-15.137,-1000.000
1742203779.847,-935.547,999.512,2.441,-934.570
1742203779.851,-1000.000,-617.676,-40.527,-1000.000
1742203779.855,-812.500,-854.980,-103.516,-716.309
1742203779.859,663.086,769.043,-99.121,730.957
1742203779.863,999.512,999.512,-49.316,999.512
1742203779.867,894.531,932.617,-26.367,901.855
1742203779.871,984.863,75.195,-9.766,985.840
1742203779.874,970.215,-1000.000,-30.762,962.891
1742203779.878,904.297,-960.449,-34.180,916.992
1742203779.882,999.512,489.258,-38.086,999.512
1742203779.886,304.199,-16.602,6.348,168.945
1742203779.890,-998.535,-1000.000,56.152,-1000.000
1742203779.847,-935.547,999.512,2.441,-934.570
1742203779.851,-1000.000,-617.676,-40.527,-1000.000
1742203779.855,-812.500,-854.980,-103.516,-716.309
1742203779.859,663.086,769.043,-99.121,730.957
1742203779.863,999.512,999.512,-49.316,999.512
1742203779.867,894.531,932.617,-26.367,901.855
1742203779.871,984.863,75.195,-9.766,985.840
1742203779.874,970.215,-1000.000,-30.762,962.891
1742203779.878,904.297,-960.449,-34.180,916.992
1742203779.882,999.512,489.258,-38.086,999.512
1742203779.886,304.199,-16.602,6.348,168.945
1742203779.890,-998.535,-1000.000,56.152,-1000.000
1742203779.892,-1000.000,-936.035,2.930,-991.211
1742203779.896,-965.820,-22.461,-18.066,-976.562
1742203779.900,-1000.000,535.156,17.090,-995.605
1742203779.904,-956.543,534.180,46.875,-961.914
1742203779.908,-1000.000,-573.730,-17.578,-1000.000
1742203779.912,-93.750,251.465,-7.324,-49.805
1742203779.916,999.512,999.512,68.359,999.512
1742203779.919,939.941,-424.805,51.758,935.547
1742203779.923,947.266,-1000.000,29.297,950.684
1742203779.927,988.281,-60.059,36.133,987.793
1742203779.931,906.738,999.512,46.387,904.785
1742203779.935,999.512,312.500,51.758,999.512
1742203779.892,-1000.000,-936.035,2.930,-991.211
1742203779.896,-965.820,-22.461,-18.066,-976.562
1742203779.900,-1000.000,535.156,17.090,-995.605
1742203779.904,-956.543,534.180,46.875,-961.914
1742203779.908,-1000.000,-573.730,-17.578,-1000.000
1742203779.912,-93.750,251.465,-7.324,-49.805
1742203779.916,999.512,999.512,68.359,999.512
1742203779.919,939.941,-424.805,51.758,935.547
1742203779.923,947.266,-1000.000,29.297,950.684
1742203779.927,988.281,-60.059,36.133,987.793
1742203779.931,906.738,999.512,46.387,904.785
1742203779.935,999.512,312.500,51.758,999.512
1742203779.940,839.844,-959.961,19.531,784.180
1742203779.944,-625.488,-958.984,6.836,-682.617
1742203779.948,-1000.000,-1000.000,-10.254,-1000.000
1742203779.952,-896.484,-469.238,13.672,-920.410
1742203779.956,-1000.000,854.004,68.848,-1000.000
1742203779.960,56.152,973.633,97.168,181.152
1742203779.964,999.512,999.512,84.473,999.512
1742203779.967,926.270,-69.336,106.445,920.410
1742203779.971,933.105,-1000.000,150.391,938.477
1742203779.975,948.730,342.285,97.656,953.125
1742203779.979,999.512,999.512,55.176,999.512
1742203779.983,-175.781,-534.668,40.039,-194.824
1742203779.983,-1000.000,-1000.000,5.371,-1000.000
1742203779.987,-943.848,-769.043,-9.766,-944.336
1742203779.991,-1000.000,636.719,-6.348,-1000.000
1742203779.995,-998.047,999.512,-17.578,-993.164
1742203779.999,-948.242,-517.090,-47.363,-958.008
1742203780.003,-1000.000,-587.891,-7.324,-1000.000
1742203780.007,-202.637,920.410,12.207,-128.418
1742203780.010,999.512,999.512,19.043,999.512
1742203780.014,882.812,24.414,62.012,900.879
1742203780.018,999.512,-1000.000,39.551,999.512
1742203780.022,585.449,-930.176,-9.766,283.691
1742203780.026,-866.211,-1000.000,-49.316,-989.746
1742203780.029,-1000.000,-319.336,-38.086,-1000.000
1742203780.033,187.500,875.000,26.367,309.082
1742203780.037,999.512,999.512,-0.977,999.512
1742203780.041,911.133,789.062,-38.086,904.297
1742203780.045,979.004,-657.715,-28.320,986.816
1742203780.049,910.156,192.871,-19.531,908.203
1742203780.053,999.512,280.762,-19.531,999.512
1742203780.056,857.422,-734.375,-20.996,834.473
1742203780.060,-597.656,-721.680,-62.500,-625.488
1742203780.064,-1000.000,-1000.000,-109.863,-1000.000
1742203780.068,-925.781,-508.789,-113.770,-926.758
1742203780.072,-1000.000,999.512,-89.844,-1000.000
1742203780.029,-1000.000,-319.336,-38.086,-1000.000
1742203780.033,187.500,875.000,26.367,309.082
1742203780.037,999.512,999.512,-0.977,999.512
1742203780.041,911.133,789.062,-38.086,904.297
1742203780.045,979.004,-657.715,-28.320,986.816
1742203780.049,910.156,192.871,-19.531,908.203
1742203780.053,999.512,280.762,-19.531,999.512
1742203780.056,857.422,-734.375,-20.996,834.473
1742203780.060,-597.656,-721.680,-62.500,-625.488
1742203780.064,-1000.000,-1000.000,-109.863,-1000.000
1742203780.068,-925.781,-508.789,-113.770,-926.758
1742203780.072,-1000.000,999.512,-89.844,-1000.000
1742203780.087,-942.383,-55.664,-66.406,-941.895
1742203780.091,-1000.000,-969.727,-75.195,-1000.000
1742203780.095,-891.113,562.500,-77.148,-882.812
1742203780.099,563.965,999.512,-11.230,574.219
1742203780.103,999.512,679.199,-12.695,999.512
1742203780.107,833.984,-488.770,-23.926,833.008
1742203780.111,999.512,362.305,-28.320,999.512
1742203780.114,856.934,-227.539,-61.523,804.199
1742203780.118,-597.656,-1000.000,-47.363,-645.020
1742203780.122,-1000.000,-948.730,-41.504,-1000.000
1742203780.126,-925.781,-979.004,-90.820,-929.199
1742203780.130,-1000.000,587.402,-108.398,-1000.000
1742203780.087,-942.383,-55.664,-66.406,-941.895
1742203780.091,-1000.000,-969.727,-75.195,-1000.000
1742203780.095,-891.113,562.500,-77.148,-882.812
1742203780.099,563.965,999.512,-11.230,574.219
1742203780.103,999.512,679.199,-12.695,999.512
1742203780.107,833.984,-488.770,-23.926,833.008
1742203780.111,999.512,362.305,-28.320,999.512
1742203780.114,856.934,-227.539,-61.523,804.199
1742203780.118,-597.656,-1000.000,-47.363,-645.020
1742203780.122,-1000.000,-948.730,-41.504,-1000.000
1742203780.126,-925.781,-979.004,-90.820,-929.199
1742203780.130,-1000.000,587.402,-108.398,-1000.000
1742203780.132,-930.664,999.512,-58.105,-931.641
1742203780.136,-1000.000,-814.941,-20.508,-1000.000
1742203780.140,-742.188,-544.434,-51.270,-686.035
1742203780.144,737.305,949.219,-64.453,768.555
1742203780.148,999.512,961.914,-26.367,999.512
1742203780.152,903.320,956.543,8.789,910.645
1742203780.156,964.844,117.676,15.137,957.031
1742203780.159,936.523,-985.352,-23.438,952.637
1742203780.163,999.512,-946.289,-55.664,999.512
1742203780.167,-90.332,-1000.000,-76.660,-187.988
1742203780.171,-1000.000,-1000.000,-80.078,-1000.000
1742203780.175,-953.613,591.797,-24.902,-947.266
1742203780.132,-930.664,999.512,-58.105,-931.641
1742203780.136,-1000.000,-814.941,-20.508,-1000.000
1742203780.140,-742.188,-544.434,-51.270,-686.035
1742203780.144,737.305,949.219,-64.453,768.555
1742203780.148,999.512,961.914,-26.367,999.512
1742203780.152,903.320,956.543,8.789,910.645
1742203780.156,964.844,117.676,15.137,957.031
1742203780.159,936.523,-985.352,-23.438,952.637
1742203780.163,999.512,-946.289,-55.664,999.512
1742203780.167,-90.332,-1000.000,-76.660,-187.988
1742203780.171,-1000.000,-1000.000,-80.078,-1000.000
1742203780.175,-953.613,591.797,-24.902,-947.266
1742203780.177,-992.188,709.961,-20.020,-997.070
1742203780.181,-1000.000,-1000.000,-37.109,-1000.000
1742203780.185,-971.191,-321.777,-25.391,-969.727
1742203780.189,-987.793,965.820,-18.066,-992.188
1742203780.193,-1000.000,-490.723,-46.387,-1000.000
1742203780.197,208.984,228.027,-66.406,219.727
1742203780.201,999.512,999.512,-42.480,999.512
1742203780.204,902.344,-552.734,-67.871,904.785
1742203780.208,968.262,-1000.000,-89.844,969.727
1742203780.212,981.934,206.055,-69.824,975.586
1742203780.216,893.555,999.512,-51.758,903.320
1742203780.220,999.512,-290.039,-41.992,999.512
1742203780.177,-992.188,709.961,-20.020,-997.070
1742203780.181,-1000.000,-1000.000,-37.109,-1000.000
1742203780.185,-971.191,-321.777,-25.391,-969.727
1742203780.189,-987.793,965.820,-18.066,-992.188
1742203780.193,-1000.000,-490.723,-46.387,-1000.000
1742203780.197,208.984,228.027,-66.406,219.727
1742203780.201,999.512,999.512,-42.480,999.512
1742203780.204,902.344,-552.734,-67.871,904.785
1742203780.208,968.262,-1000.000,-89.844,969.727
1742203780.212,981.934,206.055,-69.824,975.586
1742203780.216,893.555,999.512,-51.758,903.320
1742203780.220,999.512,-290.039,-41.992,999.512
1742203780.223,570.801,-1000.000,-75.684,427.246
1742203780.227,-877.441,-1000.000,-94.238,-928.711
1742203780.231,-1000.000,485.840,-95.215,-1000.000
1742203780.235,-942.383,740.723,-87.402,-953.125
1742203780.239,-1000.000,-715.332,-77.148,-1000.000
1742203780.243,-1000.000,407.715,-58.105,-1000.000
1742203780.247,-926.758,-172.852,-52.246,-932.129
1742203780.250,-1000.000,-1000.000,-56.152,-1000.000
1742203780.254,-605.469,-100.586,-61.523,-517.090
1742203780.258,845.703,957.031,-41.504,879.395
1742203780.262,999.512,999.512,-31.250,999.512
1742203780.266,908.203,-152.344,3.418,915.527
1742203780.223,570.801,-1000.000,-75.684,427.246
1742203780.227,-877.441,-1000.000,-94.238,-928.711
1742203780.231,-1000.000,485.840,-95.215,-1000.000
1742203780.235,-942.383,740.723,-87.402,-953.125
1742203780.239,-1000.000,-715.332,-77.148,-1000.000
1742203780.243,-1000.000,407.715,-58.105,-1000.000
1742203780.247,-926.758,-172.852,-52.246,-932.129
1742203780.250,-1000.000,-1000.000,-56.152,-1000.000
1742203780.254,-605.469,-100.586,-61.523,-517.090
1742203780.258,845.703,957.031,-41.504,879.395
1742203780.262,999.512,999.512,-31.250,999.512
1742203780.266,908.203,-152.344,3.418,915.527
1742203780.267,995.605,-973.633,40.527,995.117
1742203780.271,919.434,378.418,50.781,918.457
1742203780.275,992.188,833.984,80.078,998.047
1742203780.279,938.477,552.246,122.070,922.852
1742203780.283,-460.449,-580.566,127.441,-485.840
1742203780.287,-1000.000,-1000.000,90.332,-1000.000
1742203780.291,-926.758,-203.125,23.926,-926.758
1742203780.294,-1000.000,597.656,-21.484,-1000.000
1742203780.298,-969.238,-666.504,-9.766,-967.773
1742203780.302,-992.188,-1000.000,-15.137,-996.582
1742203780.306,-1000.000,-563.965,-29.297,-1000.000
1742203780.310,235.352,700.195,-17.090,241.211
1742203780.267,995.605,-973.633,40.527,995.117
1742203780.271,919.434,378.418,50.781,918.457
1742203780.275,992.188,833.984,80.078,998.047
1742203780.279,938.477,552.246,122.070,922.852
1742203780.283,-460.449,-580.566,127.441,-485.840
1742203780.287,-1000.000,-1000.000,90.332,-1000.000
1742203780.291,-926.758,-203.125,23.926,-926.758
1742203780.294,-1000.000,597.656,-21.484,-1000.000
1742203780.298,-969.238,-666.504,-9.766,-967.773
1742203780.302,-992.188,-1000.000,-15.137,-996.582
1742203780.306,-1000.000,-563.965,-29.297,-1000.000
1742203780.310,235.352,700.195,-17.090,241.211
1742203780.314,999.512,999.512,14.160,999.512
1742203780.318,900.391,626.953,8.301,905.273
1742203780.322,969.727,-730.469,-28.320,969.238
1742203780.326,983.398,124.023,7.324,983.398
1742203780.330,906.738,999.512,57.129,905.762
1742203780.334,999.512,886.230,82.520,999.512
1742203780.338,835.938,-409.668,49.316,770.508
1742203780.341,-624.512,-1000.000,-21.484,-677.734
1742203780.345,-1000.000,-998.535,-17.090,-1000.000
1742203780.349,-926.270,-694.336,26.855,-930.664
1742203780.353,-1000.000,825.684,33.203,-1000.000
1742203780.357,-1000.000,842.773,35.645,-1000.000
1742203780.314,999.512,999.512,14.160,999.512
1742203780.318,900.391,626.953,8.301,905.273
1742203780.322,969.727,-730.469,-28.320,969.238
1742203780.326,983.398,124.023,7.324,983.398
1742203780.330,906.738,999.512,57.129,905.762
1742203780.334,999.512,886.230,82.520,999.512
1742203780.338,835.938,-409.668,49.316,770.508
1742203780.341,-624.512,-1000.000,-21.484,-677.734
1742203780.345,-1000.000,-998.535,-17.090,-1000.000
1742203780.349,-926.270,-694.336,26.855,-930.664
1742203780.353,-1000.000,825.684,33.203,-1000.000
1742203780.357,-1000.000,842.773,35.645,-1000.000
1742203780.357,-930.176,-866.211,24.414,-932.129
1742203780.361,-1000.000,-554.688,28.809,-1000.000
1742203780.365,-728.027,856.445,48.828,-692.383
1742203780.369,750.000,999.512,42.480,761.230
1742203780.373,999.512,243.164,22.949,999.512
1742203780.377,899.414,-539.551,57.617,903.320
1742203780.381,988.281,805.664,20.996,988.281
1742203780.384,949.707,-408.203,0.000,951.172
1742203780.388,933.105,-1000.000,5.859,934.082
1742203780.392,999.512,584.961,-0.977,999.512
1742203780.396,-53.711,-334.473,-19.043,-34.180
1742203780.400,-1000.000,-1000.000,-40.039,-1000.000
1742203780.357,-930.176,-866.211,24.414,-932.129
1742203780.361,-1000.000,-554.688,28.809,-1000.000
1742203780.365,-728.027,856.445,48.828,-692.383
1742203780.369,750.000,999.512,42.480,761.230
1742203780.373,999.512,243.164,22.949,999.512
1742203780.377,899.414,-539.551,57.617,903.320
1742203780.381,988.281,805.664,20.996,988.281
1742203780.384,949.707,-408.203,0.000,951.172
1742203780.388,933.105,-1000.000,5.859,934.082
1742203780.392,999.512,584.961,-0.977,999.512
1742203780.396,-53.711,-334.473,-19.043,-34.180
1742203780.400,-1000.000,-1000.000,-40.039,-1000.000
1742203780.404,-958.496,-632.324,-30.762,-962.891
1742203780.408,-989.258,777.344,-25.391,-987.305
1742203780.412,-1000.000,-296.387,-49.316,-1000.000
1742203780.416,-942.383,-1000.000,-43.457,-940.430
1742203780.420,-1000.000,672.852,8.301,-1000.000
1742203780.424,-891.113,999.512,41.504,-867.188
1742203780.428,563.965,971.191,13.672,592.773
1742203780.431,999.512,291.016,-20.996,999.512
1742203780.435,891.602,-1000.000,-66.895,893.555
1742203780.439,981.934,-856.934,-119.141,983.398
1742203780.443,983.887,654.297,-111.816,981.445
1742203780.447,895.996,999.512,-33.203,900.391
1742203780.404,-958.496,-632.324,-30.762,-962.891
1742203780.408,-989.258,777.344,-25.391,-987.305
1742203780.412,-1000.000,-296.387,-49.316,-1000.000
1742203780.416,-942.383,-1000.000,-43.457,-940.430
1742203780.420,-1000.000,672.852,8.301,-1000.000
1742203780.424,-891.113,999.512,41.504,-867.188
1742203780.428,563.965,971.191,13.672,592.773
1742203780.431,999.512,291.016,-20.996,999.512
1742203780.435,891.602,-1000.000,-66.895,893.555
1742203780.439,981.934,-856.934,-119.141,983.398
1742203780.443,983.887,654.297,-111.816,981.445
1742203780.447,895.996,999.512,-33.203,900.391
1742203780.448,999.512,-274.902,-41.504,999.512
1742203780.452,693.359,-1000.000,-96.680,631.348
1742203780.456,-800.293,-891.602,-58.594,-821.777
1742203780.460,-1000.000,443.359,-32.227,-1000.000
1742203780.464,-987.305,-175.781,11.719,-1000.000
1742203780.468,-908.691,-105.957,61.523,-869.629
1742203780.472,563.965,999.512,53.711,606.445
1742203780.475,999.512,290.039,12.207,999.512
1742203780.479,907.715,-1000.000,28.809,909.668
1742203780.483,924.805,-285.156,54.199,927.734
1742203780.487,999.512,999.512,52.734,999.512
1742203780.491,861.328,513.672,66.406,875.977
1742203780.974,-936.035,-545.410,-48.340,-937.012
1742203780.978,-1000.000,836.426,-18.066,-1000.000
1742203780.982,-1000.000,-369.629,-2.441,-1000.000
1742203780.986,-937.988,-921.387,-13.184,-946.777
1742203780.990,-1000.000,778.320,-27.832,-1000.000
1742203780.994,-342.773,998.535,-9.766,-266.602
1742203780.998,962.891,994.629,-13.672,977.051
1742203781.001,976.562,279.785,-15.137,968.262
1742203781.005,928.223,-1000.000,-31.738,934.082
1742203781.009,991.211,-327.637,-60.059,990.723
1742203781.013,915.527,999.512,-42.480,916.504
1742203781.017,999.512,384.277,-29.297,999.512
1742203780.448,999.512,-274.902,-41.504,999.512
1742203780.452,693.359,-1000.000,-96.680,631.348
1742203780.456,-800.293,-891.602,-58.594,-821.777
1742203780.460,-1000.000,443.359,-32.227,-1000.000
1742203780.464,-987.305,-175.781,11.719,-1000.000
1742203780.468,-908.691,-105.957,61.523,-869.629
1742203780.472,563.965,999.512,53.711,606.445
1742203780.475,999.512,290.039,12.207,999.512
1742203780.479,907.715,-1000.000,28.809,909.668
1742203780.483,924.805,-285.156,54.199,927.734
1742203780.487,999.512,999.512,52.734,999.512
1742203780.491,861.328,513.672,66.406,875.977
1742203780.448,999.512,-274.902,-41.504,999.512
1742203780.452,693.359,-1000.000,-96.680,631.348
1742203780.456,-800.293,-891.602,-58.594,-821.777
1742203780.460,-1000.000,443.359,-32.227,-1000.000
1742203780.464,-987.305,-175.781,11.719,-1000.000
1742203780.468,-908.691,-105.957,61.523,-869.629
1742203780.472,563.965,999.512,53.711,606.445
1742203780.475,999.512,290.039,12.207,999.512
1742203780.479,907.715,-1000.000,28.809,909.668
1742203780.483,924.805,-285.156,54.199,927.734
1742203780.487,999.512,999.512,52.734,999.512
1742203780.491,861.328,513.672,66.406,875.977
1742203780.495,-591.309,-987.793,46.387,-569.336
1742203780.499,-1000.000,-970.215,45.410,-1000.000
1742203780.503,-925.781,735.352,76.660,-925.781
1742203780.507,-1000.000,47.852,61.035,-1000.000
1742203780.511,-1000.000,-1000.000,30.273,-1000.000
1742203780.515,-1000.000,635.254,19.043,-1000.000
1742203780.519,-942.383,999.512,7.324,-939.453
1742203780.522,-1000.000,-697.754,0.000,-1000.000
1742203780.526,-891.113,-955.078,7.812,-846.680
1742203780.530,563.965,611.328,64.453,614.258
1742203780.534,999.512,999.512,85.449,999.512
1742203780.538,891.602,731.934,75.684,894.531
1742203780.495,-591.309,-987.793,46.387,-569.336
1742203780.499,-1000.000,-970.215,45.410,-1000.000
1742203780.503,-925.781,735.352,76.660,-925.781
1742203780.507,-1000.000,47.852,61.035,-1000.000
1742203780.511,-1000.000,-1000.000,30.273,-1000.000
1742203780.515,-1000.000,635.254,19.043,-1000.000
1742203780.519,-942.383,999.512,7.324,-939.453
1742203780.522,-1000.000,-697.754,0.000,-1000.000
1742203780.526,-891.113,-955.078,7.812,-846.680
1742203780.530,563.965,611.328,64.453,614.258
1742203780.534,999.512,999.512,85.449,999.512
1742203780.538,891.602,731.934,75.684,894.531
1742203780.552,998.535,-733.887,82.031,999.512
1742203780.556,908.203,-547.363,35.645,908.203
1742203780.560,999.512,999.512,8.301,999.512
1742203780.564,856.934,729.004,4.883,847.656
1742203780.568,-597.656,-934.570,-13.184,-610.352
1742203780.572,-1000.000,-787.598,-23.926,-1000.000
1742203780.576,-925.781,586.914,-10.742,-926.270
1742203780.579,-1000.000,-491.211,-48.340,-1000.000
1742203780.583,-965.332,-1000.000,-80.078,-961.426
1742203780.587,-1000.000,145.020,-75.195,-1000.000
1742203780.591,-1000.000,999.512,-70.801,-1000.000
1742203780.595,282.715,862.793,-77.148,329.102
1742203780.552,998.535,-733.887,82.031,999.512
1742203780.556,908.203,-547.363,35.645,908.203
1742203780.560,999.512,999.512,8.301,999.512
1742203780.564,856.934,729.004,4.883,847.656
1742203780.568,-597.656,-934.570,-13.184,-610.352
1742203780.572,-1000.000,-787.598,-23.926,-1000.000
1742203780.576,-925.781,586.914,-10.742,-926.270
1742203780.579,-1000.000,-491.211,-48.340,-1000.000
1742203780.583,-965.332,-1000.000,-80.078,-961.426
1742203780.587,-1000.000,145.020,-75.195,-1000.000
1742203780.591,-1000.000,999.512,-70.801,-1000.000
1742203780.595,282.715,862.793,-77.148,329.102
1742203780.597,999.512,999.512,-68.848,999.512
1742203780.601,897.949,511.230,-67.871,897.949
1742203780.605,971.680,-912.598,-80.078,974.121
1742203780.609,982.910,46.387,-56.641,983.887
1742203780.613,904.785,999.512,-9.277,903.809
1742203780.617,999.512,976.074,-5.859,999.512
1742203780.621,817.383,-80.078,-38.574,787.598
1742203780.624,-648.438,-1000.000,-64.941,-677.246
1742203780.628,-1000.000,-1000.000,-140.137,-1000.000
1742203780.632,-927.246,-758.789,-156.738,-929.199
1742203780.636,-1000.000,725.098,-85.938,-1000.000
1742203780.640,-1000.000,999.512,-16.602,-999.512
1742203780.597,999.512,999.512,-68.848,999.512
1742203780.601,897.949,511.230,-67.871,897.949
1742203780.605,971.680,-912.598,-80.078,974.121
1742203780.609,982.910,46.387,-56.641,983.887
1742203780.613,904.785,999.512,-9.277,903.809
1742203780.617,999.512,976.074,-5.859,999.512
1742203780.621,817.383,-80.078,-38.574,787.598
1742203780.624,-648.438,-1000.000,-64.941,-677.246
1742203780.628,-1000.000,-1000.000,-140.137,-1000.000
1742203780.632,-927.246,-758.789,-156.738,-929.199
1742203780.636,-1000.000,725.098,-85.938,-1000.000
1742203780.640,-1000.000,999.512,-16.602,-999.512
1742203780.642,-939.453,-632.324,-29.785,-946.289
1742203780.646,-1000.000,-989.258,-73.242,-1000.000
1742203780.650,-324.707,571.289,-48.340,-269.043
1742203780.654,968.750,999.512,39.551,977.539
1742203780.658,974.121,217.285,-7.324,968.750
1742203780.662,929.688,-705.566,-92.773,934.082
1742203780.666,979.980,761.719,-123.535,980.957
1742203780.669,953.613,-54.199,-110.840,951.172
1742203780.673,927.246,-1000.000,-119.141,934.082
1742203780.677,999.512,378.418,-92.285,999.512
1742203780.681,9.277,-235.840,-29.785,-34.180
1742203780.685,-1000.000,-1000.000,-73.730,-1000.000
1742203780.642,-939.453,-632.324,-29.785,-946.289
1742203780.646,-1000.000,-989.258,-73.242,-1000.000
1742203780.650,-324.707,571.289,-48.340,-269.043
1742203780.654,968.750,999.512,39.551,977.539
1742203780.658,974.121,217.285,-7.324,968.750
1742203780.662,929.688,-705.566,-92.773,934.082
1742203780.666,979.980,761.719,-123.535,980.957
1742203780.669,953.613,-54.199,-110.840,951.172
1742203780.673,927.246,-1000.000,-119.141,934.082
1742203780.677,999.512,378.418,-92.285,999.512
1742203780.681,9.277,-235.840,-29.785,-34.180
1742203780.685,-1000.000,-1000.000,-73.730,-1000.000
1742203780.688,-966.797,-864.746,-93.262,-962.891
1742203780.692,-986.816,687.988,-84.473,-990.234
1742203780.696,-1000.000,289.551,-85.938,-999.512
1742203780.700,-944.824,-971.680,-78.125,-952.637
1742203780.704,-1000.000,460.449,3.906,-1000.000
1742203780.708,-247.070,999.512,50.293,-197.754
1742203780.712,993.652,824.219,-19.531,993.164
1742203780.715,961.914,-425.293,-104.980,963.379
1742203780.719,935.547,-1000.000,-149.414,934.570
1742203780.723,988.770,-415.527,-152.832,936.523
1742203780.727,916.504,773.926,-140.137,902.832
1742203780.731,999.512,999.512,-93.262,999.512
1742203780.688,-966.797,-864.746,-93.262,-962.891
1742203780.692,-986.816,687.988,-84.473,-990.234
1742203780.696,-1000.000,289.551,-85.938,-999.512
1742203780.700,-944.824,-971.680,-78.125,-952.637
1742203780.704,-1000.000,460.449,3.906,-1000.000
1742203780.708,-247.070,999.512,50.293,-197.754
1742203780.712,993.652,824.219,-19.531,993.164
1742203780.715,961.914,-425.293,-104.980,963.379
1742203780.719,935.547,-1000.000,-149.414,934.570
1742203780.723,988.770,-415.527,-152.832,936.523
1742203780.727,916.504,773.926,-140.137,902.832
1742203780.731,999.512,999.512,-93.262,999.512
1742203780.733,915.039,454.102,-75.195,917.969
1742203780.737,-502.441,-1000.000,-104.492,-485.840
1742203780.741,-1000.000,-676.270,-101.562,-1000.000
1742203780.745,-868.164,623.535,-107.910,-866.699
1742203780.749,-1000.000,-586.426,-119.141,-1000.000
1742203780.753,-891.113,-22.461,-123.047,-854.492
1742203780.757,563.477,999.512,-153.320,604.492
1742203780.760,999.512,771.484,-120.605,999.512
1742203780.764,907.715,-763.184,-102.051,910.645
1742203780.768,924.316,-646.484,-123.535,925.293
1742203780.772,999.512,999.512,-111.816,999.512
1742203780.776,856.934,582.031,-77.148,855.957
1742203780.733,915.039,454.102,-75.195,917.969
1742203780.737,-502.441,-1000.000,-104.492,-485.840
1742203780.741,-1000.000,-676.270,-101.562,-1000.000
1742203780.745,-868.164,623.535,-107.910,-866.699
1742203780.749,-1000.000,-586.426,-119.141,-1000.000
1742203780.753,-891.113,-22.461,-123.047,-854.492
1742203780.757,563.477,999.512,-153.320,604.492
1742203780.760,999.512,771.484,-120.605,999.512
1742203780.764,907.715,-763.184,-102.051,910.645
1742203780.768,924.316,-646.484,-123.535,925.293
1742203780.772,999.512,999.512,-111.816,999.512
1742203780.776,856.934,582.031,-77.148,855.957
1742203780.780,-597.656,-930.664,-79.590,-600.098
1742203780.784,-1000.000,-1000.000,-126.465,-1000.000
1742203780.788,-925.781,696.289,-90.820,-925.781
1742203780.792,-1000.000,848.145,-67.871,-1000.000
1742203780.796,-1000.000,-787.598,-94.238,-1000.000
1742203780.800,-959.473,495.117,-49.316,-955.078
1742203780.804,-1000.000,297.852,-60.547,-1000.000
1742203780.807,-1000.000,-1000.000,-112.305,-976.562
1742203780.811,353.516,484.375,-96.680,411.621
1742203780.815,999.512,999.512,-27.344,999.512
1742203780.819,894.531,-433.594,-37.598,894.043
1742203780.823,975.098,-998.535,-54.199,978.027
1742203780.780,-597.656,-930.664,-79.590,-600.098
1742203780.784,-1000.000,-1000.000,-126.465,-1000.000
1742203780.788,-925.781,696.289,-90.820,-925.781
1742203780.792,-1000.000,848.145,-67.871,-1000.000
1742203780.796,-1000.000,-787.598,-94.238,-1000.000
1742203780.800,-959.473,495.117,-49.316,-955.078
1742203780.804,-1000.000,297.852,-60.547,-1000.000
1742203780.807,-1000.000,-1000.000,-112.305,-976.562
1742203780.811,353.516,484.375,-96.680,411.621
1742203780.815,999.512,999.512,-27.344,999.512
1742203780.819,894.531,-433.594,-37.598,894.043
1742203780.823,975.098,-998.535,-54.199,978.027
1742203780.837,976.074,838.379,-26.855,978.027
1742203780.841,930.176,825.684,-24.414,926.758
1742203780.845,967.773,-531.738,-30.273,979.004
1742203780.849,999.023,447.266,-0.488,970.703
1742203780.853,-328.613,-248.047,12.695,-381.836
1742203780.857,-1000.000,-1000.000,7.324,-1000.000
1742203780.861,-931.152,-100.586,-18.066,-930.176
1742203780.864,-1000.000,486.328,-72.266,-1000.000
1742203780.868,-942.383,-970.215,-58.594,-942.383
1742203780.872,-1000.000,-851.074,-46.875,-1000.000
1742203780.876,-891.113,702.148,-36.133,-885.254
1742203780.880,581.055,999.512,-2.930,571.777
1742203780.837,976.074,838.379,-26.855,978.027
1742203780.841,930.176,825.684,-24.414,926.758
1742203780.845,967.773,-531.738,-30.273,979.004
1742203780.849,999.023,447.266,-0.488,970.703
1742203780.853,-328.613,-248.047,12.695,-381.836
1742203780.857,-1000.000,-1000.000,7.324,-1000.000
1742203780.861,-931.152,-100.586,-18.066,-930.176
1742203780.864,-1000.000,486.328,-72.266,-1000.000
1742203780.868,-942.383,-970.215,-58.594,-942.383
1742203780.872,-1000.000,-851.074,-46.875,-1000.000
1742203780.876,-891.113,702.148,-36.133,-885.254
1742203780.880,581.055,999.512,-2.930,571.777
1742203780.882,999.512,945.312,-6.348,999.512
1742203780.886,981.934,-114.258,-47.363,973.145
1742203780.890,725.098,-1000.000,-71.289,421.387
1742203780.894,-791.504,-1000.000,-56.641,-939.941
1742203780.898,-1000.000,-508.301,-76.172,-1000.000
1742203780.902,310.547,800.781,-51.270,392.578
1742203780.906,999.512,999.512,16.602,999.512
1742203780.909,900.391,143.066,11.719,896.973
1742203780.913,986.328,-1000.000,33.691,990.723
1742203780.917,907.715,-665.039,62.500,906.738
1742203780.921,999.512,895.020,64.941,999.512
1742203780.925,850.098,543.457,113.770,823.730
1742203780.882,999.512,945.312,-6.348,999.512
1742203780.886,981.934,-114.258,-47.363,973.145
1742203780.890,725.098,-1000.000,-71.289,421.387
1742203780.894,-791.504,-1000.000,-56.641,-939.941
1742203780.898,-1000.000,-508.301,-76.172,-1000.000
1742203780.902,310.547,800.781,-51.270,392.578
1742203780.906,999.512,999.512,16.602,999.512
1742203780.909,900.391,143.066,11.719,896.973
1742203780.913,986.328,-1000.000,33.691,990.723
1742203780.917,907.715,-665.039,62.500,906.738
1742203780.921,999.512,895.020,64.941,999.512
1742203780.925,850.098,543.457,113.770,823.730
1742203780.927,-612.793,-867.188,91.309,-645.508
1742203780.931,-1000.000,-1000.000,29.785,-1000.000
1742203780.935,-901.367,-563.477,82.031,-944.336
1742203780.939,-1000.000,818.848,108.887,-909.180
1742203780.943,100.586,966.797,19.043,370.117
1742203780.947,999.512,965.332,19.043,999.512
1742203780.951,922.363,841.309,24.902,920.898
1742203780.954,931.152,-755.859,-20.996,938.477
1742203780.958,956.055,-1000.000,-23.926,961.426
1742203780.962,999.512,461.426,-9.766,999.512
1742203780.966,-248.535,-266.113,2.930,-266.602
1742203780.970,-1000.000,-1000.000,-35.645,-1000.000
1742203780.927,-612.793,-867.188,91.309,-645.508
1742203780.931,-1000.000,-1000.000,29.785,-1000.000
1742203780.935,-901.367,-563.477,82.031,-944.336
1742203780.939,-1000.000,818.848,108.887,-909.180
1742203780.943,100.586,966.797,19.043,370.117
1742203780.947,999.512,965.332,19.043,999.512
1742203780.951,922.363,841.309,24.902,920.898
1742203780.954,931.152,-755.859,-20.996,938.477
1742203780.958,956.055,-1000.000,-23.926,961.426
1742203780.962,999.512,461.426,-9.766,999.512
1742203780.966,-248.535,-266.113,2.930,-266.602
1742203780.970,-1000.000,-1000.000,-35.645,-1000.000
1742203781.017,910.156,-858.887,-42.480,909.180
1742203781.021,-511.719,-1000.000,-65.918,-511.230
1742203781.025,-1000.000,-816.895,-92.285,-1000.000
1742203781.029,-925.781,652.832,-52.246,-926.270
1742203781.033,-1000.000,-201.660,-46.875,-1000.000
1742203781.037,-1000.000,-39.062,-59.082,-1000.000
1742203781.041,-955.078,999.512,-49.316,-954.102
1742203781.044,-1000.000,-746.094,-55.176,-1000.000
1742203781.048,-982.422,-985.840,-46.875,-972.656
1742203781.052,408.691,584.961,-39.551,420.898
1742203781.056,999.512,999.512,-11.719,999.512
1742203781.060,892.578,781.250,-15.625,894.043
1742203781.017,910.156,-858.887,-42.480,909.180
1742203781.021,-511.719,-1000.000,-65.918,-511.230
1742203781.025,-1000.000,-816.895,-92.285,-1000.000
1742203781.029,-925.781,652.832,-52.246,-926.270
1742203781.033,-1000.000,-201.660,-46.875,-1000.000
1742203781.037,-1000.000,-39.062,-59.082,-1000.000
1742203781.041,-955.078,999.512,-49.316,-954.102
1742203781.044,-1000.000,-746.094,-55.176,-1000.000
1742203781.048,-982.422,-985.840,-46.875,-972.656
1742203781.052,408.691,584.961,-39.551,420.898
1742203781.056,999.512,999.512,-11.719,999.512
1742203781.060,892.578,781.250,-15.625,894.043
1742203781.065,979.004,-732.910,-22.461,980.957
1742203781.069,966.309,-584.473,-26.367,961.426
1742203781.073,909.180,999.512,-32.227,919.434
1742203781.077,999.512,542.969,-13.672,999.512
1742203781.081,236.816,-1000.000,-63.477,151.367
1742203781.085,-1000.000,-943.359,-62.988,-1000.000
1742203781.089,-1000.000,489.258,-60.547,-989.746
1742203781.092,-967.773,-477.051,-104.004,-973.633
1742203781.096,-1000.000,-1000.000,-96.680,-1000.000
1742203781.100,-956.543,623.535,-72.266,-956.543
1742203781.104,-1000.000,22.461,-61.035,-1000.000
1742203781.108,-990.723,-995.605,-61.035,-987.305
1742203781.107,390.625,626.953,-61.035,392.090
1742203781.111,999.512,999.512,-31.250,999.512
1742203781.115,893.555,999.512,4.883,907.715
1742203781.119,976.562,-33.203,-24.414,954.590
1742203781.123,982.910,-909.668,-55.176,861.816
1742203781.127,907.715,756.836,-34.668,880.371
1742203781.131,999.512,97.656,-70.312,999.512
1742203781.134,848.145,-1000.000,-91.797,802.734
1742203781.138,-609.375,-891.113,-102.539,-649.414
1742203781.142,-1000.000,-1000.000,-72.754,-1000.000
1742203781.146,-925.781,-923.828,-49.805,-927.734
1742203781.150,-1000.000,610.840,-81.055,-1000.000
1742203781.107,390.625,626.953,-61.035,392.090
1742203781.111,999.512,999.512,-31.250,999.512
1742203781.115,893.555,999.512,4.883,907.715
1742203781.119,976.562,-33.203,-24.414,954.590
1742203781.123,982.910,-909.668,-55.176,861.816
1742203781.127,907.715,756.836,-34.668,880.371
1742203781.131,999.512,97.656,-70.312,999.512
1742203781.134,848.145,-1000.000,-91.797,802.734
1742203781.138,-609.375,-891.113,-102.539,-649.414
1742203781.142,-1000.000,-1000.000,-72.754,-1000.000
1742203781.146,-925.781,-923.828,-49.805,-927.734
1742203781.150,-1000.000,610.840,-81.055,-1000.000
1742203781.154,-992.188,999.512,-39.062,-989.258
1742203781.158,-954.102,-672.363,-25.879,-960.449
1742203781.162,-1000.000,-966.797,-69.336,-1000.000
1742203781.166,-123.535,693.848,-66.895,-91.797
1742203781.170,999.512,999.512,-31.738,999.512
1742203781.174,943.848,963.379,31.250,943.359
1742203781.178,944.824,805.664,33.203,947.266
1742203781.181,984.375,-733.887,-13.672,985.840
1742203781.185,922.363,-1000.000,-40.039,921.387
1742203781.189,985.352,452.148,-8.301,990.723
1742203781.193,955.566,288.086,19.043,941.895
1742203781.197,-426.270,-977.539,9.277,-446.289
1742203781.154,-992.188,999.512,-39.062,-989.258
1742203781.158,-954.102,-672.363,-25.879,-960.449
1742203781.162,-1000.000,-966.797,-69.336,-1000.000
1742203781.166,-123.535,693.848,-66.895,-91.797
1742203781.170,999.512,999.512,-31.738,999.512
1742203781.174,943.848,963.379,31.250,943.359
1742203781.178,944.824,805.664,33.203,947.266
1742203781.181,984.375,-733.887,-13.672,985.840
1742203781.185,922.363,-1000.000,-40.039,921.387
1742203781.189,985.352,452.148,-8.301,990.723
1742203781.193,955.566,288.086,19.043,941.895
1742203781.197,-426.270,-977.539,9.277,-446.289
1742203781.212,-1000.000,-1000.000,-31.738,-1000.000
1742203781.216,-927.246,-715.332,-36.621,-930.664
1742203781.220,-1000.000,818.848,-5.371,-1000.000
1742203781.224,-1000.000,931.152,-11.230,-961.914
1742203781.228,-942.383,-739.258,-84.473,-914.062
1742203781.232,-1000.000,53.223,-57.129,-1000.000
1742203781.236,-889.648,999.512,-37.109,-832.520
1742203781.239,565.918,999.512,-97.656,621.094
1742203781.243,999.512,779.785,-67.383,999.512
1742203781.247,891.602,-538.086,-28.809,895.020
1742203781.251,982.422,-59.082,-46.875,982.910
1742203781.255,982.422,-354.004,-48.828,983.398
1742203781.212,-1000.000,-1000.000,-31.738,-1000.000
1742203781.216,-927.246,-715.332,-36.621,-930.664
1742203781.220,-1000.000,818.848,-5.371,-1000.000
1742203781.224,-1000.000,931.152,-11.230,-961.914
1742203781.228,-942.383,-739.258,-84.473,-914.062
1742203781.232,-1000.000,53.223,-57.129,-1000.000
1742203781.236,-889.648,999.512,-37.109,-832.520
1742203781.239,565.918,999.512,-97.656,621.094
1742203781.243,999.512,779.785,-67.383,999.512
1742203781.247,891.602,-538.086,-28.809,895.020
1742203781.251,982.422,-59.082,-46.875,982.910
1742203781.255,982.422,-354.004,-48.828,983.398
1742203781.257,908.691,-965.820,-71.777,907.227
1742203781.261,999.512,737.793,-99.121,999.512
1742203781.265,856.934,714.844,-83.496,834.961
1742203781.269,-597.656,-949.219,-95.215,-625.977
1742203781.273,-1000.000,-1000.000,-111.816,-1000.000
1742203781.277,-925.781,620.117,-54.688,-926.758
1742203781.281,-1000.000,999.512,-33.203,-1000.000
1742203781.284,-989.258,-716.797,-83.008,-979.492
1742203781.288,-958.984,-1000.000,-90.332,-977.539
1742203781.292,-1000.000,538.574,-78.125,-1000.000
1742203781.296,-68.359,937.012,-85.449,69.336
1742203781.300,999.512,942.383,-52.246,999.512
1742203781.257,908.691,-965.820,-71.777,907.227
1742203781.261,999.512,737.793,-99.121,999.512
1742203781.265,856.934,714.844,-83.496,834.961
1742203781.269,-597.656,-949.219,-95.215,-625.977
1742203781.273,-1000.000,-1000.000,-111.816,-1000.000
1742203781.277,-925.781,620.117,-54.688,-926.758
1742203781.281,-1000.000,999.512,-33.203,-1000.000
1742203781.284,-989.258,-716.797,-83.008,-979.492
1742203781.288,-958.984,-1000.000,-90.332,-977.539
1742203781.292,-1000.000,538.574,-78.125,-1000.000
1742203781.296,-68.359,937.012,-85.449,69.336
1742203781.300,999.512,942.383,-52.246,999.512
1742203781.302,875.977,883.301,-16.602,876.465
1742203781.306,999.512,-603.516,-90.820,999.512
1742203781.310,833.984,-1000.000,-104.980,492.676
1742203781.314,-633.301,-951.172,-43.457,-814.941
1742203781.318,-1000.000,-1000.000,-93.262,-1000.000
1742203781.322,-941.406,552.246,-122.070,-963.867
1742203781.326,-964.844,999.512,-113.281,-960.938
1742203781.329,-1000.000,-765.625,-124.512,-1000.000
1742203781.333,-939.453,-965.332,-104.980,-935.547
1742203781.337,487.793,585.449,-101.562,491.211
1742203781.341,999.512,999.512,-97.656,999.512
1742203781.345,891.602,638.672,-77.148,892.578
1742203781.302,875.977,883.301,-16.602,876.465
1742203781.306,999.512,-603.516,-90.820,999.512
1742203781.310,833.984,-1000.000,-104.980,492.676
1742203781.314,-633.301,-951.172,-43.457,-814.941
1742203781.318,-1000.000,-1000.000,-93.262,-1000.000
1742203781.322,-941.406,552.246,-122.070,-963.867
1742203781.326,-964.844,999.512,-113.281,-960.938
1742203781.329,-1000.000,-765.625,-124.512,-1000.000
1742203781.333,-939.453,-965.332,-104.980,-935.547
1742203781.337,487.793,585.449,-101.562,491.211
1742203781.341,999.512,999.512,-97.656,999.512
1742203781.345,891.602,638.672,-77.148,892.578
1742203781.347,993.652,-816.406,-67.383,995.117
1742203781.351,918.457,-190.918,-57.129,917.480
1742203781.355,995.117,999.512,-31.738,999.512
1742203781.359,930.664,489.258,-32.715,915.527
1742203781.363,-475.098,-1000.000,-49.316,-499.512
1742203781.367,-1000.000,-731.934,-28.809,-1000.000
1742203781.371,-926.270,672.363,-7.812,-926.270
1742203781.374,-1000.000,-435.547,-11.719,-1000.000
1742203781.378,-1000.000,-1000.000,-32.227,-1000.000
1742203781.382,-1000.000,-106.445,-67.383,-1000.000
1742203781.386,-940.430,999.512,-36.621,-936.523
1742203781.390,-1000.000,239.258,6.836,-1000.000
1742203781.347,993.652,-816.406,-67.383,995.117
1742203781.351,918.457,-190.918,-57.129,917.480
1742203781.355,995.117,999.512,-31.738,999.512
1742203781.359,930.664,489.258,-32.715,915.527
1742203781.363,-475.098,-1000.000,-49.316,-499.512
1742203781.367,-1000.000,-731.934,-28.809,-1000.000
1742203781.371,-926.270,672.363,-7.812,-926.270
1742203781.374,-1000.000,-435.547,-11.719,-1000.000
1742203781.378,-1000.000,-1000.000,-32.227,-1000.000
1742203781.382,-1000.000,-106.445,-67.383,-1000.000
1742203781.386,-940.430,999.512,-36.621,-936.523
1742203781.390,-1000.000,239.258,6.836,-1000.000
1742203781.392,-869.141,-807.129,-9.766,-759.766
1742203781.396,592.773,529.297,-9.277,689.941
1742203781.400,999.512,999.512,28.809,999.512
1742203781.404,892.090,442.871,30.273,899.414
1742203781.408,999.023,-835.938,3.418,999.512
1742203781.412,908.691,111.328,28.320,909.180
1742203781.416,999.512,593.262,57.617,999.512
1742203781.419,856.934,397.949,41.504,857.910
1742203781.423,-597.656,-504.883,-0.488,-597.656
1742203781.427,-1000.000,-1000.000,0.488,-1000.000
1742203781.431,-925.781,-759.277,16.602,-925.781
1742203781.435,-1000.000,717.285,32.715,-1000.000
1742203781.392,-869.141,-807.129,-9.766,-759.766
1742203781.396,592.773,529.297,-9.277,689.941
1742203781.400,999.512,999.512,28.809,999.512
1742203781.404,892.090,442.871,30.273,899.414
1742203781.408,999.023,-835.938,3.418,999.512
1742203781.412,908.691,111.328,28.320,909.180
1742203781.416,999.512,593.262,57.617,999.512
1742203781.419,856.934,397.949,41.504,857.910
1742203781.423,-597.656,-504.883,-0.488,-597.656
1742203781.427,-1000.000,-1000.000,0.488,-1000.000
1742203781.431,-925.781,-759.277,16.602,-925.781
1742203781.435,-1000.000,717.285,32.715,-1000.000
1742203781.439,-960.938,282.715,24.902,-959.473
1742203781.443,-1000.000,-1000.000,-0.488,-1000.000
1742203781.447,-1000.000,-802.734,2.930,-1000.000
1742203781.451,341.797,673.828,41.504,366.699
1742203781.455,999.512,998.535,58.105,999.512
1742203781.459,864.746,982.422,43.457,892.578
1742203781.463,999.512,717.773,17.578,999.512
1742203781.466,-76.172,-730.957,-20.508,-250.000
1742203781.470,-1000.000,-1000.000,-56.152,-1000.000
1742203781.474,-955.566,-1000.000,-70.312,-944.336
1742203781.478,-1000.000,106.934,-62.988,-1000.000
1742203781.482,-944.824,963.867,-28.320,-941.895
1742203781.439,-960.938,282.715,24.902,-959.473
1742203781.443,-1000.000,-1000.000,-0.488,-1000.000
1742203781.447,-1000.000,-802.734,2.930,-1000.000
1742203781.451,341.797,673.828,41.504,366.699
1742203781.455,999.512,998.535,58.105,999.512
1742203781.459,864.746,982.422,43.457,892.578
1742203781.463,999.512,717.773,17.578,999.512
1742203781.466,-76.172,-730.957,-20.508,-250.000
1742203781.470,-1000.000,-1000.000,-56.152,-1000.000
1742203781.474,-955.566,-1000.000,-70.312,-944.336
1742203781.478,-1000.000,106.934,-62.988,-1000.000
1742203781.482,-944.824,963.867,-28.320,-941.895
1742203781.482,-1000.000,-761.230,-8.789,-1000.000
1742203781.486,-886.230,-703.125,-32.715,-862.305
1742203781.490,570.312,980.469,14.648,599.609
1742203781.494,999.512,958.496,50.781,999.512
1742203781.498,891.602,-716.309,-7.812,893.555
1742203781.502,985.352,44.922,6.348,989.746
1742203781.506,956.543,999.512,37.109,945.312
1742203781.509,922.852,-687.988,18.066,945.312
1742203781.513,999.512,-1000.000,40.527,999.512
1742203781.517,61.035,-730.469,55.176,-112.305
1742203781.521,-1000.000,-1000.000,55.176,-1000.000
1742203781.525,-973.633,-239.746,75.684,-957.031
1742203781.482,-1000.000,-761.230,-8.789,-1000.000
1742203781.486,-886.230,-703.125,-32.715,-862.305
1742203781.490,570.312,980.469,14.648,599.609
1742203781.494,999.512,958.496,50.781,999.512
1742203781.498,891.602,-716.309,-7.812,893.555
1742203781.502,985.352,44.922,6.348,989.746
1742203781.506,956.543,999.512,37.109,945.312
1742203781.509,922.852,-687.988,18.066,945.312
1742203781.513,999.512,-1000.000,40.527,999.512
1742203781.517,61.035,-730.469,55.176,-112.305
1742203781.521,-1000.000,-1000.000,55.176,-1000.000
1742203781.525,-973.633,-239.746,75.684,-957.031
1742203781.529,-980.957,999.512,95.215,-991.699
1742203781.533,-1000.000,-272.461,89.355,-1000.000
1742203781.537,-941.406,-1000.000,64.453,-938.965
1742203781.541,-1000.000,567.871,54.199,-1000.000
1742203781.545,-879.883,999.512,72.754,-844.727
1742203781.549,578.613,945.801,117.188,618.164
1742203781.553,999.512,-96.191,78.125,999.512
1742203781.556,892.090,-1000.000,25.879,894.531
1742203781.560,982.422,-280.273,6.348,983.398
1742203781.564,971.680,954.102,29.785,975.098
1742203781.568,944.824,-543.457,48.828,937.988
1742203781.572,940.918,-802.734,-12.207,957.031
1742203781.529,-980.957,999.512,95.215,-991.699
1742203781.533,-1000.000,-272.461,89.355,-1000.000
1742203781.537,-941.406,-1000.000,64.453,-938.965
1742203781.541,-1000.000,567.871,54.199,-1000.000
1742203781.545,-879.883,999.512,72.754,-844.727
1742203781.549,578.613,945.801,117.188,618.164
1742203781.553,999.512,-96.191,78.125,999.512
1742203781.556,892.090,-1000.000,25.879,894.531
1742203781.560,982.422,-280.273,6.348,983.398
1742203781.564,971.680,954.102,29.785,975.098
1742203781.568,944.824,-543.457,48.828,937.988
1742203781.572,940.918,-802.734,-12.207,957.031
1742203781.573,999.512,948.730,-25.391,999.512
1742203781.577,-131.836,-324.219,-39.062,-231.445
1742203781.581,-1000.000,-1000.000,-103.027,-1000.000
1742203781.585,-948.730,662.598,-78.125,-941.895
1742203781.589,-994.629,-488.770,-77.148,-1000.000
1742203781.593,-1000.000,-253.418,-100.586,-1000.000
1742203781.597,-942.383,392.578,-121.582,-941.895
1742203781.600,-1000.000,-1000.000,-147.461,-1000.000
1742203781.604,-891.113,-710.449,-142.090,-883.301
1742203781.608,563.477,704.590,-125.488,574.707
1742203781.612,999.512,999.512,-95.215,999.512
1742203781.616,891.602,567.383,-47.363,892.578
1742203781.573,999.512,948.730,-25.391,999.512
1742203781.577,-131.836,-324.219,-39.062,-231.445
1742203781.581,-1000.000,-1000.000,-103.027,-1000.000
1742203781.585,-948.730,662.598,-78.125,-941.895
1742203781.589,-994.629,-488.770,-77.148,-1000.000
1742203781.593,-1000.000,-253.418,-100.586,-1000.000
1742203781.597,-942.383,392.578,-121.582,-941.895
1742203781.600,-1000.000,-1000.000,-147.461,-1000.000
1742203781.604,-891.113,-710.449,-142.090,-883.301
1742203781.608,563.477,704.590,-125.488,574.707
1742203781.612,999.512,999.512,-95.215,999.512
1742203781.616,891.602,567.383,-47.363,892.578
1742203781.632,997.559,-847.168,-14.648,998.535
1742203781.636,912.109,-295.410,-52.246,913.574
1742203781.640,999.512,999.512,-43.457,999.512
1742203781.644,886.230,826.660,-6.836,888.672
1742203781.648,-551.758,-657.715,-64.941,-547.852
1742203781.652,-1000.000,-1000.000,-88.867,-1000.000
1742203781.656,-925.781,303.711,-76.172,-925.781
1742203781.659,-1000.000,385.254,-69.336,-1000.000
1742203781.663,-1000.000,-1000.000,-60.547,-1000.000
1742203781.667,-931.641,-669.434,-59.082,-940.430
1742203781.671,-1000.000,800.781,-35.156,-1000.000
1742203781.675,-470.215,975.098,-5.859,-367.188
1742203781.632,997.559,-847.168,-14.648,998.535
1742203781.636,912.109,-295.410,-52.246,913.574
1742203781.640,999.512,999.512,-43.457,999.512
1742203781.644,886.230,826.660,-6.836,888.672
1742203781.648,-551.758,-657.715,-64.941,-547.852
1742203781.652,-1000.000,-1000.000,-88.867,-1000.000
1742203781.656,-925.781,303.711,-76.172,-925.781
1742203781.659,-1000.000,385.254,-69.336,-1000.000
1742203781.663,-1000.000,-1000.000,-60.547,-1000.000
1742203781.667,-931.641,-669.434,-59.082,-940.430
1742203781.671,-1000.000,800.781,-35.156,-1000.000
1742203781.675,-470.215,975.098,-5.859,-367.188
1742203781.677,911.133,998.047,15.137,940.430
1742203781.681,998.047,670.898,43.457,984.375
1742203781.685,918.457,-671.387,57.129,926.758
1742203781.689,979.492,390.625,30.762,978.516
1742203781.693,980.957,81.543,1.465,978.027
1742203781.697,893.066,-986.328,-4.395,898.926
1742203781.701,999.512,770.996,-37.598,999.512
1742203781.704,540.039,134.766,-72.266,477.051
1742203781.708,-898.438,-1000.000,-78.125,-917.480
1742203781.712,-1000.000,-1000.000,-68.848,-1000.000
1742203781.716,-944.336,-915.527,-52.734,-949.219
1742203781.720,-1000.000,588.379,-43.457,-1000.000
1742203781.677,911.133,998.047,15.137,940.430
1742203781.681,998.047,670.898,43.457,984.375
1742203781.685,918.457,-671.387,57.129,926.758
1742203781.689,979.492,390.625,30.762,978.516
1742203781.693,980.957,81.543,1.465,978.027
1742203781.697,893.066,-986.328,-4.395,898.926
1742203781.701,999.512,770.996,-37.598,999.512
1742203781.704,540.039,134.766,-72.266,477.051
1742203781.708,-898.438,-1000.000,-78.125,-917.480
1742203781.712,-1000.000,-1000.000,-68.848,-1000.000
1742203781.716,-944.336,-915.527,-52.734,-949.219
1742203781.720,-1000.000,588.379,-43.457,-1000.000
1742203781.722,-946.777,999.512,-55.176,-947.266
1742203781.726,-1000.000,-673.828,-57.129,-1000.000
1742203781.730,-925.781,-870.117,-59.570,-925.781
1742203781.734,509.277,767.578,-62.012,507.812
1742203781.738,999.512,975.586,-21.973,999.512
1742203781.742,891.602,999.512,0.488,892.578
1742203781.746,986.816,761.230,-18.066,988.770
1742203781.749,942.383,-744.629,-54.199,939.941
1742203781.753,945.312,277.832,-85.938,954.102
1742203781.757,999.512,370.117,-90.332,999.512
1742203781.761,-166.016,-1000.000,-44.434,-198.730
1742203781.765,-1000.000,-1000.000,-73.242,-1000.000
1742203781.722,-946.777,999.512,-55.176,-947.266
1742203781.726,-1000.000,-673.828,-57.129,-1000.000
1742203781.730,-925.781,-870.117,-59.570,-925.781
1742203781.734,509.277,767.578,-62.012,507.812
1742203781.738,999.512,975.586,-21.973,999.512
1742203781.742,891.602,999.512,0.488,892.578
1742203781.746,986.816,761.230,-18.066,988.770
1742203781.749,942.383,-744.629,-54.199,939.941
1742203781.753,945.312,277.832,-85.938,954.102
