timestamps,TP9,AF7,AF8,TP10
1742206292.053,999.512,8.301,-21.484,999.512
1742206292.057,533.203,-9.766,-20.508,566.406
1742206292.061,-829.102,-19.531,-30.762,-733.398
1742206292.065,-1000.000,-10.254,-35.156,-1000.000
1742206292.069,-193.359,-1.953,-31.738,-206.543
1742206292.073,999.512,0.977,-28.320,999.512
1742206292.077,968.262,-3.906,-32.715,919.922
1742206292.080,-187.012,-15.137,-32.227,-194.336
1742206292.084,-1000.000,-12.695,-31.250,-1000.000
1742206292.088,-344.238,0.488,-37.598,-385.254
1742206292.092,944.824,0.488,-21.484,947.754
1742206292.096,999.512,-17.090,-12.695,983.887
1742206292.097,-62.988,-33.203,-22.949,-114.258
1742206292.101,-1000.000,-24.902,-20.508,-1000.000
1742206292.105,-289.062,5.859,-17.578,-336.914
1742206292.109,933.594,11.230,-19.531,915.039
1742206292.113,999.512,5.859,-24.902,999.512
1742206292.117,245.117,-8.301,-34.180,311.035
1742206292.121,-1000.000,-31.738,-33.203,-1000.000
1742206292.124,-1000.000,-18.066,-17.578,-994.141
1742206292.128,197.754,13.672,-7.812,239.258
1742206292.132,999.512,20.996,-7.324,999.512
1742206292.136,204.590,-6.836,-11.230,275.391
1742206292.140,-1000.000,-24.414,-25.391,-1000.000
1742206292.097,-62.988,-33.203,-22.949,-114.258
1742206292.101,-1000.000,-24.902,-20.508,-1000.000
1742206292.105,-289.062,5.859,-17.578,-336.914
1742206292.109,933.594,11.230,-19.531,915.039
1742206292.113,999.512,5.859,-24.902,999.512
1742206292.117,245.117,-8.301,-34.180,311.035
1742206292.121,-1000.000,-31.738,-33.203,-1000.000
1742206292.124,-1000.000,-18.066,-17.578,-994.141
1742206292.128,197.754,13.672,-7.812,239.258
1742206292.132,999.512,20.996,-7.324,999.512
1742206292.136,204.590,-6.836,-11.230,275.391
1742206292.140,-1000.000,-24.414,-25.391,-1000.000
1742206292.142,-1000.000,-10.742,-37.598,-1000.000
1742206292.146,125.488,-0.977,-39.551,157.715
1742206292.150,999.512,-1.465,-39.551,999.512
1742206292.154,296.387,-9.766,-48.340,358.398
1742206292.158,-1000.000,-16.602,-52.246,-968.750
1742206292.162,-1000.000,-16.113,-51.270,-1000.000
1742206292.166,149.902,-3.418,-53.711,183.594
1742206292.169,999.512,0.000,-49.316,999.512
1742206292.173,114.746,-11.230,-50.293,-28.809
1742206292.177,-1000.000,-20.020,-47.852,-1000.000
1742206292.181,-1000.000,-14.160,-48.828,-1000.000
1742206292.185,-61.035,-3.418,-47.363,-88.379
1742206292.187,999.512,0.488,-40.527,999.512
1742206292.191,217.773,-5.859,-48.828,252.930
1742206292.195,-995.605,-19.043,-44.922,-983.398
1742206292.199,-1000.000,-23.926,-39.062,-1000.000
1742206292.203,-246.582,-0.977,-44.922,-217.285
1742206292.207,999.512,19.531,-56.152,999.512
1742206292.211,282.715,-7.324,-60.547,287.109
1742206292.214,-990.723,-28.320,-63.965,-973.145
1742206292.218,-1000.000,-14.160,-74.219,-1000.000
1742206292.222,-280.273,1.465,-82.031,-358.398
1742206292.226,999.512,-0.977,-74.707,999.512
1742206292.230,568.848,-19.043,-58.105,550.781
1742206292.187,999.512,0.488,-40.527,999.512
1742206292.191,217.773,-5.859,-48.828,252.930
1742206292.195,-995.605,-19.043,-44.922,-983.398
1742206292.199,-1000.000,-23.926,-39.062,-1000.000
1742206292.203,-246.582,-0.977,-44.922,-217.285
1742206292.207,999.512,19.531,-56.152,999.512
1742206292.211,282.715,-7.324,-60.547,287.109
1742206292.214,-990.723,-28.320,-63.965,-973.145
1742206292.218,-1000.000,-14.160,-74.219,-1000.000
1742206292.222,-280.273,1.465,-82.031,-358.398
1742206292.226,999.512,-0.977,-74.707,999.512
1742206292.230,568.848,-19.043,-58.105,550.781
1742206292.247,-804.199,-34.180,-54.688,-789.551
1742206292.251,-1000.000,-28.809,-56.152,-1000.000
1742206292.255,-429.688,-19.531,-49.316,-521.484
1742206292.259,999.512,-15.137,-41.992,952.637
1742206292.263,727.539,-9.766,-62.012,673.340
1742206292.267,-685.547,3.418,-70.312,-723.633
1742206292.271,-1000.000,-3.906,-43.457,-1000.000
1742206292.274,-732.422,-17.090,-37.109,-839.844
1742206292.278,617.676,-2.441,-49.316,496.582
1742206292.282,999.512,-7.812,-52.246,999.512
1742206292.286,-190.918,-24.902,-53.711,-340.820
1742206292.290,-1000.000,-27.344,-48.340,-1000.000
1742206292.247,-804.199,-34.180,-54.688,-789.551
1742206292.251,-1000.000,-28.809,-56.152,-1000.000
1742206292.255,-429.688,-19.531,-49.316,-521.484
1742206292.259,999.512,-15.137,-41.992,952.637
1742206292.263,727.539,-9.766,-62.012,673.340
1742206292.267,-685.547,3.418,-70.312,-723.633
1742206292.271,-1000.000,-3.906,-43.457,-1000.000
1742206292.274,-732.422,-17.090,-37.109,-839.844
1742206292.278,617.676,-2.441,-49.316,496.582
1742206292.282,999.512,-7.812,-52.246,999.512
1742206292.286,-190.918,-24.902,-53.711,-340.820
1742206292.290,-1000.000,-27.344,-48.340,-1000.000
1742206292.278,-864.746,-20.996,-44.434,-937.012
1742206292.282,430.176,-0.488,-52.734,320.801
1742206292.286,999.512,-6.836,-57.617,999.512
1742206292.290,-69.824,-30.273,-51.758,-227.051
1742206292.294,-1000.000,-35.645,-49.805,-1000.000
1742206292.298,-763.184,-22.949,-51.270,-861.816
1742206292.302,612.305,-8.789,-60.547,483.887
1742206292.305,999.512,-25.879,-54.688,999.512
1742206292.309,-182.129,-33.691,-39.551,-336.914
1742206292.313,-1000.000,-15.625,-51.270,-1000.000
1742206292.317,-973.633,-8.789,-59.570,-979.492
1742206292.321,179.688,-4.883,-56.641,113.281
1742206292.278,-864.746,-20.996,-44.434,-937.012
1742206292.282,430.176,-0.488,-52.734,320.801
1742206292.286,999.512,-6.836,-57.617,999.512
1742206292.290,-69.824,-30.273,-51.758,-227.051
1742206292.294,-1000.000,-35.645,-49.805,-1000.000
1742206292.298,-763.184,-22.949,-51.270,-861.816
1742206292.302,612.305,-8.789,-60.547,483.887
1742206292.305,999.512,-25.879,-54.688,999.512
1742206292.309,-182.129,-33.691,-39.551,-336.914
1742206292.313,-1000.000,-15.625,-51.270,-1000.000
1742206292.317,-973.633,-8.789,-59.570,-979.492
1742206292.321,179.688,-4.883,-56.641,113.281
1742206292.337,999.512,-4.395,-45.898,999.512
1742206292.341,203.613,-17.090,-42.480,253.906
1742206292.345,-979.004,-28.320,-52.246,-963.379
1742206292.349,-1000.000,-33.691,-59.570,-1000.000
1742206292.353,-249.023,-18.066,-58.105,-212.402
1742206292.357,999.512,-10.254,-54.199,999.512
1742206292.361,413.574,-34.668,-57.617,420.410
1742206292.364,-932.617,-52.246,-58.594,-909.668
1742206292.368,-1000.000,-37.598,-52.734,-1000.000
1742206292.372,-229.980,-22.949,-54.688,-183.594
1742206292.376,999.512,-37.598,-65.430,999.512
1742206292.380,378.906,-68.359,-45.410,421.387
1742206292.337,999.512,-4.395,-45.898,999.512
1742206292.341,203.613,-17.090,-42.480,253.906
1742206292.345,-979.004,-28.320,-52.246,-963.379
1742206292.349,-1000.000,-33.691,-59.570,-1000.000
1742206292.353,-249.023,-18.066,-58.105,-212.402
1742206292.357,999.512,-10.254,-54.199,999.512
1742206292.361,413.574,-34.668,-57.617,420.410
1742206292.364,-932.617,-52.246,-58.594,-909.668
1742206292.368,-1000.000,-37.598,-52.734,-1000.000
1742206292.372,-229.980,-22.949,-54.688,-183.594
1742206292.376,999.512,-37.598,-65.430,999.512
1742206292.380,378.906,-68.359,-45.410,421.387
1742206292.382,-947.266,-59.570,-28.320,-898.438
1742206292.386,-1000.000,-39.551,-28.809,-1000.000
1742206292.390,-188.477,-10.742,-27.344,-161.621
1742206292.394,981.445,-21.484,-25.879,999.512
1742206292.398,999.512,-28.320,-38.574,986.816
1742206292.402,38.086,-19.531,-62.012,-2.930
1742206292.406,-1000.000,-36.621,-69.336,-1000.000
1742206292.409,-486.328,-17.578,-59.082,-514.160
1742206292.413,919.922,-8.789,-43.457,900.391
1742206292.417,999.512,-31.250,-46.387,955.566
1742206292.421,-227.539,-41.016,-27.832,-266.602
1742206292.425,-1000.000,-25.879,-20.020,-1000.000
1742206292.382,-947.266,-59.570,-28.320,-898.438
1742206292.386,-1000.000,-39.551,-28.809,-1000.000
1742206292.390,-188.477,-10.742,-27.344,-161.621
1742206292.394,981.445,-21.484,-25.879,999.512
1742206292.398,999.512,-28.320,-38.574,986.816
1742206292.402,38.086,-19.531,-62.012,-2.930
1742206292.406,-1000.000,-36.621,-69.336,-1000.000
1742206292.409,-486.328,-17.578,-59.082,-514.160
1742206292.413,919.922,-8.789,-43.457,900.391
1742206292.417,999.512,-31.250,-46.387,955.566
1742206292.421,-227.539,-41.016,-27.832,-266.602
1742206292.425,-1000.000,-25.879,-20.020,-1000.000
1742206292.427,-471.680,-15.625,-25.879,-522.461
1742206292.431,859.375,-12.695,-21.484,818.359
1742206292.435,999.512,-15.137,-26.855,999.512
1742206292.439,11.719,-39.062,-26.367,-35.156
1742206292.443,-1000.000,-24.414,-32.227,-1000.000
1742206292.447,-466.309,4.395,-32.715,-482.422
1742206292.451,868.164,-6.836,-33.203,877.441
1742206292.454,999.512,-20.996,-25.391,999.512
1742206292.458,98.145,-34.668,-35.645,-13.672
1742206292.462,-1000.000,-51.758,-51.270,-1000.000
1742206292.466,-1000.000,-48.340,-50.781,-1000.000
1742206292.470,111.816,-34.668,-32.715,109.863
1742206292.427,-471.680,-15.625,-25.879,-522.461
1742206292.431,859.375,-12.695,-21.484,818.359
1742206292.435,999.512,-15.137,-26.855,999.512
1742206292.439,11.719,-39.062,-26.367,-35.156
1742206292.443,-1000.000,-24.414,-32.227,-1000.000
1742206292.447,-466.309,4.395,-32.715,-482.422
1742206292.451,868.164,-6.836,-33.203,877.441
1742206292.454,999.512,-20.996,-25.391,999.512
1742206292.458,98.145,-34.668,-35.645,-13.672
1742206292.462,-1000.000,-51.758,-51.270,-1000.000
1742206292.466,-1000.000,-48.340,-50.781,-1000.000
1742206292.470,111.816,-34.668,-32.715,109.863
1742206292.472,999.512,-24.414,-40.527,999.512
1742206292.476,166.016,-32.715,-63.965,164.062
1742206292.480,-1000.000,-38.086,-41.016,-1000.000
1742206292.484,-965.820,-39.062,-31.738,-935.547
1742206292.488,279.297,-25.391,-49.805,303.223
1742206292.492,999.512,-15.625,-51.270,999.512
1742206292.496,615.234,-24.902,-35.156,689.453
1742206292.499,-684.570,-54.199,-11.230,-547.363
1742206292.503,-1000.000,-44.922,-44.922,-1000.000
1742206292.507,-152.832,-7.812,-57.617,-96.191
1742206292.511,999.512,-22.949,-41.016,999.512
1742206292.515,991.211,-58.105,-41.016,944.824
1742206292.472,999.512,-24.414,-40.527,999.512
1742206292.476,166.016,-32.715,-63.965,164.062
1742206292.480,-1000.000,-38.086,-41.016,-1000.000
1742206292.484,-965.820,-39.062,-31.738,-935.547
1742206292.488,279.297,-25.391,-49.805,303.223
1742206292.492,999.512,-15.625,-51.270,999.512
1742206292.496,615.234,-24.902,-35.156,689.453
1742206292.499,-684.570,-54.199,-11.230,-547.363
1742206292.503,-1000.000,-44.922,-44.922,-1000.000
1742206292.507,-152.832,-7.812,-57.617,-96.191
1742206292.511,999.512,-22.949,-41.016,999.512
1742206292.515,991.211,-58.105,-41.016,944.824
1742206292.517,-188.965,-59.082,-60.547,-125.977
1742206292.521,-1000.000,-47.363,-57.129,-1000.000
1742206292.525,-148.926,-46.387,-20.508,-145.996
1742206292.529,963.867,-38.086,-34.180,984.375
1742206292.533,999.512,-21.484,-43.457,999.512
1742206292.537,524.902,-31.250,-39.062,610.352
1742206292.541,-996.094,-48.828,-46.387,-890.625
1742206292.544,-820.801,-47.363,-10.742,-812.012
1742206292.548,604.492,-16.602,-24.902,611.816
1742206292.552,999.512,-41.992,-48.340,999.512
1742206292.556,602.539,-47.852,-36.621,687.012
1742206292.560,-902.832,-35.156,-40.039,-784.180
1742206292.562,-813.965,-30.273,-39.062,-760.742
1742206292.566,672.363,-20.020,-11.719,703.125
1742206292.570,999.512,-25.391,-4.883,999.512
1742206292.574,197.266,-31.738,-35.645,206.055
1742206292.578,-1000.000,-53.711,-32.227,-1000.000
1742206292.582,-473.633,-14.160,-42.969,-488.281
1742206292.586,896.484,6.836,-20.996,894.043
1742206292.589,999.512,-43.945,-21.484,999.512
1742206292.593,114.746,-47.363,-47.363,17.090
1742206292.597,-1000.000,-22.949,-58.594,-1000.000
1742206292.601,-646.973,-24.902,-58.105,-676.758
1742206292.605,726.074,-23.926,-50.781,665.039
1742206292.562,-813.965,-30.273,-39.062,-760.742
1742206292.566,672.363,-20.020,-11.719,703.125
1742206292.570,999.512,-25.391,-4.883,999.512
1742206292.574,197.266,-31.738,-35.645,206.055
1742206292.578,-1000.000,-53.711,-32.227,-1000.000
1742206292.582,-473.633,-14.160,-42.969,-488.281
1742206292.586,896.484,6.836,-20.996,894.043
1742206292.589,999.512,-43.945,-21.484,999.512
1742206292.593,114.746,-47.363,-47.363,17.090
1742206292.597,-1000.000,-22.949,-58.594,-1000.000
1742206292.601,-646.973,-24.902,-58.105,-676.758
1742206292.605,726.074,-23.926,-50.781,665.039
1742206292.623,999.512,-1.953,-47.852,999.512
1742206292.627,833.496,-21.973,-41.992,848.633
1742206292.631,-398.438,-26.855,-50.781,-298.340
1742206292.635,-1000.000,-31.250,-40.527,-1000.000
1742206292.639,-47.363,-25.879,-35.156,-17.578
1742206292.643,999.512,-15.137,-59.570,999.512
1742206292.647,999.512,-29.785,-55.664,999.512
1742206292.650,85.938,-40.039,-61.523,75.684
1742206292.654,-1000.000,-41.504,-60.547,-1000.000
1742206292.658,-105.957,-18.555,-61.035,-17.090
1742206292.662,999.512,-20.508,-77.148,999.512
1742206292.666,999.512,-39.062,-62.988,999.512
1742206292.623,999.512,-1.953,-47.852,999.512
1742206292.627,833.496,-21.973,-41.992,848.633
1742206292.631,-398.438,-26.855,-50.781,-298.340
1742206292.635,-1000.000,-31.250,-40.527,-1000.000
1742206292.639,-47.363,-25.879,-35.156,-17.578
1742206292.643,999.512,-15.137,-59.570,999.512
1742206292.647,999.512,-29.785,-55.664,999.512
1742206292.650,85.938,-40.039,-61.523,75.684
1742206292.654,-1000.000,-41.504,-60.547,-1000.000
1742206292.658,-105.957,-18.555,-61.035,-17.090
1742206292.662,999.512,-20.508,-77.148,999.512
1742206292.666,999.512,-39.062,-62.988,999.512
1742206292.652,229.492,-51.758,-52.246,223.633
1742206292.656,-1000.000,-46.875,-57.617,-1000.000
1742206292.660,-217.773,-12.207,-56.641,-231.934
1742206292.664,985.840,-6.836,-56.152,977.539
1742206292.668,999.512,-13.184,-46.387,999.512
1742206292.672,395.996,-31.250,-29.297,448.242
1742206292.676,-1000.000,-42.480,-39.062,-1000.000
1742206292.679,-587.891,-35.156,-45.898,-580.566
1742206292.683,835.449,-36.133,-38.086,817.383
1742206292.687,999.512,-27.832,-66.406,999.512
1742206292.691,226.562,-34.668,-79.102,275.879
1742206292.695,-1000.000,-48.340,-74.707,-1000.000
1742206292.652,229.492,-51.758,-52.246,223.633
1742206292.656,-1000.000,-46.875,-57.617,-1000.000
1742206292.660,-217.773,-12.207,-56.641,-231.934
1742206292.664,985.840,-6.836,-56.152,977.539
1742206292.668,999.512,-13.184,-46.387,999.512
1742206292.672,395.996,-31.250,-29.297,448.242
1742206292.676,-1000.000,-42.480,-39.062,-1000.000
1742206292.679,-587.891,-35.156,-45.898,-580.566
1742206292.683,835.449,-36.133,-38.086,817.383
1742206292.687,999.512,-27.832,-66.406,999.512
1742206292.691,226.562,-34.668,-79.102,275.879
1742206292.695,-1000.000,-48.340,-74.707,-1000.000
1742206292.712,-389.648,-21.973,-63.477,-405.273
1742206292.716,931.152,0.977,-49.316,928.711
1742206292.720,999.512,-11.230,-47.852,999.512
1742206292.724,218.262,-40.527,-51.758,224.609
1742206292.728,-1000.000,-51.270,-60.059,-1000.000
1742206292.732,-452.637,-21.973,-63.965,-483.398
1742206292.736,897.461,-26.855,-62.012,883.301
1742206292.739,999.512,-37.598,-58.594,999.512
1742206292.743,197.754,-30.273,-62.988,91.797
1742206292.747,-1000.000,-41.016,-72.754,-1000.000
1742206292.751,-690.918,-22.461,-91.797,-703.613
1742206292.755,679.199,-2.441,-97.168,627.441
1742206292.712,-389.648,-21.973,-63.477,-405.273
1742206292.716,931.152,0.977,-49.316,928.711
1742206292.720,999.512,-11.230,-47.852,999.512
1742206292.724,218.262,-40.527,-51.758,224.609
1742206292.728,-1000.000,-51.270,-60.059,-1000.000
1742206292.732,-452.637,-21.973,-63.965,-483.398
1742206292.736,897.461,-26.855,-62.012,883.301
1742206292.739,999.512,-37.598,-58.594,999.512
1742206292.743,197.754,-30.273,-62.988,91.797
1742206292.747,-1000.000,-41.016,-72.754,-1000.000
1742206292.751,-690.918,-22.461,-91.797,-703.613
1742206292.755,679.199,-2.441,-97.168,627.441
1742206293.222,-1000.000,-31.250,-55.176,-963.867
1742206293.226,-944.824,-23.926,-50.781,-937.012
1742206293.230,449.707,-25.879,-48.340,437.988
1742206293.234,999.512,-37.598,-61.523,999.512
1742206293.238,999.512,-38.086,-58.594,982.422
1742206293.242,69.824,-35.645,-53.711,29.297
1742206293.246,-1000.000,-26.855,-56.641,-1000.000
1742206293.249,-167.480,-18.555,-50.293,-124.023
1742206293.253,999.512,-23.438,-46.387,999.512
1742206293.257,684.082,-27.344,-49.805,706.543
1742206293.261,-672.363,-36.621,-53.223,-563.965
1742206293.265,-1000.000,-26.855,-55.664,-1000.000
1742206292.757,999.512,-11.230,-88.379,999.512
1742206292.761,723.633,-12.695,-94.727,777.344
1742206292.765,-596.680,-8.789,-98.145,-483.887
1742206292.769,-1000.000,-3.418,-90.332,-1000.000
1742206292.773,91.797,14.648,-94.727,146.973
1742206292.777,999.512,21.973,-92.773,999.512
1742206292.781,829.102,7.324,-94.238,829.102
1742206292.784,-447.754,-33.691,-97.656,-399.902
1742206292.788,-1000.000,-34.668,-99.609,-1000.000
1742206292.792,-41.504,7.324,-104.980,-21.973
1742206292.796,992.188,5.859,-94.727,999.023
1742206292.800,999.512,0.977,-94.727,999.512
1742206292.757,999.512,-11.230,-88.379,999.512
1742206292.761,723.633,-12.695,-94.727,777.344
1742206292.765,-596.680,-8.789,-98.145,-483.887
1742206292.769,-1000.000,-3.418,-90.332,-1000.000
1742206292.773,91.797,14.648,-94.727,146.973
1742206292.777,999.512,21.973,-92.773,999.512
1742206292.781,829.102,7.324,-94.238,829.102
1742206292.784,-447.754,-33.691,-97.656,-399.902
1742206292.788,-1000.000,-34.668,-99.609,-1000.000
1742206292.792,-41.504,7.324,-104.980,-21.973
1742206292.796,992.188,5.859,-94.727,999.023
1742206292.800,999.512,0.977,-94.727,999.512
1742206292.802,197.754,-3.906,-98.145,131.836
1742206292.806,-1000.000,-2.930,-80.078,-1000.000
1742206292.810,-46.387,9.766,-65.430,19.043
1742206292.814,999.512,-4.883,-69.824,999.512
1742206292.818,979.492,-9.766,-76.660,926.270
1742206292.822,839.844,-8.789,-76.172,999.512
1742206292.826,-747.559,-30.273,-80.566,-453.125
1742206292.829,-407.227,-9.766,-80.078,-380.371
1742206292.833,999.512,8.789,-73.242,999.512
1742206292.837,999.512,-16.113,-65.430,939.453
1742206292.841,825.195,-22.949,-58.594,999.512
1742206292.845,-729.004,-24.414,-62.500,-322.266
1742206292.802,197.754,-3.906,-98.145,131.836
1742206292.806,-1000.000,-2.930,-80.078,-1000.000
1742206292.810,-46.387,9.766,-65.430,19.043
1742206292.814,999.512,-4.883,-69.824,999.512
1742206292.818,979.492,-9.766,-76.660,926.270
1742206292.822,839.844,-8.789,-76.172,999.512
1742206292.826,-747.559,-30.273,-80.566,-453.125
1742206292.829,-407.227,-9.766,-80.078,-380.371
1742206292.833,999.512,8.789,-73.242,999.512
1742206292.837,999.512,-16.113,-65.430,939.453
1742206292.841,825.195,-22.949,-58.594,999.512
1742206292.845,-729.004,-24.414,-62.500,-322.266
1742206292.847,-433.105,-3.906,-68.359,-400.391
1742206292.851,999.512,0.000,-56.152,999.512
1742206292.855,957.520,-1.465,-45.898,916.992
1742206292.859,982.422,3.418,-54.688,999.512
1742206292.863,-474.609,-14.648,-50.293,-138.184
1742206292.867,-605.469,-3.418,-46.875,-497.070
1742206292.871,951.172,5.859,-50.781,986.328
1742206292.874,979.004,-16.113,-54.688,948.242
1742206292.878,988.281,-35.156,-60.547,999.512
1742206292.882,-279.785,-37.109,-64.453,-88.379
1742206292.886,-1000.000,-27.832,-57.129,-934.082
1742206292.890,437.500,-24.414,-53.223,566.895
1742206292.847,-433.105,-3.906,-68.359,-400.391
1742206292.851,999.512,0.000,-56.152,999.512
1742206292.855,957.520,-1.465,-45.898,916.992
1742206292.859,982.422,3.418,-54.688,999.512
1742206292.863,-474.609,-14.648,-50.293,-138.184
1742206292.867,-605.469,-3.418,-46.875,-497.070
1742206292.871,951.172,5.859,-50.781,986.328
1742206292.874,979.004,-16.113,-54.688,948.242
1742206292.878,988.281,-35.156,-60.547,999.512
1742206292.882,-279.785,-37.109,-64.453,-88.379
1742206292.886,-1000.000,-27.832,-57.129,-934.082
1742206292.890,437.500,-24.414,-53.223,566.895
1742206292.892,999.512,-17.578,-59.082,999.512
1742206292.896,999.512,-20.508,-52.246,999.512
1742206292.900,1.953,-24.902,-47.852,78.125
1742206292.904,-1000.000,-36.621,-52.246,-1000.000
1742206292.908,-20.020,-28.320,-49.316,75.684
1742206292.912,999.512,-7.324,-50.293,999.512
1742206292.916,999.512,-17.578,-53.711,999.512
1742206292.919,21.484,-34.180,-57.617,104.492
1742206292.923,-1000.000,-31.250,-69.336,-1000.000
1742206292.927,-210.449,-29.297,-57.129,-157.227
1742206292.931,999.512,-25.879,-61.035,999.512
1742206292.935,963.867,-32.227,-57.129,943.848
1742206292.892,999.512,-17.578,-59.082,999.512
1742206292.896,999.512,-20.508,-52.246,999.512
1742206292.900,1.953,-24.902,-47.852,78.125
1742206292.904,-1000.000,-36.621,-52.246,-1000.000
1742206292.908,-20.020,-28.320,-49.316,75.684
1742206292.912,999.512,-7.324,-50.293,999.512
1742206292.916,999.512,-17.578,-53.711,999.512
1742206292.919,21.484,-34.180,-57.617,104.492
1742206292.923,-1000.000,-31.250,-69.336,-1000.000
1742206292.927,-210.449,-29.297,-57.129,-157.227
1742206292.931,999.512,-25.879,-61.035,999.512
1742206292.935,963.867,-32.227,-57.129,943.848
1742206292.937,-264.160,-41.992,-58.594,-183.594
1742206292.941,-1000.000,-25.879,-68.359,-1000.000
1742206292.945,-223.633,0.000,-52.246,-217.773
1742206292.949,999.512,5.371,-58.105,999.512
1742206292.953,204.102,-34.180,-55.664,226.074
1742206292.957,-1000.000,-52.734,-48.828,-1000.000
1742206292.961,-1000.000,-27.344,-66.406,-1000.000
1742206292.964,-263.184,-18.066,-69.336,-297.852
1742206292.968,999.512,-14.648,-56.152,999.512
1742206292.972,520.508,-24.902,-62.988,560.547
1742206292.976,-857.422,-47.363,-79.590,-781.250
1742206292.980,-1000.000,-37.598,-79.590,-1000.000
1742206292.937,-264.160,-41.992,-58.594,-183.594
1742206292.941,-1000.000,-25.879,-68.359,-1000.000
1742206292.945,-223.633,0.000,-52.246,-217.773
1742206292.949,999.512,5.371,-58.105,999.512
1742206292.953,204.102,-34.180,-55.664,226.074
1742206292.957,-1000.000,-52.734,-48.828,-1000.000
1742206292.961,-1000.000,-27.344,-66.406,-1000.000
1742206292.964,-263.184,-18.066,-69.336,-297.852
1742206292.968,999.512,-14.648,-56.152,999.512
1742206292.972,520.508,-24.902,-62.988,560.547
1742206292.976,-857.422,-47.363,-79.590,-781.250
1742206292.980,-1000.000,-37.598,-79.590,-1000.000
1742206292.982,-238.770,-26.367,-58.105,-229.980
1742206292.986,999.512,-27.832,-49.316,999.512
1742206292.990,375.488,-28.320,-50.781,406.250
1742206292.994,-944.336,-56.641,-51.758,-901.855
1742206292.998,-1000.000,-59.082,-51.758,-1000.000
1742206293.002,-330.566,-13.184,-36.621,-410.645
1742206293.006,999.512,0.977,-50.293,999.512
1742206293.009,173.340,-27.832,-48.828,163.086
1742206293.013,-1000.000,-29.297,-41.016,-1000.000
1742206293.017,-1000.000,-32.715,-64.941,-1000.000
1742206293.021,-727.539,-38.086,-57.129,-854.980
1742206293.025,876.953,2.441,-43.457,681.641
1742206292.982,-238.770,-26.367,-58.105,-229.980
1742206292.986,999.512,-27.832,-49.316,999.512
1742206292.990,375.488,-28.320,-50.781,406.250
1742206292.994,-944.336,-56.641,-51.758,-901.855
1742206292.998,-1000.000,-59.082,-51.758,-1000.000
1742206293.002,-330.566,-13.184,-36.621,-410.645
1742206293.006,999.512,0.977,-50.293,999.512
1742206293.009,173.340,-27.832,-48.828,163.086
1742206293.013,-1000.000,-29.297,-41.016,-1000.000
1742206293.017,-1000.000,-32.715,-64.941,-1000.000
1742206293.021,-727.539,-38.086,-57.129,-854.980
1742206293.025,876.953,2.441,-43.457,681.641
1742206293.027,521.484,1.953,-49.316,461.914
1742206293.031,-1000.000,-15.137,-41.504,-1000.000
1742206293.035,-977.539,-20.020,-41.992,-953.125
1742206293.039,-1000.000,-27.344,-56.641,-1000.000
1742206293.043,-44.434,-17.578,-61.035,-119.629
1742206293.047,999.512,-5.371,-69.336,999.512
1742206293.051,18.555,-34.180,-71.289,-182.129
1742206293.054,-1000.000,-58.105,-71.289,-1000.000
1742206293.058,-1000.000,-41.016,-72.266,-1000.000
1742206293.062,-146.484,-21.973,-63.965,-173.340
1742206293.066,999.512,-35.645,-59.570,999.512
1742206293.070,42.969,-49.805,-70.312,-126.465
1742206293.027,521.484,1.953,-49.316,461.914
1742206293.031,-1000.000,-15.137,-41.504,-1000.000
1742206293.035,-977.539,-20.020,-41.992,-953.125
1742206293.039,-1000.000,-27.344,-56.641,-1000.000
1742206293.043,-44.434,-17.578,-61.035,-119.629
1742206293.047,999.512,-5.371,-69.336,999.512
1742206293.051,18.555,-34.180,-71.289,-182.129
1742206293.054,-1000.000,-58.105,-71.289,-1000.000
1742206293.058,-1000.000,-41.016,-72.266,-1000.000
1742206293.062,-146.484,-21.973,-63.965,-173.340
1742206293.066,999.512,-35.645,-59.570,999.512
1742206293.070,42.969,-49.805,-70.312,-126.465
1742206293.087,-1000.000,-42.480,-73.730,-1000.000
1742206293.091,-1000.000,-47.363,-66.406,-1000.000
1742206293.095,-151.367,-37.109,-67.383,-198.242
1742206293.099,999.512,-37.109,-64.941,999.512
1742206293.103,147.949,-41.992,-66.895,-18.066
1742206293.107,-1000.000,-38.086,-61.523,-1000.000
1742206293.111,-1000.000,-43.945,-48.828,-1000.000
1742206293.114,-254.395,-32.715,-54.199,-287.598
1742206293.118,999.512,-18.555,-50.781,999.512
1742206293.122,296.875,-40.039,-52.246,297.363
1742206293.126,-986.816,-41.504,-69.336,-982.422
1742206293.130,-1000.000,-32.227,-55.176,-1000.000
1742206293.087,-1000.000,-42.480,-73.730,-1000.000
1742206293.091,-1000.000,-47.363,-66.406,-1000.000
1742206293.095,-151.367,-37.109,-67.383,-198.242
1742206293.099,999.512,-37.109,-64.941,999.512
1742206293.103,147.949,-41.992,-66.895,-18.066
1742206293.107,-1000.000,-38.086,-61.523,-1000.000
1742206293.111,-1000.000,-43.945,-48.828,-1000.000
1742206293.114,-254.395,-32.715,-54.199,-287.598
1742206293.118,999.512,-18.555,-50.781,999.512
1742206293.122,296.875,-40.039,-52.246,297.363
1742206293.126,-986.816,-41.504,-69.336,-982.422
1742206293.130,-1000.000,-32.227,-55.176,-1000.000
1742206293.133,-243.652,-13.184,-50.293,-231.445
1742206293.137,999.512,-23.438,-49.805,999.512
1742206293.141,169.434,-46.875,-50.781,87.402
1742206293.145,-1000.000,-33.691,-51.758,-1000.000
1742206293.149,-1000.000,-20.020,-48.340,-1000.000
1742206293.153,-258.301,-7.324,-44.434,-278.809
1742206293.157,999.512,-11.719,-47.852,999.512
1742206293.160,192.871,-37.598,-57.617,184.570
1742206293.164,-1000.000,-44.922,-60.547,-1000.000
1742206293.168,-1000.000,-46.387,-62.500,-1000.000
1742206293.172,-308.594,-38.086,-54.199,-409.180
1742206293.176,962.891,-24.902,-48.828,937.500
1742206293.133,-243.652,-13.184,-50.293,-231.445
1742206293.137,999.512,-23.438,-49.805,999.512
1742206293.141,169.434,-46.875,-50.781,87.402
1742206293.145,-1000.000,-33.691,-51.758,-1000.000
1742206293.149,-1000.000,-20.020,-48.340,-1000.000
1742206293.153,-258.301,-7.324,-44.434,-278.809
1742206293.157,999.512,-11.719,-47.852,999.512
1742206293.160,192.871,-37.598,-57.617,184.570
1742206293.164,-1000.000,-44.922,-60.547,-1000.000
1742206293.168,-1000.000,-46.387,-62.500,-1000.000
1742206293.172,-308.594,-38.086,-54.199,-409.180
1742206293.176,962.891,-24.902,-48.828,937.500
1742206293.177,999.512,-29.785,-55.176,972.168
1742206293.181,-69.336,-30.762,-60.547,-167.969
1742206293.185,-1000.000,-35.645,-48.828,-1000.000
1742206293.189,-479.980,-28.320,-52.246,-564.941
1742206293.193,839.844,-12.695,-57.617,750.977
1742206293.197,999.512,-14.160,-53.223,999.512
1742206293.201,201.172,-28.809,-61.035,129.395
1742206293.204,-1000.000,-46.875,-64.941,-1000.000
1742206293.208,-630.859,-30.273,-60.059,-671.387
1742206293.212,740.723,-10.254,-56.152,649.414
1742206293.216,999.512,-21.973,-56.641,999.512
1742206293.220,334.961,-31.738,-54.199,397.461
1742206293.177,999.512,-29.785,-55.176,972.168
1742206293.181,-69.336,-30.762,-60.547,-167.969
1742206293.185,-1000.000,-35.645,-48.828,-1000.000
1742206293.189,-479.980,-28.320,-52.246,-564.941
1742206293.193,839.844,-12.695,-57.617,750.977
1742206293.197,999.512,-14.160,-53.223,999.512
1742206293.201,201.172,-28.809,-61.035,129.395
1742206293.204,-1000.000,-46.875,-64.941,-1000.000
1742206293.208,-630.859,-30.273,-60.059,-671.387
1742206293.212,740.723,-10.254,-56.152,649.414
1742206293.216,999.512,-21.973,-56.641,999.512
1742206293.220,334.961,-31.738,-54.199,397.461
1742206293.282,-206.543,-3.906,-53.223,-159.180
1742206293.286,999.512,-4.395,-57.129,999.512
1742206293.290,423.828,-26.855,-58.594,465.332
1742206293.294,-921.387,-40.527,-56.152,-851.562
1742206293.298,-1000.000,-29.785,-63.965,-1000.000
1742206293.302,-208.984,-13.672,-65.430,-175.781
1742206293.306,999.512,-18.066,-57.617,999.512
1742206293.309,153.320,-40.527,-58.594,176.270
1742206293.313,-993.652,-39.062,-61.035,-968.262
1742206293.317,-1000.000,-40.039,-61.523,-1000.000
1742206293.321,-307.617,-45.898,-57.129,-386.230
1742206293.325,999.512,-42.480,-66.406,999.512
1742206293.312,561.035,-53.711,-72.754,541.504
1742206293.316,-816.895,-52.734,-69.824,-802.734
1742206293.320,-1000.000,-39.551,-75.195,-1000.000
1742206293.324,-381.348,-28.320,-62.012,-467.285
1742206293.328,942.871,-26.855,-65.430,901.855
1742206293.332,999.512,-48.828,-87.891,930.664
1742206293.336,-266.602,-63.965,-78.125,-332.520
1742206293.339,-1000.000,-63.477,-72.266,-1000.000
1742206293.343,-819.824,-49.805,-74.219,-871.582
1742206293.347,438.477,-37.109,-65.430,349.609
1742206293.351,999.512,-35.156,-63.477,999.512
1742206293.355,132.324,-46.387,-64.941,60.547
1742206293.357,-1000.000,-57.617,-62.988,-1000.000
1742206293.361,-1000.000,-46.875,-63.965,-1000.000
1742206293.365,80.566,-35.156,-58.594,61.523
1742206293.369,999.512,-39.551,-53.711,999.512
1742206293.373,-159.668,-55.664,-53.223,-340.332
1742206293.377,-1000.000,-46.387,-59.570,-1000.000
1742206293.381,-1000.000,-43.457,-65.430,-1000.000
1742206293.384,-284.668,-52.246,-61.035,-432.129
1742206293.388,999.512,-39.062,-59.570,999.512
1742206293.392,313.477,-47.852,-57.617,313.965
1742206293.396,-980.469,-60.547,-54.199,-993.652
1742206293.400,-1000.000,-52.734,-60.059,-1000.000
1742206293.357,-1000.000,-57.617,-62.988,-1000.000
1742206293.361,-1000.000,-46.875,-63.965,-1000.000
1742206293.365,80.566,-35.156,-58.594,61.523
1742206293.369,999.512,-39.551,-53.711,999.512
1742206293.373,-159.668,-55.664,-53.223,-340.332
1742206293.377,-1000.000,-46.387,-59.570,-1000.000
1742206293.381,-1000.000,-43.457,-65.430,-1000.000
1742206293.384,-284.668,-52.246,-61.035,-432.129
1742206293.388,999.512,-39.062,-59.570,999.512
1742206293.392,313.477,-47.852,-57.617,313.965
1742206293.396,-980.469,-60.547,-54.199,-993.652
1742206293.400,-1000.000,-52.734,-60.059,-1000.000
1742206293.417,-250.977,-30.762,-58.594,-276.855
1742206293.421,999.512,-33.203,-56.152,999.512
1742206293.425,278.320,-63.477,-53.223,278.809
1742206293.429,-997.070,-51.270,-51.270,-993.652
1742206293.433,-1000.000,-21.973,-57.129,-1000.000
1742206293.437,-231.934,-12.695,-59.082,-201.172
1742206293.441,999.512,-13.184,-61.523,999.512
1742206293.444,159.668,-31.250,-66.895,83.008
1742206293.448,-1000.000,-35.645,-70.801,-1000.000
1742206293.452,-1000.000,-24.902,-71.777,-1000.000
1742206293.456,-420.898,-10.254,-76.172,-516.602
1742206293.460,999.512,2.930,-81.543,999.512
1742206293.417,-250.977,-30.762,-58.594,-276.855
1742206293.421,999.512,-33.203,-56.152,999.512
1742206293.425,278.320,-63.477,-53.223,278.809
1742206293.429,-997.070,-51.270,-51.270,-993.652
1742206293.433,-1000.000,-21.973,-57.129,-1000.000
1742206293.437,-231.934,-12.695,-59.082,-201.172
1742206293.441,999.512,-13.184,-61.523,999.512
1742206293.444,159.668,-31.250,-66.895,83.008
1742206293.448,-1000.000,-35.645,-70.801,-1000.000
1742206293.452,-1000.000,-24.902,-71.777,-1000.000
1742206293.456,-420.898,-10.254,-76.172,-516.602
1742206293.460,999.512,2.930,-81.543,999.512
1742206293.462,304.199,-20.020,-85.449,319.336
1742206293.466,-994.141,-26.367,-73.730,-1000.000
1742206293.470,-1000.000,-19.531,-74.219,-1000.000
1742206293.474,-502.930,-8.301,-80.566,-605.469
1742206293.478,999.512,11.230,-76.660,947.266
1742206293.482,450.684,-6.836,-85.449,454.102
1742206293.486,-987.793,-14.160,-87.891,-998.047
1742206293.489,-988.770,-4.395,-90.332,-975.098
1742206293.493,-1000.000,-7.324,-102.051,-1000.000
1742206293.497,236.816,-8.789,-102.539,117.676
1742206293.501,944.336,-10.254,-84.961,799.316
1742206293.505,-600.586,-25.391,-78.125,-671.875
1742206293.462,304.199,-20.020,-85.449,319.336
1742206293.466,-994.141,-26.367,-73.730,-1000.000
1742206293.470,-1000.000,-19.531,-74.219,-1000.000
1742206293.474,-502.930,-8.301,-80.566,-605.469
1742206293.478,999.512,11.230,-76.660,947.266
1742206293.482,450.684,-6.836,-85.449,454.102
1742206293.486,-987.793,-14.160,-87.891,-998.047
1742206293.489,-988.770,-4.395,-90.332,-975.098
1742206293.493,-1000.000,-7.324,-102.051,-1000.000
1742206293.497,236.816,-8.789,-102.539,117.676
1742206293.501,944.336,-10.254,-84.961,799.316
1742206293.505,-600.586,-25.391,-78.125,-671.875
1742206293.507,-1000.000,-42.480,-90.332,-1000.000
1742206293.511,-1000.000,-49.805,-99.609,-1000.000
1742206293.515,247.559,-5.371,-91.309,189.453
1742206293.519,999.512,21.973,-72.754,931.152
1742206293.523,-448.242,-0.488,-70.312,-517.578
1742206293.527,-1000.000,-12.695,-74.219,-1000.000
1742206293.531,-960.938,-15.137,-73.242,-979.492
1742206293.534,243.652,-1.465,-54.688,185.059
1742206293.538,999.512,0.488,-36.133,999.512
1742206293.542,-119.629,-11.230,-50.293,-231.445
1742206293.546,-1000.000,-34.668,-54.199,-1000.000
1742206293.550,-988.770,-55.176,-58.105,-996.094
1742206293.507,-1000.000,-42.480,-90.332,-1000.000
1742206293.511,-1000.000,-49.805,-99.609,-1000.000
1742206293.515,247.559,-5.371,-91.309,189.453
1742206293.519,999.512,21.973,-72.754,931.152
1742206293.523,-448.242,-0.488,-70.312,-517.578
1742206293.527,-1000.000,-12.695,-74.219,-1000.000
1742206293.531,-960.938,-15.137,-73.242,-979.492
1742206293.534,243.652,-1.465,-54.688,185.059
1742206293.538,999.512,0.488,-36.133,999.512
1742206293.542,-119.629,-11.230,-50.293,-231.445
1742206293.546,-1000.000,-34.668,-54.199,-1000.000
1742206293.550,-988.770,-55.176,-58.105,-996.094
1742206293.552,172.363,-40.527,-59.570,113.281
1742206293.556,999.512,-39.551,-40.039,999.512
1742206293.560,143.555,-63.477,-46.387,75.684
1742206293.564,-1000.000,-61.523,-60.059,-1000.000
1742206293.568,-1000.000,-40.527,-35.645,-1000.000
1742206293.572,28.809,-32.715,-18.555,-29.785
1742206293.576,999.512,-48.340,-34.180,999.512
1742206293.579,158.691,-67.871,-37.598,194.336
1742206293.583,-1000.000,-65.918,-35.645,-995.117
1742206293.587,-1000.000,-62.988,-43.945,-1000.000
1742206293.591,-227.539,-38.574,-44.434,-216.797
1742206293.595,999.512,-23.438,-58.105,999.512
1742206293.552,172.363,-40.527,-59.570,113.281
1742206293.556,999.512,-39.551,-40.039,999.512
1742206293.560,143.555,-63.477,-46.387,75.684
1742206293.564,-1000.000,-61.523,-60.059,-1000.000
1742206293.568,-1000.000,-40.527,-35.645,-1000.000
1742206293.572,28.809,-32.715,-18.555,-29.785
1742206293.576,999.512,-48.340,-34.180,999.512
1742206293.579,158.691,-67.871,-37.598,194.336
1742206293.583,-1000.000,-65.918,-35.645,-995.117
1742206293.587,-1000.000,-62.988,-43.945,-1000.000
1742206293.591,-227.539,-38.574,-44.434,-216.797
1742206293.595,999.512,-23.438,-58.105,999.512
1742206293.597,947.754,-39.062,-59.570,853.516
1742206293.601,-298.828,-57.129,-52.246,-328.125
1742206293.605,-1000.000,-65.918,-46.387,-1000.000
1742206293.609,-157.227,-44.922,-28.320,-159.180
1742206293.613,970.703,-28.320,-22.949,979.492
1742206293.617,999.512,-34.180,-33.203,999.512
1742206293.621,231.445,-60.059,-34.180,246.094
1742206293.624,-1000.000,-70.801,-24.414,-1000.000
1742206293.628,-576.172,-36.133,-24.902,-620.605
1742206293.632,787.598,-12.695,-27.344,724.609
1742206293.636,999.512,-23.438,-31.250,999.512
1742206293.640,458.496,-49.316,-40.527,526.855
1742206293.597,947.754,-39.062,-59.570,853.516
1742206293.601,-298.828,-57.129,-52.246,-328.125
1742206293.605,-1000.000,-65.918,-46.387,-1000.000
1742206293.609,-157.227,-44.922,-28.320,-159.180
1742206293.613,970.703,-28.320,-22.949,979.492
1742206293.617,999.512,-34.180,-33.203,999.512
1742206293.621,231.445,-60.059,-34.180,246.094
1742206293.624,-1000.000,-70.801,-24.414,-1000.000
1742206293.628,-576.172,-36.133,-24.902,-620.605
1742206293.632,787.598,-12.695,-27.344,724.609
1742206293.636,999.512,-23.438,-31.250,999.512
1742206293.640,458.496,-49.316,-40.527,526.855
1742206293.642,-1000.000,-59.082,-42.480,-912.109
1742206293.646,-826.172,-35.645,-49.316,-856.934
1742206293.650,583.496,-23.438,-52.734,538.574
1742206293.654,999.512,-37.109,-52.734,999.512
1742206293.658,562.500,-52.734,-56.641,620.605
1742206293.662,-892.090,-51.270,-54.688,-766.602
1742206293.666,-926.758,-38.086,-53.711,-946.289
1742206293.669,492.188,-33.691,-54.688,427.734
1742206293.673,999.512,-36.133,-54.688,999.512
1742206293.677,322.754,-59.082,-64.453,391.113
1742206293.681,-960.938,-81.543,-67.383,-909.180
1742206293.685,-1000.000,-64.941,-64.453,-1000.000
1742206293.688,107.910,-33.691,-65.918,82.520
1742206293.692,999.512,-36.621,-63.477,999.512
1742206293.696,889.160,-51.758,-53.711,836.426
1742206293.700,-390.137,-55.664,-56.152,-396.973
1742206293.704,-1000.000,-36.621,-59.082,-1000.000
1742206293.708,51.758,-6.348,-47.852,32.715
1742206293.712,999.512,-22.461,-54.199,999.512
1742206293.715,356.445,-56.152,-62.988,393.066
1742206293.719,-943.359,-63.965,-57.617,-904.297
1742206293.723,-1000.000,-55.664,-51.758,-1000.000
1742206293.727,-125.977,-43.457,-35.156,-123.047
1742206293.731,999.512,-38.086,-32.227,999.512
1742206293.688,107.910,-33.691,-65.918,82.520
1742206293.692,999.512,-36.621,-63.477,999.512
1742206293.696,889.160,-51.758,-53.711,836.426
1742206293.700,-390.137,-55.664,-56.152,-396.973
1742206293.704,-1000.000,-36.621,-59.082,-1000.000
1742206293.708,51.758,-6.348,-47.852,32.715
1742206293.712,999.512,-22.461,-54.199,999.512
1742206293.715,356.445,-56.152,-62.988,393.066
1742206293.719,-943.359,-63.965,-57.617,-904.297
1742206293.723,-1000.000,-55.664,-51.758,-1000.000
1742206293.727,-125.977,-43.457,-35.156,-123.047
1742206293.731,999.512,-38.086,-32.227,999.512
1742206293.732,930.664,-34.180,-36.621,870.117
1742206293.736,-306.152,-40.039,-40.527,-302.246
1742206293.740,-1000.000,-56.641,-55.664,-1000.000
1742206293.744,-156.738,-43.945,-69.336,-183.105
1742206293.748,970.215,-32.715,-55.176,975.586
1742206293.752,999.512,-46.875,-44.434,999.512
1742206293.756,229.980,-66.406,-65.918,198.730
1742206293.759,-1000.000,-73.730,-82.520,-1000.000
1742206293.763,-354.004,-33.203,-78.613,-411.133
1742206293.767,949.707,-21.973,-72.266,936.035
1742206293.771,999.512,-50.781,-73.242,999.512
1742206293.775,174.805,-60.547,-81.543,61.523
1742206293.732,930.664,-34.180,-36.621,870.117
1742206293.736,-306.152,-40.039,-40.527,-302.246
1742206293.740,-1000.000,-56.641,-55.664,-1000.000
1742206293.744,-156.738,-43.945,-69.336,-183.105
1742206293.748,970.215,-32.715,-55.176,975.586
1742206293.752,999.512,-46.875,-44.434,999.512
1742206293.756,229.980,-66.406,-65.918,198.730
1742206293.759,-1000.000,-73.730,-82.520,-1000.000
1742206293.763,-354.004,-33.203,-78.613,-411.133
1742206293.767,949.707,-21.973,-72.266,936.035
1742206293.771,999.512,-50.781,-73.242,999.512
1742206293.775,174.805,-60.547,-81.543,61.523
1742206293.777,-1000.000,-65.430,-87.891,-1000.000
1742206293.781,-456.543,-49.805,-78.613,-513.184
1742206293.785,910.645,-31.250,-83.008,872.559
1742206293.789,999.512,-42.969,-94.727,999.512
1742206293.793,34.668,-49.316,-70.801,-76.172
1742206293.797,-1000.000,-43.945,-55.176,-1000.000
1742206293.801,-470.703,-27.344,-59.082,-541.504
1742206293.804,999.512,-19.531,-51.270,965.332
1742206293.808,724.609,-43.457,-52.734,692.383
1742206293.812,-683.594,-54.199,-57.129,-686.523
1742206293.816,-1000.000,-52.734,-58.105,-1000.000
1742206293.820,-598.633,-39.062,-52.734,-733.398
1742206293.777,-1000.000,-65.430,-87.891,-1000.000
1742206293.781,-456.543,-49.805,-78.613,-513.184
1742206293.785,910.645,-31.250,-83.008,872.559
1742206293.789,999.512,-42.969,-94.727,999.512
1742206293.793,34.668,-49.316,-70.801,-76.172
1742206293.797,-1000.000,-43.945,-55.176,-1000.000
1742206293.801,-470.703,-27.344,-59.082,-541.504
1742206293.804,999.512,-19.531,-51.270,965.332
1742206293.808,724.609,-43.457,-52.734,692.383
1742206293.812,-683.594,-54.199,-57.129,-686.523
1742206293.816,-1000.000,-52.734,-58.105,-1000.000
1742206293.820,-598.633,-39.062,-52.734,-733.398
1742206293.837,705.566,-21.484,-54.199,560.059
1742206293.841,999.512,-38.574,-53.711,999.512
1742206293.845,137.695,-48.340,-42.969,-14.160
1742206293.849,-1000.000,-48.340,-41.992,-1000.000
1742206293.853,-885.742,-47.363,-44.922,-911.621
1742206293.857,427.734,-26.367,-46.875,336.426
1742206293.861,999.512,-13.672,-38.574,999.512
1742206293.864,140.137,-32.715,-28.320,98.145
1742206293.868,-1000.000,-47.363,-31.250,-1000.000
1742206293.872,-1000.000,-41.016,-32.715,-1000.000
1742206293.876,51.758,-37.109,-42.969,39.062
1742206293.880,999.512,-33.203,-46.875,999.512
1742206293.837,705.566,-21.484,-54.199,560.059
1742206293.841,999.512,-38.574,-53.711,999.512
1742206293.845,137.695,-48.340,-42.969,-14.160
1742206293.849,-1000.000,-48.340,-41.992,-1000.000
1742206293.853,-885.742,-47.363,-44.922,-911.621
1742206293.857,427.734,-26.367,-46.875,336.426
1742206293.861,999.512,-13.672,-38.574,999.512
1742206293.864,140.137,-32.715,-28.320,98.145
1742206293.868,-1000.000,-47.363,-31.250,-1000.000
1742206293.872,-1000.000,-41.016,-32.715,-1000.000
1742206293.876,51.758,-37.109,-42.969,39.062
1742206293.880,999.512,-33.203,-46.875,999.512
1742206293.882,636.230,-32.715,-31.738,691.406
1742206293.886,-683.594,-45.410,-28.809,-564.453
1742206293.890,-1000.000,-42.480,-36.133,-1000.000
1742206293.894,-130.371,-32.227,-38.086,-99.121
1742206293.898,967.773,-35.645,-41.992,979.980
1742206293.902,999.512,-38.086,-50.781,999.512
1742206293.906,230.469,-48.340,-54.688,248.535
1742206293.909,-1000.000,-73.242,-56.152,-1000.000
1742206293.913,-302.246,-55.176,-56.641,-339.355
1742206293.917,955.566,-39.551,-53.223,937.500
1742206293.921,999.512,-48.340,-45.410,999.512
1742206293.925,371.094,-61.523,-42.480,458.008
1742206293.882,636.230,-32.715,-31.738,691.406
1742206293.886,-683.594,-45.410,-28.809,-564.453
1742206293.890,-1000.000,-42.480,-36.133,-1000.000
1742206293.894,-130.371,-32.227,-38.086,-99.121
1742206293.898,967.773,-35.645,-41.992,979.980
1742206293.902,999.512,-38.086,-50.781,999.512
1742206293.906,230.469,-48.340,-54.688,248.535
1742206293.909,-1000.000,-73.242,-56.152,-1000.000
1742206293.913,-302.246,-55.176,-56.641,-339.355
1742206293.917,955.566,-39.551,-53.223,937.500
1742206293.921,999.512,-48.340,-45.410,999.512
1742206293.925,371.094,-61.523,-42.480,458.008
1742206293.927,-1000.000,-67.383,-52.734,-1000.000
1742206293.931,-509.766,-39.551,-60.547,-546.387
1742206293.935,891.113,-33.691,-59.082,876.953
1742206293.939,999.512,-56.152,-57.129,999.512
1742206293.943,197.266,-72.266,-41.504,135.254
1742206293.947,-1000.000,-58.105,-34.668,-1000.000
1742206293.951,-312.012,-23.926,-50.293,-341.797
1742206293.954,960.938,-18.066,-44.922,939.453
1742206293.958,999.512,-41.016,-37.109,999.512
1742206293.962,214.844,-56.641,-54.199,263.672
1742206293.966,-1000.000,-55.664,-53.223,-1000.000
1742206293.970,-705.078,-44.922,-50.293,-723.633
1742206293.927,-1000.000,-67.383,-52.734,-1000.000
1742206293.931,-509.766,-39.551,-60.547,-546.387
1742206293.935,891.113,-33.691,-59.082,876.953
1742206293.939,999.512,-56.152,-57.129,999.512
1742206293.943,197.266,-72.266,-41.504,135.254
1742206293.947,-1000.000,-58.105,-34.668,-1000.000
1742206293.951,-312.012,-23.926,-50.293,-341.797
1742206293.954,960.938,-18.066,-44.922,939.453
1742206293.958,999.512,-41.016,-37.109,999.512
1742206293.962,214.844,-56.641,-54.199,263.672
1742206293.966,-1000.000,-55.664,-53.223,-1000.000
1742206293.970,-705.078,-44.922,-50.293,-723.633
1742206293.974,653.809,-45.898,-65.918,625.977
1742206293.978,999.512,-59.082,-72.266,999.512
1742206293.982,597.656,-74.707,-61.523,732.422
1742206293.986,-800.293,-87.402,-41.016,-611.328
1742206293.990,-1000.000,-72.266,-39.551,-1000.000
1742206293.994,292.969,-51.758,-55.664,349.121
1742206293.998,999.512,-53.223,-64.941,999.512
1742206294.001,569.336,-72.754,-54.199,713.867
1742206294.005,-807.129,-87.891,-52.734,-605.957
1742206294.009,-1000.000,-76.660,-62.012,-1000.000
1742206294.013,231.445,-55.176,-56.152,288.086
1742206294.017,999.512,-63.965,-42.480,999.512
1742206293.974,653.809,-45.898,-65.918,625.977
1742206293.978,999.512,-59.082,-72.266,999.512
1742206293.982,597.656,-74.707,-61.523,732.422
1742206293.986,-800.293,-87.402,-41.016,-611.328
1742206293.990,-1000.000,-72.266,-39.551,-1000.000
1742206293.994,292.969,-51.758,-55.664,349.121
1742206293.998,999.512,-53.223,-64.941,999.512
1742206294.001,569.336,-72.754,-54.199,713.867
1742206294.005,-807.129,-87.891,-52.734,-605.957
1742206294.009,-1000.000,-76.660,-62.012,-1000.000
1742206294.013,231.445,-55.176,-56.152,288.086
1742206294.017,999.512,-63.965,-42.480,999.512
1742206294.018,971.191,-75.684,-38.574,959.961
1742206294.022,-122.559,-81.543,-41.016,-39.551
1742206294.026,-1000.000,-88.379,-37.598,-1000.000
1742206294.030,-137.695,-59.570,-62.500,-104.004
1742206294.034,986.816,-54.688,-66.895,999.512
1742206294.038,999.512,-51.758,-53.711,999.512
1742206294.042,199.219,-51.758,-63.965,173.340
1742206294.045,-1000.000,-73.730,-64.941,-1000.000
1742206294.049,-203.613,-54.199,-54.688,-234.863
1742206294.053,999.512,-43.945,-53.223,999.512
1742206294.057,999.512,-53.711,-57.617,999.512
1742206294.061,176.758,-68.359,-58.594,127.930
1742206294.018,971.191,-75.684,-38.574,959.961
1742206294.022,-122.559,-81.543,-41.016,-39.551
1742206294.026,-1000.000,-88.379,-37.598,-1000.000
1742206294.030,-137.695,-59.570,-62.500,-104.004
1742206294.034,986.816,-54.688,-66.895,999.512
1742206294.038,999.512,-51.758,-53.711,999.512
1742206294.042,199.219,-51.758,-63.965,173.340
1742206294.045,-1000.000,-73.730,-64.941,-1000.000
1742206294.049,-203.613,-54.199,-54.688,-234.863
1742206294.053,999.512,-43.945,-53.223,999.512
1742206294.057,999.512,-53.711,-57.617,999.512
1742206294.061,176.758,-68.359,-58.594,127.930
1742206294.063,-1000.000,-77.148,-68.359,-1000.000
1742206294.067,-288.574,-72.266,-62.012,-325.195
1742206294.071,961.426,-72.754,-56.641,943.848
1742206294.075,999.512,-63.477,-60.059,999.512
1742206294.079,263.184,-69.824,-67.871,307.617
1742206294.083,-1000.000,-80.078,-75.684,-1000.000
1742206294.087,-347.168,-58.594,-73.730,-394.043
1742206294.090,957.031,-55.664,-67.871,959.473
1742206294.094,999.512,-66.895,-62.012,976.074
1742206294.098,831.543,-71.289,-62.500,939.941
1742206294.102,-620.117,-86.426,-61.035,-417.969
1742206294.106,-956.055,-77.148,-66.406,-914.551
1742206294.063,-1000.000,-77.148,-68.359,-1000.000
1742206294.067,-288.574,-72.266,-62.012,-325.195
1742206294.071,961.426,-72.754,-56.641,943.848
1742206294.075,999.512,-63.477,-60.059,999.512
1742206294.079,263.184,-69.824,-67.871,307.617
1742206294.083,-1000.000,-80.078,-75.684,-1000.000
1742206294.087,-347.168,-58.594,-73.730,-394.043
1742206294.090,957.031,-55.664,-67.871,959.473
1742206294.094,999.512,-66.895,-62.012,976.074
1742206294.098,831.543,-71.289,-62.500,939.941
1742206294.102,-620.117,-86.426,-61.035,-417.969
1742206294.106,-956.055,-77.148,-66.406,-914.551
1742206294.108,591.797,-55.176,-63.477,625.488
1742206294.112,999.512,-57.129,-52.246,989.746
1742206294.116,999.512,-62.500,-62.012,999.512
1742206294.120,-79.102,-76.172,-84.961,57.129
1742206294.124,-1000.000,-67.383,-67.383,-915.039
1742206294.128,501.953,-48.828,-55.664,569.824
1742206294.132,999.512,-56.641,-78.613,999.512
1742206294.135,999.512,-68.359,-77.148,999.512
1742206294.139,230.957,-80.078,-67.871,290.527
1742206294.143,-1000.000,-73.730,-96.191,-1000.000
1742206294.147,-142.578,-57.617,-102.539,-49.805
1742206294.151,999.512,-65.430,-86.914,999.512
1742206294.108,591.797,-55.176,-63.477,625.488
1742206294.112,999.512,-57.129,-52.246,989.746
1742206294.116,999.512,-62.500,-62.012,999.512
1742206294.120,-79.102,-76.172,-84.961,57.129
1742206294.124,-1000.000,-67.383,-67.383,-915.039
1742206294.128,501.953,-48.828,-55.664,569.824
1742206294.132,999.512,-56.641,-78.613,999.512
1742206294.135,999.512,-68.359,-77.148,999.512
1742206294.139,230.957,-80.078,-67.871,290.527
1742206294.143,-1000.000,-73.730,-96.191,-1000.000
1742206294.147,-142.578,-57.617,-102.539,-49.805
1742206294.151,999.512,-65.430,-86.914,999.512
1742206294.152,999.512,-72.266,-89.844,999.512
1742206294.156,218.750,-86.914,-77.637,232.910
1742206294.160,-1000.000,-92.285,-73.730,-1000.000
1742206294.164,-173.828,-69.336,-96.680,-78.125
1742206294.168,999.512,-62.988,-94.727,999.512
1742206294.172,999.512,-52.246,-86.914,999.512
1742206294.176,274.414,-63.477,-98.145,407.715
1742206294.179,-1000.000,-89.355,-105.957,-1000.000
1742206294.183,-245.117,-63.477,-106.445,-292.969
1742206294.187,981.445,-54.688,-100.586,981.934
1742206294.191,999.512,-70.312,-95.703,999.512
1742206294.195,428.711,-67.383,-95.703,550.293
1742206294.152,999.512,-72.266,-89.844,999.512
1742206294.156,218.750,-86.914,-77.637,232.910
1742206294.160,-1000.000,-92.285,-73.730,-1000.000
1742206294.164,-173.828,-69.336,-96.680,-78.125
1742206294.168,999.512,-62.988,-94.727,999.512
1742206294.172,999.512,-52.246,-86.914,999.512
1742206294.176,274.414,-63.477,-98.145,407.715
1742206294.179,-1000.000,-89.355,-105.957,-1000.000
1742206294.183,-245.117,-63.477,-106.445,-292.969
1742206294.187,981.445,-54.688,-100.586,981.934
1742206294.191,999.512,-70.312,-95.703,999.512
1742206294.195,428.711,-67.383,-95.703,550.293
1742206294.212,-1000.000,-82.520,-87.402,-1000.000
1742206294.216,-516.113,-67.871,-93.262,-542.480
1742206294.220,892.090,-48.828,-111.328,870.605
1742206294.224,999.512,-55.176,-114.258,999.512
1742206294.228,247.559,-68.848,-114.746,348.633
1742206294.232,-1000.000,-83.496,-100.586,-1000.000
1742206294.236,-314.453,-51.758,-81.055,-354.004
1742206294.239,952.637,-30.762,-93.750,953.125
1742206294.243,999.512,-50.781,-115.234,999.512
1742206294.247,448.730,-85.449,-104.004,576.660
1742206294.251,-1000.000,-100.098,-105.957,-903.320
1742206294.255,-797.852,-83.496,-121.582,-820.312
1742206294.212,-1000.000,-82.520,-87.402,-1000.000
1742206294.216,-516.113,-67.871,-93.262,-542.480
1742206294.220,892.090,-48.828,-111.328,870.605
1742206294.224,999.512,-55.176,-114.258,999.512
1742206294.228,247.559,-68.848,-114.746,348.633
1742206294.232,-1000.000,-83.496,-100.586,-1000.000
1742206294.236,-314.453,-51.758,-81.055,-354.004
1742206294.239,952.637,-30.762,-93.750,953.125
1742206294.243,999.512,-50.781,-115.234,999.512
1742206294.247,448.730,-85.449,-104.004,576.660
1742206294.251,-1000.000,-100.098,-105.957,-903.320
1742206294.255,-797.852,-83.496,-121.582,-820.312
1742206294.258,617.188,-70.801,-120.605,601.562
1742206294.262,999.512,-68.359,-108.887,999.512
1742206294.266,668.457,-80.566,-98.633,782.715
1742206294.270,-791.016,-95.703,-95.215,-611.816
1742206294.274,-921.387,-71.289,-84.473,-924.805
1742206294.278,528.320,-41.016,-100.098,526.855
1742206294.282,999.512,-41.016,-108.887,999.512
1742206294.285,544.434,-62.988,-94.727,669.922
1742206294.289,-845.215,-89.355,-94.727,-682.617
1742206294.293,-1000.000,-67.871,-90.332,-1000.000
1742206294.297,291.992,-42.480,-95.215,325.195
1742206294.301,999.512,-52.734,-102.539,999.512
1742206294.258,617.188,-70.801,-120.605,601.562
1742206294.262,999.512,-68.359,-108.887,999.512
1742206294.266,668.457,-80.566,-98.633,782.715
1742206294.270,-791.016,-95.703,-95.215,-611.816
1742206294.274,-921.387,-71.289,-84.473,-924.805
1742206294.278,528.320,-41.016,-100.098,526.855
1742206294.282,999.512,-41.016,-108.887,999.512
1742206294.285,544.434,-62.988,-94.727,669.922
1742206294.289,-845.215,-89.355,-94.727,-682.617
1742206294.293,-1000.000,-67.871,-90.332,-1000.000
1742206294.297,291.992,-42.480,-95.215,325.195
1742206294.301,999.512,-52.734,-102.539,999.512
1742206294.302,944.824,-54.688,-109.863,966.797
1742206294.306,-188.477,-75.684,-109.375,-88.867
1742206294.310,-1000.000,-88.867,-103.027,-1000.000
1742206294.314,-146.973,-69.336,-106.445,-106.934
1742206294.318,987.793,-51.758,-110.840,999.512
1742206294.322,999.512,-46.387,-108.887,999.512
1742206294.326,123.047,-64.941,-109.863,146.484
1742206294.329,-1000.000,-78.613,-111.328,-1000.000
1742206294.333,-214.844,-56.152,-112.305,-256.348
1742206294.337,999.512,-51.270,-114.258,999.512
1742206294.341,999.512,-69.336,-117.188,978.027
1742206294.345,-138.184,-88.379,-124.512,-125.000
1742206294.302,944.824,-54.688,-109.863,966.797
1742206294.306,-188.477,-75.684,-109.375,-88.867
1742206294.310,-1000.000,-88.867,-103.027,-1000.000
1742206294.314,-146.973,-69.336,-106.445,-106.934
1742206294.318,987.793,-51.758,-110.840,999.512
1742206294.322,999.512,-46.387,-108.887,999.512
1742206294.326,123.047,-64.941,-109.863,146.484
1742206294.329,-1000.000,-78.613,-111.328,-1000.000
1742206294.333,-214.844,-56.152,-112.305,-256.348
1742206294.337,999.512,-51.270,-114.258,999.512
1742206294.341,999.512,-69.336,-117.188,978.027
1742206294.345,-138.184,-88.379,-124.512,-125.000
1742206294.302,944.824,-54.688,-109.863,966.797
1742206294.306,-188.477,-75.684,-109.375,-88.867
1742206294.310,-1000.000,-88.867,-103.027,-1000.000
1742206294.314,-146.973,-69.336,-106.445,-106.934
1742206294.318,987.793,-51.758,-110.840,999.512
1742206294.322,999.512,-46.387,-108.887,999.512
1742206294.326,123.047,-64.941,-109.863,146.484
1742206294.329,-1000.000,-78.613,-111.328,-1000.000
1742206294.333,-214.844,-56.152,-112.305,-256.348
1742206294.337,999.512,-51.270,-114.258,999.512
1742206294.341,999.512,-69.336,-117.188,978.027
1742206294.345,-138.184,-88.379,-124.512,-125.000
1742206294.347,-1000.000,-82.520,-117.676,-1000.000
1742206294.351,-169.922,-57.129,-107.422,-157.227
1742206294.355,985.840,-46.387,-97.656,999.512
1742206294.359,999.512,-44.922,-88.379,999.512
1742206294.363,139.648,-45.898,-83.496,112.793
1742206294.367,-1000.000,-49.316,-85.938,-1000.000
1742206294.371,-366.211,-35.156,-95.215,-414.551
1742206294.374,999.512,-39.062,-101.074,999.512
1742206294.378,633.301,-65.430,-104.004,644.531
1742206294.382,-769.043,-67.871,-97.168,-704.590
1742206294.386,-1000.000,-57.617,-100.098,-1000.000
1742206294.390,-213.379,-58.594,-99.609,-290.039
1742206294.347,-1000.000,-82.520,-117.676,-1000.000
1742206294.351,-169.922,-57.129,-107.422,-157.227
1742206294.355,985.840,-46.387,-97.656,999.512
1742206294.359,999.512,-44.922,-88.379,999.512
1742206294.363,139.648,-45.898,-83.496,112.793
1742206294.367,-1000.000,-49.316,-85.938,-1000.000
1742206294.371,-366.211,-35.156,-95.215,-414.551
1742206294.374,999.512,-39.062,-101.074,999.512
1742206294.378,633.301,-65.430,-104.004,644.531
1742206294.382,-769.043,-67.871,-97.168,-704.590
1742206294.386,-1000.000,-57.617,-100.098,-1000.000
1742206294.390,-213.379,-58.594,-99.609,-290.039
1742206294.392,999.512,-53.711,-96.680,999.512
1742206294.396,937.988,-51.270,-100.098,873.535
1742206294.400,-296.875,-63.965,-90.820,-325.195
1742206294.404,-1000.000,-66.895,-79.102,-1000.000
1742206294.408,-409.180,-55.664,-85.449,-501.953
1742206294.412,926.270,-43.945,-102.539,879.395
1742206294.416,999.512,-57.617,-102.051,962.402
1742206294.419,-194.336,-70.801,-97.656,-272.949
1742206294.423,-1000.000,-64.941,-96.680,-1000.000
1742206294.427,-560.059,-61.035,-93.750,-678.711
1742206294.431,769.043,-53.711,-91.309,642.090
1742206294.435,999.512,-65.918,-87.891,999.512
1742206294.392,999.512,-53.711,-96.680,999.512
1742206294.396,937.988,-51.270,-100.098,873.535
1742206294.400,-296.875,-63.965,-90.820,-325.195
1742206294.404,-1000.000,-66.895,-79.102,-1000.000
1742206294.408,-409.180,-55.664,-85.449,-501.953
1742206294.412,926.270,-43.945,-102.539,879.395
1742206294.416,999.512,-57.617,-102.051,962.402
1742206294.419,-194.336,-70.801,-97.656,-272.949
1742206294.423,-1000.000,-64.941,-96.680,-1000.000
1742206294.427,-560.059,-61.035,-93.750,-678.711
1742206294.431,769.043,-53.711,-91.309,642.090
1742206294.435,999.512,-65.918,-87.891,999.512
1742206294.437,89.355,-78.125,-97.656,-27.344
1742206294.441,-1000.000,-72.754,-111.816,-1000.000
1742206294.445,-833.984,-59.082,-114.258,-886.230
1742206294.449,479.980,-57.129,-110.840,354.980
1742206294.453,999.512,-64.453,-117.188,999.512
1742206294.457,169.922,-74.219,-119.629,188.965
1742206294.461,-993.652,-90.820,-117.188,-976.562
1742206294.464,-1000.000,-69.824,-108.887,-1000.000
1742206294.468,-144.043,-42.480,-105.957,-154.785
1742206294.472,999.512,-36.621,-112.793,999.512
1742206294.476,272.461,-51.270,-112.305,314.453
1742206294.480,-986.816,-62.500,-115.234,-965.332
1742206294.437,89.355,-78.125,-97.656,-27.344
1742206294.441,-1000.000,-72.754,-111.816,-1000.000
1742206294.445,-833.984,-59.082,-114.258,-886.230
1742206294.449,479.980,-57.129,-110.840,354.980
1742206294.453,999.512,-64.453,-117.188,999.512
1742206294.457,169.922,-74.219,-119.629,188.965
1742206294.461,-993.652,-90.820,-117.188,-976.562
1742206294.464,-1000.000,-69.824,-108.887,-1000.000
1742206294.468,-144.043,-42.480,-105.957,-154.785
1742206294.472,999.512,-36.621,-112.793,999.512
1742206294.476,272.461,-51.270,-112.305,314.453
1742206294.480,-986.816,-62.500,-115.234,-965.332
1742206294.483,-1000.000,-57.129,-111.328,-1000.000
1742206294.487,-208.496,-47.852,-101.562,-183.105
1742206294.491,999.512,-55.176,-99.609,999.512
1742206294.495,761.230,-73.730,-89.355,723.145
1742206294.499,-601.074,-68.848,-77.637,-558.105
1742206294.503,-1000.000,-54.688,-90.332,-1000.000
1742206294.507,-38.574,-35.156,-101.562,-55.176
1742206294.510,981.934,-35.645,-89.844,978.516
1742206294.514,999.512,-33.203,-88.867,999.512
1742206294.518,358.398,-40.527,-92.285,438.965
1742206294.522,-1000.000,-62.012,-95.215,-1000.000
1742206294.526,-406.738,-39.062,-102.051,-457.031
1742206294.483,-1000.000,-57.129,-111.328,-1000.000
1742206294.487,-208.496,-47.852,-101.562,-183.105
1742206294.491,999.512,-55.176,-99.609,999.512
1742206294.495,761.230,-73.730,-89.355,723.145
1742206294.499,-601.074,-68.848,-77.637,-558.105
1742206294.503,-1000.000,-54.688,-90.332,-1000.000
1742206294.507,-38.574,-35.156,-101.562,-55.176
1742206294.510,981.934,-35.645,-89.844,978.516
1742206294.514,999.512,-33.203,-88.867,999.512
1742206294.518,358.398,-40.527,-92.285,438.965
1742206294.522,-1000.000,-62.012,-95.215,-1000.000
1742206294.526,-406.738,-39.062,-102.051,-457.031
1742206294.528,921.875,-27.344,-98.145,904.297
1742206294.532,999.512,-40.039,-87.891,999.512
1742206294.536,412.109,-48.828,-98.633,499.023
1742206294.540,-882.812,-61.523,-115.234,-799.316
1742206294.544,-1000.000,-51.758,-108.887,-1000.000
1742206294.548,-191.895,-38.086,-96.191,-130.859
1742206294.552,999.512,-43.457,-103.516,999.512
1742206294.555,124.023,-66.406,-111.328,14.160
1742206294.559,-1000.000,-65.430,-115.723,-1000.000
1742206294.563,-852.539,-52.734,-113.770,-911.133
1742206294.567,475.586,-37.598,-108.887,368.652
1742206294.571,999.512,-43.945,-105.469,999.512
1742206294.528,921.875,-27.344,-98.145,904.297
1742206294.532,999.512,-40.039,-87.891,999.512
1742206294.536,412.109,-48.828,-98.633,499.023
1742206294.540,-882.812,-61.523,-115.234,-799.316
1742206294.544,-1000.000,-51.758,-108.887,-1000.000
1742206294.548,-191.895,-38.086,-96.191,-130.859
1742206294.552,999.512,-43.457,-103.516,999.512
1742206294.555,124.023,-66.406,-111.328,14.160
1742206294.559,-1000.000,-65.430,-115.723,-1000.000
1742206294.563,-852.539,-52.734,-113.770,-911.133
1742206294.567,475.586,-37.598,-108.887,368.652
1742206294.571,999.512,-43.945,-105.469,999.512
1742206294.587,37.109,-70.801,-109.375,-84.473
1742206294.591,-1000.000,-65.918,-112.305,-1000.000
1742206294.595,-885.742,-55.176,-101.074,-908.691
1742206294.599,398.926,-56.152,-105.957,307.129
1742206294.603,999.512,-48.340,-116.211,999.512
1742206294.607,127.930,-42.969,-118.652,122.070
1742206294.611,-1000.000,-38.086,-106.445,-1000.000
1742206294.614,-1000.000,-29.785,-91.309,-1000.000
1742206294.618,-129.883,-16.113,-100.098,-136.230
1742206294.622,999.512,-18.066,-99.609,999.512
1742206294.626,148.438,-41.992,-85.938,60.547
1742206294.630,-1000.000,-39.062,-84.961,-1000.000
1742206294.587,37.109,-70.801,-109.375,-84.473
1742206294.591,-1000.000,-65.918,-112.305,-1000.000
1742206294.595,-885.742,-55.176,-101.074,-908.691
1742206294.599,398.926,-56.152,-105.957,307.129
1742206294.603,999.512,-48.340,-116.211,999.512
1742206294.607,127.930,-42.969,-118.652,122.070
1742206294.611,-1000.000,-38.086,-106.445,-1000.000
1742206294.614,-1000.000,-29.785,-91.309,-1000.000
1742206294.618,-129.883,-16.113,-100.098,-136.230
1742206294.622,999.512,-18.066,-99.609,999.512
1742206294.626,148.438,-41.992,-85.938,60.547
1742206294.630,-1000.000,-39.062,-84.961,-1000.000
1742206294.632,-1000.000,-36.133,-88.867,-1000.000
1742206294.636,-129.395,-28.320,-91.797,-143.066
1742206294.640,999.512,-17.090,-84.473,999.512
1742206294.644,219.238,-30.762,-68.359,293.945
1742206294.648,-1000.000,-41.504,-74.219,-1000.000
1742206294.652,-1000.000,-42.969,-90.332,-1000.000
1742206294.656,-42.969,-27.832,-95.703,8.789
1742206294.659,999.512,-24.902,-97.656,999.512
1742206294.663,907.227,-41.504,-92.773,904.297
1742206294.667,-363.281,-50.781,-92.773,-244.141
1742206294.671,-1000.000,-47.852,-99.609,-1000.000
1742206294.675,-160.645,-35.645,-95.703,-182.617
1742206294.632,-1000.000,-36.133,-88.867,-1000.000
1742206294.636,-129.395,-28.320,-91.797,-143.066
1742206294.640,999.512,-17.090,-84.473,999.512
1742206294.644,219.238,-30.762,-68.359,293.945
1742206294.648,-1000.000,-41.504,-74.219,-1000.000
1742206294.652,-1000.000,-42.969,-90.332,-1000.000
1742206294.656,-42.969,-27.832,-95.703,8.789
1742206294.659,999.512,-24.902,-97.656,999.512
1742206294.663,907.227,-41.504,-92.773,904.297
1742206294.667,-363.281,-50.781,-92.773,-244.141
1742206294.671,-1000.000,-47.852,-99.609,-1000.000
1742206294.675,-160.645,-35.645,-95.703,-182.617
1742206294.677,976.074,-32.227,-83.008,991.699
1742206294.681,999.512,-46.875,-76.172,999.512
1742206294.685,144.531,-62.988,-75.684,100.098
1742206294.689,-1000.000,-54.688,-76.660,-1000.000
1742206294.693,-291.016,-4.395,-74.707,-341.309
1742206294.697,948.730,17.578,-72.754,921.875
1742206294.701,999.512,-4.395,-77.637,999.512
1742206294.704,375.977,-23.926,-79.102,449.707
1742206294.708,-1000.000,-25.391,-75.684,-1000.000
1742206294.712,-353.516,-5.371,-70.312,-406.250
1742206294.716,994.141,1.953,-63.965,988.281
1742206294.720,953.613,-13.184,-60.059,946.289
1742206294.677,976.074,-32.227,-83.008,991.699
1742206294.681,999.512,-46.875,-76.172,999.512
1742206294.685,144.531,-62.988,-75.684,100.098
1742206294.689,-1000.000,-54.688,-76.660,-1000.000
1742206294.693,-291.016,-4.395,-74.707,-341.309
1742206294.697,948.730,17.578,-72.754,921.875
1742206294.701,999.512,-4.395,-77.637,999.512
1742206294.704,375.977,-23.926,-79.102,449.707
1742206294.708,-1000.000,-25.391,-75.684,-1000.000
1742206294.712,-353.516,-5.371,-70.312,-406.250
1742206294.716,994.141,1.953,-63.965,988.281
1742206294.720,953.613,-13.184,-60.059,946.289
1742206294.722,979.492,-14.648,-51.758,999.512
1742206294.726,-305.664,-24.902,-48.340,-201.172
1742206294.730,-1000.000,-20.020,-50.781,-1000.000
1742206294.734,341.797,-0.977,-50.781,344.238
1742206294.738,999.512,0.977,-54.199,999.512
1742206294.742,999.512,4.395,-56.641,999.512
1742206294.746,-29.785,-1.953,-58.105,38.086
1742206294.749,-1000.000,0.977,-60.547,-1000.000
1742206294.753,-98.633,17.090,-52.246,-81.543
1742206294.757,999.512,18.555,-43.945,999.512
1742206294.761,999.512,9.766,-48.340,999.512
1742206294.765,69.336,-5.371,-54.688,76.172
1742206294.722,979.492,-14.648,-51.758,999.512
1742206294.726,-305.664,-24.902,-48.340,-201.172
1742206294.730,-1000.000,-20.020,-50.781,-1000.000
1742206294.734,341.797,-0.977,-50.781,344.238
1742206294.738,999.512,0.977,-54.199,999.512
1742206294.742,999.512,4.395,-56.641,999.512
1742206294.746,-29.785,-1.953,-58.105,38.086
1742206294.749,-1000.000,0.977,-60.547,-1000.000
1742206294.753,-98.633,17.090,-52.246,-81.543
1742206294.757,999.512,18.555,-43.945,999.512
1742206294.761,999.512,9.766,-48.340,999.512
1742206294.765,69.336,-5.371,-54.688,76.172
1742206294.767,-1000.000,-4.883,-60.547,-1000.000
1742206294.771,-83.008,20.508,-57.129,-73.242
1742206294.775,999.512,20.996,-48.828,999.512
1742206294.779,999.512,7.812,-52.246,999.512
1742206294.783,127.441,-5.859,-53.223,87.402
1742206294.787,-1000.000,-8.301,-56.152,-1000.000
1742206294.791,-139.160,9.277,-58.105,-94.238
1742206294.794,999.512,2.441,-59.570,999.512
1742206294.798,999.512,-3.906,-61.035,999.512
1742206294.802,201.660,-6.836,-64.941,182.129
1742206294.806,-1000.000,-14.160,-80.566,-1000.000
1742206294.810,-350.098,-7.812,-91.309,-411.621
1742206294.767,-1000.000,-4.883,-60.547,-1000.000
1742206294.771,-83.008,20.508,-57.129,-73.242
1742206294.775,999.512,20.996,-48.828,999.512
1742206294.779,999.512,7.812,-52.246,999.512
1742206294.783,127.441,-5.859,-53.223,87.402
1742206294.787,-1000.000,-8.301,-56.152,-1000.000
1742206294.791,-139.160,9.277,-58.105,-94.238
1742206294.794,999.512,2.441,-59.570,999.512
1742206294.798,999.512,-3.906,-61.035,999.512
1742206294.802,201.660,-6.836,-64.941,182.129
1742206294.806,-1000.000,-14.160,-80.566,-1000.000
1742206294.810,-350.098,-7.812,-91.309,-411.621
1742206294.814,988.281,1.465,-88.867,964.355
1742206294.818,999.512,5.371,-80.078,978.516
1742206294.822,-107.910,-3.418,-75.195,-143.555
1742206294.826,-1000.000,-16.602,-75.684,-1000.000
1742206294.830,-619.629,-0.977,-70.801,-726.074
1742206294.834,932.617,17.578,-67.871,783.691
1742206294.838,689.453,-16.602,-59.082,696.289
1742206294.841,-772.949,-44.434,-66.895,-748.535
1742206294.845,-1000.000,-13.672,-81.543,-1000.000
1742206294.849,-604.980,10.254,-72.266,-713.379
1742206294.853,855.469,14.648,-59.082,704.590
1742206294.857,890.625,3.906,-42.969,872.070
1742206294.814,988.281,1.465,-88.867,964.355
1742206294.818,999.512,5.371,-80.078,978.516
1742206294.822,-107.910,-3.418,-75.195,-143.555
1742206294.826,-1000.000,-16.602,-75.684,-1000.000
1742206294.830,-619.629,-0.977,-70.801,-726.074
1742206294.834,932.617,17.578,-67.871,783.691
1742206294.838,689.453,-16.602,-59.082,696.289
1742206294.841,-772.949,-44.434,-66.895,-748.535
1742206294.845,-1000.000,-13.672,-81.543,-1000.000
1742206294.849,-604.980,10.254,-72.266,-713.379
1742206294.853,855.469,14.648,-59.082,704.590
1742206294.857,890.625,3.906,-42.969,872.070
1742206294.857,-571.289,-3.906,-42.969,-567.383
1742206294.861,-1000.000,2.930,-57.129,-1000.000
1742206294.865,-969.238,6.348,-59.570,-986.816
1742206294.869,172.852,6.836,-57.617,106.934
1742206294.873,999.512,3.906,-58.105,999.512
1742206294.877,95.703,-5.371,-55.176,0.000
1742206294.881,-1000.000,-18.555,-54.688,-1000.000
1742206294.884,-1000.000,-1.465,-50.781,-1000.000
1742206294.888,212.402,30.762,-48.340,182.129
1742206294.892,999.512,24.414,-46.875,999.512
1742206294.896,100.586,3.418,-40.527,17.090
1742206294.900,-1000.000,-5.371,-34.668,-1000.000
1742206294.857,-571.289,-3.906,-42.969,-567.383
1742206294.861,-1000.000,2.930,-57.129,-1000.000
1742206294.865,-969.238,6.348,-59.570,-986.816
1742206294.869,172.852,6.836,-57.617,106.934
1742206294.873,999.512,3.906,-58.105,999.512
1742206294.877,95.703,-5.371,-55.176,0.000
1742206294.881,-1000.000,-18.555,-54.688,-1000.000
1742206294.884,-1000.000,-1.465,-50.781,-1000.000
1742206294.888,212.402,30.762,-48.340,182.129
1742206294.892,999.512,24.414,-46.875,999.512
1742206294.896,100.586,3.418,-40.527,17.090
1742206294.900,-1000.000,-5.371,-34.668,-1000.000
1742206294.902,-830.078,1.465,-40.039,-843.262
1742206294.906,511.719,8.301,-42.480,445.312
1742206294.910,999.512,7.324,-39.551,999.512
1742206294.914,929.688,2.930,-47.852,939.941
1742206294.918,-303.711,-7.812,-47.363,-220.703
1742206294.922,-1000.000,9.766,-32.227,-1000.000
1742206294.926,234.863,26.367,-30.273,272.461
1742206294.929,999.512,9.277,-29.297,999.512
1742206294.933,999.512,0.000,-23.438,999.512
1742206294.937,43.945,-14.160,-36.621,76.660
1742206294.941,-1000.000,-13.672,-39.062,-1000.000
1742206294.945,-152.344,13.672,-39.551,-111.328
1742206294.902,-830.078,1.465,-40.039,-843.262
1742206294.906,511.719,8.301,-42.480,445.312
1742206294.910,999.512,7.324,-39.551,999.512
1742206294.914,929.688,2.930,-47.852,939.941
1742206294.918,-303.711,-7.812,-47.363,-220.703
1742206294.922,-1000.000,9.766,-32.227,-1000.000
1742206294.926,234.863,26.367,-30.273,272.461
1742206294.929,999.512,9.277,-29.297,999.512
1742206294.933,999.512,0.000,-23.438,999.512
1742206294.937,43.945,-14.160,-36.621,76.660
1742206294.941,-1000.000,-13.672,-39.062,-1000.000
1742206294.945,-152.344,13.672,-39.551,-111.328
1742206294.962,997.559,13.672,-45.410,999.512
1742206294.966,999.512,10.254,-37.598,999.512
1742206294.970,184.082,-3.418,-33.203,156.250
1742206294.974,-1000.000,-14.648,-38.086,-1000.000
1742206294.978,-193.848,6.348,-45.898,-230.469
1742206294.982,993.164,7.324,-37.598,973.145
1742206294.986,999.512,-5.371,-27.832,999.512
1742206294.989,321.777,-12.207,-33.691,417.480
1742206294.993,-1000.000,-13.184,-38.574,-1000.000
1742206294.997,-221.191,17.578,-35.156,-220.215
1742206295.001,999.512,32.227,-22.461,999.512
1742206295.005,940.430,14.160,-25.879,936.035
1742206294.962,997.559,13.672,-45.410,999.512
1742206294.966,999.512,10.254,-37.598,999.512
1742206294.970,184.082,-3.418,-33.203,156.250
1742206294.974,-1000.000,-14.648,-38.086,-1000.000
1742206294.978,-193.848,6.348,-45.898,-230.469
1742206294.982,993.164,7.324,-37.598,973.145
1742206294.986,999.512,-5.371,-27.832,999.512
1742206294.989,321.777,-12.207,-33.691,417.480
1742206294.993,-1000.000,-13.184,-38.574,-1000.000
1742206294.997,-221.191,17.578,-35.156,-220.215
1742206295.001,999.512,32.227,-22.461,999.512
1742206295.005,940.430,14.160,-25.879,936.035
1742206295.007,938.965,8.789,-45.410,941.406
1742206295.011,972.656,15.625,-41.992,973.145
1742206295.015,970.703,2.930,-27.344,968.750
1742206295.019,945.312,4.395,-17.578,958.008
1742206295.023,932.129,17.578,-15.137,912.598
1742206295.027,999.512,14.160,-23.438,999.512
1742206295.031,-126.953,-1.465,-35.645,37.598
1742206295.034,-1000.000,-7.812,-40.039,-1000.000
1742206295.038,262.695,7.324,-28.809,302.246
1742206295.042,999.512,6.348,-21.484,999.512
1742206295.046,999.512,9.766,-19.043,999.512
1742206295.050,-0.977,8.301,-25.879,56.641
1742206295.007,938.965,8.789,-45.410,941.406
1742206295.011,972.656,15.625,-41.992,973.145
1742206295.015,970.703,2.930,-27.344,968.750
1742206295.019,945.312,4.395,-17.578,958.008
1742206295.023,932.129,17.578,-15.137,912.598
1742206295.027,999.512,14.160,-23.438,999.512
1742206295.031,-126.953,-1.465,-35.645,37.598
1742206295.034,-1000.000,-7.812,-40.039,-1000.000
1742206295.038,262.695,7.324,-28.809,302.246
1742206295.042,999.512,6.348,-21.484,999.512
1742206295.046,999.512,9.766,-19.043,999.512
1742206295.050,-0.977,8.301,-25.879,56.641
1742206295.052,-1000.000,8.301,-36.621,-1000.000
1742206295.056,-60.547,10.742,-46.875,-48.828
1742206295.060,999.512,5.859,-47.363,999.512
1742206295.064,617.676,-1.953,-39.551,671.387
1742206295.068,-799.316,-15.625,-48.340,-693.359
1742206295.072,-1000.000,-0.488,-51.758,-1000.000
1742206295.076,180.664,14.160,-38.086,169.434
1742206295.079,999.512,1.953,-37.109,999.512
1742206295.083,768.555,-7.812,-36.621,781.250
1742206295.087,-502.930,-12.695,-28.320,-428.223
1742206295.091,-1000.000,10.254,-14.160,-1000.000
1742206295.095,-208.008,40.039,-9.277,-175.781
1742206295.052,-1000.000,8.301,-36.621,-1000.000
1742206295.056,-60.547,10.742,-46.875,-48.828
1742206295.060,999.512,5.859,-47.363,999.512
1742206295.064,617.676,-1.953,-39.551,671.387
1742206295.068,-799.316,-15.625,-48.340,-693.359
1742206295.072,-1000.000,-0.488,-51.758,-1000.000
1742206295.076,180.664,14.160,-38.086,169.434
1742206295.079,999.512,1.953,-37.109,999.512
1742206295.083,768.555,-7.812,-36.621,781.250
1742206295.087,-502.930,-12.695,-28.320,-428.223
1742206295.091,-1000.000,10.254,-14.160,-1000.000
1742206295.095,-208.008,40.039,-9.277,-175.781
1742206295.098,999.512,42.969,-8.789,999.512
1742206295.102,543.457,21.484,-2.441,580.078
1742206295.106,-835.938,9.277,-4.883,-749.023
1742206295.110,-1000.000,20.508,-5.859,-1000.000
1742206295.114,-219.727,40.527,-5.859,-182.617
1742206295.118,999.512,41.992,-15.625,999.512
1742206295.122,661.133,15.137,-20.996,689.941
1742206295.125,-715.332,-1.953,-21.973,-615.234
1742206295.129,-1000.000,13.672,-19.043,-1000.000
1742206295.133,-230.469,34.668,-12.695,-200.684
1742206295.137,999.512,40.039,-11.719,999.512
1742206295.141,431.641,20.508,-13.184,454.102
1742206295.098,999.512,42.969,-8.789,999.512
1742206295.102,543.457,21.484,-2.441,580.078
1742206295.106,-835.938,9.277,-4.883,-749.023
1742206295.110,-1000.000,20.508,-5.859,-1000.000
1742206295.114,-219.727,40.527,-5.859,-182.617
1742206295.118,999.512,41.992,-15.625,999.512
1742206295.122,661.133,15.137,-20.996,689.941
1742206295.125,-715.332,-1.953,-21.973,-615.234
1742206295.129,-1000.000,13.672,-19.043,-1000.000
1742206295.133,-230.469,34.668,-12.695,-200.684
1742206295.137,999.512,40.039,-11.719,999.512
1742206295.141,431.641,20.508,-13.184,454.102
1742206295.142,-910.156,4.883,-24.902,-857.910
1742206295.146,-1000.000,8.301,-36.133,-1000.000
1742206295.150,-372.070,21.484,-35.645,-451.660
1742206295.154,984.375,27.344,-37.598,919.922
1742206295.158,916.016,24.414,-38.574,844.727
1742206295.162,-413.574,23.926,-32.715,-439.453
1742206295.166,-1000.000,8.789,-31.250,-1000.000
1742206295.169,-865.234,6.836,-40.039,-933.594
1742206295.173,482.422,29.297,-36.621,355.469
1742206295.177,999.512,22.461,-28.809,999.512
1742206295.181,-339.844,14.648,-36.621,-379.883
1742206295.185,-1000.000,21.484,-42.480,-1000.000
1742206295.187,-685.059,25.879,-28.809,-747.559
1742206295.191,666.016,38.086,-15.137,568.359
1742206295.195,999.512,31.738,-14.160,999.512
1742206295.199,-111.328,18.555,-11.230,-145.508
1742206295.203,-1000.000,24.902,-16.113,-1000.000
1742206295.207,-718.750,42.969,-21.973,-771.973
1742206295.211,671.875,41.016,-23.438,588.379
1742206295.214,999.512,25.391,-24.414,999.512
1742206295.218,-228.516,22.461,-25.879,-259.277
1742206295.222,-1000.000,28.809,-23.438,-1000.000
1742206295.226,-995.605,40.527,-15.625,-989.258
1742206295.230,134.766,49.316,-15.625,105.957
1742206295.187,-685.059,25.879,-28.809,-747.559
1742206295.191,666.016,38.086,-15.137,568.359
1742206295.195,999.512,31.738,-14.160,999.512
1742206295.199,-111.328,18.555,-11.230,-145.508
1742206295.203,-1000.000,24.902,-16.113,-1000.000
1742206295.207,-718.750,42.969,-21.973,-771.973
1742206295.211,671.875,41.016,-23.438,588.379
1742206295.214,999.512,25.391,-24.414,999.512
1742206295.218,-228.516,22.461,-25.879,-259.277
1742206295.222,-1000.000,28.809,-23.438,-1000.000
1742206295.226,-995.605,40.527,-15.625,-989.258
1742206295.230,134.766,49.316,-15.625,105.957
1742206295.247,999.512,44.922,-21.973,999.512
1742206295.251,120.605,22.949,-21.484,62.988
1742206295.255,-1000.000,16.113,-20.996,-1000.000
1742206295.259,-1000.000,19.531,-23.438,-1000.000
1742206295.263,-257.324,35.645,-17.090,-240.723
1742206295.267,999.512,53.223,-7.812,999.512
1742206295.271,263.672,31.738,-13.672,307.617
1742206295.274,-998.535,21.484,-14.160,-967.285
1742206295.278,-1000.000,34.668,-9.766,-1000.000
1742206295.282,-282.227,48.828,-14.160,-328.125
1742206295.286,999.512,61.035,-15.137,999.512
1742206295.290,633.789,43.457,-20.020,705.566
1742206295.247,999.512,44.922,-21.973,999.512
1742206295.251,120.605,22.949,-21.484,62.988
1742206295.255,-1000.000,16.113,-20.996,-1000.000
1742206295.259,-1000.000,19.531,-23.438,-1000.000
1742206295.263,-257.324,35.645,-17.090,-240.723
1742206295.267,999.512,53.223,-7.812,999.512
1742206295.271,263.672,31.738,-13.672,307.617
1742206295.274,-998.535,21.484,-14.160,-967.285
1742206295.278,-1000.000,34.668,-9.766,-1000.000
1742206295.282,-282.227,48.828,-14.160,-328.125
1742206295.286,999.512,61.035,-15.137,999.512
1742206295.290,633.789,43.457,-20.020,705.566
1742206295.278,-750.488,30.762,-19.043,-623.047
1742206295.282,-1000.000,33.203,-9.766,-1000.000
1742206295.286,-200.195,39.551,-6.836,-259.766
1742206295.290,974.609,41.504,-10.254,966.797
1742206295.294,999.512,37.598,-9.766,999.512
1742206295.298,2.930,29.785,-9.766,-19.043
1742206295.302,-1000.000,16.113,-11.719,-1000.000
1742206295.305,-604.980,3.906,-11.230,-650.879
1742206295.309,740.723,13.184,-15.137,661.621
1742206295.313,999.512,28.809,-20.020,999.512
1742206295.317,201.660,30.273,-22.461,219.238
1742206295.321,-1000.000,21.484,-20.508,-1000.000
1742206295.278,-750.488,30.762,-19.043,-623.047
1742206295.282,-1000.000,33.203,-9.766,-1000.000
1742206295.286,-200.195,39.551,-6.836,-259.766
1742206295.290,974.609,41.504,-10.254,966.797
1742206295.294,999.512,37.598,-9.766,999.512
1742206295.298,2.930,29.785,-9.766,-19.043
1742206295.302,-1000.000,16.113,-11.719,-1000.000
1742206295.305,-604.980,3.906,-11.230,-650.879
1742206295.309,740.723,13.184,-15.137,661.621
1742206295.313,999.512,28.809,-20.020,999.512
1742206295.317,201.660,30.273,-22.461,219.238
1742206295.321,-1000.000,21.484,-20.508,-1000.000
1742206295.323,-509.277,31.250,-16.113,-539.062
1742206295.327,864.746,47.852,-4.883,820.801
1742206295.331,999.512,38.574,3.418,999.512
1742206295.335,203.613,16.602,-2.930,194.336
1742206295.339,-1000.000,10.742,-7.812,-1000.000
1742206295.343,-468.750,38.086,-4.395,-481.445
1742206295.347,870.605,44.922,3.418,861.816
1742206295.350,999.512,35.645,7.324,999.512
1742206295.354,479.980,44.434,6.348,624.512
1742206295.358,-868.652,30.273,-4.395,-663.086
1742206295.362,-1000.000,26.367,-6.348,-1000.000
1742206295.366,124.512,41.504,3.906,187.988
1742206295.323,-509.277,31.250,-16.113,-539.062
1742206295.327,864.746,47.852,-4.883,820.801
1742206295.331,999.512,38.574,3.418,999.512
1742206295.335,203.613,16.602,-2.930,194.336
1742206295.339,-1000.000,10.742,-7.812,-1000.000
1742206295.343,-468.750,38.086,-4.395,-481.445
1742206295.347,870.605,44.922,3.418,861.816
1742206295.350,999.512,35.645,7.324,999.512
1742206295.354,479.980,44.434,6.348,624.512
1742206295.358,-868.652,30.273,-4.395,-663.086
1742206295.362,-1000.000,26.367,-6.348,-1000.000
1742206295.366,124.512,41.504,3.906,187.988
1742206295.382,999.512,35.156,-0.488,999.512
1742206295.386,931.641,27.832,0.977,952.148
1742206295.390,-240.723,17.090,0.488,-139.160
1742206295.394,-1000.000,0.977,-6.836,-1000.000
1742206295.398,-186.035,17.578,-6.836,-134.277
1742206295.402,999.512,26.367,-7.812,999.512
1742206295.406,868.652,5.371,-4.395,899.902
1742206295.409,-432.617,2.930,-0.488,-305.664
1742206295.413,-1000.000,20.020,-10.742,-1000.000
1742206295.417,-165.039,32.715,-9.766,-120.117
1742206295.421,999.512,36.133,7.324,999.512
1742206295.425,999.512,21.484,11.719,976.562
1742206295.427,-128.906,8.789,3.906,-68.848
1742206295.431,-1000.000,16.602,-6.836,-1000.000
1742206295.435,-160.156,26.367,-15.625,-137.207
1742206295.439,972.168,21.973,-9.277,986.816
1742206295.443,999.512,30.762,-2.441,999.512
1742206295.447,347.168,24.902,1.953,454.102
1742206295.451,-1000.000,-1.465,10.742,-1000.000
1742206295.454,-620.605,20.996,21.973,-649.902
1742206295.458,794.922,28.320,8.301,752.441
1742206295.462,999.512,14.160,-11.719,999.512
1742206295.466,202.148,7.812,-11.719,232.422
1742206295.470,-1000.000,-6.836,-18.555,-1000.000
1742206295.427,-128.906,8.789,3.906,-68.848
1742206295.431,-1000.000,16.602,-6.836,-1000.000
1742206295.435,-160.156,26.367,-15.625,-137.207
1742206295.439,972.168,21.973,-9.277,986.816
1742206295.443,999.512,30.762,-2.441,999.512
1742206295.447,347.168,24.902,1.953,454.102
1742206295.451,-1000.000,-1.465,10.742,-1000.000
1742206295.454,-620.605,20.996,21.973,-649.902
1742206295.458,794.922,28.320,8.301,752.441
1742206295.462,999.512,14.160,-11.719,999.512
1742206295.466,202.148,7.812,-11.719,232.422
1742206295.470,-1000.000,-6.836,-18.555,-1000.000
1742206295.472,-555.664,20.020,-12.207,-602.051
1742206295.476,813.477,41.504,-3.906,744.141
1742206295.480,999.512,31.250,-7.324,999.512
1742206295.484,339.355,13.184,-15.625,409.180
1742206295.488,-1000.000,-3.906,-20.020,-1000.000
1742206295.492,-595.215,13.672,-18.066,-640.625
1742206295.496,808.594,11.230,-23.438,750.488
1742206295.499,999.512,-5.371,-23.926,999.512
1742206295.503,341.797,-11.230,-15.625,439.453
1742206295.507,-1000.000,-11.230,-19.531,-949.707
1742206295.511,-892.578,4.883,-37.598,-920.410
1742206295.515,495.605,14.648,-24.414,459.961
1742206295.472,-555.664,20.020,-12.207,-602.051
1742206295.476,813.477,41.504,-3.906,744.141
1742206295.480,999.512,31.250,-7.324,999.512
1742206295.484,339.355,13.184,-15.625,409.180
1742206295.488,-1000.000,-3.906,-20.020,-1000.000
1742206295.492,-595.215,13.672,-18.066,-640.625
1742206295.496,808.594,11.230,-23.438,750.488
1742206295.499,999.512,-5.371,-23.926,999.512
1742206295.503,341.797,-11.230,-15.625,439.453
1742206295.507,-1000.000,-11.230,-19.531,-949.707
1742206295.511,-892.578,4.883,-37.598,-920.410
1742206295.515,495.605,14.648,-24.414,459.961
1742206295.517,999.512,15.625,-1.953,999.512
1742206295.521,908.691,14.160,3.418,913.086
1742206295.525,-289.062,8.301,3.418,-214.355
1742206295.529,-1000.000,15.137,0.000,-1000.000
1742206295.533,17.578,27.344,6.348,17.578
1742206295.537,999.512,20.508,8.301,999.512
1742206295.541,999.512,9.766,-1.953,999.512
1742206295.544,-37.598,0.488,-14.160,20.508
1742206295.548,-1000.000,10.742,-19.043,-1000.000
1742206295.552,-212.891,38.574,-20.020,-207.520
1742206295.556,999.512,36.133,-17.578,999.512
1742206295.560,905.273,4.395,-23.926,877.930
1742206295.517,999.512,15.625,-1.953,999.512
1742206295.521,908.691,14.160,3.418,913.086
1742206295.525,-289.062,8.301,3.418,-214.355
1742206295.529,-1000.000,15.137,0.000,-1000.000
1742206295.533,17.578,27.344,6.348,17.578
1742206295.537,999.512,20.508,8.301,999.512
1742206295.541,999.512,9.766,-1.953,999.512
1742206295.544,-37.598,0.488,-14.160,20.508
1742206295.548,-1000.000,10.742,-19.043,-1000.000
1742206295.552,-212.891,38.574,-20.020,-207.520
1742206295.556,999.512,36.133,-17.578,999.512
1742206295.560,905.273,4.395,-23.926,877.930
1742206295.562,-381.348,-8.789,-30.762,-331.055
1742206295.566,-1000.000,-5.859,-33.203,-1000.000
1742206295.570,-136.719,13.672,-40.527,-117.188
1742206295.574,988.281,19.531,-41.504,999.512
1742206295.578,999.512,6.348,-34.668,999.512
1742206295.582,94.727,-20.996,-37.598,54.199
1742206295.586,-1000.000,-34.668,-44.434,-1000.000
1742206295.589,-440.430,-9.766,-49.316,-533.691
1742206295.593,881.836,19.531,-49.316,790.527
1742206295.597,999.512,20.996,-47.852,999.512
1742206295.601,212.891,5.859,-39.062,211.914
1742206295.605,-1000.000,-4.395,-35.645,-1000.000
1742206295.562,-381.348,-8.789,-30.762,-331.055
1742206295.566,-1000.000,-5.859,-33.203,-1000.000
1742206295.570,-136.719,13.672,-40.527,-117.188
1742206295.574,988.281,19.531,-41.504,999.512
1742206295.578,999.512,6.348,-34.668,999.512
1742206295.582,94.727,-20.996,-37.598,54.199
1742206295.586,-1000.000,-34.668,-44.434,-1000.000
1742206295.589,-440.430,-9.766,-49.316,-533.691
1742206295.593,881.836,19.531,-49.316,790.527
1742206295.597,999.512,20.996,-47.852,999.512
1742206295.601,212.891,5.859,-39.062,211.914
1742206295.605,-1000.000,-4.395,-35.645,-1000.000
1742206295.609,-476.562,10.742,-48.340,-556.152
1742206295.613,895.996,29.785,-51.270,840.820
1742206295.617,999.512,28.320,-41.504,999.512
1742206295.621,109.375,27.832,-32.227,4.883
1742206295.625,-1000.000,22.461,-47.363,-1000.000
1742206295.629,-416.992,40.527,-43.945,-506.836
1742206295.633,999.512,64.453,-32.715,999.512
1742206295.636,555.176,43.945,-31.738,526.367
1742206295.640,-838.867,31.250,-32.227,-858.887
1742206295.644,-1000.000,30.762,-37.598,-1000.000
1742206295.648,-522.461,37.598,-40.527,-720.703
1742206295.652,782.227,46.875,-44.922,584.473
1742206295.609,-476.562,10.742,-48.340,-556.152
1742206295.613,895.996,29.785,-51.270,840.820
1742206295.617,999.512,28.320,-41.504,999.512
1742206295.621,109.375,27.832,-32.227,4.883
1742206295.625,-1000.000,22.461,-47.363,-1000.000
1742206295.629,-416.992,40.527,-43.945,-506.836
1742206295.633,999.512,64.453,-32.715,999.512
1742206295.636,555.176,43.945,-31.738,526.367
1742206295.640,-838.867,31.250,-32.227,-858.887
1742206295.644,-1000.000,30.762,-37.598,-1000.000
1742206295.648,-522.461,37.598,-40.527,-720.703
1742206295.652,782.227,46.875,-44.922,584.473
1742206295.652,999.512,57.617,-47.852,999.512
1742206295.656,117.188,61.523,-48.340,-43.945
1742206295.660,-1000.000,55.176,-49.316,-1000.000
1742206295.664,-1000.000,65.918,-55.176,-1000.000
1742206295.668,215.332,83.008,-60.547,76.172
1742206295.672,999.512,84.961,-53.711,999.512
1742206295.676,125.977,52.246,-53.711,145.996
1742206295.679,-1000.000,44.434,-52.246,-1000.000
1742206295.683,-1000.000,41.992,-47.852,-1000.000
1742206295.687,-215.820,46.387,-55.664,-218.262
1742206295.691,999.512,90.820,-61.035,999.512
1742206295.695,758.301,69.336,-51.758,744.141
1742206295.652,999.512,57.617,-47.852,999.512
1742206295.656,117.188,61.523,-48.340,-43.945
1742206295.660,-1000.000,55.176,-49.316,-1000.000
1742206295.664,-1000.000,65.918,-55.176,-1000.000
1742206295.668,215.332,83.008,-60.547,76.172
1742206295.672,999.512,84.961,-53.711,999.512
1742206295.676,125.977,52.246,-53.711,145.996
1742206295.679,-1000.000,44.434,-52.246,-1000.000
1742206295.683,-1000.000,41.992,-47.852,-1000.000
1742206295.687,-215.820,46.387,-55.664,-218.262
1742206295.691,999.512,90.820,-61.035,999.512
1742206295.695,758.301,69.336,-51.758,744.141
1742206295.712,-588.379,48.340,-56.641,-537.109
1742206295.716,-1000.000,83.008,-70.801,-1000.000
1742206295.720,-216.309,83.984,-62.012,-230.469
1742206295.724,999.512,78.125,-51.758,999.512
1742206295.728,688.965,86.914,-56.641,691.406
1742206295.732,-684.082,58.105,-72.754,-610.840
1742206295.736,-1000.000,47.363,-85.938,-1000.000
1742206295.739,-209.473,70.801,-80.566,-220.703
1742206295.743,999.512,83.496,-82.031,999.512
1742206295.747,822.754,99.609,-82.520,805.176
1742206295.751,-508.789,84.961,-87.891,-453.125
1742206295.755,-1000.000,55.664,-95.215,-1000.000
1742206295.712,-588.379,48.340,-56.641,-537.109
1742206295.716,-1000.000,83.008,-70.801,-1000.000
1742206295.720,-216.309,83.984,-62.012,-230.469
1742206295.724,999.512,78.125,-51.758,999.512
1742206295.728,688.965,86.914,-56.641,691.406
1742206295.732,-684.082,58.105,-72.754,-610.840
1742206295.736,-1000.000,47.363,-85.938,-1000.000
1742206295.739,-209.473,70.801,-80.566,-220.703
1742206295.743,999.512,83.496,-82.031,999.512
1742206295.747,822.754,99.609,-82.520,805.176
1742206295.751,-508.789,84.961,-87.891,-453.125
1742206295.755,-1000.000,55.664,-95.215,-1000.000
1742206295.757,-154.785,60.547,-85.449,-162.109
1742206295.761,964.355,46.875,-81.543,976.074
1742206295.765,999.512,42.969,-77.637,999.512
1742206295.769,217.773,64.941,-71.777,181.152
1742206295.773,-1000.000,60.547,-62.988,-1000.000
1742206295.777,-203.125,62.500,-42.480,-229.492
1742206295.781,999.512,71.289,-41.016,996.582
1742206295.784,999.512,82.031,-51.758,999.512
1742206295.788,231.934,90.332,-57.129,227.539
1742206295.792,-1000.000,86.914,-48.340,-1000.000
1742206295.796,-394.531,82.520,-45.410,-450.195
1742206295.800,909.668,72.266,-47.852,884.766
1742206295.757,-154.785,60.547,-85.449,-162.109
1742206295.761,964.355,46.875,-81.543,976.074
1742206295.765,999.512,42.969,-77.637,999.512
1742206295.769,217.773,64.941,-71.777,181.152
1742206295.773,-1000.000,60.547,-62.988,-1000.000
1742206295.777,-203.125,62.500,-42.480,-229.492
1742206295.781,999.512,71.289,-41.016,996.582
1742206295.784,999.512,82.031,-51.758,999.512
1742206295.788,231.934,90.332,-57.129,227.539
1742206295.792,-1000.000,86.914,-48.340,-1000.000
1742206295.796,-394.531,82.520,-45.410,-450.195
1742206295.800,909.668,72.266,-47.852,884.766
1742206295.802,999.512,70.312,-67.383,999.512
1742206295.806,542.480,49.805,-93.262,684.570
1742206295.810,-968.750,13.184,-102.051,-763.184
1742206295.814,-803.223,14.160,-86.914,-857.910
1742206295.818,688.965,38.574,-68.848,639.648
1742206295.822,999.512,66.406,-64.453,996.582
1742206295.826,999.512,67.383,-64.453,999.512
1742206295.829,-265.137,38.574,-66.406,-67.383
1742206295.833,-1000.000,29.785,-69.336,-965.820
1742206295.837,525.879,36.621,-68.359,530.762
1742206295.841,999.512,51.270,-49.316,999.512
1742206295.845,999.512,65.918,-41.504,999.512
1742206295.802,999.512,70.312,-67.383,999.512
1742206295.806,542.480,49.805,-93.262,684.570
1742206295.810,-968.750,13.184,-102.051,-763.184
1742206295.814,-803.223,14.160,-86.914,-857.910
1742206295.818,688.965,38.574,-68.848,639.648
1742206295.822,999.512,66.406,-64.453,996.582
1742206295.826,999.512,67.383,-64.453,999.512
1742206295.829,-265.137,38.574,-66.406,-67.383
1742206295.833,-1000.000,29.785,-69.336,-965.820
1742206295.837,525.879,36.621,-68.359,530.762
1742206295.841,999.512,51.270,-49.316,999.512
1742206295.845,999.512,65.918,-41.504,999.512
1742206295.847,-9.277,51.758,-45.410,127.930
1742206295.851,-1000.000,40.039,-59.082,-1000.000
1742206295.855,244.141,54.199,-70.312,339.844
1742206295.859,999.512,47.852,-66.895,999.512
1742206295.863,999.512,33.691,-62.988,999.512
1742206295.867,218.750,31.250,-62.988,355.957
1742206295.871,-1000.000,28.320,-64.453,-1000.000
1742206295.874,-99.121,39.551,-64.941,-18.066
1742206295.878,999.512,36.133,-61.035,999.512
1742206295.882,999.512,38.574,-50.781,999.512
1742206295.886,204.590,30.762,-44.922,337.402
1742206295.890,-1000.000,15.137,-45.898,-1000.000
1742206295.847,-9.277,51.758,-45.410,127.930
1742206295.851,-1000.000,40.039,-59.082,-1000.000
1742206295.855,244.141,54.199,-70.312,339.844
1742206295.859,999.512,47.852,-66.895,999.512
1742206295.863,999.512,33.691,-62.988,999.512
1742206295.867,218.750,31.250,-62.988,355.957
1742206295.871,-1000.000,28.320,-64.453,-1000.000
1742206295.874,-99.121,39.551,-64.941,-18.066
1742206295.878,999.512,36.133,-61.035,999.512
1742206295.882,999.512,38.574,-50.781,999.512
1742206295.886,204.590,30.762,-44.922,337.402
1742206295.890,-1000.000,15.137,-45.898,-1000.000
1742206295.893,-102.539,25.879,-39.062,-50.293
1742206295.897,990.723,25.879,-46.875,999.512
1742206295.901,999.512,18.555,-57.617,999.512
1742206295.905,259.766,6.836,-59.082,434.570
1742206295.909,-1000.000,-5.859,-51.270,-1000.000
1742206295.913,-214.844,6.348,-35.156,-217.285
1742206295.917,999.512,6.836,-40.527,999.512
1742206295.920,999.512,-6.836,-52.734,999.512
1742206295.924,134.766,-12.695,-44.434,83.984
1742206295.928,-1000.000,-19.531,-34.180,-1000.000
1742206295.932,-189.941,-14.648,-28.809,-189.941
1742206295.936,992.676,-12.207,-24.902,987.305
1742206295.893,-102.539,25.879,-39.062,-50.293
1742206295.897,990.723,25.879,-46.875,999.512
1742206295.901,999.512,18.555,-57.617,999.512
1742206295.905,259.766,6.836,-59.082,434.570
1742206295.909,-1000.000,-5.859,-51.270,-1000.000
1742206295.913,-214.844,6.348,-35.156,-217.285
1742206295.917,999.512,6.836,-40.527,999.512
1742206295.920,999.512,-6.836,-52.734,999.512
1742206295.924,134.766,-12.695,-44.434,83.984
1742206295.928,-1000.000,-19.531,-34.180,-1000.000
1742206295.932,-189.941,-14.648,-28.809,-189.941
1742206295.936,992.676,-12.207,-24.902,987.305
1742206295.937,999.512,-20.996,-28.320,999.512
1742206295.941,271.973,-39.551,-35.156,380.859
1742206295.945,-1000.000,-57.617,-37.109,-1000.000
1742206295.949,-263.184,-22.949,-35.156,-323.730
1742206295.953,974.609,-0.488,-28.320,981.934
1742206295.957,999.512,1.465,-20.508,999.512
1742206295.961,635.742,-10.742,-13.184,774.902
1742206295.964,-916.504,-42.480,-11.719,-692.383
1742206295.968,-771.484,-19.043,-14.160,-828.125
1742206295.972,696.777,0.488,-20.508,640.625
1742206295.976,999.512,-25.879,-24.414,999.512
1742206295.980,465.332,-50.293,-17.578,581.055
1742206295.937,999.512,-20.996,-28.320,999.512
1742206295.941,271.973,-39.551,-35.156,380.859
1742206295.945,-1000.000,-57.617,-37.109,-1000.000
1742206295.949,-263.184,-22.949,-35.156,-323.730
1742206295.953,974.609,-0.488,-28.320,981.934
1742206295.957,999.512,1.465,-20.508,999.512
1742206295.961,635.742,-10.742,-13.184,774.902
1742206295.964,-916.504,-42.480,-11.719,-692.383
1742206295.968,-771.484,-19.043,-14.160,-828.125
1742206295.972,696.777,0.488,-20.508,640.625
1742206295.976,999.512,-25.879,-24.414,999.512
1742206295.980,465.332,-50.293,-17.578,581.055
1742206295.983,-999.023,-54.688,-9.766,-846.191
1742206295.987,-826.172,-45.898,-4.883,-880.859
1742206295.991,617.676,-37.598,-4.395,562.988
1742206295.995,999.512,-50.293,-15.625,999.512
1742206295.999,849.609,-60.547,-22.949,880.371
1742206296.003,-454.102,-44.922,-21.973,-333.984
1742206296.007,-1000.000,-37.109,-26.367,-1000.000
1742206296.010,271.973,-24.414,-36.621,290.039
1742206296.014,999.512,-9.277,-38.086,999.512
1742206296.018,986.328,-21.484,-24.414,994.629
1742206296.022,-163.574,-22.949,-11.719,-63.965
1742206296.026,-1000.000,-5.859,-12.695,-1000.000
1742206295.983,-999.023,-54.688,-9.766,-846.191
1742206295.987,-826.172,-45.898,-4.883,-880.859
1742206295.991,617.676,-37.598,-4.395,562.988
1742206295.995,999.512,-50.293,-15.625,999.512
1742206295.999,849.609,-60.547,-22.949,880.371
1742206296.003,-454.102,-44.922,-21.973,-333.984
1742206296.007,-1000.000,-37.109,-26.367,-1000.000
1742206296.010,271.973,-24.414,-36.621,290.039
1742206296.014,999.512,-9.277,-38.086,999.512
1742206296.018,986.328,-21.484,-24.414,994.629
1742206296.022,-163.574,-22.949,-11.719,-63.965
1742206296.026,-1000.000,-5.859,-12.695,-1000.000
1742206296.042,145.508,19.531,-24.414,189.453
1742206296.046,999.512,26.855,-21.484,999.512
1742206296.050,999.512,15.137,-20.996,999.512
1742206296.054,241.699,-0.977,-33.203,270.508
1742206296.058,-1000.000,-11.719,-41.504,-1000.000
1742206296.062,-174.805,15.625,-43.457,-122.070
1742206296.066,999.512,32.227,-38.086,999.512
1742206296.069,999.512,22.461,-31.738,999.512
1742206296.073,242.188,16.113,-30.762,385.254
1742206296.077,-1000.000,20.508,-31.250,-1000.000
1742206296.081,-274.414,38.086,-28.320,-349.609
1742206296.085,979.004,29.297,-35.645,968.262
1742206296.042,145.508,19.531,-24.414,189.453
1742206296.046,999.512,26.855,-21.484,999.512
1742206296.050,999.512,15.137,-20.996,999.512
1742206296.054,241.699,-0.977,-33.203,270.508
1742206296.058,-1000.000,-11.719,-41.504,-1000.000
1742206296.062,-174.805,15.625,-43.457,-122.070
1742206296.066,999.512,32.227,-38.086,999.512
1742206296.069,999.512,22.461,-31.738,999.512
1742206296.073,242.188,16.113,-30.762,385.254
1742206296.077,-1000.000,20.508,-31.250,-1000.000
1742206296.081,-274.414,38.086,-28.320,-349.609
1742206296.085,979.004,29.297,-35.645,968.262
1742206296.087,999.512,22.949,-43.457,999.512
1742206296.091,224.609,2.930,-42.480,229.492
1742206296.095,-1000.000,-24.902,-53.223,-1000.000
1742206296.099,-358.398,-12.695,-55.176,-413.574
1742206296.103,944.824,2.441,-37.598,921.387
1742206296.107,999.512,-1.953,-30.762,999.512
1742206296.111,200.684,-27.344,-39.062,151.855
1742206296.114,-1000.000,-29.785,-43.457,-1000.000
1742206296.118,-424.316,12.695,-38.086,-471.191
1742206296.122,921.875,20.996,-34.668,884.766
1742206296.126,999.512,2.930,-41.504,999.512
1742206296.130,113.281,-18.066,-47.363,64.941
1742206296.087,999.512,22.949,-43.457,999.512
1742206296.091,224.609,2.930,-42.480,229.492
1742206296.095,-1000.000,-24.902,-53.223,-1000.000
1742206296.099,-358.398,-12.695,-55.176,-413.574
1742206296.103,944.824,2.441,-37.598,921.387
1742206296.107,999.512,-1.953,-30.762,999.512
1742206296.111,200.684,-27.344,-39.062,151.855
1742206296.114,-1000.000,-29.785,-43.457,-1000.000
1742206296.118,-424.316,12.695,-38.086,-471.191
1742206296.122,921.875,20.996,-34.668,884.766
1742206296.126,999.512,2.930,-41.504,999.512
1742206296.130,113.281,-18.066,-47.363,64.941
1742206296.132,-1000.000,-34.180,-39.062,-1000.000
1742206296.136,-488.770,-14.648,-38.086,-527.344
1742206296.140,846.191,-12.695,-54.688,787.109
1742206296.144,999.512,-30.762,-62.500,999.512
1742206296.148,394.531,-38.086,-52.246,510.254
1742206296.152,-1000.000,-35.156,-46.387,-915.039
1742206296.156,-867.676,-13.672,-46.875,-879.395
1742206296.159,513.184,0.977,-50.781,519.531
1742206296.163,999.512,-0.977,-51.270,999.512
1742206296.167,666.992,-10.742,-49.316,792.969
1742206296.171,-670.410,-25.391,-52.246,-464.355
1742206296.175,-1000.000,-14.160,-55.664,-1000.000
1742206296.132,-1000.000,-34.180,-39.062,-1000.000
1742206296.136,-488.770,-14.648,-38.086,-527.344
1742206296.140,846.191,-12.695,-54.688,787.109
1742206296.144,999.512,-30.762,-62.500,999.512
1742206296.148,394.531,-38.086,-52.246,510.254
1742206296.152,-1000.000,-35.156,-46.387,-915.039
1742206296.156,-867.676,-13.672,-46.875,-879.395
1742206296.159,513.184,0.977,-50.781,519.531
1742206296.163,999.512,-0.977,-51.270,999.512
1742206296.167,666.992,-10.742,-49.316,792.969
1742206296.171,-670.410,-25.391,-52.246,-464.355
1742206296.175,-1000.000,-14.160,-55.664,-1000.000
1742206296.178,110.840,7.324,-51.270,141.113
1742206296.182,999.512,-0.977,-47.363,999.512
1742206296.186,949.707,-3.418,-47.852,980.957
1742206296.190,-337.402,-1.465,-42.480,-213.867
1742206296.194,-1000.000,-3.906,-19.531,-1000.000
1742206296.198,260.742,10.254,-3.418,324.707
1742206296.202,999.512,9.766,-2.930,999.512
1742206296.205,708.984,-5.371,0.977,817.383
1742206296.209,-587.402,-20.996,-1.465,-381.836
1742206296.213,-1000.000,-33.691,-12.207,-1000.000
1742206296.217,-123.535,-20.508,-13.672,-83.984
1742206296.221,972.656,-20.020,-10.742,992.188
1742206296.178,110.840,7.324,-51.270,141.113
1742206296.182,999.512,-0.977,-47.363,999.512
1742206296.186,949.707,-3.418,-47.852,980.957
1742206296.190,-337.402,-1.465,-42.480,-213.867
1742206296.194,-1000.000,-3.906,-19.531,-1000.000
1742206296.198,260.742,10.254,-3.418,324.707
1742206296.202,999.512,9.766,-2.930,999.512
1742206296.205,708.984,-5.371,0.977,817.383
1742206296.209,-587.402,-20.996,-1.465,-381.836
1742206296.213,-1000.000,-33.691,-12.207,-1000.000
1742206296.217,-123.535,-20.508,-13.672,-83.984
1742206296.221,972.656,-20.020,-10.742,992.188
1742206296.222,999.512,-28.320,-18.555,999.512
1742206296.226,198.730,-38.574,-20.020,182.129
1742206296.230,-1000.000,-48.828,-20.508,-1000.000
1742206296.234,-204.590,-20.508,-20.508,-252.441
1742206296.238,999.512,-23.926,-16.113,994.629
1742206296.242,999.512,-36.133,-16.602,999.512
1742206296.246,160.645,-34.668,-14.160,122.070
1742206296.249,-1000.000,-48.828,-11.230,-1000.000
1742206296.253,-279.785,-31.250,-21.973,-334.473
1742206296.257,967.773,-15.137,-24.414,947.754
1742206296.261,999.512,-16.113,-16.602,999.512
1742206296.265,212.891,-24.902,-23.438,158.691
1742206296.222,999.512,-28.320,-18.555,999.512
1742206296.226,198.730,-38.574,-20.020,182.129
1742206296.230,-1000.000,-48.828,-20.508,-1000.000
1742206296.234,-204.590,-20.508,-20.508,-252.441
1742206296.238,999.512,-23.926,-16.113,994.629
1742206296.242,999.512,-36.133,-16.602,999.512
1742206296.246,160.645,-34.668,-14.160,122.070
1742206296.249,-1000.000,-48.828,-11.230,-1000.000
1742206296.253,-279.785,-31.250,-21.973,-334.473
1742206296.257,967.773,-15.137,-24.414,947.754
1742206296.261,999.512,-16.113,-16.602,999.512
1742206296.265,212.891,-24.902,-23.438,158.691
1742206296.282,-1000.000,-40.527,-28.809,-1000.000
1742206296.286,-405.273,-32.227,-36.621,-442.871
1742206296.290,918.945,-14.160,-34.180,886.719
1742206296.294,999.512,0.000,-22.461,999.512
1742206296.298,213.867,4.395,-19.043,176.758
1742206296.302,-1000.000,-0.977,-13.184,-1000.000
1742206296.306,-614.746,2.441,-15.625,-680.664
1742206296.309,771.484,-6.836,-27.832,657.715
1742206296.313,999.512,-17.090,-22.949,999.512
1742206296.317,196.777,-26.855,-18.066,239.258
1742206296.321,-1000.000,-28.809,-26.855,-1000.000
1742206296.325,-912.598,-1.953,-29.297,-946.777
1742206296.313,371.582,19.043,-28.320,302.734
1742206296.317,999.512,23.438,-26.855,999.512
1742206296.321,493.164,7.812,-23.438,561.523
1742206296.325,-848.633,-20.508,-29.297,-744.629
1742206296.329,-1000.000,-18.066,-40.039,-1000.000
1742206296.333,55.176,17.090,-36.133,12.207
1742206296.337,999.512,20.508,-29.785,999.512
1742206296.340,193.359,-14.648,-36.133,241.211
1742206296.344,-1000.000,-17.578,-39.062,-994.141
1742206296.348,-1000.000,-1.953,-41.016,-1000.000
1742206296.352,-94.238,4.883,-41.992,-122.070
1742206296.356,999.512,13.184,-39.062,999.512
1742206296.313,371.582,19.043,-28.320,302.734
1742206296.317,999.512,23.438,-26.855,999.512
1742206296.321,493.164,7.812,-23.438,561.523
1742206296.325,-848.633,-20.508,-29.297,-744.629
1742206296.329,-1000.000,-18.066,-40.039,-1000.000
1742206296.333,55.176,17.090,-36.133,12.207
1742206296.337,999.512,20.508,-29.785,999.512
1742206296.340,193.359,-14.648,-36.133,241.211
1742206296.344,-1000.000,-17.578,-39.062,-994.141
1742206296.348,-1000.000,-1.953,-41.016,-1000.000
1742206296.352,-94.238,4.883,-41.992,-122.070
1742206296.356,999.512,13.184,-39.062,999.512
1742206296.373,765.137,4.395,-45.898,787.109
1742206296.377,-553.711,-6.836,-51.758,-476.074
1742206296.381,-1000.000,7.324,-38.574,-1000.000
1742206296.385,-139.648,20.996,-25.879,-116.699
1742206296.389,968.262,8.301,-31.738,985.352
1742206296.393,999.512,15.137,-34.668,999.512
1742206296.397,210.938,10.742,-35.156,173.340
1742206296.400,-1000.000,-1.465,-35.156,-1000.000
1742206296.404,-255.371,29.297,-37.598,-312.012
1742206296.408,999.512,39.062,-28.320,987.793
1742206296.412,999.512,18.555,-14.648,999.512
1742206296.416,19.043,-7.812,-14.160,9.766
1742206296.373,765.137,4.395,-45.898,787.109
1742206296.377,-553.711,-6.836,-51.758,-476.074
1742206296.381,-1000.000,7.324,-38.574,-1000.000
1742206296.385,-139.648,20.996,-25.879,-116.699
1742206296.389,968.262,8.301,-31.738,985.352
1742206296.393,999.512,15.137,-34.668,999.512
1742206296.397,210.938,10.742,-35.156,173.340
1742206296.400,-1000.000,-1.465,-35.156,-1000.000
1742206296.404,-255.371,29.297,-37.598,-312.012
1742206296.408,999.512,39.062,-28.320,987.793
1742206296.412,999.512,18.555,-14.648,999.512
1742206296.416,19.043,-7.812,-14.160,9.766
1742206296.403,-1000.000,-16.602,-20.020,-1000.000
1742206296.407,-366.211,-3.906,-25.879,-429.688
1742206296.411,912.109,-11.230,-20.020,881.836
1742206296.415,999.512,-26.855,-14.648,999.512
1742206296.419,208.008,-33.691,-13.184,155.762
1742206296.423,-1000.000,-45.410,-6.348,-1000.000
1742206296.427,-598.633,-43.457,6.836,-648.438
1742206296.430,788.086,-26.367,5.371,700.684
1742206296.434,999.512,-28.320,0.977,999.512
1742206296.438,164.551,-46.875,9.766,117.676
1742206296.442,-1000.000,-55.176,21.973,-1000.000
1742206296.446,-904.297,-65.918,25.879,-907.227
1742206296.403,-1000.000,-16.602,-20.020,-1000.000
1742206296.407,-366.211,-3.906,-25.879,-429.688
1742206296.411,912.109,-11.230,-20.020,881.836
1742206296.415,999.512,-26.855,-14.648,999.512
1742206296.419,208.008,-33.691,-13.184,155.762
1742206296.423,-1000.000,-45.410,-6.348,-1000.000
1742206296.427,-598.633,-43.457,6.836,-648.438
1742206296.430,788.086,-26.367,5.371,700.684
1742206296.434,999.512,-28.320,0.977,999.512
1742206296.438,164.551,-46.875,9.766,117.676
1742206296.442,-1000.000,-55.176,21.973,-1000.000
1742206296.446,-904.297,-65.918,25.879,-907.227
1742206296.448,396.484,-60.547,27.832,329.590
1742206296.452,999.512,-54.688,34.180,999.512
1742206296.456,215.332,-76.660,30.762,315.430
1742206296.460,-1000.000,-89.355,34.668,-998.047
1742206296.464,-1000.000,-77.637,38.086,-1000.000
1742206296.468,208.008,-64.941,21.973,217.773
1742206296.472,999.512,-68.359,9.766,999.512
1742206296.475,157.227,-82.031,8.789,229.980
1742206296.479,-1000.000,-89.355,10.254,-1000.000
1742206296.483,-1000.000,-95.703,19.043,-1000.000
1742206296.487,-30.762,-94.238,24.414,-13.672
1742206296.491,999.512,-94.238,27.344,999.512
1742206296.448,396.484,-60.547,27.832,329.590
1742206296.452,999.512,-54.688,34.180,999.512
1742206296.456,215.332,-76.660,30.762,315.430
1742206296.460,-1000.000,-89.355,34.668,-998.047
1742206296.464,-1000.000,-77.637,38.086,-1000.000
1742206296.468,208.008,-64.941,21.973,217.773
1742206296.472,999.512,-68.359,9.766,999.512
1742206296.475,157.227,-82.031,8.789,229.980
1742206296.479,-1000.000,-89.355,10.254,-1000.000
1742206296.483,-1000.000,-95.703,19.043,-1000.000
1742206296.487,-30.762,-94.238,24.414,-13.672
1742206296.491,999.512,-94.238,27.344,999.512
1742206296.507,648.438,-111.816,32.227,743.164
1742206296.511,-684.570,-117.188,36.133,-522.461
1742206296.515,-1000.000,-113.281,33.691,-1000.000
1742206296.519,-167.969,-105.469,26.367,-125.977
1742206296.523,999.512,-97.168,23.926,999.512
1742206296.527,999.512,-99.609,28.809,999.512
1742206296.531,-105.469,-121.582,28.320,-23.926
1742206296.534,-1000.000,-130.371,0.000,-1000.000
1742206296.538,-203.613,-105.469,-13.184,-274.414
1742206296.542,976.074,-95.215,14.648,965.820
1742206296.546,999.512,-103.027,33.691,999.512
1742206296.550,145.508,-129.395,25.879,127.441
1742206296.507,648.438,-111.816,32.227,743.164
1742206296.511,-684.570,-117.188,36.133,-522.461
1742206296.515,-1000.000,-113.281,33.691,-1000.000
1742206296.519,-167.969,-105.469,26.367,-125.977
1742206296.523,999.512,-97.168,23.926,999.512
1742206296.527,999.512,-99.609,28.809,999.512
1742206296.531,-105.469,-121.582,28.320,-23.926
1742206296.534,-1000.000,-130.371,0.000,-1000.000
1742206296.538,-203.613,-105.469,-13.184,-274.414
1742206296.542,976.074,-95.215,14.648,965.820
1742206296.546,999.512,-103.027,33.691,999.512
1742206296.550,145.508,-129.395,25.879,127.441
1742206296.552,-1000.000,-138.184,11.719,-1000.000
1742206296.556,-279.785,-90.820,18.066,-320.312
1742206296.560,963.379,-61.523,31.738,937.988
1742206296.564,999.512,-79.102,28.809,999.512
1742206296.568,241.699,-99.121,22.949,336.426
1742206296.572,-1000.000,-100.586,21.484,-1000.000
1742206296.576,-516.113,-71.777,20.996,-564.453
1742206296.579,863.770,-68.359,11.719,819.336
1742206296.583,999.512,-86.426,0.488,999.512
1742206296.587,194.824,-98.633,1.953,177.246
1742206296.591,-1000.000,-101.562,7.812,-1000.000
1742206296.595,-664.551,-74.707,7.812,-697.754
1742206296.552,-1000.000,-138.184,11.719,-1000.000
1742206296.556,-279.785,-90.820,18.066,-320.312
1742206296.560,963.379,-61.523,31.738,937.988
1742206296.564,999.512,-79.102,28.809,999.512
1742206296.568,241.699,-99.121,22.949,336.426
1742206296.572,-1000.000,-100.586,21.484,-1000.000
1742206296.576,-516.113,-71.777,20.996,-564.453
1742206296.579,863.770,-68.359,11.719,819.336
1742206296.583,999.512,-86.426,0.488,999.512
1742206296.587,194.824,-98.633,1.953,177.246
1742206296.591,-1000.000,-101.562,7.812,-1000.000
1742206296.595,-664.551,-74.707,7.812,-697.754
1742206296.597,695.801,-52.734,-7.324,633.301
1742206296.601,999.512,-59.082,-6.836,999.512
1742206296.605,466.309,-65.918,4.395,613.770
1742206296.609,-882.812,-75.684,-7.812,-711.426
1742206296.613,-1000.000,-69.824,-22.461,-1000.000
1742206296.617,128.418,-55.664,-19.531,155.762
1742206296.621,999.512,-55.176,-16.113,999.512
1742206296.624,531.250,-66.406,-12.207,672.852
1742206296.628,-798.340,-61.523,-17.090,-605.957
1742206296.632,-1000.000,-44.434,-37.109,-1000.000
1742206296.636,-101.074,-25.391,-40.527,-69.824
1742206296.640,999.512,-20.020,-38.574,999.512
1742206296.597,695.801,-52.734,-7.324,633.301
1742206296.601,999.512,-59.082,-6.836,999.512
1742206296.605,466.309,-65.918,4.395,613.770
1742206296.609,-882.812,-75.684,-7.812,-711.426
1742206296.613,-1000.000,-69.824,-22.461,-1000.000
1742206296.617,128.418,-55.664,-19.531,155.762
1742206296.621,999.512,-55.176,-16.113,999.512
1742206296.624,531.250,-66.406,-12.207,672.852
1742206296.628,-798.340,-61.523,-17.090,-605.957
1742206296.632,-1000.000,-44.434,-37.109,-1000.000
1742206296.636,-101.074,-25.391,-40.527,-69.824
1742206296.640,999.512,-20.020,-38.574,999.512
1742206296.643,999.512,-27.832,-48.340,985.840
1742206296.647,-144.531,-39.062,-55.176,-82.031
1742206296.651,-1000.000,-37.109,-55.176,-1000.000
1742206296.655,-161.133,-16.113,-51.270,-145.996
1742206296.659,977.539,-5.859,-48.340,993.652
1742206296.663,999.512,-2.441,-48.340,999.512
1742206296.667,227.539,-14.160,-55.176,225.098
1742206296.670,-1000.000,-15.625,-65.918,-1000.000
1742206296.674,-295.898,3.906,-74.707,-345.215
1742206296.678,970.215,-2.930,-72.754,958.496
1742206296.682,999.512,-5.371,-70.801,999.512
1742206296.686,209.473,-6.348,-77.637,145.020
1742206296.643,999.512,-27.832,-48.340,985.840
1742206296.647,-144.531,-39.062,-55.176,-82.031
1742206296.651,-1000.000,-37.109,-55.176,-1000.000
1742206296.655,-161.133,-16.113,-51.270,-145.996
1742206296.659,977.539,-5.859,-48.340,993.652
1742206296.663,999.512,-2.441,-48.340,999.512
1742206296.667,227.539,-14.160,-55.176,225.098
1742206296.670,-1000.000,-15.625,-65.918,-1000.000
1742206296.674,-295.898,3.906,-74.707,-345.215
1742206296.678,970.215,-2.930,-72.754,958.496
1742206296.682,999.512,-5.371,-70.801,999.512
1742206296.686,209.473,-6.348,-77.637,145.020
1742206296.687,-1000.000,-11.230,-68.359,-1000.000
1742206296.691,-415.039,17.578,-56.152,-451.172
1742206296.695,912.598,37.109,-57.617,871.582
1742206296.699,999.512,22.461,-56.641,999.512
1742206296.703,229.492,7.324,-51.758,283.203
1742206296.707,-1000.000,21.973,-48.340,-1000.000
1742206296.711,-499.023,41.504,-48.340,-552.734
1742206296.714,856.934,34.180,-48.828,797.852
1742206296.718,999.512,32.715,-44.922,999.512
1742206296.722,376.953,28.320,-41.016,490.234
1742206296.726,-973.145,17.578,-51.758,-877.441
1742206296.730,-1000.000,25.391,-50.781,-1000.000
1742206296.687,-1000.000,-11.230,-68.359,-1000.000
1742206296.691,-415.039,17.578,-56.152,-451.172
1742206296.695,912.598,37.109,-57.617,871.582
1742206296.699,999.512,22.461,-56.641,999.512
1742206296.703,229.492,7.324,-51.758,283.203
1742206296.707,-1000.000,21.973,-48.340,-1000.000
1742206296.711,-499.023,41.504,-48.340,-552.734
1742206296.714,856.934,34.180,-48.828,797.852
1742206296.718,999.512,32.715,-44.922,999.512
1742206296.722,376.953,28.320,-41.016,490.234
1742206296.726,-973.145,17.578,-51.758,-877.441
1742206296.730,-1000.000,25.391,-50.781,-1000.000
1742206296.733,264.648,29.785,-34.668,268.066
1742206296.737,999.512,30.762,-30.762,999.512
1742206296.741,721.680,23.438,-37.598,793.457
1742206296.745,-599.609,2.930,-34.180,-467.285
1742206296.749,-1000.000,10.742,-37.598,-1000.000
1742206296.753,10.254,36.621,-42.480,8.301
1742206296.757,999.512,44.434,-37.598,999.512
1742206296.760,435.547,25.879,-40.039,560.547
1742206296.764,-909.180,7.324,-42.480,-768.066
1742206296.768,-1000.000,4.883,-46.875,-1000.000
1742206296.772,-12.695,11.719,-46.875,-5.859
1742206296.776,999.512,6.348,-44.922,999.512
1742206296.733,264.648,29.785,-34.668,268.066
1742206296.737,999.512,30.762,-30.762,999.512
1742206296.741,721.680,23.438,-37.598,793.457
1742206296.745,-599.609,2.930,-34.180,-467.285
1742206296.749,-1000.000,10.742,-37.598,-1000.000
1742206296.753,10.254,36.621,-42.480,8.301
1742206296.757,999.512,44.434,-37.598,999.512
1742206296.760,435.547,25.879,-40.039,560.547
1742206296.764,-909.180,7.324,-42.480,-768.066
1742206296.768,-1000.000,4.883,-46.875,-1000.000
1742206296.772,-12.695,11.719,-46.875,-5.859
1742206296.776,999.512,6.348,-44.922,999.512
1742206296.777,979.980,1.953,-45.410,956.055
1742206296.781,-164.551,-11.230,-50.781,-107.422
1742206296.785,-1000.000,-21.484,-55.664,-1000.000
1742206296.789,-167.969,-2.441,-58.105,-166.504
1742206296.793,984.375,12.695,-54.199,999.512
1742206296.797,999.512,12.695,-54.688,999.512
1742206296.801,133.301,-3.418,-56.152,94.238
1742206296.804,-1000.000,-15.625,-47.363,-1000.000
1742206296.808,-238.281,5.371,-41.504,-300.781
1742206296.812,985.840,18.066,-31.250,969.727
1742206296.816,999.512,0.488,-29.785,999.512
1742206296.820,163.086,-27.344,-41.016,109.375
1742206296.777,979.980,1.953,-45.410,956.055
1742206296.781,-164.551,-11.230,-50.781,-107.422
1742206296.785,-1000.000,-21.484,-55.664,-1000.000
1742206296.789,-167.969,-2.441,-58.105,-166.504
1742206296.793,984.375,12.695,-54.199,999.512
1742206296.797,999.512,12.695,-54.688,999.512
1742206296.801,133.301,-3.418,-56.152,94.238
1742206296.804,-1000.000,-15.625,-47.363,-1000.000
1742206296.808,-238.281,5.371,-41.504,-300.781
1742206296.812,985.840,18.066,-31.250,969.727
1742206296.816,999.512,0.488,-29.785,999.512
1742206296.820,163.086,-27.344,-41.016,109.375
1742206296.837,-1000.000,-35.156,-39.551,-1000.000
1742206296.841,-312.500,-0.488,-36.133,-374.023
1742206296.845,960.938,19.531,-37.109,941.406
1742206296.849,999.512,15.625,-34.668,999.512
1742206296.853,158.203,2.441,-32.715,82.520
1742206296.857,-1000.000,1.953,-31.250,-1000.000
1742206296.861,-327.637,28.809,-23.926,-380.371
1742206296.864,947.754,25.391,-20.996,915.039
1742206296.868,999.512,18.555,-25.391,999.512
1742206296.872,222.168,4.883,-30.273,214.355
1742206296.876,-1000.000,-9.277,-18.066,-1000.000
1742206296.880,-530.273,11.230,1.953,-573.242
1742206296.837,-1000.000,-35.156,-39.551,-1000.000
1742206296.841,-312.500,-0.488,-36.133,-374.023
1742206296.845,960.938,19.531,-37.109,941.406
1742206296.849,999.512,15.625,-34.668,999.512
1742206296.853,158.203,2.441,-32.715,82.520
1742206296.857,-1000.000,1.953,-31.250,-1000.000
1742206296.861,-327.637,28.809,-23.926,-380.371
1742206296.864,947.754,25.391,-20.996,915.039
1742206296.868,999.512,18.555,-25.391,999.512
1742206296.872,222.168,4.883,-30.273,214.355
1742206296.876,-1000.000,-9.277,-18.066,-1000.000
1742206296.880,-530.273,11.230,1.953,-573.242
1742206296.882,828.613,20.996,-0.977,770.508
1742206296.886,999.512,20.996,-5.859,999.512
1742206296.890,555.176,17.578,-2.930,651.855
1742206296.894,-881.836,-1.465,-3.418,-742.676
1742206296.898,-991.699,3.906,-7.324,-992.676
1742206296.902,399.902,12.695,-7.324,383.789
1742206296.906,999.512,-1.465,-6.836,999.512
1742206296.909,234.863,-26.367,-12.207,322.754
1742206296.913,-1000.000,-36.621,-20.996,-1000.000
1742206296.917,-958.008,-20.508,-31.250,-953.125
1742206296.921,330.566,-14.160,-33.203,343.262
1742206296.925,999.512,-8.789,-27.832,999.512
1742206296.882,828.613,20.996,-0.977,770.508
1742206296.886,999.512,20.996,-5.859,999.512
1742206296.890,555.176,17.578,-2.930,651.855
1742206296.894,-881.836,-1.465,-3.418,-742.676
1742206296.898,-991.699,3.906,-7.324,-992.676
1742206296.902,399.902,12.695,-7.324,383.789
1742206296.906,999.512,-1.465,-6.836,999.512
1742206296.909,234.863,-26.367,-12.207,322.754
1742206296.913,-1000.000,-36.621,-20.996,-1000.000
1742206296.917,-958.008,-20.508,-31.250,-953.125
1742206296.921,330.566,-14.160,-33.203,343.262
1742206296.925,999.512,-8.789,-27.832,999.512
1742206296.927,729.980,-6.348,-28.320,798.340
1742206296.931,-551.270,-25.391,-38.574,-407.227
1742206296.935,-1000.000,-34.668,-44.922,-1000.000
1742206296.939,-58.594,-20.996,-44.922,-34.668
1742206296.943,986.328,-20.020,-48.828,993.652
1742206296.947,999.512,-23.438,-50.781,999.512
1742206296.951,222.656,-34.180,-45.410,210.449
1742206296.954,-1000.000,-51.270,-44.434,-1000.000
1742206296.958,-203.125,-24.414,-45.410,-206.055
1742206296.962,999.512,-17.578,-51.758,999.512
1742206296.966,999.512,-29.785,-64.941,999.512
1742206296.970,220.703,-37.598,-66.895,212.891
1742206296.927,729.980,-6.348,-28.320,798.340
1742206296.931,-551.270,-25.391,-38.574,-407.227
1742206296.935,-1000.000,-34.668,-44.922,-1000.000
1742206296.939,-58.594,-20.996,-44.922,-34.668
1742206296.943,986.328,-20.020,-48.828,993.652
1742206296.947,999.512,-23.438,-50.781,999.512
1742206296.951,222.656,-34.180,-45.410,210.449
1742206296.954,-1000.000,-51.270,-44.434,-1000.000
1742206296.958,-203.125,-24.414,-45.410,-206.055
1742206296.962,999.512,-17.578,-51.758,999.512
1742206296.966,999.512,-29.785,-64.941,999.512
1742206296.970,220.703,-37.598,-66.895,212.891
1742206296.972,-1000.000,-45.898,-69.336,-1000.000
1742206296.976,-253.418,-29.297,-68.848,-291.992
1742206296.980,981.445,-21.484,-70.312,958.496
1742206296.984,999.512,-20.996,-74.219,999.512
1742206296.988,261.719,-25.391,-61.035,350.098
1742206296.992,-1000.000,-37.109,-51.270,-1000.000
1742206296.996,-372.070,-19.531,-53.711,-399.414
1742206296.999,929.199,-14.648,-61.035,925.781
1742206297.003,999.512,-37.109,-57.129,999.512
1742206297.007,372.559,-48.340,-50.293,477.539
1742206297.011,-1000.000,-41.504,-53.711,-981.445
1742206297.015,-805.176,-20.508,-60.547,-811.523
1742206296.972,-1000.000,-45.898,-69.336,-1000.000
1742206296.976,-253.418,-29.297,-68.848,-291.992
1742206296.980,981.445,-21.484,-70.312,958.496
1742206296.984,999.512,-20.996,-74.219,999.512
1742206296.988,261.719,-25.391,-61.035,350.098
1742206296.992,-1000.000,-37.109,-51.270,-1000.000
1742206296.996,-372.070,-19.531,-53.711,-399.414
1742206296.999,929.199,-14.648,-61.035,925.781
1742206297.003,999.512,-37.109,-57.129,999.512
1742206297.007,372.559,-48.340,-50.293,477.539
1742206297.011,-1000.000,-41.504,-53.711,-981.445
1742206297.015,-805.176,-20.508,-60.547,-811.523
1742206297.018,596.191,-12.207,-58.594,599.609
1742206297.022,999.512,-24.902,-55.176,999.512
1742206297.026,777.344,-34.668,-59.082,876.465
1742206297.030,-578.125,-43.945,-61.035,-424.316
1742206297.034,-1000.000,-32.227,-58.594,-1000.000
1742206297.038,266.113,-15.137,-55.664,315.430
1742206297.042,999.512,-20.508,-57.617,999.512
1742206297.045,428.711,-44.434,-68.848,583.008
1742206297.049,-922.363,-64.941,-72.754,-765.137
1742206297.053,-1000.000,-58.105,-68.848,-1000.000
1742206297.057,181.641,-35.645,-62.012,229.980
1742206297.061,999.512,-22.949,-54.199,999.512
1742206297.018,596.191,-12.207,-58.594,599.609
1742206297.022,999.512,-24.902,-55.176,999.512
1742206297.026,777.344,-34.668,-59.082,876.465
1742206297.030,-578.125,-43.945,-61.035,-424.316
1742206297.034,-1000.000,-32.227,-58.594,-1000.000
1742206297.038,266.113,-15.137,-55.664,315.430
1742206297.042,999.512,-20.508,-57.617,999.512
1742206297.045,428.711,-44.434,-68.848,583.008
1742206297.049,-922.363,-64.941,-72.754,-765.137
1742206297.053,-1000.000,-58.105,-68.848,-1000.000
1742206297.057,181.641,-35.645,-62.012,229.980
1742206297.061,999.512,-22.949,-54.199,999.512
1742206297.063,989.746,-28.809,-46.875,998.047
1742206297.067,-103.027,-41.504,-58.105,-31.738
1742206297.071,-1000.000,-45.898,-72.754,-1000.000
1742206297.075,-108.398,-37.598,-77.148,-66.406
1742206297.079,996.094,-28.809,-82.031,999.512
1742206297.083,999.512,-29.297,-76.660,999.512
1742206297.087,188.965,-52.246,-70.801,182.617
1742206297.090,-1000.000,-68.359,-70.801,-1000.000
1742206297.094,-201.660,-44.922,-62.012,-197.266
1742206297.098,999.512,-24.414,-56.152,999.512
1742206297.102,999.512,-29.297,-61.035,999.512
1742206297.106,176.758,-43.457,-60.059,142.578
1742206297.107,-1000.000,-39.551,-59.570,-1000.000
1742206297.111,-197.266,-19.043,-62.988,-172.852
1742206297.115,998.535,-14.648,-61.035,999.512
1742206297.119,999.512,-13.672,-54.688,999.512
1742206297.123,224.121,-24.902,-48.340,264.160
1742206297.127,-1000.000,-29.785,-39.551,-1000.000
1742206297.131,-235.840,-10.254,-44.434,-271.973
1742206297.134,991.211,-11.230,-48.340,982.422
1742206297.138,999.512,-24.414,-45.410,999.512
1742206297.142,229.980,-43.457,-48.828,235.352
1742206297.146,-1000.000,-42.480,-40.039,-1000.000
1742206297.150,-421.875,-16.602,-32.227,-441.895
1742206297.107,-1000.000,-39.551,-59.570,-1000.000
1742206297.111,-197.266,-19.043,-62.988,-172.852
1742206297.115,998.535,-14.648,-61.035,999.512
1742206297.119,999.512,-13.672,-54.688,999.512
1742206297.123,224.121,-24.902,-48.340,264.160
1742206297.127,-1000.000,-29.785,-39.551,-1000.000
1742206297.131,-235.840,-10.254,-44.434,-271.973
1742206297.134,991.211,-11.230,-48.340,982.422
1742206297.138,999.512,-24.414,-45.410,999.512
1742206297.142,229.980,-43.457,-48.828,235.352
1742206297.146,-1000.000,-42.480,-40.039,-1000.000
1742206297.150,-421.875,-16.602,-32.227,-441.895
1742206297.152,912.598,-12.695,-33.203,892.090
1742206297.156,999.512,-24.414,-42.969,999.512
1742206297.160,213.379,-40.039,-52.734,231.934
1742206297.164,-1000.000,-46.875,-56.152,-1000.000
1742206297.168,-596.680,-20.020,-54.688,-628.906
1742206297.172,791.016,-4.395,-44.922,740.723
1742206297.176,999.512,-27.344,-46.387,999.512
1742206297.179,198.242,-53.711,-43.457,171.387
1742206297.183,-1000.000,-56.641,-43.945,-1000.000
1742206297.187,-574.219,-26.855,-49.316,-609.863
1742206297.191,810.059,-20.508,-38.086,745.117
1742206297.195,999.512,-35.645,-32.227,999.512
1742206297.152,912.598,-12.695,-33.203,892.090
1742206297.156,999.512,-24.414,-42.969,999.512
1742206297.160,213.379,-40.039,-52.734,231.934
1742206297.164,-1000.000,-46.875,-56.152,-1000.000
1742206297.168,-596.680,-20.020,-54.688,-628.906
