timestamps,TP9,AF7,AF8,TP10
1742211019.204,970.703,971.191,-1000.000,971.191
1742211019.208,970.703,971.191,-1000.000,971.191
1742211019.212,970.703,971.191,-1000.000,971.191
1742211019.216,970.703,971.680,-1000.000,971.191
1742211019.220,970.703,971.191,-985.352,971.191
1742211019.224,970.703,971.191,-1000.000,971.191
1742211019.228,971.191,971.680,-982.910,971.191
1742211019.231,970.703,971.191,-415.039,971.191
1742211019.235,970.703,971.191,-62.500,971.191
1742211019.239,970.703,971.191,-189.453,971.191
1742211019.243,970.703,971.191,417.969,971.191
1742211019.247,970.215,971.191,-983.398,971.191
1742211019.250,970.215,971.191,955.566,971.191
1742211019.254,970.703,971.191,961.426,971.191
1742211019.258,970.215,971.191,973.633,971.191
1742211019.262,970.215,971.191,971.191,971.191
1742211019.266,970.215,971.191,971.191,971.191
1742211019.270,970.215,971.191,971.191,971.191
1742211019.274,970.703,971.191,971.191,971.191
1742211019.277,970.215,971.191,971.191,971.191
1742211019.281,970.215,971.191,971.191,971.191
1742211019.285,970.703,971.191,971.191,971.191
1742211019.289,971.191,979.980,971.191,971.191
1742211019.293,967.285,935.547,971.191,971.191
1742211019.250,970.215,971.191,955.566,971.191
1742211019.254,970.703,971.191,961.426,971.191
1742211019.258,970.215,971.191,973.633,971.191
1742211019.262,970.215,971.191,971.191,971.191
1742211019.266,970.215,971.191,971.191,971.191
1742211019.270,970.215,971.191,971.191,971.191
1742211019.274,970.703,971.191,971.191,971.191
1742211019.277,970.215,971.191,971.191,971.191
1742211019.281,970.215,971.191,971.191,971.191
1742211019.285,970.703,971.191,971.191,971.191
1742211019.289,971.191,979.980,971.191,971.191
1742211019.293,967.285,935.547,971.191,971.191
1742211019.295,912.109,978.516,971.191,971.191
1742211019.299,-828.613,964.355,971.191,970.703
1742211019.303,-31.250,-334.473,971.191,971.191
1742211019.307,-327.637,-1000.000,971.191,971.191
1742211019.311,-854.980,-937.988,971.191,971.191
1742211019.315,-151.855,-1000.000,971.191,971.191
1742211019.319,-1000.000,-1000.000,971.191,971.191
1742211019.322,-937.988,-1000.000,971.191,971.191
1742211019.326,-997.070,-1000.000,971.191,971.191
1742211019.330,-1000.000,-1000.000,971.191,971.191
1742211019.334,-1000.000,-1000.000,971.191,971.191
1742211019.338,-1000.000,-1000.000,971.191,971.191
1742211019.295,912.109,978.516,971.191,971.191
1742211019.299,-828.613,964.355,971.191,970.703
1742211019.303,-31.250,-334.473,971.191,971.191
1742211019.307,-327.637,-1000.000,971.191,971.191
1742211019.311,-854.980,-937.988,971.191,971.191
1742211019.315,-151.855,-1000.000,971.191,971.191
1742211019.319,-1000.000,-1000.000,971.191,971.191
1742211019.322,-937.988,-1000.000,971.191,971.191
1742211019.326,-997.070,-1000.000,971.191,971.191
1742211019.330,-1000.000,-1000.000,971.191,971.191
1742211019.334,-1000.000,-1000.000,971.191,971.191
1742211019.338,-1000.000,-1000.000,971.191,971.191
1742211019.804,970.703,971.191,-1000.000,-1000.000
1742211019.808,970.703,972.656,-1000.000,-1000.000
1742211019.812,970.215,965.820,-1000.000,-1000.000
1742211019.816,970.703,982.422,-1000.000,-1000.000
1742211019.820,970.703,959.473,-1000.000,-1000.000
1742211019.824,970.703,818.359,-1000.000,-1000.000
1742211019.828,970.703,-913.574,-1000.000,-1000.000
1742211019.831,970.703,479.980,-1000.000,-1000.000
1742211019.835,970.703,-932.129,-1000.000,-1000.000
1742211019.839,970.703,-1000.000,-1000.000,-1000.000
1742211019.843,970.703,-951.172,-1000.000,-1000.000
1742211019.847,970.703,-1000.000,-1000.000,-1000.000
1742211019.339,-1000.000,-1000.000,971.191,971.191
1742211019.343,-1000.000,-1000.000,971.191,971.191
1742211019.347,-1000.000,-1000.000,971.191,971.191
1742211019.351,-1000.000,-1000.000,971.191,971.191
1742211019.355,-1000.000,-1000.000,971.191,971.191
1742211019.359,-1000.000,-1000.000,971.191,971.191
1742211019.363,-1000.000,-1000.000,971.191,971.191
1742211019.366,-1000.000,-1000.000,971.191,971.191
1742211019.370,-1000.000,-1000.000,971.191,971.191
1742211019.374,-1000.000,-1000.000,971.191,971.191
1742211019.378,-1000.000,-1000.000,971.191,971.191
1742211019.382,-1000.000,-1000.000,971.191,971.191
1742211019.339,-1000.000,-1000.000,971.191,971.191
1742211019.343,-1000.000,-1000.000,971.191,971.191
1742211019.347,-1000.000,-1000.000,971.191,971.191
1742211019.351,-1000.000,-1000.000,971.191,971.191
1742211019.355,-1000.000,-1000.000,971.191,971.191
1742211019.359,-1000.000,-1000.000,971.191,971.191
1742211019.363,-1000.000,-1000.000,971.191,971.191
1742211019.366,-1000.000,-1000.000,971.191,971.191
1742211019.370,-1000.000,-1000.000,971.191,971.191
1742211019.374,-1000.000,-1000.000,971.191,971.191
1742211019.378,-1000.000,-1000.000,971.191,971.191
1742211019.382,-1000.000,-1000.000,971.191,971.191
1742211019.864,970.703,-1000.000,-1000.000,-1000.000
1742211019.868,970.703,-1000.000,-1000.000,-1000.000
1742211019.872,970.703,-1000.000,-1000.000,-1000.000
1742211019.876,970.703,-1000.000,-1000.000,-1000.000
1742211019.880,970.703,-1000.000,-1000.000,-1000.000
1742211019.884,970.703,-963.867,-994.629,-1000.000
1742211019.888,970.703,-1000.000,-1000.000,-1000.000
1742211019.891,970.703,-975.586,-945.801,-1000.000
1742211019.895,970.703,320.801,-909.668,-1000.000
1742211019.899,970.703,-909.180,-1000.000,-1000.000
1742211019.903,970.703,910.645,-1000.000,-1000.000
1742211019.907,970.703,975.098,-997.559,-1000.000
1742211019.384,-1000.000,-1000.000,971.191,971.191
1742211019.388,-1000.000,-1000.000,971.191,971.191
1742211019.392,-1000.000,-1000.000,971.191,971.191
1742211019.396,-1000.000,-1000.000,971.191,971.191
1742211019.400,-1000.000,-1000.000,971.191,971.191
1742211019.404,-1000.000,-1000.000,971.191,971.191
1742211019.408,-1000.000,-1000.000,971.191,971.191
1742211019.411,-943.848,-1000.000,971.191,971.191
1742211019.415,-1000.000,-1000.000,971.191,971.191
1742211019.419,-828.613,-1000.000,971.191,971.191
1742211019.423,582.520,-1000.000,971.191,971.191
1742211019.427,-929.199,-1000.000,971.191,971.191
1742211019.384,-1000.000,-1000.000,971.191,971.191
1742211019.388,-1000.000,-1000.000,971.191,971.191
1742211019.392,-1000.000,-1000.000,971.191,971.191
1742211019.396,-1000.000,-1000.000,971.191,971.191
1742211019.400,-1000.000,-1000.000,971.191,971.191
1742211019.404,-1000.000,-1000.000,971.191,971.191
1742211019.408,-1000.000,-1000.000,971.191,971.191
1742211019.411,-943.848,-1000.000,971.191,971.191
1742211019.415,-1000.000,-1000.000,971.191,971.191
1742211019.419,-828.613,-1000.000,971.191,971.191
1742211019.423,582.520,-1000.000,971.191,971.191
1742211019.427,-929.199,-1000.000,971.191,971.191
1742211019.909,970.703,976.074,-1000.000,-1000.000
1742211019.913,970.703,904.297,-1000.000,-1000.000
1742211019.917,970.703,-896.973,-1000.000,-1000.000
1742211019.921,970.703,298.828,-997.070,-1000.000
1742211019.925,970.703,-1000.000,-1000.000,-1000.000
1742211019.929,970.703,-1000.000,-986.816,-1000.000
1742211019.933,970.703,197.754,-951.660,-1000.000
1742211019.936,970.703,-780.273,-998.535,-1000.000
1742211019.940,970.703,333.984,-988.770,-1000.000
1742211019.944,970.703,-986.816,-1000.000,-1000.000
1742211019.948,985.840,-1000.000,-943.848,-1000.000
1742211019.952,903.809,-957.031,-567.871,-1000.000
1742211019.384,-1000.000,-1000.000,971.191,971.191
1742211019.388,-1000.000,-1000.000,971.191,971.191
1742211019.392,-1000.000,-1000.000,971.191,971.191
1742211019.396,-1000.000,-1000.000,971.191,971.191
1742211019.400,-1000.000,-1000.000,971.191,971.191
1742211019.404,-1000.000,-1000.000,971.191,971.191
1742211019.408,-1000.000,-1000.000,971.191,971.191
1742211019.411,-943.848,-1000.000,971.191,971.191
1742211019.415,-1000.000,-1000.000,971.191,971.191
1742211019.419,-828.613,-1000.000,971.191,971.191
1742211019.423,582.520,-1000.000,971.191,971.191
1742211019.427,-929.199,-1000.000,971.191,971.191
1742211019.429,904.785,-1000.000,971.191,971.191
1742211019.433,982.910,-1000.000,971.191,971.191
1742211019.437,970.703,-1000.000,971.191,971.191
1742211019.441,970.215,-1000.000,971.191,971.191
1742211019.445,970.215,-1000.000,971.191,971.191
1742211019.449,970.703,-1000.000,971.191,971.191
1742211019.453,970.703,-1000.000,971.191,971.191
1742211019.456,970.703,-1000.000,971.191,971.191
1742211019.460,970.703,-1000.000,971.191,971.191
1742211019.464,970.703,-1000.000,971.191,971.191
1742211019.468,970.215,-1000.000,971.191,971.191
1742211019.472,970.215,-1000.000,971.191,971.191
1742211019.429,904.785,-1000.000,971.191,971.191
1742211019.433,982.910,-1000.000,971.191,971.191
1742211019.437,970.703,-1000.000,971.191,971.191
1742211019.441,970.215,-1000.000,971.191,971.191
1742211019.445,970.215,-1000.000,971.191,971.191
1742211019.449,970.703,-1000.000,971.191,971.191
1742211019.453,970.703,-1000.000,971.191,971.191
1742211019.456,970.703,-1000.000,971.191,971.191
1742211019.460,970.703,-1000.000,971.191,971.191
1742211019.464,970.703,-1000.000,971.191,971.191
1742211019.468,970.215,-1000.000,971.191,971.191
1742211019.472,970.215,-1000.000,971.191,971.191
1742211019.489,970.215,-1000.000,971.191,971.191
1742211019.493,970.215,-1000.000,971.191,971.191
1742211019.497,970.703,-1000.000,971.191,971.191
1742211019.501,970.703,-996.094,971.191,971.191
1742211019.505,970.703,-946.289,971.191,971.191
1742211019.509,982.422,-1000.000,971.191,971.191
1742211019.513,924.316,-209.961,971.191,971.191
1742211019.516,-999.023,-838.867,971.191,971.191
1742211019.520,904.297,579.102,971.191,971.191
1742211019.524,-463.379,-852.051,971.191,971.191
1742211019.528,-1000.000,-1000.000,971.191,971.191
1742211019.532,-933.594,-942.383,971.191,971.191
1742211019.489,970.215,-1000.000,971.191,971.191
1742211019.493,970.215,-1000.000,971.191,971.191
1742211019.497,970.703,-1000.000,971.191,971.191
1742211019.501,970.703,-996.094,971.191,971.191
1742211019.505,970.703,-946.289,971.191,971.191
1742211019.509,982.422,-1000.000,971.191,971.191
1742211019.513,924.316,-209.961,971.191,971.191
1742211019.516,-999.023,-838.867,971.191,971.191
1742211019.520,904.297,579.102,971.191,971.191
1742211019.524,-463.379,-852.051,971.191,971.191
1742211019.528,-1000.000,-1000.000,971.191,971.191
1742211019.532,-933.594,-942.383,971.191,971.191
1742211019.534,-1000.000,-1000.000,971.191,971.191
1742211019.538,-1000.000,-1000.000,971.191,971.191
1742211019.542,-1000.000,-1000.000,971.191,971.191
1742211019.546,-1000.000,-1000.000,971.680,971.191
1742211019.550,-1000.000,-1000.000,971.191,971.191
1742211019.554,-1000.000,-1000.000,971.191,971.191
1742211019.558,-1000.000,-1000.000,971.191,971.191
1742211019.561,-997.559,-1000.000,971.191,971.191
1742211019.565,-942.871,-1000.000,971.191,971.191
1742211019.569,-1000.000,-1000.000,971.191,971.191
1742211019.573,-225.586,-1000.000,971.191,971.191
1742211019.577,-810.547,-1000.000,971.191,976.562
1742211019.534,-1000.000,-1000.000,971.191,971.191
1742211019.538,-1000.000,-1000.000,971.191,971.191
1742211019.542,-1000.000,-1000.000,971.191,971.191
1742211019.546,-1000.000,-1000.000,971.680,971.191
1742211019.550,-1000.000,-1000.000,971.191,971.191
1742211019.554,-1000.000,-1000.000,971.191,971.191
1742211019.558,-1000.000,-1000.000,971.191,971.191
1742211019.561,-997.559,-1000.000,971.191,971.191
1742211019.565,-942.871,-1000.000,971.191,971.191
1742211019.569,-1000.000,-1000.000,971.191,971.191
1742211019.573,-225.586,-1000.000,971.191,971.191
1742211019.577,-810.547,-1000.000,971.191,976.562
1742211019.534,-1000.000,-1000.000,971.191,971.191
1742211019.538,-1000.000,-1000.000,971.191,971.191
1742211019.542,-1000.000,-1000.000,971.191,971.191
1742211019.546,-1000.000,-1000.000,971.680,971.191
1742211019.550,-1000.000,-1000.000,971.191,971.191
1742211019.554,-1000.000,-1000.000,971.191,971.191
1742211019.558,-1000.000,-1000.000,971.191,971.191
1742211019.561,-997.559,-1000.000,971.191,971.191
1742211019.565,-942.871,-1000.000,971.191,971.191
1742211019.569,-1000.000,-1000.000,971.191,971.191
1742211019.573,-225.586,-1000.000,971.191,971.191
1742211019.577,-810.547,-1000.000,971.191,976.562
1742211020.044,-991.699,-977.051,971.191,-1000.000
1742211020.048,-1000.000,-977.051,971.191,-1000.000
1742211020.052,-1000.000,-1000.000,971.680,-1000.000
1742211020.056,-1000.000,-968.750,971.680,-1000.000
1742211020.060,-1000.000,-999.023,971.191,-1000.000
1742211020.064,-1000.000,-1000.000,971.191,-998.535
1742211020.068,-1000.000,248.047,971.191,-928.711
1742211020.071,-1000.000,-907.227,971.191,-1000.000
1742211020.075,-1000.000,913.574,971.191,-127.441
1742211020.079,-1000.000,971.680,971.191,925.781
1742211020.083,-1000.000,972.168,971.680,-565.918
1742211020.087,-1000.000,971.191,971.680,-1000.000
1742211019.579,226.074,-1000.000,971.191,948.730
1742211019.583,-1000.000,-1000.000,971.191,941.406
1742211019.587,-250.000,-1000.000,971.191,-877.930
1742211019.591,-949.219,-934.570,971.191,-290.039
1742211019.595,956.543,-1000.000,971.191,-425.781
1742211019.599,938.965,-271.484,971.191,-961.426
1742211019.603,978.516,972.168,971.191,959.961
1742211019.606,970.215,-908.203,974.609,996.094
1742211019.610,970.703,63.965,942.383,-180.664
1742211019.614,970.703,-1000.000,-968.262,-1000.000
1742211019.618,970.215,-971.191,749.512,-56.152
1742211019.622,970.215,-979.980,258.789,-935.547
1742211019.579,226.074,-1000.000,971.191,948.730
1742211019.583,-1000.000,-1000.000,971.191,941.406
1742211019.587,-250.000,-1000.000,971.191,-877.930
1742211019.591,-949.219,-934.570,971.191,-290.039
1742211019.595,956.543,-1000.000,971.191,-425.781
1742211019.599,938.965,-271.484,971.191,-961.426
1742211019.603,978.516,972.168,971.191,959.961
1742211019.606,970.215,-908.203,974.609,996.094
1742211019.610,970.703,63.965,942.383,-180.664
1742211019.614,970.703,-1000.000,-968.262,-1000.000
1742211019.618,970.215,-971.191,749.512,-56.152
1742211019.622,970.215,-979.980,258.789,-935.547
1742211019.624,970.703,-1000.000,629.395,978.027
1742211019.628,970.703,-1000.000,-952.148,-218.262
1742211019.632,970.703,-1000.000,654.785,-1000.000
1742211019.636,970.703,-938.477,-503.906,-167.480
1742211019.640,970.703,-1000.000,-1000.000,996.094
1742211019.644,970.703,-261.719,-1000.000,-927.734
1742211019.648,970.703,-901.367,-704.102,34.180
1742211019.651,970.703,802.246,-664.062,-1000.000
1742211019.655,970.703,-601.074,-1000.000,-176.758
1742211019.659,970.703,-1000.000,-995.605,991.211
1742211019.663,970.703,-935.059,-994.629,-900.391
1742211019.667,970.703,-1000.000,-1000.000,210.938
1742211019.624,970.703,-1000.000,629.395,978.027
1742211019.628,970.703,-1000.000,-952.148,-218.262
1742211019.632,970.703,-1000.000,654.785,-1000.000
1742211019.636,970.703,-938.477,-503.906,-167.480
1742211019.640,970.703,-1000.000,-1000.000,996.094
1742211019.644,970.703,-261.719,-1000.000,-927.734
1742211019.648,970.703,-901.367,-704.102,34.180
1742211019.651,970.703,802.246,-664.062,-1000.000
1742211019.655,970.703,-601.074,-1000.000,-176.758
1742211019.659,970.703,-1000.000,-995.605,991.211
1742211019.663,970.703,-935.059,-994.629,-900.391
1742211019.667,970.703,-1000.000,-1000.000,210.938
1742211019.669,970.703,-1000.000,-1000.000,-1000.000
1742211019.673,970.703,-1000.000,-1000.000,-52.734
1742211019.677,970.703,-1000.000,-1000.000,-965.332
1742211019.681,970.703,-1000.000,-1000.000,-919.922
1742211019.685,970.703,-933.105,-1000.000,259.277
1742211019.689,970.703,-1000.000,-1000.000,-1000.000
1742211019.693,970.703,-289.062,-1000.000,-12.207
1742211019.696,970.703,937.500,-979.492,-954.102
1742211019.700,970.703,-900.391,-1000.000,-954.102
1742211019.704,970.703,431.641,-879.883,338.379
1742211019.708,970.703,-943.848,-678.223,-1000.000
1742211019.712,970.703,-1000.000,-974.121,-716.797
1742211019.669,970.703,-1000.000,-1000.000,-1000.000
1742211019.673,970.703,-1000.000,-1000.000,-52.734
1742211019.677,970.703,-1000.000,-1000.000,-965.332
1742211019.681,970.703,-1000.000,-1000.000,-919.922
1742211019.685,970.703,-933.105,-1000.000,259.277
1742211019.689,970.703,-1000.000,-1000.000,-1000.000
1742211019.693,970.703,-289.062,-1000.000,-12.207
1742211019.696,970.703,937.500,-979.492,-954.102
1742211019.700,970.703,-900.391,-1000.000,-954.102
1742211019.704,970.703,431.641,-879.883,338.379
1742211019.708,970.703,-943.848,-678.223,-1000.000
1742211019.712,970.703,-1000.000,-974.121,-716.797
1742211019.669,970.703,-1000.000,-1000.000,-1000.000
1742211019.673,970.703,-1000.000,-1000.000,-52.734
1742211019.677,970.703,-1000.000,-1000.000,-965.332
1742211019.681,970.703,-1000.000,-1000.000,-919.922
1742211019.685,970.703,-933.105,-1000.000,259.277
1742211019.689,970.703,-1000.000,-1000.000,-1000.000
1742211019.693,970.703,-289.062,-1000.000,-12.207
1742211019.696,970.703,937.500,-979.492,-954.102
1742211019.700,970.703,-900.391,-1000.000,-954.102
1742211019.704,970.703,431.641,-879.883,338.379
1742211019.708,970.703,-943.848,-678.223,-1000.000
1742211019.712,970.703,-1000.000,-974.121,-716.797
1742211019.714,970.703,-950.684,-1000.000,694.336
1742211019.718,970.703,-1000.000,-985.352,-821.777
1742211019.722,970.703,-1000.000,-1000.000,131.348
1742211019.726,970.703,-927.246,-995.605,-999.512
1742211019.730,970.703,-1000.000,-1000.000,-1000.000
1742211019.734,970.703,-564.453,-1000.000,-157.227
1742211019.738,970.703,-953.125,-1000.000,-824.219
1742211019.741,970.703,498.047,-1000.000,-20.508
1742211019.745,970.703,-991.211,-1000.000,-1000.000
1742211019.749,970.703,-958.496,-1000.000,-1000.000
1742211019.753,970.703,-1000.000,-1000.000,-514.648
1742211019.757,970.703,-210.938,-1000.000,231.934
1742211019.714,970.703,-950.684,-1000.000,694.336
1742211019.718,970.703,-1000.000,-985.352,-821.777
1742211019.722,970.703,-1000.000,-1000.000,131.348
1742211019.726,970.703,-927.246,-995.605,-999.512
1742211019.730,970.703,-1000.000,-1000.000,-1000.000
1742211019.734,970.703,-564.453,-1000.000,-157.227
1742211019.738,970.703,-953.125,-1000.000,-824.219
1742211019.741,970.703,498.047,-1000.000,-20.508
1742211019.745,970.703,-991.211,-1000.000,-1000.000
1742211019.749,970.703,-958.496,-1000.000,-1000.000
1742211019.753,970.703,-1000.000,-1000.000,-514.648
1742211019.757,970.703,-210.938,-1000.000,231.934
1742211019.760,970.703,973.633,-1000.000,-895.996
1742211019.764,970.703,-913.574,-1000.000,-1000.000
1742211019.768,970.703,375.000,-1000.000,-938.965
1742211019.772,970.703,-986.816,-1000.000,-1000.000
1742211019.776,970.703,-951.660,-1000.000,-1000.000
1742211019.780,970.703,-1000.000,-1000.000,-1000.000
1742211019.784,970.703,-556.152,-1000.000,-1000.000
1742211019.787,970.703,865.723,-1000.000,-1000.000
1742211019.791,970.703,-984.375,-1000.000,-1000.000
1742211019.795,970.703,919.434,-1000.000,-1000.000
1742211019.799,970.703,985.352,-1000.000,-1000.000
1742211019.803,970.703,971.191,-1000.000,-1000.000
1742211019.760,970.703,973.633,-1000.000,-895.996
1742211019.764,970.703,-913.574,-1000.000,-1000.000
1742211019.768,970.703,375.000,-1000.000,-938.965
1742211019.772,970.703,-986.816,-1000.000,-1000.000
1742211019.776,970.703,-951.660,-1000.000,-1000.000
1742211019.780,970.703,-1000.000,-1000.000,-1000.000
1742211019.784,970.703,-556.152,-1000.000,-1000.000
1742211019.787,970.703,865.723,-1000.000,-1000.000
1742211019.791,970.703,-984.375,-1000.000,-1000.000
1742211019.795,970.703,919.434,-1000.000,-1000.000
1742211019.799,970.703,985.352,-1000.000,-1000.000
1742211019.803,970.703,971.191,-1000.000,-1000.000
1742211020.284,-1000.000,-1000.000,-830.078,940.430
1742211020.288,-816.895,-614.746,-117.188,947.754
1742211020.292,556.152,820.801,202.637,891.602
1742211020.296,-816.406,-970.703,-150.879,946.289
1742211020.300,101.074,914.062,-451.660,954.590
1742211020.304,-1000.000,993.652,-158.691,957.520
1742211020.308,-687.012,901.367,682.617,-987.793
1742211020.311,953.125,-889.648,980.957,-203.125
1742211020.315,254.883,322.754,894.043,-1000.000
1742211020.319,-1000.000,-1000.000,429.688,-213.379
1742211020.323,-969.238,-1000.000,192.871,-827.148
1742211020.327,-972.656,-962.402,809.570,460.938
1742211019.760,970.703,973.633,-1000.000,-895.996
1742211019.764,970.703,-913.574,-1000.000,-1000.000
1742211019.768,970.703,375.000,-1000.000,-938.965
1742211019.772,970.703,-986.816,-1000.000,-1000.000
1742211019.776,970.703,-951.660,-1000.000,-1000.000
1742211019.780,970.703,-1000.000,-1000.000,-1000.000
1742211019.784,970.703,-556.152,-1000.000,-1000.000
1742211019.787,970.703,865.723,-1000.000,-1000.000
1742211019.791,970.703,-984.375,-1000.000,-1000.000
1742211019.795,970.703,919.434,-1000.000,-1000.000
1742211019.799,970.703,985.352,-1000.000,-1000.000
1742211019.803,970.703,971.191,-1000.000,-1000.000
1742211019.954,-940.430,-1000.000,-729.980,-1000.000
1742211019.958,734.863,-1000.000,-1000.000,-1000.000
1742211019.962,-907.715,-956.055,-941.895,-1000.000
1742211019.966,-349.121,-1000.000,-335.938,-1000.000
1742211019.970,-975.098,-885.742,516.602,-1000.000
1742211019.974,990.723,448.242,589.844,-1000.000
1742211019.978,846.191,-920.898,170.410,-1000.000
1742211019.981,-618.652,910.156,383.301,-1000.000
1742211019.985,-945.312,993.164,949.707,-1000.000
1742211019.989,540.527,908.691,981.934,-1000.000
1742211019.993,-803.711,-949.219,955.078,-1000.000
1742211019.997,357.422,731.445,969.238,-1000.000
1742211019.954,-940.430,-1000.000,-729.980,-1000.000
1742211019.958,734.863,-1000.000,-1000.000,-1000.000
1742211019.962,-907.715,-956.055,-941.895,-1000.000
1742211019.966,-349.121,-1000.000,-335.938,-1000.000
1742211019.970,-975.098,-885.742,516.602,-1000.000
1742211019.974,990.723,448.242,589.844,-1000.000
1742211019.978,846.191,-920.898,170.410,-1000.000
1742211019.981,-618.652,910.156,383.301,-1000.000
1742211019.985,-945.312,993.164,949.707,-1000.000
1742211019.989,540.527,908.691,981.934,-1000.000
1742211019.993,-803.711,-949.219,955.078,-1000.000
1742211019.997,357.422,731.445,969.238,-1000.000
1742211019.999,-893.066,-704.102,963.379,-1000.000
1742211020.003,-1000.000,-1000.000,974.609,-1000.000
1742211020.007,-734.375,-1000.000,959.473,-1000.000
1742211020.011,824.219,-284.180,998.047,-1000.000
1742211020.015,508.789,-975.586,895.508,-1000.000
1742211020.019,-991.211,963.379,787.109,-1000.000
1742211020.023,-1000.000,940.918,960.449,-1000.000
1742211020.026,-979.980,977.051,983.398,-1000.000
1742211020.030,333.984,913.574,962.402,-1000.000
1742211020.034,25.879,-895.996,973.145,-1000.000
1742211020.038,-1000.000,134.766,971.191,-1000.000
1742211020.042,-951.660,-1000.000,971.680,-1000.000
1742211019.999,-893.066,-704.102,963.379,-1000.000
1742211020.003,-1000.000,-1000.000,974.609,-1000.000
1742211020.007,-734.375,-1000.000,959.473,-1000.000
1742211020.011,824.219,-284.180,998.047,-1000.000
1742211020.015,508.789,-975.586,895.508,-1000.000
1742211020.019,-991.211,963.379,787.109,-1000.000
1742211020.023,-1000.000,940.918,960.449,-1000.000
1742211020.026,-979.980,977.051,983.398,-1000.000
1742211020.030,333.984,913.574,962.402,-1000.000
1742211020.034,25.879,-895.996,973.145,-1000.000
1742211020.038,-1000.000,134.766,971.191,-1000.000
1742211020.042,-951.660,-1000.000,971.680,-1000.000
1742211019.999,-893.066,-704.102,963.379,-1000.000
1742211020.003,-1000.000,-1000.000,974.609,-1000.000
1742211020.007,-734.375,-1000.000,959.473,-1000.000
1742211020.011,824.219,-284.180,998.047,-1000.000
1742211020.015,508.789,-975.586,895.508,-1000.000
1742211020.019,-991.211,963.379,787.109,-1000.000
1742211020.023,-1000.000,940.918,960.449,-1000.000
1742211020.026,-979.980,977.051,983.398,-1000.000
1742211020.030,333.984,913.574,962.402,-1000.000
1742211020.034,25.879,-895.996,973.145,-1000.000
1742211020.038,-1000.000,134.766,971.191,-1000.000
1742211020.042,-951.660,-1000.000,971.680,-1000.000
1742211020.089,-1000.000,971.191,971.191,-1000.000
1742211020.093,-1000.000,971.191,971.191,-264.160
1742211020.097,-1000.000,971.191,971.191,-860.352
1742211020.101,-1000.000,971.191,971.191,-84.961
1742211020.105,-1000.000,971.680,971.680,-1000.000
1742211020.109,-1000.000,971.680,971.680,-1000.000
1742211020.113,-1000.000,983.887,971.191,-144.531
1742211020.116,-1000.000,898.926,971.191,-812.500
1742211020.120,-1000.000,-903.320,971.191,541.992
1742211020.124,-1000.000,473.145,971.680,-866.211
1742211020.128,-1000.000,-886.230,971.680,-1000.000
1742211020.132,-1000.000,-1000.000,971.191,99.121
1742211020.134,-1000.000,-83.984,974.121,-968.750
1742211020.138,-1000.000,-952.148,960.449,-892.578
1742211020.142,-1000.000,943.848,956.543,-132.812
1742211020.146,-1000.000,950.195,984.863,-377.441
1742211020.150,-1000.000,976.562,339.844,-934.570
1742211020.154,-1000.000,971.191,-281.738,977.051
1742211020.158,-1000.000,971.191,198.242,937.012
1742211020.161,-1000.000,971.680,879.395,979.492
1742211020.165,-1000.000,971.680,531.250,971.191
1742211020.169,-1000.000,986.328,-547.363,977.539
1742211020.173,-1000.000,896.973,-992.188,887.695
1742211020.177,-1000.000,-904.785,-866.211,-823.730
1742211020.134,-1000.000,-83.984,974.121,-968.750
1742211020.138,-1000.000,-952.148,960.449,-892.578
1742211020.142,-1000.000,943.848,956.543,-132.812
1742211020.146,-1000.000,950.195,984.863,-377.441
1742211020.150,-1000.000,976.562,339.844,-934.570
1742211020.154,-1000.000,971.191,-281.738,977.051
1742211020.158,-1000.000,971.191,198.242,937.012
1742211020.161,-1000.000,971.680,879.395,979.492
1742211020.165,-1000.000,971.680,531.250,971.191
1742211020.169,-1000.000,986.328,-547.363,977.539
1742211020.173,-1000.000,896.973,-992.188,887.695
1742211020.177,-1000.000,-904.785,-866.211,-823.730
1742211020.134,-1000.000,-83.984,974.121,-968.750
1742211020.138,-1000.000,-952.148,960.449,-892.578
1742211020.142,-1000.000,943.848,956.543,-132.812
1742211020.146,-1000.000,950.195,984.863,-377.441
1742211020.150,-1000.000,976.562,339.844,-934.570
1742211020.154,-1000.000,971.191,-281.738,977.051
1742211020.158,-1000.000,971.191,198.242,937.012
1742211020.161,-1000.000,971.680,879.395,979.492
1742211020.165,-1000.000,971.680,531.250,971.191
1742211020.169,-1000.000,986.328,-547.363,977.539
1742211020.173,-1000.000,896.973,-992.188,887.695
1742211020.177,-1000.000,-904.785,-866.211,-823.730
1742211020.194,-1000.000,527.344,-183.105,206.543
1742211020.198,-1000.000,-914.551,87.891,-697.266
1742211020.202,-1000.000,-1000.000,-737.793,764.648
1742211020.206,-1000.000,-946.289,-1000.000,995.117
1742211020.210,-1000.000,-1000.000,-964.355,-895.996
1742211020.214,-1000.000,-935.547,-318.848,196.289
1742211020.218,-1000.000,-1000.000,151.367,-783.691
1742211020.221,-1000.000,-262.207,-708.008,704.102
1742211020.225,-1000.000,-963.867,-1000.000,-971.191
1742211020.229,-1000.000,881.348,-960.938,983.398
1742211020.233,-1000.000,-856.445,-533.691,829.102
1742211020.237,-1000.000,291.992,-30.762,-490.723
1742211020.225,-1000.000,-371.582,-557.129,263.672
1742211020.229,-1000.000,931.152,-1000.000,-899.902
1742211020.233,-1000.000,989.258,-887.695,961.426
1742211020.237,-999.023,-966.797,-354.980,874.023
1742211020.241,-998.535,8.789,312.988,-680.664
1742211020.245,-1000.000,-1000.000,-86.914,-132.324
1742211020.249,-1000.000,-958.984,-895.020,-909.180
1742211020.252,-1000.000,-987.305,-781.738,976.562
1742211020.256,-1000.000,-1000.000,-76.172,872.070
1742211020.260,-1000.000,-1000.000,445.312,-697.754
1742211020.264,-1000.000,-1000.000,-90.820,-266.113
1742211020.268,-941.406,-929.688,-908.203,-881.836
1742211020.225,-1000.000,-371.582,-557.129,263.672
1742211020.229,-1000.000,931.152,-1000.000,-899.902
1742211020.233,-1000.000,989.258,-887.695,961.426
1742211020.237,-999.023,-966.797,-354.980,874.023
1742211020.241,-998.535,8.789,312.988,-680.664
1742211020.245,-1000.000,-1000.000,-86.914,-132.324
1742211020.249,-1000.000,-958.984,-895.020,-909.180
1742211020.252,-1000.000,-987.305,-781.738,976.562
1742211020.256,-1000.000,-1000.000,-76.172,872.070
1742211020.260,-1000.000,-1000.000,445.312,-697.754
1742211020.264,-1000.000,-1000.000,-90.820,-266.113
1742211020.268,-941.406,-929.688,-908.203,-881.836
1742211020.225,-1000.000,-371.582,-557.129,263.672
1742211020.229,-1000.000,931.152,-1000.000,-899.902
1742211020.233,-1000.000,989.258,-887.695,961.426
1742211020.237,-999.023,-966.797,-354.980,874.023
1742211020.241,-998.535,8.789,312.988,-680.664
1742211020.245,-1000.000,-1000.000,-86.914,-132.324
1742211020.249,-1000.000,-958.984,-895.020,-909.180
1742211020.252,-1000.000,-987.305,-781.738,976.562
1742211020.256,-1000.000,-1000.000,-76.172,872.070
1742211020.260,-1000.000,-1000.000,445.312,-697.754
1742211020.264,-1000.000,-1000.000,-90.820,-266.113
1742211020.268,-941.406,-929.688,-908.203,-881.836
1742211020.329,-1000.000,-1000.000,995.605,-886.719
1742211020.333,-976.562,-932.129,924.316,-1000.000
1742211020.337,-979.004,-1000.000,458.008,-542.480
1742211020.341,-1000.000,-624.023,-81.543,-972.168
1742211020.345,152.344,801.270,139.160,344.727
1742211020.349,-973.145,-968.750,763.184,-1000.000
1742211020.353,-953.125,914.551,754.883,-997.070
1742211020.356,431.641,923.828,201.660,-1000.000
1742211020.360,-907.227,-890.625,-242.188,287.598
1742211020.364,-1000.000,178.711,107.422,38.574
1742211020.368,-221.191,-1000.000,873.535,-1000.000
1742211020.372,-828.613,-982.910,479.492,-951.172
1742211020.329,-1000.000,-1000.000,995.605,-886.719
1742211020.333,-976.562,-932.129,924.316,-1000.000
1742211020.337,-979.004,-1000.000,458.008,-542.480
1742211020.341,-1000.000,-624.023,-81.543,-972.168
1742211020.345,152.344,801.270,139.160,344.727
1742211020.349,-973.145,-968.750,763.184,-1000.000
1742211020.353,-953.125,914.551,754.883,-997.070
1742211020.356,431.641,923.828,201.660,-1000.000
1742211020.360,-907.227,-890.625,-242.188,287.598
1742211020.364,-1000.000,178.711,107.422,38.574
1742211020.368,-221.191,-1000.000,873.535,-1000.000
1742211020.372,-828.613,-982.910,479.492,-951.172
1742211020.374,333.496,-974.609,-312.988,-992.188
1742211020.378,-978.516,-944.336,-562.500,-1000.000
1742211020.382,-1000.000,-1000.000,-251.465,-1000.000
1742211020.386,-125.977,-218.750,-44.434,-1000.000
1742211020.390,998.535,-957.031,-520.508,-1000.000
1742211020.394,-916.504,955.078,-1000.000,-1000.000
1742211020.398,-6.836,943.848,-950.195,-1000.000
1742211020.401,-1000.000,978.027,-654.297,-1000.000
1742211020.405,161.133,971.680,-449.707,-1000.000
1742211020.409,-948.730,971.191,-575.195,-1000.000
1742211020.413,-944.824,971.191,-906.250,-1000.000
1742211020.417,205.078,971.680,-1000.000,-1000.000
1742211020.374,333.496,-974.609,-312.988,-992.188
1742211020.378,-978.516,-944.336,-562.500,-1000.000
1742211020.382,-1000.000,-1000.000,-251.465,-1000.000
1742211020.386,-125.977,-218.750,-44.434,-1000.000
1742211020.390,998.535,-957.031,-520.508,-1000.000
1742211020.394,-916.504,955.078,-1000.000,-1000.000
1742211020.398,-6.836,943.848,-950.195,-1000.000
1742211020.401,-1000.000,978.027,-654.297,-1000.000
1742211020.405,161.133,971.680,-449.707,-1000.000
1742211020.409,-948.730,971.191,-575.195,-1000.000
1742211020.413,-944.824,971.191,-906.250,-1000.000
1742211020.417,205.078,971.680,-1000.000,-1000.000
1742211020.419,-1000.000,971.680,-950.684,-1000.000
1742211020.423,-89.844,971.191,-844.727,-999.023
1742211020.427,-908.203,971.191,-916.504,-939.453
1742211020.431,934.082,971.680,-1000.000,-1000.000
1742211020.435,951.172,971.680,-987.305,-237.305
1742211020.439,975.098,971.680,-1000.000,-821.777
1742211020.443,970.703,971.191,-902.832,89.355
1742211020.446,970.703,971.191,-844.238,-1000.000
1742211020.450,970.703,971.191,-1000.000,-1000.000
1742211020.454,970.703,971.680,-998.047,-53.711
1742211020.458,970.703,971.191,-1000.000,-794.434
1742211020.462,970.703,971.680,-984.863,450.195
1742211020.419,-1000.000,971.680,-950.684,-1000.000
1742211020.423,-89.844,971.191,-844.727,-999.023
1742211020.427,-908.203,971.191,-916.504,-939.453
1742211020.431,934.082,971.680,-1000.000,-1000.000
1742211020.435,951.172,971.680,-987.305,-237.305
1742211020.439,975.098,971.680,-1000.000,-821.777
1742211020.443,970.703,971.191,-902.832,89.355
1742211020.446,970.703,971.191,-844.238,-1000.000
1742211020.450,970.703,971.191,-1000.000,-1000.000
1742211020.454,970.703,971.680,-998.047,-53.711
1742211020.458,970.703,971.191,-1000.000,-794.434
1742211020.462,970.703,971.680,-984.863,450.195
1742211020.419,-1000.000,971.680,-950.684,-1000.000
1742211020.423,-89.844,971.191,-844.727,-999.023
1742211020.427,-908.203,971.191,-916.504,-939.453
1742211020.431,934.082,971.680,-1000.000,-1000.000
1742211020.435,951.172,971.680,-987.305,-237.305
1742211020.439,975.098,971.680,-1000.000,-821.777
1742211020.443,970.703,971.191,-902.832,89.355
1742211020.446,970.703,971.191,-844.238,-1000.000
1742211020.450,970.703,971.191,-1000.000,-1000.000
1742211020.454,970.703,971.680,-998.047,-53.711
1742211020.458,970.703,971.191,-1000.000,-794.434
1742211020.462,970.703,971.680,-984.863,450.195
1742211020.465,970.703,971.680,-912.109,-987.793
1742211020.469,970.703,971.191,-983.887,-986.328
1742211020.473,970.703,971.191,-1000.000,386.719
1742211020.477,970.703,971.680,-997.559,-932.617
1742211020.481,970.703,971.680,-990.234,-993.164
1742211020.485,970.703,971.191,-665.527,-410.156
1742211020.489,970.703,971.680,-713.867,-553.223
1742211020.492,970.703,975.586,-1000.000,-981.934
1742211020.496,970.703,904.297,-970.215,914.062
1742211020.500,984.863,-889.648,-748.047,-866.211
1742211020.504,895.996,259.766,-159.668,62.012
1742211020.508,-913.574,-1000.000,-122.559,-691.895
1742211020.510,582.031,-977.051,-894.043,841.309
1742211020.514,-1000.000,-935.547,-885.742,-946.289
1742211020.518,-454.102,-1000.000,-358.887,908.203
1742211020.522,-983.398,73.730,-178.223,985.840
1742211020.526,972.656,-902.344,-407.227,971.191
1742211020.530,927.734,919.434,-691.406,971.191
1742211020.534,982.422,964.355,-335.449,971.191
1742211020.537,970.703,972.656,429.688,971.191
1742211020.541,970.703,971.191,880.371,971.191
1742211020.545,970.703,971.191,784.180,971.191
1742211020.549,970.703,978.027,490.234,971.680
1742211020.553,970.215,901.367,671.875,908.203
1742211020.510,582.031,-977.051,-894.043,841.309
1742211020.514,-1000.000,-935.547,-885.742,-946.289
1742211020.518,-454.102,-1000.000,-358.887,908.203
1742211020.522,-983.398,73.730,-178.223,985.840
1742211020.526,972.656,-902.344,-407.227,971.191
1742211020.530,927.734,919.434,-691.406,971.191
1742211020.534,982.422,964.355,-335.449,971.191
1742211020.537,970.703,972.656,429.688,971.191
1742211020.541,970.703,971.191,880.371,971.191
1742211020.545,970.703,971.191,784.180,971.191
1742211020.549,970.703,978.027,490.234,971.680
1742211020.553,970.215,901.367,671.875,908.203
1742211020.554,970.215,-889.648,985.352,-895.508
1742211020.558,970.215,310.059,970.215,257.812
1742211020.562,970.703,-1000.000,963.379,-1000.000
1742211020.566,970.703,-1000.000,973.145,-296.875
1742211020.570,970.703,-963.379,971.191,973.145
1742211020.574,980.957,-1000.000,971.191,-900.879
1742211020.578,929.688,-1000.000,971.191,154.785
1742211020.581,986.328,-1000.000,971.191,-1000.000
1742211020.585,-993.164,-991.699,971.191,-1000.000
1742211020.589,-530.762,-1000.000,971.191,57.617
1742211020.593,-351.562,-908.691,971.191,983.887
1742211020.597,-896.973,-875.000,971.191,-534.180
1742211020.554,970.215,-889.648,985.352,-895.508
1742211020.558,970.215,310.059,970.215,257.812
1742211020.562,970.703,-1000.000,963.379,-1000.000
1742211020.566,970.703,-1000.000,973.145,-296.875
1742211020.570,970.703,-963.379,971.191,973.145
1742211020.574,980.957,-1000.000,971.191,-900.879
1742211020.578,929.688,-1000.000,971.191,154.785
1742211020.581,986.328,-1000.000,971.191,-1000.000
1742211020.585,-993.164,-991.699,971.191,-1000.000
1742211020.589,-530.762,-1000.000,971.191,57.617
1742211020.593,-351.562,-908.691,971.191,983.887
1742211020.597,-896.973,-875.000,971.191,-534.180
1742211020.599,889.648,-1000.000,971.191,-1000.000
1742211020.603,-922.852,-1000.000,971.680,-933.105
1742211020.607,218.262,-949.219,971.680,-1000.000
1742211020.611,-1000.000,-1000.000,971.680,-1000.000
1742211020.615,-197.266,-876.953,971.680,-1000.000
1742211020.619,-933.594,483.887,971.191,-1000.000
1742211020.623,948.730,-921.875,971.191,-1000.000
1742211020.626,943.359,908.203,971.191,-1000.000
1742211020.630,977.539,979.980,971.680,-1000.000
1742211020.634,970.703,971.191,971.680,-1000.000
1742211020.638,970.703,971.191,971.680,-1000.000
1742211020.642,970.703,971.191,971.680,-1000.000
1742211020.599,889.648,-1000.000,971.191,-1000.000
1742211020.603,-922.852,-1000.000,971.680,-933.105
1742211020.607,218.262,-949.219,971.680,-1000.000
1742211020.611,-1000.000,-1000.000,971.680,-1000.000
1742211020.615,-197.266,-876.953,971.680,-1000.000
1742211020.619,-933.594,483.887,971.191,-1000.000
1742211020.623,948.730,-921.875,971.191,-1000.000
1742211020.626,943.359,908.203,971.191,-1000.000
1742211020.630,977.539,979.980,971.680,-1000.000
1742211020.634,970.703,971.191,971.680,-1000.000
1742211020.638,970.703,971.191,971.680,-1000.000
1742211020.642,970.703,971.191,971.680,-1000.000
1742211020.659,970.703,971.680,971.191,-1000.000
1742211020.663,970.703,971.191,971.191,-1000.000
1742211020.667,970.703,971.191,971.191,-1000.000
1742211020.671,970.703,971.191,971.680,-937.500
1742211020.675,970.703,971.191,971.191,-1000.000
1742211020.679,970.703,971.680,971.191,-820.312
1742211020.683,970.215,971.191,972.656,738.281
1742211020.686,970.703,971.191,960.449,39.062
1742211020.690,970.703,971.191,972.656,-1000.000
1742211020.694,970.703,971.191,907.715,-1000.000
1742211020.698,970.703,971.191,389.160,-281.250
1742211020.702,970.703,971.191,63.477,990.234
1742211020.659,970.703,971.680,971.191,-1000.000
1742211020.663,970.703,971.191,971.191,-1000.000
1742211020.667,970.703,971.191,971.191,-1000.000
1742211020.671,970.703,971.191,971.680,-937.500
1742211020.675,970.703,971.191,971.191,-1000.000
1742211020.679,970.703,971.680,971.191,-820.312
1742211020.683,970.215,971.191,972.656,738.281
1742211020.686,970.703,971.191,960.449,39.062
1742211020.690,970.703,971.191,972.656,-1000.000
1742211020.694,970.703,971.191,907.715,-1000.000
1742211020.698,970.703,971.191,389.160,-281.250
1742211020.702,970.703,971.191,63.477,990.234
1742211020.659,970.703,971.680,971.191,-1000.000
1742211020.663,970.703,971.191,971.191,-1000.000
1742211020.667,970.703,971.191,971.191,-1000.000
1742211020.671,970.703,971.191,971.680,-937.500
1742211020.675,970.703,971.191,971.191,-1000.000
1742211020.679,970.703,971.680,971.191,-820.312
1742211020.683,970.215,971.191,972.656,738.281
1742211020.686,970.703,971.191,960.449,39.062
1742211020.690,970.703,971.191,972.656,-1000.000
1742211020.694,970.703,971.191,907.715,-1000.000
1742211020.698,970.703,971.191,389.160,-281.250
1742211020.702,970.703,971.191,63.477,990.234
1742211020.703,970.215,971.191,581.543,-933.594
1742211020.707,970.703,971.191,998.047,-100.586
1742211020.711,970.703,971.680,745.117,-1000.000
1742211020.715,970.703,971.680,-143.066,-18.066
1742211020.719,970.703,971.191,-612.793,-919.434
1742211020.723,970.215,971.191,-153.320,934.082
1742211020.727,970.215,971.191,285.645,954.590
1742211020.730,970.703,971.191,34.668,974.609
1742211020.734,970.215,971.191,-657.715,971.191
1742211020.738,970.703,979.492,-1000.000,971.680
1742211020.742,970.703,937.988,-744.629,971.191
1742211020.746,970.703,972.168,-355.469,971.191
1742211020.703,970.215,971.191,581.543,-933.594
1742211020.707,970.703,971.191,998.047,-100.586
1742211020.711,970.703,971.680,745.117,-1000.000
1742211020.715,970.703,971.680,-143.066,-18.066
1742211020.719,970.703,971.191,-612.793,-919.434
1742211020.723,970.215,971.191,-153.320,934.082
1742211020.727,970.215,971.191,285.645,954.590
1742211020.730,970.703,971.191,34.668,974.609
1742211020.734,970.215,971.191,-657.715,971.191
1742211020.738,970.703,979.492,-1000.000,971.680
1742211020.742,970.703,937.988,-744.629,971.191
1742211020.746,970.703,972.168,-355.469,971.191
1742211020.749,970.215,982.422,-614.746,971.191
1742211020.753,970.703,-297.852,-1000.000,971.191
1742211020.757,970.703,-1000.000,-1000.000,971.191
1742211020.761,970.703,-939.453,-867.188,971.191
1742211020.765,970.703,-1000.000,-599.121,971.191
1742211020.769,970.703,-1000.000,-813.965,971.191
1742211020.773,970.703,-1000.000,-1000.000,971.191
1742211020.776,970.703,-1000.000,-1000.000,971.191
1742211020.780,970.703,-1000.000,-950.195,971.191
1742211020.784,970.703,-1000.000,-523.926,971.191
1742211020.788,970.703,-1000.000,-545.410,971.191
1742211020.792,970.703,-1000.000,-979.492,971.191
1742211020.749,970.215,982.422,-614.746,971.191
1742211020.753,970.703,-297.852,-1000.000,971.191
1742211020.757,970.703,-1000.000,-1000.000,971.191
1742211020.761,970.703,-939.453,-867.188,971.191
1742211020.765,970.703,-1000.000,-599.121,971.191
1742211020.769,970.703,-1000.000,-813.965,971.191
1742211020.773,970.703,-1000.000,-1000.000,971.191
1742211020.776,970.703,-1000.000,-1000.000,971.191
1742211020.780,970.703,-1000.000,-950.195,971.191
1742211020.784,970.703,-1000.000,-523.926,971.191
1742211020.788,970.703,-1000.000,-545.410,971.191
1742211020.792,970.703,-1000.000,-979.492,971.191
1742211020.749,970.215,982.422,-614.746,971.191
1742211020.753,970.703,-297.852,-1000.000,971.191
1742211020.757,970.703,-1000.000,-1000.000,971.191
1742211020.761,970.703,-939.453,-867.188,971.191
1742211020.765,970.703,-1000.000,-599.121,971.191
1742211020.769,970.703,-1000.000,-813.965,971.191
1742211020.773,970.703,-1000.000,-1000.000,971.191
1742211020.776,970.703,-1000.000,-1000.000,971.191
1742211020.780,970.703,-1000.000,-950.195,971.191
1742211020.784,970.703,-1000.000,-523.926,971.191
1742211020.788,970.703,-1000.000,-545.410,971.191
1742211020.792,970.703,-1000.000,-979.492,971.191
1742211020.794,970.703,-1000.000,-1000.000,971.191
1742211020.798,970.703,-1000.000,-888.184,971.191
1742211020.802,970.703,-1000.000,-469.238,971.191
1742211020.806,970.215,-1000.000,-395.020,971.191
1742211020.810,970.703,-1000.000,-826.172,971.191
1742211020.814,971.191,-952.637,-1000.000,971.191
1742211020.818,970.703,-1000.000,-757.812,971.191
1742211020.821,984.375,-910.156,-116.211,971.191
1742211020.825,893.066,427.246,-148.438,971.191
1742211020.829,-888.184,-806.152,-781.738,971.191
1742211020.833,556.152,-82.520,-1000.000,971.191
1742211020.837,-984.863,-1000.000,-704.102,971.191
1742211020.794,970.703,-1000.000,-1000.000,971.191
1742211020.798,970.703,-1000.000,-888.184,971.191
1742211020.802,970.703,-1000.000,-469.238,971.191
1742211020.806,970.215,-1000.000,-395.020,971.191
1742211020.810,970.703,-1000.000,-826.172,971.191
1742211020.814,971.191,-952.637,-1000.000,971.191
1742211020.818,970.703,-1000.000,-757.812,971.191
1742211020.821,984.375,-910.156,-116.211,971.191
1742211020.825,893.066,427.246,-148.438,971.191
1742211020.829,-888.184,-806.152,-781.738,971.191
1742211020.833,556.152,-82.520,-1000.000,971.191
1742211020.837,-984.863,-1000.000,-704.102,971.191
1742211020.839,74.707,-958.496,-177.246,971.191
1742211020.843,-920.898,-987.793,-2.441,971.191
1742211020.847,-966.309,-1000.000,-251.953,971.191
1742211020.851,473.145,-1000.000,-635.254,971.191
1742211020.855,-1000.000,-934.082,-291.504,971.191
1742211020.859,-266.113,-1000.000,375.000,971.191
1742211020.863,-991.699,-595.703,700.684,971.191
1742211020.866,-916.504,989.258,386.719,971.191
1742211020.870,265.137,295.898,-116.211,971.191
1742211020.874,-981.934,-1000.000,452.148,971.191
1742211020.878,-1000.000,-982.910,-987.793,971.191
1742211020.882,-81.055,-968.262,955.566,971.191
1742211020.884,-791.504,-1000.000,961.914,971.191
1742211020.888,138.672,-1000.000,974.121,971.191
1742211020.892,-1000.000,-1000.000,971.191,971.191
1742211020.896,-979.492,-1000.000,971.191,971.191
1742211020.900,-974.121,-1000.000,971.191,971.191
1742211020.904,-1000.000,-1000.000,971.191,971.191
1742211020.908,-1000.000,-1000.000,971.191,971.680
1742211020.911,-1000.000,-1000.000,971.191,971.191
1742211020.915,-1000.000,-1000.000,971.191,971.191
1742211020.919,-1000.000,-1000.000,971.191,971.191
1742211020.923,-1000.000,-1000.000,971.191,971.191
1742211020.927,-1000.000,-1000.000,971.191,971.191
1742211020.884,-791.504,-1000.000,961.914,971.191
1742211020.888,138.672,-1000.000,974.121,971.191
1742211020.892,-1000.000,-1000.000,971.191,971.191
1742211020.896,-979.492,-1000.000,971.191,971.191
1742211020.900,-974.121,-1000.000,971.191,971.191
1742211020.904,-1000.000,-1000.000,971.191,971.191
1742211020.908,-1000.000,-1000.000,971.191,971.680
1742211020.911,-1000.000,-1000.000,971.191,971.191
1742211020.915,-1000.000,-1000.000,971.191,971.191
1742211020.919,-1000.000,-1000.000,971.191,971.191
1742211020.923,-1000.000,-1000.000,971.191,971.191
1742211020.927,-1000.000,-1000.000,971.191,971.191
1742211020.884,-791.504,-1000.000,961.914,971.191
1742211020.888,138.672,-1000.000,974.121,971.191
1742211020.892,-1000.000,-1000.000,971.191,971.191
1742211020.896,-979.492,-1000.000,971.191,971.191
1742211020.900,-974.121,-1000.000,971.191,971.191
1742211020.904,-1000.000,-1000.000,971.191,971.191
1742211020.908,-1000.000,-1000.000,971.191,971.680
1742211020.911,-1000.000,-1000.000,971.191,971.191
1742211020.915,-1000.000,-1000.000,971.191,971.191
1742211020.919,-1000.000,-1000.000,971.191,971.191
1742211020.923,-1000.000,-1000.000,971.191,971.191
1742211020.927,-1000.000,-1000.000,971.191,971.191
1742211020.930,-1000.000,-1000.000,971.191,971.191
1742211020.934,-1000.000,-1000.000,971.191,971.191
1742211020.938,-1000.000,-1000.000,971.191,971.191
1742211020.942,-1000.000,-1000.000,971.191,971.191
1742211020.946,-1000.000,-1000.000,971.191,970.703
1742211020.950,-1000.000,-1000.000,971.191,971.191
1742211020.954,-1000.000,-1000.000,971.191,971.191
1742211020.957,-1000.000,-1000.000,971.191,971.191
1742211020.961,-1000.000,-1000.000,971.191,971.191
1742211020.965,-1000.000,-1000.000,971.680,971.191
1742211020.969,-1000.000,-1000.000,971.191,971.191
1742211020.973,-1000.000,-1000.000,971.191,971.191
1742211020.930,-1000.000,-1000.000,971.191,971.191
1742211020.934,-1000.000,-1000.000,971.191,971.191
1742211020.938,-1000.000,-1000.000,971.191,971.191
1742211020.942,-1000.000,-1000.000,971.191,971.191
1742211020.946,-1000.000,-1000.000,971.191,970.703
1742211020.950,-1000.000,-1000.000,971.191,971.191
1742211020.954,-1000.000,-1000.000,971.191,971.191
1742211020.957,-1000.000,-1000.000,971.191,971.191
1742211020.961,-1000.000,-1000.000,971.191,971.191
1742211020.965,-1000.000,-1000.000,971.680,971.191
1742211020.969,-1000.000,-1000.000,971.191,971.191
1742211020.973,-1000.000,-1000.000,971.191,971.191
1742211021.455,970.703,-1000.000,-1000.000,-808.105
1742211021.459,970.703,1.953,-999.023,687.500
1742211021.463,970.703,-913.086,-1000.000,916.016
1742211021.467,970.703,927.734,-968.750,-553.711
1742211021.471,970.703,959.961,-969.727,-1000.000
1742211021.475,970.703,974.609,-1000.000,-685.547
1742211021.479,970.703,908.203,-980.957,653.809
1742211021.482,974.121,-889.648,-1000.000,-845.703
1742211021.486,958.496,189.941,-768.066,-87.891
1742211021.490,998.535,-1000.000,-669.434,-1000.000
1742211021.494,896.973,-941.406,-1000.000,-1000.000
1742211021.498,808.594,-1000.000,-980.469,212.891
1742211020.930,-1000.000,-1000.000,971.191,971.191
1742211020.934,-1000.000,-1000.000,971.191,971.191
1742211020.938,-1000.000,-1000.000,971.191,971.191
1742211020.942,-1000.000,-1000.000,971.191,971.191
1742211020.946,-1000.000,-1000.000,971.191,970.703
1742211020.950,-1000.000,-1000.000,971.191,971.191
1742211020.954,-1000.000,-1000.000,971.191,971.191
1742211020.957,-1000.000,-1000.000,971.191,971.191
1742211020.961,-1000.000,-1000.000,971.191,971.191
1742211020.965,-1000.000,-1000.000,971.680,971.191
1742211020.969,-1000.000,-1000.000,971.191,971.191
1742211020.973,-1000.000,-1000.000,971.191,971.191
1742211020.974,-1000.000,-1000.000,971.191,971.191
1742211020.978,-1000.000,-1000.000,971.191,971.191
1742211020.982,-1000.000,-1000.000,971.191,985.352
1742211020.986,-1000.000,-1000.000,971.191,912.598
1742211020.990,-1000.000,-1000.000,971.191,-971.191
1742211020.994,-1000.000,-1000.000,971.191,813.477
1742211020.998,-1000.000,-1000.000,971.680,-637.695
1742211021.001,-1000.000,-1000.000,971.680,-1000.000
1742211021.005,-1000.000,-1000.000,971.680,261.230
1742211021.009,-1000.000,-1000.000,971.680,-787.598
1742211021.013,-1000.000,-1000.000,972.656,450.684
1742211021.017,-1000.000,-1000.000,945.312,-858.398
1742211020.974,-1000.000,-1000.000,971.191,971.191
1742211020.978,-1000.000,-1000.000,971.191,971.191
1742211020.982,-1000.000,-1000.000,971.191,985.352
1742211020.986,-1000.000,-1000.000,971.191,912.598
1742211020.990,-1000.000,-1000.000,971.191,-971.191
1742211020.994,-1000.000,-1000.000,971.191,813.477
1742211020.998,-1000.000,-1000.000,971.680,-637.695
1742211021.001,-1000.000,-1000.000,971.680,-1000.000
1742211021.005,-1000.000,-1000.000,971.680,261.230
1742211021.009,-1000.000,-1000.000,971.680,-787.598
1742211021.013,-1000.000,-1000.000,972.656,450.684
1742211021.017,-1000.000,-1000.000,945.312,-858.398
1742211021.034,-1000.000,-1000.000,-955.078,-1000.000
1742211021.038,-1000.000,-1000.000,672.852,-239.258
1742211021.042,-1000.000,-1000.000,475.586,-840.332
1742211021.046,-1000.000,-1000.000,969.238,406.738
1742211021.050,-1000.000,-1000.000,967.285,-922.363
1742211021.054,-1000.000,-1000.000,-996.582,-1000.000
1742211021.058,-1000.000,-1000.000,807.617,-455.566
1742211021.061,-1000.000,-1000.000,625.977,-924.805
1742211021.065,-1000.000,-1000.000,953.613,187.012
1742211021.069,-1000.000,-1000.000,979.980,-1000.000
1742211021.073,-1000.000,-1000.000,976.562,-960.449
1742211021.077,-1000.000,-1000.000,810.547,-1000.000
1742211021.034,-1000.000,-1000.000,-955.078,-1000.000
1742211021.038,-1000.000,-1000.000,672.852,-239.258
1742211021.042,-1000.000,-1000.000,475.586,-840.332
1742211021.046,-1000.000,-1000.000,969.238,406.738
1742211021.050,-1000.000,-1000.000,967.285,-922.363
1742211021.054,-1000.000,-1000.000,-996.582,-1000.000
1742211021.058,-1000.000,-1000.000,807.617,-455.566
1742211021.061,-1000.000,-1000.000,625.977,-924.805
1742211021.065,-1000.000,-1000.000,953.613,187.012
1742211021.069,-1000.000,-1000.000,979.980,-1000.000
1742211021.073,-1000.000,-1000.000,976.562,-960.449
1742211021.077,-1000.000,-1000.000,810.547,-1000.000
1742211021.034,-1000.000,-1000.000,-955.078,-1000.000
1742211021.038,-1000.000,-1000.000,672.852,-239.258
1742211021.042,-1000.000,-1000.000,475.586,-840.332
1742211021.046,-1000.000,-1000.000,969.238,406.738
1742211021.050,-1000.000,-1000.000,967.285,-922.363
1742211021.054,-1000.000,-1000.000,-996.582,-1000.000
1742211021.058,-1000.000,-1000.000,807.617,-455.566
1742211021.061,-1000.000,-1000.000,625.977,-924.805
1742211021.065,-1000.000,-1000.000,953.613,187.012
1742211021.069,-1000.000,-1000.000,979.980,-1000.000
1742211021.073,-1000.000,-1000.000,976.562,-960.449
1742211021.077,-1000.000,-1000.000,810.547,-1000.000
1742211021.079,-1000.000,-1000.000,534.668,204.590
1742211021.083,-1000.000,-1000.000,802.246,46.875
1742211021.087,-1000.000,-1000.000,987.305,-1000.000
1742211021.091,-1000.000,-1000.000,-990.723,-956.543
1742211021.095,-1000.000,-1000.000,731.934,-990.723
1742211021.099,-1000.000,-1000.000,526.367,-1000.000
1742211021.103,-1000.000,-1000.000,920.898,-1000.000
1742211021.106,-1000.000,-1000.000,995.117,-994.141
1742211021.110,-1000.000,-1000.000,921.875,-940.918
1742211021.114,-1000.000,-1000.000,649.414,-1000.000
1742211021.118,-1000.000,-1000.000,125.977,31.250
1742211021.122,-1000.000,-1000.000,348.633,420.898
1742211021.079,-1000.000,-1000.000,534.668,204.590
1742211021.083,-1000.000,-1000.000,802.246,46.875
1742211021.087,-1000.000,-1000.000,987.305,-1000.000
1742211021.091,-1000.000,-1000.000,-990.723,-956.543
1742211021.095,-1000.000,-1000.000,731.934,-990.723
1742211021.099,-1000.000,-1000.000,526.367,-1000.000
1742211021.103,-1000.000,-1000.000,920.898,-1000.000
1742211021.106,-1000.000,-1000.000,995.117,-994.141
1742211021.110,-1000.000,-1000.000,921.875,-940.918
1742211021.114,-1000.000,-1000.000,649.414,-1000.000
1742211021.118,-1000.000,-1000.000,125.977,31.250
1742211021.122,-1000.000,-1000.000,348.633,420.898
1742211021.124,-1000.000,-1000.000,996.094,-1000.000
1742211021.128,-1000.000,-937.988,835.938,-998.047
1742211021.132,-1000.000,-1000.000,317.871,-1000.000
1742211021.136,-1000.000,-213.379,-281.738,25.879
1742211021.140,-1000.000,-945.801,-214.355,-765.625
1742211021.144,-1000.000,882.324,630.859,153.320
1742211021.148,-1000.000,-921.387,-991.699,-1000.000
1742211021.151,-1000.000,402.832,865.234,-1000.000
1742211021.155,-1000.000,-985.352,536.133,85.449
1742211021.159,-1000.000,-1000.000,678.223,-765.625
1742211021.163,-1000.000,-956.543,-989.258,137.695
1742211021.167,-1000.000,-1000.000,961.914,-1000.000
1742211021.124,-1000.000,-1000.000,996.094,-1000.000
1742211021.128,-1000.000,-937.988,835.938,-998.047
1742211021.132,-1000.000,-1000.000,317.871,-1000.000
1742211021.136,-1000.000,-213.379,-281.738,25.879
1742211021.140,-1000.000,-945.801,-214.355,-765.625
1742211021.144,-1000.000,882.324,630.859,153.320
1742211021.148,-1000.000,-921.387,-991.699,-1000.000
1742211021.151,-1000.000,402.832,865.234,-1000.000
1742211021.155,-1000.000,-985.352,536.133,85.449
1742211021.159,-1000.000,-1000.000,678.223,-765.625
1742211021.163,-1000.000,-956.543,-989.258,137.695
1742211021.167,-1000.000,-1000.000,961.914,-1000.000
1742211021.124,-1000.000,-1000.000,996.094,-1000.000
1742211021.128,-1000.000,-937.988,835.938,-998.047
1742211021.132,-1000.000,-1000.000,317.871,-1000.000
1742211021.136,-1000.000,-213.379,-281.738,25.879
1742211021.140,-1000.000,-945.801,-214.355,-765.625
1742211021.144,-1000.000,882.324,630.859,153.320
1742211021.148,-1000.000,-921.387,-991.699,-1000.000
1742211021.151,-1000.000,402.832,865.234,-1000.000
1742211021.155,-1000.000,-985.352,536.133,85.449
1742211021.159,-1000.000,-1000.000,678.223,-765.625
1742211021.163,-1000.000,-956.543,-989.258,137.695
1742211021.167,-1000.000,-1000.000,961.914,-1000.000
1742211021.170,-1000.000,-1000.000,967.285,-1000.000
1742211021.174,-1000.000,-1000.000,972.168,-173.340
1742211021.178,-1000.000,-1000.000,971.191,-805.664
1742211021.182,-1000.000,-1000.000,971.191,161.621
1742211021.186,-1000.000,-935.547,971.680,-1000.000
1742211021.190,-1000.000,-1000.000,971.680,-1000.000
1742211021.194,-1000.000,-776.855,971.191,-257.324
1742211021.197,-1000.000,804.688,971.191,-828.613
1742211021.201,-1000.000,772.949,971.191,410.645
1742211021.205,-1000.000,-803.711,971.680,-937.500
1742211021.209,-1000.000,-1000.000,971.191,-1000.000
1742211021.213,-1000.000,-937.500,971.191,-220.215
1742211021.679,982.910,981.445,-1000.000,-947.754
1742211021.683,902.832,930.176,-1000.000,-1000.000
1742211021.687,-891.113,989.746,-1000.000,-87.402
1742211021.691,629.883,937.988,-1000.000,289.551
1742211021.695,-112.305,-399.414,-1000.000,-1000.000
1742211021.699,772.949,-1000.000,-1000.000,-1000.000
1742211021.703,-808.105,-935.059,-1000.000,-964.355
1742211021.706,196.289,-1000.000,-1000.000,-1000.000
1742211021.710,-1000.000,-1000.000,-1000.000,-1000.000
1742211021.714,-409.180,-1000.000,-1000.000,-1000.000
1742211021.718,920.898,-1000.000,-1000.000,-926.758
1742211021.722,-856.934,-928.223,-1000.000,-1000.000
1742211021.214,-1000.000,-1000.000,971.191,-912.109
1742211021.218,-1000.000,-1000.000,971.191,795.410
1742211021.222,-1000.000,-1000.000,971.191,-559.570
1742211021.226,-1000.000,-927.734,971.680,-1000.000
1742211021.230,-1000.000,-1000.000,971.680,-158.203
1742211021.234,-1000.000,-512.207,971.191,999.512
1742211021.238,-1000.000,-918.457,971.191,-945.312
1742211021.241,-1000.000,211.426,971.191,-52.734
1742211021.245,-1000.000,-1000.000,971.191,-1000.000
1742211021.249,-1000.000,-970.703,971.191,-184.082
1742211021.253,-1000.000,-973.633,971.191,-987.305
1742211021.257,-1000.000,-1000.000,971.191,-945.801
1742211021.724,138.184,-1000.000,-1000.000,-632.812
1742211021.728,-890.625,-455.078,-1000.000,172.363
1742211021.732,161.133,938.965,-1000.000,-854.492
1742211021.736,-985.840,997.559,-1000.000,-1000.000
1742211021.740,942.871,924.805,-1000.000,-1000.000
1742211021.744,932.129,984.375,-999.023,-439.453
1742211021.748,-906.250,971.191,-1000.000,-975.098
1742211021.751,169.922,986.328,-998.047,-197.266
1742211021.755,212.891,903.809,-973.633,-1000.000
1742211021.759,-742.676,-930.664,-993.652,-929.199
1742211021.763,271.973,649.902,-1000.000,-999.512
1742211021.767,-973.633,-792.969,-1000.000,-1000.000
1742211021.259,-1000.000,-1000.000,971.191,-26.855
1742211021.263,-1000.000,-1000.000,971.191,-1000.000
1742211021.267,-1000.000,-931.641,971.191,-280.762
1742211021.271,-1000.000,-1000.000,971.191,955.566
1742211021.275,-1000.000,-327.148,971.680,-907.715
1742211021.279,-1000.000,-998.535,967.285,152.832
1742211021.283,-1000.000,973.633,975.586,-1000.000
1742211021.286,-1000.000,937.012,970.215,-416.992
1742211021.290,-1000.000,917.480,886.230,909.180
1742211021.294,-1000.000,-889.648,929.199,-887.207
1742211021.298,-1000.000,203.125,959.473,208.496
1742211021.302,-1000.000,-1000.000,991.699,-1000.000
1742211021.259,-1000.000,-1000.000,971.191,-26.855
1742211021.263,-1000.000,-1000.000,971.191,-1000.000
1742211021.267,-1000.000,-931.641,971.191,-280.762
1742211021.271,-1000.000,-1000.000,971.191,955.566
1742211021.275,-1000.000,-327.148,971.680,-907.715
1742211021.279,-1000.000,-998.535,967.285,152.832
1742211021.283,-1000.000,973.633,975.586,-1000.000
1742211021.286,-1000.000,937.012,970.215,-416.992
1742211021.290,-1000.000,917.480,886.230,909.180
1742211021.294,-1000.000,-889.648,929.199,-887.207
1742211021.298,-1000.000,203.125,959.473,208.496
1742211021.302,-1000.000,-1000.000,991.699,-1000.000
1742211021.304,-1000.000,-986.328,662.109,-724.609
1742211021.308,-1000.000,-972.168,-274.414,660.645
1742211021.312,-1000.000,-1000.000,-335.449,-825.684
1742211021.316,-1000.000,-973.633,497.559,175.293
1742211021.320,-1000.000,-984.863,582.031,-1000.000
1742211021.324,-1000.000,-1000.000,-365.723,-885.254
1742211021.328,-994.629,184.082,-923.828,441.895
1742211021.331,-941.406,-879.395,-1000.000,-783.691
1742211021.335,-1000.000,839.844,-645.996,151.855
1742211021.339,19.043,-919.434,-347.656,-1000.000
1742211021.343,375.488,598.145,-953.125,-1000.000
1742211021.347,-1000.000,-845.703,-1000.000,-102.051
1742211021.304,-1000.000,-986.328,662.109,-724.609
1742211021.308,-1000.000,-972.168,-274.414,660.645
1742211021.312,-1000.000,-1000.000,-335.449,-825.684
1742211021.316,-1000.000,-973.633,497.559,175.293
1742211021.320,-1000.000,-984.863,582.031,-1000.000
1742211021.324,-1000.000,-1000.000,-365.723,-885.254
1742211021.328,-994.629,184.082,-923.828,441.895
1742211021.331,-941.406,-879.395,-1000.000,-783.691
1742211021.335,-1000.000,839.844,-645.996,151.855
1742211021.339,19.043,-919.434,-347.656,-1000.000
1742211021.343,375.488,598.145,-953.125,-1000.000
1742211021.347,-1000.000,-845.703,-1000.000,-102.051
1742211021.349,-1000.000,-1000.000,-994.141,-790.527
1742211021.353,-1000.000,-942.871,-945.801,154.297
1742211021.357,163.574,-952.637,-877.441,-1000.000
1742211021.361,-895.996,-1000.000,-1000.000,-1000.000
1742211021.365,911.133,-218.750,-1000.000,-230.469
1742211021.369,969.727,-957.031,-995.117,-820.312
1742211021.373,971.191,955.078,-1000.000,385.742
1742211021.376,970.703,944.336,-1000.000,-945.312
1742211021.380,970.703,978.027,-1000.000,-1000.000
1742211021.384,970.703,974.609,-1000.000,-246.582
1742211021.388,970.703,956.543,-1000.000,-834.961
1742211021.392,970.703,935.059,-1000.000,368.164
1742211021.349,-1000.000,-1000.000,-994.141,-790.527
1742211021.353,-1000.000,-942.871,-945.801,154.297
1742211021.357,163.574,-952.637,-877.441,-1000.000
1742211021.361,-895.996,-1000.000,-1000.000,-1000.000
1742211021.365,911.133,-218.750,-1000.000,-230.469
1742211021.369,969.727,-957.031,-995.117,-820.312
1742211021.373,971.191,955.078,-1000.000,385.742
1742211021.376,970.703,944.336,-1000.000,-945.312
1742211021.380,970.703,978.027,-1000.000,-1000.000
1742211021.384,970.703,974.609,-1000.000,-246.582
1742211021.388,970.703,956.543,-1000.000,-834.961
1742211021.392,970.703,935.059,-1000.000,368.164
1742211021.409,970.703,-937.012,-1000.000,-945.312
1742211021.413,970.703,22.949,-1000.000,-1000.000
1742211021.417,970.703,-1000.000,-1000.000,-390.137
1742211021.421,970.703,-177.734,-1000.000,-886.230
1742211021.425,970.703,-942.383,-1000.000,246.094
1742211021.429,970.703,887.207,-1000.000,-1000.000
1742211021.433,970.703,-916.504,-1000.000,-1000.000
1742211021.436,970.703,228.027,-1000.000,-724.609
1742211021.440,970.703,-1000.000,-1000.000,879.395
1742211021.444,970.703,-992.188,-1000.000,249.023
1742211021.448,970.703,-957.031,-1000.000,-1000.000
1742211021.452,970.703,-967.773,-1000.000,-1000.000
1742211021.409,970.703,-937.012,-1000.000,-945.312
1742211021.413,970.703,22.949,-1000.000,-1000.000
1742211021.417,970.703,-1000.000,-1000.000,-390.137
1742211021.421,970.703,-177.734,-1000.000,-886.230
1742211021.425,970.703,-942.383,-1000.000,246.094
1742211021.429,970.703,887.207,-1000.000,-1000.000
1742211021.433,970.703,-916.504,-1000.000,-1000.000
1742211021.436,970.703,228.027,-1000.000,-724.609
1742211021.440,970.703,-1000.000,-1000.000,879.395
1742211021.444,970.703,-992.188,-1000.000,249.023
1742211021.448,970.703,-957.031,-1000.000,-1000.000
1742211021.452,970.703,-967.773,-1000.000,-1000.000
1742211021.499,974.121,-902.344,-1000.000,-786.133
1742211021.503,977.539,420.410,-797.363,-58.594
1742211021.507,963.867,-922.363,-587.891,-1000.000
1742211021.511,971.191,912.109,-972.168,-1000.000
1742211021.515,970.703,986.816,-986.328,13.672
1742211021.519,985.840,929.199,-1000.000,-797.852
1742211021.523,902.832,994.141,-472.656,-96.680
1742211021.526,-933.105,920.898,275.879,-1000.000
1742211021.530,645.996,-418.945,-433.105,-1000.000
1742211021.534,-725.098,-1000.000,-1000.000,-92.773
1742211021.538,-1000.000,-935.547,-1000.000,617.676
1742211021.542,-814.453,-1000.000,-440.430,-909.668
1742211021.499,974.121,-902.344,-1000.000,-786.133
1742211021.503,977.539,420.410,-797.363,-58.594
1742211021.507,963.867,-922.363,-587.891,-1000.000
1742211021.511,971.191,912.109,-972.168,-1000.000
1742211021.515,970.703,986.816,-986.328,13.672
1742211021.519,985.840,929.199,-1000.000,-797.852
1742211021.523,902.832,994.141,-472.656,-96.680
1742211021.526,-933.105,920.898,275.879,-1000.000
1742211021.530,645.996,-418.945,-433.105,-1000.000
1742211021.534,-725.098,-1000.000,-1000.000,-92.773
1742211021.538,-1000.000,-935.547,-1000.000,617.676
1742211021.542,-814.453,-1000.000,-440.430,-909.668
1742211021.499,974.121,-902.344,-1000.000,-786.133
1742211021.503,977.539,420.410,-797.363,-58.594
1742211021.507,963.867,-922.363,-587.891,-1000.000
1742211021.511,971.191,912.109,-972.168,-1000.000
1742211021.515,970.703,986.816,-986.328,13.672
1742211021.519,985.840,929.199,-1000.000,-797.852
1742211021.523,902.832,994.141,-472.656,-96.680
1742211021.526,-933.105,920.898,275.879,-1000.000
1742211021.530,645.996,-418.945,-433.105,-1000.000
1742211021.534,-725.098,-1000.000,-1000.000,-92.773
1742211021.538,-1000.000,-935.547,-1000.000,617.676
1742211021.542,-814.453,-1000.000,-440.430,-909.668
1742211021.544,569.824,-1000.000,2.441,-1000.000
1742211021.548,-952.637,-922.852,-710.449,-1000.000
1742211021.552,-399.902,-1000.000,-1000.000,-345.703
1742211021.556,-1000.000,-456.543,-1000.000,-943.848
1742211021.560,-943.359,685.547,-884.277,-237.793
1742211021.564,230.469,645.508,-689.453,-1000.000
1742211021.568,-762.207,940.430,-936.035,-1000.000
1742211021.571,130.371,932.617,-1000.000,-352.539
1742211021.575,-1000.000,-904.297,-1000.000,-882.812
1742211021.579,-1000.000,174.316,-930.664,-61.523
1742211021.583,-157.227,-1000.000,-836.426,-1000.000
1742211021.587,-781.738,-939.453,-990.234,-1000.000
1742211021.544,569.824,-1000.000,2.441,-1000.000
1742211021.548,-952.637,-922.852,-710.449,-1000.000
1742211021.552,-399.902,-1000.000,-1000.000,-345.703
1742211021.556,-1000.000,-456.543,-1000.000,-943.848
1742211021.560,-943.359,685.547,-884.277,-237.793
1742211021.564,230.469,645.508,-689.453,-1000.000
1742211021.568,-762.207,940.430,-936.035,-1000.000
1742211021.571,130.371,932.617,-1000.000,-352.539
1742211021.575,-1000.000,-904.297,-1000.000,-882.812
1742211021.579,-1000.000,174.316,-930.664,-61.523
1742211021.583,-157.227,-1000.000,-836.426,-1000.000
1742211021.587,-781.738,-939.453,-990.234,-1000.000
1742211021.589,189.941,-998.535,-1000.000,-696.777
1742211021.593,-1000.000,-944.824,-992.676,938.965
1742211021.597,108.887,394.531,-1000.000,234.863
1742211021.601,-872.070,-912.109,-1000.000,-1000.000
1742211021.605,910.156,908.203,-1000.000,-1000.000
1742211021.609,965.332,977.539,-1000.000,-715.820
1742211021.613,971.680,971.191,-1000.000,895.508
1742211021.616,970.703,971.191,-1000.000,238.281
1742211021.620,970.703,971.191,-1000.000,-1000.000
1742211021.624,970.703,970.215,-1000.000,-969.727
1742211021.628,970.703,971.191,-1000.000,-1000.000
1742211021.632,970.703,971.680,-1000.000,425.781
1742211021.589,189.941,-998.535,-1000.000,-696.777
1742211021.593,-1000.000,-944.824,-992.676,938.965
1742211021.597,108.887,394.531,-1000.000,234.863
1742211021.601,-872.070,-912.109,-1000.000,-1000.000
1742211021.605,910.156,908.203,-1000.000,-1000.000
1742211021.609,965.332,977.539,-1000.000,-715.820
1742211021.613,971.680,971.191,-1000.000,895.508
1742211021.616,970.703,971.191,-1000.000,238.281
1742211021.620,970.703,971.191,-1000.000,-1000.000
1742211021.624,970.703,970.215,-1000.000,-969.727
1742211021.628,970.703,971.191,-1000.000,-1000.000
1742211021.632,970.703,971.680,-1000.000,425.781
1742211021.635,970.703,971.191,-1000.000,314.941
1742211021.639,970.703,971.680,-1000.000,-1000.000
1742211021.643,970.703,971.191,-1000.000,-936.523
1742211021.647,970.703,971.191,-1000.000,-1000.000
1742211021.651,970.703,971.191,-1000.000,124.023
1742211021.655,970.703,971.191,-1000.000,305.664
1742211021.659,970.703,971.191,-1000.000,-1000.000
1742211021.662,970.703,971.191,-1000.000,-935.059
1742211021.666,970.703,971.680,-1000.000,-1000.000
1742211021.670,970.703,971.191,-1000.000,-39.551
1742211021.674,970.703,971.680,-1000.000,301.270
1742211021.678,970.703,971.680,-1000.000,-1000.000
1742211021.635,970.703,971.191,-1000.000,314.941
1742211021.639,970.703,971.680,-1000.000,-1000.000
1742211021.643,970.703,971.191,-1000.000,-936.523
1742211021.647,970.703,971.191,-1000.000,-1000.000
1742211021.651,970.703,971.191,-1000.000,124.023
1742211021.655,970.703,971.191,-1000.000,305.664
1742211021.659,970.703,971.191,-1000.000,-1000.000
1742211021.662,970.703,971.191,-1000.000,-935.059
1742211021.666,970.703,971.680,-1000.000,-1000.000
1742211021.670,970.703,971.191,-1000.000,-39.551
1742211021.674,970.703,971.680,-1000.000,301.270
1742211021.678,970.703,971.680,-1000.000,-1000.000
1742211021.635,970.703,971.191,-1000.000,314.941
1742211021.639,970.703,971.680,-1000.000,-1000.000
1742211021.643,970.703,971.191,-1000.000,-936.523
1742211021.647,970.703,971.191,-1000.000,-1000.000
1742211021.651,970.703,971.191,-1000.000,124.023
1742211021.655,970.703,971.191,-1000.000,305.664
1742211021.659,970.703,971.191,-1000.000,-1000.000
1742211021.662,970.703,971.191,-1000.000,-935.059
1742211021.666,970.703,971.680,-1000.000,-1000.000
1742211021.670,970.703,971.191,-1000.000,-39.551
1742211021.674,970.703,971.680,-1000.000,301.270
1742211021.678,970.703,971.680,-1000.000,-1000.000
1742211021.784,-1000.000,-1000.000,-1000.000,-1000.000
1742211021.788,-137.695,-901.367,-928.711,-970.215
1742211021.792,-845.703,-1000.000,-959.473,-1000.000
1742211021.796,656.738,-4.883,-1000.000,-1000.000
1742211021.800,-686.035,-921.387,-1000.000,277.344
1742211021.804,-1000.000,931.152,-978.027,37.598
1742211021.808,64.453,958.496,-621.094,-1000.000
1742211021.811,-850.098,986.816,-743.164,-970.703
1742211021.815,700.195,919.434,-1000.000,-1000.000
1742211021.819,-624.512,-979.004,-991.699,515.137
1742211021.823,-1000.000,828.613,-1000.000,329.102
1742211021.827,-214.355,-555.664,-645.020,-1000.000
1742211021.784,-1000.000,-1000.000,-1000.000,-1000.000
1742211021.788,-137.695,-901.367,-928.711,-970.215
1742211021.792,-845.703,-1000.000,-959.473,-1000.000
1742211021.796,656.738,-4.883,-1000.000,-1000.000
1742211021.800,-686.035,-921.387,-1000.000,277.344
1742211021.804,-1000.000,931.152,-978.027,37.598
1742211021.808,64.453,958.496,-621.094,-1000.000
1742211021.811,-850.098,986.816,-743.164,-970.703
1742211021.815,700.195,919.434,-1000.000,-1000.000
1742211021.819,-624.512,-979.004,-991.699,515.137
1742211021.823,-1000.000,828.613,-1000.000,329.102
1742211021.827,-214.355,-555.664,-645.020,-1000.000
1742211021.829,-862.793,-1000.000,-724.609,-985.840
1742211021.833,615.234,-875.488,-1000.000,-986.816
1742211021.837,-1000.000,-1000.000,-987.305,256.836
1742211021.841,-274.902,-194.336,-999.512,-794.434
1742211021.845,-904.297,-951.660,-994.141,-3.906
1742211021.849,940.430,951.660,-993.652,-1000.000
1742211021.853,942.871,946.289,-1000.000,-793.457
1742211021.856,978.027,977.539,-983.887,529.297
1742211021.860,970.703,971.680,-1000.000,-801.270
1742211021.864,976.562,971.680,-857.422,165.039
1742211021.868,942.871,971.680,-748.535,-1000.000
1742211021.872,968.750,971.191,-1000.000,-950.684
1742211021.829,-862.793,-1000.000,-724.609,-985.840
1742211021.833,615.234,-875.488,-1000.000,-986.816
1742211021.837,-1000.000,-1000.000,-987.305,256.836
1742211021.841,-274.902,-194.336,-999.512,-794.434
1742211021.845,-904.297,-951.660,-994.141,-3.906
1742211021.849,940.430,951.660,-993.652,-1000.000
1742211021.853,942.871,946.289,-1000.000,-793.457
1742211021.856,978.027,977.539,-983.887,529.297
1742211021.860,970.703,971.680,-1000.000,-801.270
1742211021.864,976.562,971.680,-857.422,165.039
1742211021.868,942.871,971.680,-748.535,-1000.000
1742211021.872,968.750,971.191,-1000.000,-950.684
1742211021.874,-950.195,971.191,-990.234,339.355
1742211021.878,-317.871,971.191,-1000.000,-778.320
1742211021.882,-146.484,971.191,-899.902,156.250
1742211021.886,-921.387,971.680,-736.328,-1000.000
1742211021.890,987.305,969.727,-988.281,-1000.000
1742211021.894,862.793,968.750,-995.605,139.160
1742211021.898,-688.477,979.004,-1000.000,-766.602
1742211021.901,-391.602,901.855,-917.969,337.891
1742211021.905,-787.598,-891.602,-535.156,-937.500
1742211021.909,585.938,326.660,-829.102,-1000.000
1742211021.913,-840.332,-1000.000,-1000.000,-143.066
1742211021.917,-1000.000,-1000.000,-1000.000,-814.453
1742211021.874,-950.195,971.191,-990.234,339.355
1742211021.878,-317.871,971.191,-1000.000,-778.320
1742211021.882,-146.484,971.191,-899.902,156.250
1742211021.886,-921.387,971.680,-736.328,-1000.000
1742211021.890,987.305,969.727,-988.281,-1000.000
1742211021.894,862.793,968.750,-995.605,139.160
1742211021.898,-688.477,979.004,-1000.000,-766.602
1742211021.901,-391.602,901.855,-917.969,337.891
1742211021.905,-787.598,-891.602,-535.156,-937.500
1742211021.909,585.938,326.660,-829.102,-1000.000
1742211021.913,-840.332,-1000.000,-1000.000,-143.066
1742211021.917,-1000.000,-1000.000,-1000.000,-814.453
1742211021.919,-1000.000,-961.914,-865.234,445.312
1742211021.923,30.762,-1000.000,-243.164,-903.320
1742211021.927,-784.668,-1000.000,-596.680,-1000.000
1742211021.931,61.523,-938.477,-1000.000,-222.656
1742211021.935,-1000.000,-1000.000,-986.816,-899.414
1742211021.939,-181.152,-208.008,-928.711,745.117
1742211021.943,-948.730,-954.590,-34.180,-627.441
1742211021.946,899.414,953.613,118.652,-1000.000
1742211021.950,-869.629,944.824,-776.367,-202.148
1742211021.954,-65.430,978.027,-1000.000,-933.594
1742211021.958,-312.988,971.191,-717.773,859.863
1742211021.962,-949.707,971.191,271.484,-458.984
1742211021.919,-1000.000,-961.914,-865.234,445.312
1742211021.923,30.762,-1000.000,-243.164,-903.320
1742211021.927,-784.668,-1000.000,-596.680,-1000.000
1742211021.931,61.523,-938.477,-1000.000,-222.656
1742211021.935,-1000.000,-1000.000,-986.816,-899.414
1742211021.939,-181.152,-208.008,-928.711,745.117
1742211021.943,-948.730,-954.590,-34.180,-627.441
1742211021.946,899.414,953.613,118.652,-1000.000
1742211021.950,-869.629,944.824,-776.367,-202.148
1742211021.954,-65.430,978.027,-1000.000,-933.594
1742211021.958,-312.988,971.191,-717.773,859.863
1742211021.962,-949.707,971.191,271.484,-458.984
1742211021.964,951.660,971.191,486.816,-1000.000
1742211021.968,-979.980,971.191,-562.988,-253.418
1742211021.972,-355.957,971.191,-1000.000,994.629
1742211021.976,-426.758,971.680,-527.832,-988.281
1742211021.980,-952.637,971.680,518.066,-192.871
1742211021.984,938.477,979.004,741.699,-1000.000
1742211021.988,-985.352,901.367,-173.828,-435.547
1742211021.991,-26.367,-892.578,-901.855,958.984
1742211021.995,-1000.000,336.914,-571.289,956.543
1742211021.999,-244.629,-1000.000,577.637,-370.117
1742211022.003,-818.359,-1000.000,791.992,-1000.000
1742211022.007,191.895,-961.426,-210.938,-723.145
1742211021.964,951.660,971.191,486.816,-1000.000
1742211021.968,-979.980,971.191,-562.988,-253.418
1742211021.972,-355.957,971.191,-1000.000,994.629
1742211021.976,-426.758,971.680,-527.832,-988.281
1742211021.980,-952.637,971.680,518.066,-192.871
1742211021.984,938.477,979.004,741.699,-1000.000
1742211021.988,-985.352,901.367,-173.828,-435.547
1742211021.991,-26.367,-892.578,-901.855,958.984
1742211021.995,-1000.000,336.914,-571.289,956.543
1742211021.999,-244.629,-1000.000,577.637,-370.117
1742211022.003,-818.359,-1000.000,791.992,-1000.000
1742211022.007,191.895,-961.426,-210.938,-723.145
1742211022.009,-1000.000,-1000.000,-943.359,581.543
1742211022.013,-1000.000,-1000.000,-868.652,-816.895
1742211022.017,-28.809,-1000.000,59.082,104.004
1742211022.021,-802.246,-932.617,316.406,-1000.000
1742211022.025,584.473,-1000.000,-674.805,-852.051
1742211022.029,-1000.000,-671.387,-1000.000,472.656
1742211022.033,-270.508,764.648,-1000.000,-799.316
1742211022.036,-901.367,-958.984,-626.953,180.664
1742211022.040,938.965,911.133,-117.188,-1000.000
1742211022.044,943.359,985.840,-803.711,-801.270
1742211022.048,977.539,971.680,-1000.000,550.781
1742211022.052,970.703,971.191,-1000.000,-807.617
1742211022.009,-1000.000,-1000.000,-943.359,581.543
1742211022.013,-1000.000,-1000.000,-868.652,-816.895
1742211022.017,-28.809,-1000.000,59.082,104.004
1742211022.021,-802.246,-932.617,316.406,-1000.000
1742211022.025,584.473,-1000.000,-674.805,-852.051
1742211022.029,-1000.000,-671.387,-1000.000,472.656
1742211022.033,-270.508,764.648,-1000.000,-799.316
1742211022.036,-901.367,-958.984,-626.953,180.664
1742211022.040,938.965,911.133,-117.188,-1000.000
1742211022.044,943.359,985.840,-803.711,-801.270
1742211022.048,977.539,971.680,-1000.000,550.781
1742211022.052,970.703,971.191,-1000.000,-807.617
1742211022.054,980.469,971.191,-615.234,272.949
1742211022.058,898.438,971.680,100.098,-1000.000
1742211022.062,-893.555,971.680,-560.547,-929.199
1742211022.066,446.777,971.680,-1000.000,373.047
1742211022.070,-1000.000,972.168,-931.152,-799.805
1742211022.074,-291.016,908.691,-390.625,494.141
1742211022.078,-779.785,-889.648,533.691,-858.398
1742211022.081,413.574,187.012,335.938,-1000.000
1742211022.085,-905.762,-1000.000,-630.371,35.156
1742211022.089,-1000.000,-983.887,-954.590,-845.703
1742211022.093,-518.555,-973.145,-287.109,705.566
1742211022.097,933.594,-1000.000,687.012,-636.230
1742211022.054,980.469,971.191,-615.234,272.949
1742211022.058,898.438,971.680,100.098,-1000.000
1742211022.062,-893.555,971.680,-560.547,-929.199
1742211022.066,446.777,971.680,-1000.000,373.047
1742211022.070,-1000.000,972.168,-931.152,-799.805
1742211022.074,-291.016,908.691,-390.625,494.141
1742211022.078,-779.785,-889.648,533.691,-858.398
1742211022.081,413.574,187.012,335.938,-1000.000
1742211022.085,-905.762,-1000.000,-630.371,35.156
1742211022.089,-1000.000,-983.887,-954.590,-845.703
1742211022.093,-518.555,-973.145,-287.109,705.566
1742211022.097,933.594,-1000.000,687.012,-636.230
1742211022.100,897.461,-1000.000,517.090,-1000.000
1742211022.104,-482.910,-960.449,-606.445,-79.590
1742211022.108,-1000.000,-1000.000,-969.238,-938.477
1742211022.112,-566.406,-965.820,-225.586,950.684
1742211022.116,726.074,359.375,631.348,-318.359
1742211022.120,-884.766,-907.715,528.320,-1000.000
1742211022.124,722.168,907.715,-468.750,-10.254
1742211022.127,-843.750,977.051,-739.258,-933.594
1742211022.131,-340.820,971.680,191.406,978.516
1742211022.135,-960.449,971.191,818.848,-202.148
1742211022.139,975.098,971.191,960.449,-1000.000
1742211022.143,889.160,971.191,253.906,-208.008
1742211022.100,897.461,-1000.000,517.090,-1000.000
1742211022.104,-482.910,-960.449,-606.445,-79.590
1742211022.108,-1000.000,-1000.000,-969.238,-938.477
1742211022.112,-566.406,-965.820,-225.586,950.684
1742211022.116,726.074,359.375,631.348,-318.359
1742211022.120,-884.766,-907.715,528.320,-1000.000
1742211022.124,722.168,907.715,-468.750,-10.254
1742211022.127,-843.750,977.051,-739.258,-933.594
1742211022.131,-340.820,971.680,191.406,978.516
1742211022.135,-960.449,971.191,818.848,-202.148
1742211022.139,975.098,971.191,960.449,-1000.000
1742211022.143,889.160,971.191,253.906,-208.008
1742211022.160,-638.184,981.934,-451.660,-993.164
1742211022.164,-682.617,899.414,267.090,-970.703
1742211022.168,888.672,-896.484,922.363,-116.699
1742211022.172,-869.141,410.156,977.051,-1000.000
1742211022.176,-22.461,-976.562,550.781,-488.281
1742211022.180,-1000.000,-1000.000,-264.160,874.512
1742211022.184,-1000.000,-955.566,218.750,-904.785
1742211022.187,-478.027,-1000.000,998.047,-85.449
1742211022.191,-911.133,-1000.000,840.332,-1000.000
1742211022.195,187.012,-1000.000,284.668,-670.898
1742211022.199,-1000.000,-1000.000,-540.527,681.152
1742211022.203,-1000.000,-1000.000,-449.219,-834.961
1742211022.160,-638.184,981.934,-451.660,-993.164
1742211022.164,-682.617,899.414,267.090,-970.703
1742211022.168,888.672,-896.484,922.363,-116.699
1742211022.172,-869.141,410.156,977.051,-1000.000
1742211022.176,-22.461,-976.562,550.781,-488.281
1742211022.180,-1000.000,-1000.000,-264.160,874.512
1742211022.184,-1000.000,-955.566,218.750,-904.785
1742211022.187,-478.027,-1000.000,998.047,-85.449
1742211022.191,-911.133,-1000.000,840.332,-1000.000
1742211022.195,187.012,-1000.000,284.668,-670.898
1742211022.199,-1000.000,-1000.000,-540.527,681.152
1742211022.203,-1000.000,-1000.000,-449.219,-834.961
1742211022.204,-483.887,-1000.000,628.906,61.035
1742211022.208,-924.805,-971.191,902.344,-1000.000
1742211022.212,283.691,-991.699,207.520,-886.230
1742211022.216,-1000.000,-1000.000,-697.754,412.109
1742211022.220,-1000.000,213.379,-762.695,-786.621
1742211022.224,260.254,-901.855,308.594,161.621
1742211022.228,-970.215,912.598,-975.586,-1000.000
1742211022.231,-947.754,971.191,670.898,-971.191
1742211022.235,245.605,971.680,-369.629,304.199
1742211022.239,-1000.000,976.074,-397.949,-769.531
1742211022.243,-155.762,950.684,661.621,124.512
1742211022.247,-901.855,942.871,-976.074,-1000.000
1742211022.204,-483.887,-1000.000,628.906,61.035
1742211022.208,-924.805,-971.191,902.344,-1000.000
1742211022.212,283.691,-991.699,207.520,-886.230
1742211022.216,-1000.000,-1000.000,-697.754,412.109
1742211022.220,-1000.000,213.379,-762.695,-786.621
1742211022.224,260.254,-901.855,308.594,161.621
1742211022.228,-970.215,912.598,-975.586,-1000.000
1742211022.231,-947.754,971.191,670.898,-971.191
1742211022.235,245.605,971.680,-369.629,304.199
1742211022.239,-1000.000,976.074,-397.949,-769.531
1742211022.243,-155.762,950.684,661.621,124.512
1742211022.247,-901.855,942.871,-976.074,-1000.000
1742211022.204,-483.887,-1000.000,628.906,61.035
1742211022.208,-924.805,-971.191,902.344,-1000.000
1742211022.212,283.691,-991.699,207.520,-886.230
1742211022.216,-1000.000,-1000.000,-697.754,412.109
1742211022.220,-1000.000,213.379,-762.695,-786.621
1742211022.224,260.254,-901.855,308.594,161.621
1742211022.228,-970.215,912.598,-975.586,-1000.000
1742211022.231,-947.754,971.191,670.898,-971.191
1742211022.235,245.605,971.680,-369.629,304.199
1742211022.239,-1000.000,976.074,-397.949,-769.531
1742211022.243,-155.762,950.684,661.621,124.512
1742211022.247,-901.855,942.871,-976.074,-1000.000
1742211022.249,928.223,-936.523,810.547,-1000.000
1742211022.253,-357.910,-130.859,39.551,-222.656
1742211022.257,-1000.000,-1000.000,39.551,-832.520
1742211022.261,-1000.000,-958.008,863.281,49.805
1742211022.265,39.551,-935.547,989.258,-1000.000
1742211022.269,-956.055,-1000.000,775.879,-1000.000
1742211022.273,-404.297,-711.426,-85.938,-268.066
1742211022.276,-1000.000,686.035,-836.426,-822.754
1742211022.280,-163.086,-951.172,-104.492,256.348
1742211022.284,990.234,849.609,850.586,-1000.000
1742211022.288,-928.711,-878.418,324.707,-1000.000
1742211022.292,-20.020,184.570,-725.586,-252.930
1742211022.249,928.223,-936.523,810.547,-1000.000
1742211022.253,-357.910,-130.859,39.551,-222.656
1742211022.257,-1000.000,-1000.000,39.551,-832.520
1742211022.261,-1000.000,-958.008,863.281,49.805
1742211022.265,39.551,-935.547,989.258,-1000.000
1742211022.269,-956.055,-1000.000,775.879,-1000.000
1742211022.273,-404.297,-711.426,-85.938,-268.066
1742211022.276,-1000.000,686.035,-836.426,-822.754
1742211022.280,-163.086,-951.172,-104.492,256.348
1742211022.284,990.234,849.609,850.586,-1000.000
1742211022.288,-928.711,-878.418,324.707,-1000.000
1742211022.292,-20.020,184.570,-725.586,-252.930
1742211022.294,-1000.000,-1000.000,-1000.000,-827.637
1742211022.298,-1000.000,-985.352,-385.254,262.695
1742211022.302,-118.652,-973.633,605.957,-996.582
1742211022.306,-845.703,-955.566,140.625,-1000.000
1742211022.310,-98.145,-1000.000,-818.359,-318.359
1742211022.314,-1000.000,-267.578,-1000.000,-945.801
1742211022.318,-160.645,977.539,-836.426,826.172
1742211022.321,984.375,963.867,190.430,-519.043
1742211022.325,-918.945,992.676,427.734,-1000.000
1742211022.329,234.863,698.730,-637.695,-395.020
1742211022.333,-1000.000,667.969,-1000.000,936.035
1742211022.337,-420.410,-977.051,-677.734,-973.633
1742211022.294,-1000.000,-1000.000,-1000.000,-827.637
1742211022.298,-1000.000,-985.352,-385.254,262.695
1742211022.302,-118.652,-973.633,605.957,-996.582
1742211022.306,-845.703,-955.566,140.625,-1000.000
1742211022.310,-98.145,-1000.000,-818.359,-318.359
1742211022.314,-1000.000,-267.578,-1000.000,-945.801
1742211022.318,-160.645,977.539,-836.426,826.172
1742211022.321,984.375,963.867,190.430,-519.043
1742211022.325,-918.945,992.676,427.734,-1000.000
1742211022.329,234.863,698.730,-637.695,-395.020
1742211022.333,-1000.000,667.969,-1000.000,936.035
1742211022.337,-420.410,-977.051,-677.734,-973.633
1742211022.339,906.250,960.449,372.559,-224.121
1742211022.343,-885.254,971.680,560.547,-1000.000
1742211022.347,312.500,946.777,-407.715,-479.980
1742211022.351,-1000.000,954.102,-971.680,855.957
1742211022.355,-921.387,976.562,-673.340,-885.742
1742211022.359,395.508,968.262,370.117,16.602
1742211022.363,-790.039,977.051,831.055,-1000.000
1742211022.366,354.980,946.777,-145.996,-575.684
1742211022.370,-934.570,946.777,-960.938,778.809
1742211022.374,-1000.000,993.164,-811.035,-851.562
1742211022.378,-22.461,896.484,160.156,202.637
1742211022.382,-794.922,-915.527,658.691,-1000.000
1742211022.339,906.250,960.449,372.559,-224.121
1742211022.343,-885.254,971.680,560.547,-1000.000
1742211022.347,312.500,946.777,-407.715,-479.980
1742211022.351,-1000.000,954.102,-971.680,855.957
1742211022.355,-921.387,976.562,-673.340,-885.742
1742211022.359,395.508,968.262,370.117,16.602
1742211022.363,-790.039,977.051,831.055,-1000.000
1742211022.366,354.980,946.777,-145.996,-575.684
1742211022.370,-934.570,946.777,-960.938,778.809
1742211022.374,-1000.000,993.164,-811.035,-851.562
1742211022.378,-22.461,896.484,160.156,202.637
1742211022.382,-794.922,-915.527,658.691,-1000.000
1742211022.385,429.199,601.074,-273.926,-686.035
1742211022.389,-893.555,-863.770,-1000.000,739.258
1742211022.393,-1000.000,-1000.000,-735.352,-832.031
1742211022.397,-239.258,-939.941,251.953,176.758
1742211022.401,-834.961,-1000.000,729.492,-1000.000
1742211022.405,319.336,-1000.000,-139.160,-843.262
1742211022.409,-979.004,-933.594,-897.949,477.539
1742211022.412,-1000.000,-1000.000,-918.457,-809.570
1742211022.416,-173.340,-289.062,-281.250,452.637
1742211022.420,960.938,-982.910,243.652,-1000.000
1742211022.424,-907.715,967.285,-450.195,-615.723
1742211022.428,351.562,938.477,-1000.000,816.895
1742211022.385,429.199,601.074,-273.926,-686.035
1742211022.389,-893.555,-863.770,-1000.000,739.258
1742211022.393,-1000.000,-1000.000,-735.352,-832.031
1742211022.397,-239.258,-939.941,251.953,176.758
1742211022.401,-834.961,-1000.000,729.492,-1000.000
1742211022.405,319.336,-1000.000,-139.160,-843.262
1742211022.409,-979.004,-933.594,-897.949,477.539
1742211022.412,-1000.000,-1000.000,-918.457,-809.570
1742211022.416,-173.340,-289.062,-281.250,452.637
1742211022.420,960.938,-982.910,243.652,-1000.000
1742211022.424,-907.715,967.285,-450.195,-615.723
1742211022.428,351.562,938.477,-1000.000,816.895
1742211022.385,429.199,601.074,-273.926,-686.035
1742211022.389,-893.555,-863.770,-1000.000,739.258
1742211022.393,-1000.000,-1000.000,-735.352,-832.031
1742211022.397,-239.258,-939.941,251.953,176.758
1742211022.401,-834.961,-1000.000,729.492,-1000.000
1742211022.405,319.336,-1000.000,-139.160,-843.262
1742211022.409,-979.004,-933.594,-897.949,477.539
1742211022.412,-1000.000,-1000.000,-918.457,-809.570
1742211022.416,-173.340,-289.062,-281.250,452.637
1742211022.420,960.938,-982.910,243.652,-1000.000
1742211022.424,-907.715,967.285,-450.195,-615.723
1742211022.428,351.562,938.477,-1000.000,816.895
1742211022.429,-1000.000,980.469,-991.699,-898.438
1742211022.433,-201.172,971.191,-603.516,665.039
1742211022.437,-992.188,971.191,202.148,-917.480
1742211022.441,-930.664,971.191,-276.855,-507.812
1742211022.445,530.273,975.098,-1000.000,974.121
1742211022.449,-1000.000,953.613,-967.773,968.262
1742211022.453,-233.887,939.453,-649.414,997.559
1742211022.456,-968.750,-937.500,108.887,-356.934
1742211022.460,-937.988,-86.426,-35.645,-974.609
1742211022.464,324.707,-1000.000,-895.508,588.379
1742211022.468,-1000.000,-952.637,-1000.000,-951.172
1742211022.472,-523.926,-992.188,-547.852,995.605
1742211022.429,-1000.000,980.469,-991.699,-898.438
1742211022.433,-201.172,971.191,-603.516,665.039
1742211022.437,-992.188,971.191,202.148,-917.480
1742211022.441,-930.664,971.191,-276.855,-507.812
1742211022.445,530.273,975.098,-1000.000,974.121
1742211022.449,-1000.000,953.613,-967.773,968.262
1742211022.453,-233.887,939.453,-649.414,997.559
1742211022.456,-968.750,-937.500,108.887,-356.934
1742211022.460,-937.988,-86.426,-35.645,-974.609
1742211022.464,324.707,-1000.000,-895.508,588.379
1742211022.468,-1000.000,-952.637,-1000.000,-951.172
1742211022.472,-523.926,-992.188,-547.852,995.605
1742211022.489,855.469,-1000.000,366.699,-165.039
1742211022.493,-885.254,-1000.000,272.949,-1000.000
1742211022.497,521.484,-980.469,-757.324,161.133
1742211022.501,-1000.000,-971.680,-1000.000,-958.008
1742211022.505,-684.570,-1000.000,-593.750,-911.621
1742211022.509,828.613,94.727,256.348,-54.688
1742211022.513,977.539,-900.391,289.551,-989.258
1742211022.516,-922.852,931.641,-686.035,565.918
1742211022.520,-229.004,907.227,-1000.000,-971.191
1742211022.524,-610.352,-956.543,-801.758,-953.125
1742211022.528,910.645,750.000,154.785,244.141
1742211022.532,-921.387,-660.156,552.734,-1000.000
1742211022.489,855.469,-1000.000,366.699,-165.039
1742211022.493,-885.254,-1000.000,272.949,-1000.000
1742211022.497,521.484,-980.469,-757.324,161.133
1742211022.501,-1000.000,-971.680,-1000.000,-958.008
1742211022.505,-684.570,-1000.000,-593.750,-911.621
1742211022.509,828.613,94.727,256.348,-54.688
1742211022.513,977.539,-900.391,289.551,-989.258
1742211022.516,-922.852,931.641,-686.035,565.918
1742211022.520,-229.004,907.227,-1000.000,-971.191
1742211022.524,-610.352,-956.543,-801.758,-953.125
1742211022.528,910.645,750.000,154.785,244.141
1742211022.532,-921.387,-660.156,552.734,-1000.000
1742211022.999,-1000.000,-996.582,597.656,70.801
1742211023.003,-80.078,-908.691,-964.355,-1000.000
1742211023.007,688.477,-1000.000,464.355,-1000.000
1742211023.011,-766.602,-694.336,-504.883,-261.719
1742211023.015,-1000.000,731.934,-1000.000,-886.230
1742211023.019,-353.027,-954.590,-738.770,729.004
1742211023.023,885.254,910.645,115.723,-648.926
1742211023.026,-888.672,985.352,-225.098,-1000.000
1742211023.030,201.172,971.680,-1000.000,-169.434
1742211023.034,-1000.000,971.680,-984.375,985.352
1742211023.038,-604.004,971.680,-1000.000,-914.062
1742211023.042,840.820,971.191,-753.418,-62.500
1742211022.534,727.539,-1000.000,-490.723,-82.520
1742211022.538,-628.418,-937.500,-1000.000,-966.797
1742211022.542,-1000.000,-1000.000,-705.078,-929.199
1742211022.546,175.293,-931.641,337.402,233.887
1742211022.550,-990.234,-1000.000,764.648,-1000.000
1742211022.554,-876.465,-260.254,-268.555,-202.148
1742211022.558,69.336,-995.117,-988.770,-993.164
1742211022.561,-725.098,939.453,-495.117,-927.734
1742211022.565,797.852,-985.352,441.406,235.840
1742211022.569,-972.656,-143.555,-969.727,-1000.000
1742211022.573,936.523,-1000.000,618.164,-550.293
1742211022.577,21.484,-946.777,-354.004,836.426
1742211022.534,727.539,-1000.000,-490.723,-82.520
1742211022.538,-628.418,-937.500,-1000.000,-966.797
1742211022.542,-1000.000,-1000.000,-705.078,-929.199
1742211022.546,175.293,-931.641,337.402,233.887
1742211022.550,-990.234,-1000.000,764.648,-1000.000
1742211022.554,-876.465,-260.254,-268.555,-202.148
1742211022.558,69.336,-995.117,-988.770,-993.164
1742211022.561,-725.098,939.453,-495.117,-927.734
1742211022.565,797.852,-985.352,441.406,235.840
1742211022.569,-972.656,-143.555,-969.727,-1000.000
1742211022.573,936.523,-1000.000,618.164,-550.293
1742211022.577,21.484,-946.777,-354.004,836.426
1742211023.044,957.520,971.680,-757.324,-1000.000
1742211023.048,-883.301,971.191,-1000.000,171.875
1742211023.052,-2.930,971.191,-984.375,-963.867
1742211023.056,-516.113,971.680,-1000.000,-904.297
1742211023.060,982.422,971.191,-869.141,162.598
1742211023.064,-986.816,971.191,-860.840,-1000.000
1742211023.068,921.387,984.375,-1000.000,412.598
1742211023.071,982.910,897.461,-965.820,-943.848
1742211023.075,971.680,-899.902,-1000.000,-956.543
1742211023.079,965.332,471.680,-737.305,250.488
1742211023.083,908.203,-949.707,-480.957,-1000.000
1742211023.087,-866.699,-1000.000,-970.215,-91.797
1742211022.579,-1000.000,-996.094,-106.445,-855.957
1742211022.583,-153.320,-1000.000,778.320,163.574
1742211022.587,-872.070,-1000.000,-996.582,-1000.000
1742211022.591,811.035,-997.070,802.734,-1000.000
1742211022.595,-541.504,-943.359,-116.699,171.387
1742211022.599,-1000.000,-1000.000,54.688,-764.648
1742211022.603,17.090,-154.297,987.305,147.461
1742211022.606,-973.633,-940.430,975.586,-1000.000
1742211022.610,-952.637,944.824,916.016,-1000.000
1742211022.614,48.340,948.730,106.445,-80.566
1742211022.618,-1000.000,943.848,-56.152,-784.668
1742211022.622,-196.777,971.191,829.102,230.469
1742211022.579,-1000.000,-996.094,-106.445,-855.957
1742211022.583,-153.320,-1000.000,778.320,163.574
1742211022.587,-872.070,-1000.000,-996.582,-1000.000
1742211022.591,811.035,-997.070,802.734,-1000.000
1742211022.595,-541.504,-943.359,-116.699,171.387
1742211022.599,-1000.000,-1000.000,54.688,-764.648
1742211022.603,17.090,-154.297,987.305,147.461
1742211022.606,-973.633,-940.430,975.586,-1000.000
1742211022.610,-952.637,944.824,916.016,-1000.000
1742211022.614,48.340,948.730,106.445,-80.566
1742211022.618,-1000.000,943.848,-56.152,-784.668
1742211022.622,-196.777,971.191,829.102,230.469
1742211022.579,-1000.000,-996.094,-106.445,-855.957
1742211022.583,-153.320,-1000.000,778.320,163.574
1742211022.587,-872.070,-1000.000,-996.582,-1000.000
1742211022.591,811.035,-997.070,802.734,-1000.000
1742211022.595,-541.504,-943.359,-116.699,171.387
1742211022.599,-1000.000,-1000.000,54.688,-764.648
1742211022.603,17.090,-154.297,987.305,147.461
1742211022.606,-973.633,-940.430,975.586,-1000.000
1742211022.610,-952.637,944.824,916.016,-1000.000
1742211022.614,48.340,948.730,106.445,-80.566
1742211022.618,-1000.000,943.848,-56.152,-784.668
1742211022.622,-196.777,971.191,829.102,230.469
1742211022.625,-847.168,981.445,971.680,-994.141
1742211022.629,675.293,-279.297,-990.723,-1000.000
1742211022.633,-754.883,-1000.000,500.000,-248.047
1742211022.637,-1000.000,-942.383,149.414,-827.637
1742211022.641,-1000.000,-1000.000,842.773,171.875
1742211022.645,-242.188,-1000.000,978.027,-1000.000
1742211022.649,-914.062,-1000.000,-981.445,-1000.000
1742211022.652,-265.625,-1000.000,502.441,-270.996
1742211022.656,-1000.000,-1000.000,-125.000,-831.055
1742211022.660,-1000.000,-1000.000,594.238,167.969
1742211022.664,-212.402,-1000.000,-966.797,-1000.000
1742211022.668,-960.938,-1000.000,854.980,-1000.000
1742211022.625,-847.168,981.445,971.680,-994.141
1742211022.629,675.293,-279.297,-990.723,-1000.000
1742211022.633,-754.883,-1000.000,500.000,-248.047
1742211022.637,-1000.000,-942.383,149.414,-827.637
1742211022.641,-1000.000,-1000.000,842.773,171.875
1742211022.645,-242.188,-1000.000,978.027,-1000.000
1742211022.649,-914.062,-1000.000,-981.445,-1000.000
1742211022.652,-265.625,-1000.000,502.441,-270.996
1742211022.656,-1000.000,-1000.000,-125.000,-831.055
1742211022.660,-1000.000,-1000.000,594.238,167.969
1742211022.664,-212.402,-1000.000,-966.797,-1000.000
1742211022.668,-960.938,-1000.000,854.980,-1000.000
1742211022.669,-359.375,-1000.000,196.777,-411.621
1742211022.673,-1000.000,-953.613,-435.059,-882.324
1742211022.677,-1000.000,-1000.000,286.133,286.133
1742211022.681,-286.621,-899.902,-958.008,-999.512
1742211022.685,-822.754,455.566,713.379,-1000.000
1742211022.689,191.895,-917.480,-17.090,-514.160
1742211022.693,-1000.000,908.203,-487.793,982.910
1742211022.696,-895.508,980.957,203.125,789.551
1742211022.700,35.645,907.715,994.141,-626.465
1742211022.704,-867.188,-889.648,838.867,-1000.000
1742211022.708,162.598,204.102,302.734,-762.695
1742211022.712,-1000.000,-1000.000,-400.879,732.910
1742211022.669,-359.375,-1000.000,196.777,-411.621
1742211022.673,-1000.000,-953.613,-435.059,-882.324
1742211022.677,-1000.000,-1000.000,286.133,286.133
1742211022.681,-286.621,-899.902,-958.008,-999.512
1742211022.685,-822.754,455.566,713.379,-1000.000
1742211022.689,191.895,-917.480,-17.090,-514.160
1742211022.693,-1000.000,908.203,-487.793,982.910
1742211022.696,-895.508,980.957,203.125,789.551
1742211022.700,35.645,907.715,994.141,-626.465
1742211022.704,-867.188,-889.648,838.867,-1000.000
1742211022.708,162.598,204.102,302.734,-762.695
1742211022.712,-1000.000,-1000.000,-400.879,732.910
1742211022.714,-1000.000,-986.328,-163.086,809.570
1742211022.718,-975.098,-985.352,781.738,-707.031
1742211022.722,424.805,-935.059,833.008,-1000.000
1742211022.726,27.344,-1000.000,195.801,-827.637
1742211022.730,-1000.000,-532.227,-679.688,440.430
1742211022.734,-1000.000,905.273,-613.770,-797.363
1742211022.738,-138.672,944.824,598.633,30.273
1742211022.741,-791.504,-983.887,956.055,-1000.000
1742211022.745,284.180,671.875,431.152,-1000.000
1742211022.749,-1000.000,-784.180,-360.352,156.738
1742211022.753,-952.637,-1000.000,-252.441,-781.250
1742211022.757,-1000.000,-940.430,740.234,-24.414
1742211022.759,35.645,-1000.000,915.527,-1000.000
1742211022.763,279.785,-945.312,508.789,-1000.000
1742211022.767,-1000.000,-1000.000,-366.699,-16.113
1742211022.771,-1000.000,-141.113,-673.340,-770.996
1742211022.775,-218.750,-940.430,346.191,149.902
1742211022.779,-962.891,944.824,-987.793,-1000.000
1742211022.783,973.145,962.891,730.469,-1000.000
1742211022.786,-335.938,902.832,-192.871,-102.539
1742211022.790,-1000.000,-899.902,-388.672,-789.062
1742211022.794,-936.523,473.633,506.836,178.223
1742211022.798,-1000.000,-951.660,-992.676,-1000.000
1742211022.802,-1000.000,-1000.000,858.398,-1000.000
1742211022.759,35.645,-1000.000,915.527,-1000.000
1742211022.763,279.785,-945.312,508.789,-1000.000
1742211022.767,-1000.000,-1000.000,-366.699,-16.113
1742211022.771,-1000.000,-141.113,-673.340,-770.996
1742211022.775,-218.750,-940.430,346.191,149.902
1742211022.779,-962.891,944.824,-987.793,-1000.000
1742211022.783,973.145,962.891,730.469,-1000.000
1742211022.786,-335.938,902.832,-192.871,-102.539
1742211022.790,-1000.000,-899.902,-388.672,-789.062
1742211022.794,-936.523,473.633,506.836,178.223
1742211022.798,-1000.000,-951.660,-992.676,-1000.000
1742211022.802,-1000.000,-1000.000,858.398,-1000.000
1742211022.759,35.645,-1000.000,915.527,-1000.000
1742211022.763,279.785,-945.312,508.789,-1000.000
1742211022.767,-1000.000,-1000.000,-366.699,-16.113
1742211022.771,-1000.000,-141.113,-673.340,-770.996
1742211022.775,-218.750,-940.430,346.191,149.902
1742211022.779,-962.891,944.824,-987.793,-1000.000
1742211022.783,973.145,962.891,730.469,-1000.000
1742211022.786,-335.938,902.832,-192.871,-102.539
1742211022.790,-1000.000,-899.902,-388.672,-789.062
1742211022.794,-936.523,473.633,506.836,178.223
1742211022.798,-1000.000,-951.660,-992.676,-1000.000
1742211022.802,-1000.000,-1000.000,858.398,-1000.000
1742211022.804,-930.176,-937.012,-183.594,-263.672
1742211022.808,-1000.000,-1000.000,-633.789,-833.984
1742211022.812,-411.621,163.086,356.445,437.988
1742211022.816,-993.652,-948.242,960.449,-922.363
1742211022.820,932.617,-899.414,844.238,-1000.000
1742211022.824,-462.402,-200.195,169.922,-242.676
1742211022.828,-1000.000,-320.312,-114.258,-858.887
1742211022.831,-934.570,-908.203,596.680,569.336
1742211022.835,-1000.000,-332.520,984.375,-820.801
1742211022.839,-1000.000,-1000.000,-989.258,-1000.000
1742211022.843,-934.082,-897.461,467.773,-255.859
1742211022.847,-1000.000,-1000.000,-214.844,-947.754
1742211022.804,-930.176,-937.012,-183.594,-263.672
1742211022.808,-1000.000,-1000.000,-633.789,-833.984
1742211022.812,-411.621,163.086,356.445,437.988
1742211022.816,-993.652,-948.242,960.449,-922.363
1742211022.820,932.617,-899.414,844.238,-1000.000
1742211022.824,-462.402,-200.195,169.922,-242.676
1742211022.828,-1000.000,-320.312,-114.258,-858.887
1742211022.831,-934.570,-908.203,596.680,569.336
1742211022.835,-1000.000,-332.520,984.375,-820.801
1742211022.839,-1000.000,-1000.000,-989.258,-1000.000
1742211022.843,-934.082,-897.461,467.773,-255.859
1742211022.847,-1000.000,-1000.000,-214.844,-947.754
1742211022.804,-930.176,-937.012,-183.594,-263.672
1742211022.808,-1000.000,-1000.000,-633.789,-833.984
1742211022.812,-411.621,163.086,356.445,437.988
1742211022.816,-993.652,-948.242,960.449,-922.363
1742211022.820,932.617,-899.414,844.238,-1000.000
1742211022.824,-462.402,-200.195,169.922,-242.676
1742211022.828,-1000.000,-320.312,-114.258,-858.887
1742211022.831,-934.570,-908.203,596.680,569.336
1742211022.835,-1000.000,-332.520,984.375,-820.801
1742211022.839,-1000.000,-1000.000,-989.258,-1000.000
1742211022.843,-934.082,-897.461,467.773,-255.859
1742211022.847,-1000.000,-1000.000,-214.844,-947.754
1742211022.850,-702.148,42.480,532.227,850.586
1742211022.854,671.875,-912.109,-985.840,-472.656
1742211022.858,-815.918,924.805,984.863,-1000.000
1742211022.862,113.281,961.914,594.727,-384.277
1742211022.866,-995.117,973.633,-13.184,982.910
1742211022.870,-1000.000,979.004,561.523,920.898
1742211022.874,-293.945,900.879,-985.840,-406.250
1742211022.877,-838.379,-890.137,985.840,-1000.000
1742211022.881,166.016,333.496,758.301,-700.195
1742211022.885,-1000.000,-1000.000,120.117,764.648
1742211022.889,-1000.000,-1000.000,483.887,923.828
1742211022.893,-848.145,-961.914,-974.609,-546.387
1742211022.850,-702.148,42.480,532.227,850.586
1742211022.854,671.875,-912.109,-985.840,-472.656
1742211022.858,-815.918,924.805,984.863,-1000.000
1742211022.862,113.281,961.914,594.727,-384.277
1742211022.866,-995.117,973.633,-13.184,982.910
1742211022.870,-1000.000,979.004,561.523,920.898
1742211022.874,-293.945,900.879,-985.840,-406.250
1742211022.877,-838.379,-890.137,985.840,-1000.000
1742211022.881,166.016,333.496,758.301,-700.195
1742211022.885,-1000.000,-1000.000,120.117,764.648
1742211022.889,-1000.000,-1000.000,483.887,923.828
1742211022.893,-848.145,-961.914,-974.609,-546.387
1742211022.910,708.984,-1000.000,929.199,-1000.000
1742211022.914,348.145,-938.965,635.742,-879.395
1742211022.918,-1000.000,-1000.000,-87.891,374.023
1742211022.922,-719.238,-206.055,22.949,-793.945
1742211022.926,639.648,-954.590,770.508,-38.086
1742211022.930,-895.020,955.078,995.117,-1000.000
1742211022.934,752.441,938.477,848.145,-1000.000
1742211022.937,-524.414,917.969,69.336,126.465
1742211022.941,-1000.000,-899.902,143.066,-937.500
1742211022.945,-990.723,97.168,922.363,-455.566
1742211022.949,459.961,-1000.000,985.352,-1000.000
1742211022.953,548.340,-902.832,883.301,-1000.000
1742211022.910,708.984,-1000.000,929.199,-1000.000
1742211022.914,348.145,-938.965,635.742,-879.395
1742211022.918,-1000.000,-1000.000,-87.891,374.023
1742211022.922,-719.238,-206.055,22.949,-793.945
1742211022.926,639.648,-954.590,770.508,-38.086
1742211022.930,-895.020,955.078,995.117,-1000.000
1742211022.934,752.441,938.477,848.145,-1000.000
1742211022.937,-524.414,917.969,69.336,126.465
1742211022.941,-1000.000,-899.902,143.066,-937.500
1742211022.945,-990.723,97.168,922.363,-455.566
1742211022.949,459.961,-1000.000,985.352,-1000.000
1742211022.953,548.340,-902.832,883.301,-1000.000
1742211022.910,708.984,-1000.000,929.199,-1000.000
1742211022.914,348.145,-938.965,635.742,-879.395
1742211022.918,-1000.000,-1000.000,-87.891,374.023
1742211022.922,-719.238,-206.055,22.949,-793.945
1742211022.926,639.648,-954.590,770.508,-38.086
1742211022.930,-895.020,955.078,995.117,-1000.000
1742211022.934,752.441,938.477,848.145,-1000.000
1742211022.937,-524.414,917.969,69.336,126.465
1742211022.941,-1000.000,-899.902,143.066,-937.500
1742211022.945,-990.723,97.168,922.363,-455.566
1742211022.949,459.961,-1000.000,985.352,-1000.000
1742211022.953,548.340,-902.832,883.301,-1000.000
1742211022.954,-958.008,-1000.000,92.773,-154.785
1742211022.958,-1000.000,-627.930,-24.414,876.465
1742211022.962,-459.473,802.734,846.191,-616.699
1742211022.966,876.953,-968.750,-984.375,-1000.000
1742211022.970,-907.227,914.551,842.285,-1000.000
1742211022.974,-74.707,985.352,90.332,-249.023
1742211022.978,-1000.000,971.680,67.383,-891.113
1742211022.981,-792.480,971.680,876.465,-206.543
1742211022.985,552.246,909.668,-993.652,-1000.000
1742211022.989,-820.801,-890.625,831.543,-1000.000
1742211022.993,-113.770,179.199,153.809,-311.035
1742211022.997,-1000.000,-1000.000,-169.922,-845.215
1742211022.954,-958.008,-1000.000,92.773,-154.785
1742211022.958,-1000.000,-627.930,-24.414,876.465
1742211022.962,-459.473,802.734,846.191,-616.699
1742211022.966,876.953,-968.750,-984.375,-1000.000
1742211022.970,-907.227,914.551,842.285,-1000.000
1742211022.974,-74.707,985.352,90.332,-249.023
1742211022.978,-1000.000,971.680,67.383,-891.113
1742211022.981,-792.480,971.680,876.465,-206.543
1742211022.985,552.246,909.668,-993.652,-1000.000
1742211022.989,-820.801,-890.625,831.543,-1000.000
1742211022.993,-113.770,179.199,153.809,-311.035
1742211022.997,-1000.000,-1000.000,-169.922,-845.215
1742211023.464,-862.305,-1000.000,-328.613,-72.754
1742211023.468,195.312,-937.500,-1000.000,-954.102
1742211023.472,-1000.000,-1000.000,-929.688,-945.312
1742211023.476,223.145,-938.477,-323.242,482.422
1742211023.480,-870.605,-1000.000,355.957,-1000.000
1742211023.484,903.320,-713.379,-363.770,-242.188
1742211023.488,971.191,626.953,-1000.000,-988.281
1742211023.491,970.703,-883.789,-942.383,-942.383
1742211023.495,983.887,722.656,-259.766,545.898
1742211023.499,909.668,-618.652,631.836,-1000.000
1742211023.503,-947.266,-1000.000,-145.508,-516.602
1742211023.507,801.758,-935.059,-1000.000,911.133
1742211023.090,98.145,-915.039,-1000.000,-978.027
1742211023.094,-1000.000,-1000.000,-992.188,-921.875
1742211023.098,289.551,48.828,-469.238,362.793
1742211023.102,-877.930,-903.320,-26.367,-1000.000
1742211023.106,902.832,929.688,-702.148,-113.281
1742211023.110,973.633,930.176,-1000.000,-970.703
1742211023.114,971.191,972.656,-893.555,-941.406
1742211023.117,969.238,986.816,-183.594,531.250
1742211023.121,909.180,-294.922,674.805,-1000.000
1742211023.125,-886.230,-1000.000,40.039,-241.699
1742211023.129,207.520,-938.965,-995.117,-980.469
1742211023.133,-1000.000,-1000.000,-610.352,-950.684
1742211023.134,-63.477,-977.539,481.934,567.871
1742211023.138,-993.652,-978.516,989.258,-1000.000
1742211023.142,-881.836,-1000.000,836.426,-708.496
1742211023.146,401.855,132.324,-105.469,741.211
1742211023.150,-735.352,-893.066,58.105,-848.633
1742211023.154,553.223,880.371,-984.863,455.566
1742211023.158,-911.621,974.609,971.191,-845.215
1742211023.161,986.328,968.750,948.730,-1000.000
1742211023.165,-110.352,-334.961,977.051,-237.793
1742211023.169,-1000.000,-1000.000,971.191,-837.402
1742211023.173,-945.801,-937.500,973.145,378.418
1742211023.177,-995.605,-1000.000,959.473,-953.125
1742211023.134,-63.477,-977.539,481.934,567.871
1742211023.138,-993.652,-978.516,989.258,-1000.000
1742211023.142,-881.836,-1000.000,836.426,-708.496
1742211023.146,401.855,132.324,-105.469,741.211
1742211023.150,-735.352,-893.066,58.105,-848.633
1742211023.154,553.223,880.371,-984.863,455.566
1742211023.158,-911.621,974.609,971.191,-845.215
1742211023.161,986.328,968.750,948.730,-1000.000
1742211023.165,-110.352,-334.961,977.051,-237.793
1742211023.169,-1000.000,-1000.000,971.191,-837.402
1742211023.173,-945.801,-937.500,973.145,378.418
1742211023.177,-995.605,-1000.000,959.473,-953.125
1742211023.134,-63.477,-977.539,481.934,567.871
1742211023.138,-993.652,-978.516,989.258,-1000.000
1742211023.142,-881.836,-1000.000,836.426,-708.496
1742211023.146,401.855,132.324,-105.469,741.211
1742211023.150,-735.352,-893.066,58.105,-848.633
1742211023.154,553.223,880.371,-984.863,455.566
1742211023.158,-911.621,974.609,971.191,-845.215
1742211023.161,986.328,968.750,948.730,-1000.000
1742211023.165,-110.352,-334.961,977.051,-237.793
1742211023.169,-1000.000,-1000.000,971.191,-837.402
1742211023.173,-945.801,-937.500,973.145,378.418
1742211023.177,-995.605,-1000.000,959.473,-953.125
1742211023.179,-1000.000,-1000.000,-996.094,-1000.000
1742211023.183,-1000.000,-1000.000,857.910,-240.723
1742211023.187,-1000.000,-1000.000,780.762,-830.078
1742211023.191,-1000.000,-1000.000,979.980,207.031
1742211023.195,-1000.000,-982.910,976.074,-1000.000
1742211023.199,-1000.000,-967.285,964.844,-1000.000
1742211023.203,-1000.000,-1000.000,972.168,-739.258
1742211023.206,-933.105,55.664,971.191,811.523
1742211023.210,-1000.000,-906.250,971.680,38.574
1742211023.214,-742.188,920.898,971.680,-1000.000
1742211023.218,742.188,968.262,971.191,-987.305
1742211023.222,-119.629,955.078,971.191,-930.664
1742211023.179,-1000.000,-1000.000,-996.094,-1000.000
1742211023.183,-1000.000,-1000.000,857.910,-240.723
1742211023.187,-1000.000,-1000.000,780.762,-830.078
1742211023.191,-1000.000,-1000.000,979.980,207.031
1742211023.195,-1000.000,-982.910,976.074,-1000.000
1742211023.199,-1000.000,-967.285,964.844,-1000.000
1742211023.203,-1000.000,-1000.000,972.168,-739.258
1742211023.206,-933.105,55.664,971.191,811.523
1742211023.210,-1000.000,-906.250,971.680,38.574
1742211023.214,-742.188,920.898,971.680,-1000.000
1742211023.218,742.188,968.262,971.191,-987.305
1742211023.222,-119.629,955.078,971.191,-930.664
1742211023.224,-1000.000,950.195,971.191,649.902
1742211023.228,-930.176,910.156,971.191,284.668
1742211023.232,-998.535,-883.789,970.703,-1000.000
1742211023.236,-1000.000,260.254,972.656,-1000.000
1742211023.240,-1000.000,-1000.000,970.215,-764.648
1742211023.244,-953.125,-51.758,958.496,631.348
1742211023.248,-1000.000,-894.531,971.191,-873.047
1742211023.251,-962.891,924.316,953.125,-146.973
1742211023.255,597.168,970.215,987.793,-1000.000
1742211023.259,301.270,893.066,917.969,-572.266
1742211023.263,-1000.000,898.926,279.297,760.254
1742211023.267,-1000.000,988.281,320.801,-831.055
1742211023.224,-1000.000,950.195,971.191,649.902
1742211023.228,-930.176,910.156,971.191,284.668
1742211023.232,-998.535,-883.789,970.703,-1000.000
1742211023.236,-1000.000,260.254,972.656,-1000.000
1742211023.240,-1000.000,-1000.000,970.215,-764.648
1742211023.244,-953.125,-51.758,958.496,631.348
1742211023.248,-1000.000,-894.531,971.191,-873.047
1742211023.251,-962.891,924.316,953.125,-146.973
1742211023.255,597.168,970.215,987.793,-1000.000
1742211023.259,301.270,893.066,917.969,-572.266
1742211023.263,-1000.000,898.926,279.297,760.254
1742211023.267,-1000.000,988.281,320.801,-831.055
1742211023.224,-1000.000,950.195,971.191,649.902
1742211023.228,-930.176,910.156,971.191,284.668
1742211023.232,-998.535,-883.789,970.703,-1000.000
1742211023.236,-1000.000,260.254,972.656,-1000.000
1742211023.240,-1000.000,-1000.000,970.215,-764.648
1742211023.244,-953.125,-51.758,958.496,631.348
1742211023.248,-1000.000,-894.531,971.191,-873.047
1742211023.251,-962.891,924.316,953.125,-146.973
1742211023.255,597.168,970.215,987.793,-1000.000
1742211023.259,301.270,893.066,917.969,-572.266
1742211023.263,-1000.000,898.926,279.297,760.254
1742211023.267,-1000.000,988.281,320.801,-831.055
1742211023.284,-197.266,966.309,929.688,193.848
1742211023.288,-973.145,971.680,913.086,-1000.000
1742211023.292,-989.746,971.191,-20.020,-187.988
1742211023.296,-185.547,971.191,-993.164,994.141
1742211023.300,-1000.000,971.191,-818.359,-922.363
1742211023.304,-160.645,972.656,-58.594,583.008
1742211023.308,983.398,970.215,439.453,-974.609
1742211023.311,-920.898,900.879,-390.625,-37.598
1742211023.315,182.129,-849.609,-1000.000,-854.492
1742211023.319,-1000.000,100.586,-1000.000,913.574
1742211023.323,-366.211,-803.223,-740.234,956.055
1742211023.327,929.688,691.406,-669.434,936.523
1742211023.284,-197.266,966.309,929.688,193.848
1742211023.288,-973.145,971.680,913.086,-1000.000
1742211023.292,-989.746,971.191,-20.020,-187.988
1742211023.296,-185.547,971.191,-993.164,994.141
1742211023.300,-1000.000,971.191,-818.359,-922.363
1742211023.304,-160.645,972.656,-58.594,583.008
1742211023.308,983.398,970.215,439.453,-974.609
1742211023.311,-920.898,900.879,-390.625,-37.598
1742211023.315,182.129,-849.609,-1000.000,-854.492
1742211023.319,-1000.000,100.586,-1000.000,913.574
1742211023.323,-366.211,-803.223,-740.234,956.055
1742211023.327,929.688,691.406,-669.434,936.523
1742211023.330,-885.254,-915.039,-1000.000,963.867
1742211023.334,293.945,899.902,-1000.000,975.586
1742211023.338,-1000.000,985.352,-992.676,968.750
1742211023.342,-247.559,969.727,-1000.000,971.680
1742211023.346,989.258,974.121,-980.957,971.191
1742211023.350,-954.590,956.055,-998.047,971.191
1742211023.354,644.531,935.059,-981.934,971.191
1742211023.357,-945.312,-925.781,-1000.000,971.191
1742211023.361,-655.762,-61.035,-829.102,971.191
1742211023.365,826.660,-1000.000,-417.480,971.191
1742211023.369,-864.746,-953.613,-759.277,971.191
1742211023.373,426.758,-990.723,-1000.000,970.703
1742211023.330,-885.254,-915.039,-1000.000,963.867
1742211023.334,293.945,899.902,-1000.000,975.586
1742211023.338,-1000.000,985.352,-992.676,968.750
1742211023.342,-247.559,969.727,-1000.000,971.680
1742211023.346,989.258,974.121,-980.957,971.191
1742211023.350,-954.590,956.055,-998.047,971.191
1742211023.354,644.531,935.059,-981.934,971.191
1742211023.357,-945.312,-925.781,-1000.000,971.191
1742211023.361,-655.762,-61.035,-829.102,971.191
1742211023.365,826.660,-1000.000,-417.480,971.191
1742211023.369,-864.746,-953.613,-759.277,971.191
1742211023.373,426.758,-990.723,-1000.000,970.703
1742211023.330,-885.254,-915.039,-1000.000,963.867
1742211023.334,293.945,899.902,-1000.000,975.586
1742211023.338,-1000.000,985.352,-992.676,968.750
1742211023.342,-247.559,969.727,-1000.000,971.680
1742211023.346,989.258,974.121,-980.957,971.191
1742211023.350,-954.590,956.055,-998.047,971.191
1742211023.354,644.531,935.059,-981.934,971.191
1742211023.357,-945.312,-925.781,-1000.000,971.191
1742211023.361,-655.762,-61.035,-829.102,971.191
1742211023.365,826.660,-1000.000,-417.480,971.191
1742211023.369,-864.746,-953.613,-759.277,971.191
1742211023.373,426.758,-990.723,-1000.000,970.703
1742211023.374,-1000.000,-1000.000,-1000.000,971.680
1742211023.378,-446.289,-1000.000,-895.508,971.191
1742211023.382,-996.094,-932.129,-354.980,958.496
1742211023.386,977.051,-1000.000,-580.566,966.797
1742211023.390,926.758,-354.980,-1000.000,982.910
1742211023.394,982.910,917.969,-993.652,897.949
1742211023.398,977.051,-959.473,-920.898,-840.332
1742211023.401,943.359,767.090,-142.090,298.828
1742211023.405,953.125,-590.332,5.859,-218.750
1742211023.409,-904.785,-1000.000,-873.047,989.258
1742211023.413,-354.492,-934.570,-1000.000,941.406
1742211023.417,-388.184,-1000.000,-497.559,-903.809
1742211023.374,-1000.000,-1000.000,-1000.000,971.680
1742211023.378,-446.289,-1000.000,-895.508,971.191
1742211023.382,-996.094,-932.129,-354.980,958.496
1742211023.386,977.051,-1000.000,-580.566,966.797
1742211023.390,926.758,-354.980,-1000.000,982.910
1742211023.394,982.910,917.969,-993.652,897.949
1742211023.398,977.051,-959.473,-920.898,-840.332
1742211023.401,943.359,767.090,-142.090,298.828
1742211023.405,953.125,-590.332,5.859,-218.750
1742211023.409,-904.785,-1000.000,-873.047,989.258
1742211023.413,-354.492,-934.570,-1000.000,941.406
1742211023.417,-388.184,-1000.000,-497.559,-903.809
1742211023.419,-922.852,-1000.000,485.840,204.590
1742211023.423,913.574,-1000.000,921.875,-1000.000
1742211023.427,-875.977,-1000.000,-175.293,250.488
1742211023.431,-124.023,-938.477,-919.434,-939.941
1742211023.435,-367.188,-1000.000,-295.898,-935.547
1742211023.439,-930.176,-210.449,540.527,222.656
1742211023.443,974.121,-955.078,907.227,-1000.000
1742211023.446,937.500,968.750,-88.379,153.809
1742211023.450,978.516,880.371,-1000.000,-945.801
1742211023.454,970.703,-937.500,-895.996,-946.289
1742211023.458,970.703,707.031,-54.199,433.594
1742211023.462,901.367,-725.586,623.047,-1000.000
1742211023.419,-922.852,-1000.000,485.840,204.590
1742211023.423,913.574,-1000.000,921.875,-1000.000
1742211023.427,-875.977,-1000.000,-175.293,250.488
1742211023.431,-124.023,-938.477,-919.434,-939.941
1742211023.435,-367.188,-1000.000,-295.898,-935.547
1742211023.439,-930.176,-210.449,540.527,222.656
1742211023.443,974.121,-955.078,907.227,-1000.000
1742211023.446,937.500,968.750,-88.379,153.809
1742211023.450,978.516,880.371,-1000.000,-945.801
1742211023.454,970.703,-937.500,-895.996,-946.289
1742211023.458,970.703,707.031,-54.199,433.594
1742211023.462,901.367,-725.586,623.047,-1000.000
1742211023.509,-750.977,-1000.000,-998.047,-943.359
1742211023.513,-75.195,-1000.000,-955.566,741.699
1742211023.517,-846.680,-1000.000,-769.531,-811.035
1742211023.521,912.598,-931.152,-930.176,-702.148
1742211023.525,960.449,-1000.000,-1000.000,829.590
1742211023.529,972.656,-379.395,-985.840,-947.266
1742211023.533,970.703,-975.586,-1000.000,833.008
1742211023.536,970.703,916.504,-426.758,-421.387
1742211023.540,970.703,-470.215,-492.676,-1000.000
1742211023.544,970.703,-1000.000,-1000.000,-105.469
1742211023.548,970.703,-935.547,-1000.000,-904.297
1742211023.552,977.539,-1000.000,-882.812,841.309
1742211023.509,-750.977,-1000.000,-998.047,-943.359
1742211023.513,-75.195,-1000.000,-955.566,741.699
1742211023.517,-846.680,-1000.000,-769.531,-811.035
1742211023.521,912.598,-931.152,-930.176,-702.148
1742211023.525,960.449,-1000.000,-1000.000,829.590
1742211023.529,972.656,-379.395,-985.840,-947.266
1742211023.533,970.703,-975.586,-1000.000,833.008
1742211023.536,970.703,916.504,-426.758,-421.387
1742211023.540,970.703,-470.215,-492.676,-1000.000
1742211023.544,970.703,-1000.000,-1000.000,-105.469
1742211023.548,970.703,-935.547,-1000.000,-904.297
1742211023.552,977.539,-1000.000,-882.812,841.309
1742211023.509,-750.977,-1000.000,-998.047,-943.359
1742211023.513,-75.195,-1000.000,-955.566,741.699
1742211023.517,-846.680,-1000.000,-769.531,-811.035
1742211023.521,912.598,-931.152,-930.176,-702.148
1742211023.525,960.449,-1000.000,-1000.000,829.590
1742211023.529,972.656,-379.395,-985.840,-947.266
1742211023.533,970.703,-975.586,-1000.000,833.008
1742211023.536,970.703,916.504,-426.758,-421.387
1742211023.540,970.703,-470.215,-492.676,-1000.000
1742211023.544,970.703,-1000.000,-1000.000,-105.469
1742211023.548,970.703,-935.547,-1000.000,-904.297
1742211023.552,977.539,-1000.000,-882.812,841.309
1742211023.555,941.895,-1000.000,11.230,-469.238
1742211023.559,956.543,-1000.000,118.164,-1000.000
1742211023.563,-914.551,-1000.000,-753.906,-187.012
1742211023.567,-374.023,-1000.000,-999.023,-966.309
1742211023.571,-383.301,-1000.000,-612.793,970.703
1742211023.575,-939.941,-1000.000,394.043,-274.414
1742211023.579,937.500,-1000.000,798.340,-1000.000
1742211023.582,-935.059,-947.754,-290.039,-225.098
1742211023.586,-357.422,-1000.000,-1000.000,982.910
1742211023.590,-580.078,-865.234,-563.477,-941.895
1742211023.594,-985.352,527.832,425.293,-25.879
1742211023.598,921.875,-921.387,728.516,-1000.000
1742211023.555,941.895,-1000.000,11.230,-469.238
1742211023.559,956.543,-1000.000,118.164,-1000.000
1742211023.563,-914.551,-1000.000,-753.906,-187.012
1742211023.567,-374.023,-1000.000,-999.023,-966.309
1742211023.571,-383.301,-1000.000,-612.793,970.703
1742211023.575,-939.941,-1000.000,394.043,-274.414
1742211023.579,937.500,-1000.000,798.340,-1000.000
1742211023.582,-935.059,-947.754,-290.039,-225.098
1742211023.586,-357.422,-1000.000,-1000.000,982.910
1742211023.590,-580.078,-865.234,-563.477,-941.895
1742211023.594,-985.352,527.832,425.293,-25.879
1742211023.598,921.875,-921.387,728.516,-1000.000
1742211023.555,941.895,-1000.000,11.230,-469.238
1742211023.559,956.543,-1000.000,118.164,-1000.000
1742211023.563,-914.551,-1000.000,-753.906,-187.012
1742211023.567,-374.023,-1000.000,-999.023,-966.309
1742211023.571,-383.301,-1000.000,-612.793,970.703
1742211023.575,-939.941,-1000.000,394.043,-274.414
1742211023.579,937.500,-1000.000,798.340,-1000.000
1742211023.582,-935.059,-947.754,-290.039,-225.098
1742211023.586,-357.422,-1000.000,-1000.000,982.910
1742211023.590,-580.078,-865.234,-563.477,-941.895
1742211023.594,-985.352,527.832,425.293,-25.879
1742211023.598,921.875,-921.387,728.516,-1000.000
1742211023.599,-875.488,905.273,-316.406,-447.266
1742211023.603,224.121,982.422,-1000.000,891.602
1742211023.607,-259.766,971.191,-663.086,-893.555
1742211023.611,-981.445,971.191,406.738,25.391
1742211023.615,924.805,971.680,875.977,-1000.000
1742211023.619,-857.910,972.168,34.180,-728.027
1742211023.623,74.219,908.691,-870.117,635.742
1742211023.626,-547.852,-889.648,-709.473,-821.289
1742211023.630,863.281,189.941,378.418,15.625
1742211023.634,-845.703,-1000.000,880.859,-1000.000
1742211023.638,459.473,-984.375,-38.086,-1000.000
1742211023.642,-825.195,-973.145,-922.363,83.496
1742211023.599,-875.488,905.273,-316.406,-447.266
1742211023.603,224.121,982.422,-1000.000,891.602
1742211023.607,-259.766,971.191,-663.086,-893.555
1742211023.611,-981.445,971.191,406.738,25.391
1742211023.615,924.805,971.680,875.977,-1000.000
1742211023.619,-857.910,972.168,34.180,-728.027
1742211023.623,74.219,908.691,-870.117,635.742
1742211023.626,-547.852,-889.648,-709.473,-821.289
1742211023.630,863.281,189.941,378.418,15.625
1742211023.634,-845.703,-1000.000,880.859,-1000.000
1742211023.638,459.473,-984.375,-38.086,-1000.000
1742211023.642,-825.195,-973.145,-922.363,83.496
1742211023.599,-875.488,905.273,-316.406,-447.266
1742211023.603,224.121,982.422,-1000.000,891.602
1742211023.607,-259.766,971.191,-663.086,-893.555
1742211023.611,-981.445,971.191,406.738,25.391
1742211023.615,924.805,971.680,875.977,-1000.000
1742211023.619,-857.910,972.168,34.180,-728.027
1742211023.623,74.219,908.691,-870.117,635.742
1742211023.626,-547.852,-889.648,-709.473,-821.289
1742211023.630,863.281,189.941,378.418,15.625
1742211023.634,-845.703,-1000.000,880.859,-1000.000
1742211023.638,459.473,-984.375,-38.086,-1000.000
1742211023.642,-825.195,-973.145,-922.363,83.496
1742211023.659,-1000.000,-1000.000,-885.254,-890.137
1742211023.663,-389.648,-1000.000,178.711,-354.980
1742211023.667,972.168,-1000.000,856.934,-1000.000
1742211023.671,945.312,-1000.000,46.875,-1000.000
1742211023.675,-361.328,-1000.000,-806.152,-187.012
1742211023.679,-1000.000,-1000.000,-874.023,-838.379
1742211023.683,-454.590,-998.047,236.816,-99.121
1742211023.686,920.410,-1000.000,995.605,-1000.000
1742211023.690,-989.258,-1000.000,207.031,-1000.000
1742211023.694,-286.133,-1000.000,-772.949,-266.602
1742211023.698,-1000.000,-1000.000,-989.746,-827.637
