timestamps,TP9,AF7,AF8,TP10
1742212041.021,-758.301,-243.652,-2.930,-737.793
1742212041.025,-1000.000,-121.582,6.348,-1000.000
1742212041.029,-83.496,60.547,8.789,-275.879
1742212041.033,999.512,74.707,3.418,999.512
1742212041.037,679.199,-167.480,4.395,698.242
1742212041.041,-708.008,-184.082,3.906,-711.426
1742212041.045,-1000.000,-107.910,-2.930,-1000.000
1742212041.048,-509.766,-62.988,-3.418,-596.680
1742212041.052,922.852,-17.090,2.441,872.070
1742212041.056,873.047,-227.539,5.859,866.699
1742212041.060,-602.051,-321.289,4.883,-628.906
1742212041.064,-1000.000,-182.617,-0.977,-1000.000
1742212041.081,-453.125,-17.578,-3.906,-566.406
1742212041.085,945.312,46.875,-7.324,880.859
1742212041.089,868.164,-143.066,-21.484,878.906
1742212041.093,-584.961,-303.223,-26.855,-611.816
1742212041.097,-1000.000,-187.988,-36.621,-1000.000
1742212041.101,-765.137,-35.645,-43.457,-826.660
1742212041.105,728.516,139.160,-40.527,657.715
1742212041.108,936.035,-106.445,-49.316,952.148
1742212041.112,-596.680,-373.535,-51.270,-599.121
1742212041.116,-1000.000,-166.504,-48.828,-1000.000
1742212041.120,-645.996,27.832,-43.457,-697.266
1742212041.124,834.473,49.316,-36.133,778.809
1742212041.081,-453.125,-17.578,-3.906,-566.406
1742212041.085,945.312,46.875,-7.324,880.859
1742212041.089,868.164,-143.066,-21.484,878.906
1742212041.093,-584.961,-303.223,-26.855,-611.816
1742212041.097,-1000.000,-187.988,-36.621,-1000.000
1742212041.101,-765.137,-35.645,-43.457,-826.660
1742212041.105,728.516,139.160,-40.527,657.715
1742212041.108,936.035,-106.445,-49.316,952.148
1742212041.112,-596.680,-373.535,-51.270,-599.121
1742212041.116,-1000.000,-166.504,-48.828,-1000.000
1742212041.120,-645.996,27.832,-43.457,-697.266
1742212041.124,834.473,49.316,-36.133,778.809
1742212041.126,909.668,-171.875,-38.574,928.711
1742212041.130,-601.074,-334.473,-45.410,-594.727
1742212041.134,-1000.000,-194.336,-48.828,-1000.000
1742212041.138,-808.105,-46.875,-48.828,-810.059
1742212041.142,524.902,85.938,-41.504,512.695
1742212041.146,999.512,20.020,-33.203,999.512
1742212041.150,51.758,-205.566,-39.062,144.043
1742212041.153,-1000.000,-264.648,-44.434,-1000.000
1742212041.157,-957.031,-99.121,-44.434,-1000.000
1742212041.161,395.996,116.699,-44.922,326.172
1742212041.165,999.512,39.551,-43.457,999.512
1742212041.169,64.453,-232.910,-48.828,127.930
1742212041.126,909.668,-171.875,-38.574,928.711
1742212041.130,-601.074,-334.473,-45.410,-594.727
1742212041.134,-1000.000,-194.336,-48.828,-1000.000
1742212041.138,-808.105,-46.875,-48.828,-810.059
1742212041.142,524.902,85.938,-41.504,512.695
1742212041.146,999.512,20.020,-33.203,999.512
1742212041.150,51.758,-205.566,-39.062,144.043
1742212041.153,-1000.000,-264.648,-44.434,-1000.000
1742212041.157,-957.031,-99.121,-44.434,-1000.000
1742212041.161,395.996,116.699,-44.922,326.172
1742212041.165,999.512,39.551,-43.457,999.512
1742212041.169,64.453,-232.910,-48.828,127.930
1742212041.171,-1000.000,-198.242,-50.781,-1000.000
1742212041.175,-983.887,-97.656,-38.086,-1000.000
1742212041.179,291.016,89.355,-30.762,192.871
1742212041.183,999.512,49.805,-31.738,999.512
1742212041.187,364.258,-210.938,-31.738,369.629
1742212041.191,-919.922,-184.082,-37.598,-896.484
1742212041.195,-1000.000,-56.152,-42.969,-1000.000
1742212041.198,69.336,47.852,-43.945,-69.336
1742212041.202,999.512,24.414,-48.340,999.512
1742212041.206,517.578,-158.203,-54.688,513.184
1742212041.210,-863.770,-162.598,-53.223,-847.168
1742212041.214,-1000.000,-114.746,-49.805,-1000.000
1742212041.171,-1000.000,-198.242,-50.781,-1000.000
1742212041.175,-983.887,-97.656,-38.086,-1000.000
1742212041.179,291.016,89.355,-30.762,192.871
1742212041.183,999.512,49.805,-31.738,999.512
1742212041.187,364.258,-210.938,-31.738,369.629
1742212041.191,-919.922,-184.082,-37.598,-896.484
1742212041.195,-1000.000,-56.152,-42.969,-1000.000
1742212041.198,69.336,47.852,-43.945,-69.336
1742212041.202,999.512,24.414,-48.340,999.512
1742212041.206,517.578,-158.203,-54.688,513.184
1742212041.210,-863.770,-162.598,-53.223,-847.168
1742212041.214,-1000.000,-114.746,-49.805,-1000.000
1742212041.171,-1000.000,-198.242,-50.781,-1000.000
1742212041.175,-983.887,-97.656,-38.086,-1000.000
1742212041.179,291.016,89.355,-30.762,192.871
1742212041.183,999.512,49.805,-31.738,999.512
1742212041.187,364.258,-210.938,-31.738,369.629
1742212041.191,-919.922,-184.082,-37.598,-896.484
1742212041.195,-1000.000,-56.152,-42.969,-1000.000
1742212041.198,69.336,47.852,-43.945,-69.336
1742212041.202,999.512,24.414,-48.340,999.512
1742212041.206,517.578,-158.203,-54.688,513.184
1742212041.210,-863.770,-162.598,-53.223,-847.168
1742212041.214,-1000.000,-114.746,-49.805,-1000.000
1742212041.217,57.129,41.016,-45.898,-103.516
1742212041.221,999.512,52.734,-39.551,999.512
1742212041.225,749.512,-97.656,-29.297,755.859
1742212041.229,-590.332,-203.613,-26.855,-615.723
1742212041.233,-1000.000,-177.246,-38.086,-1000.000
1742212041.237,-652.832,-19.531,-39.062,-701.172
1742212041.241,836.426,150.391,-31.250,793.945
1742212041.244,901.855,-123.535,-39.551,891.602
1742212041.248,-613.770,-305.176,-46.387,-632.324
1742212041.252,-1000.000,-113.281,-47.363,-1000.000
1742212041.256,-445.312,61.035,-47.363,-578.613
1742212041.260,946.777,125.488,-46.387,870.605
1742212041.261,871.582,-104.980,-48.340,892.090
1742212041.265,-575.684,-268.066,-41.016,-597.168
1742212041.269,-1000.000,-104.004,-41.016,-1000.000
1742212041.273,-684.082,35.156,-52.246,-764.648
1742212041.277,769.043,110.352,-50.781,678.711
1742212041.281,993.164,17.090,-42.480,999.512
1742212041.285,-479.980,-204.102,-46.387,-452.148
1742212041.288,-1000.000,-192.383,-48.340,-1000.000
1742212041.292,-848.145,-54.688,-41.016,-860.352
1742212041.296,618.652,169.922,-36.133,598.145
1742212041.300,995.117,15.625,-45.410,999.512
1742212041.304,-545.410,-333.984,-47.363,-515.625
1742212041.306,-1000.000,-187.988,-41.504,-1000.000
1742212041.310,-819.824,23.438,-39.062,-853.516
1742212041.314,609.375,136.719,-42.480,570.801
1742212041.318,999.512,-5.859,-44.922,999.512
1742212041.322,-418.457,-269.043,-41.992,-406.250
1742212041.326,-1000.000,-117.188,-36.621,-1000.000
1742212041.330,-858.398,24.902,-40.039,-874.512
1742212041.333,576.172,127.930,-40.527,545.410
1742212041.337,999.512,-47.852,-39.062,999.512
1742212041.341,-433.105,-328.613,-38.086,-401.367
1742212041.345,-1000.000,-146.973,-45.898,-1000.000
1742212041.349,-839.355,20.508,-53.711,-883.789
1742212041.306,-1000.000,-187.988,-41.504,-1000.000
1742212041.310,-819.824,23.438,-39.062,-853.516
1742212041.314,609.375,136.719,-42.480,570.801
1742212041.318,999.512,-5.859,-44.922,999.512
1742212041.322,-418.457,-269.043,-41.992,-406.250
1742212041.326,-1000.000,-117.188,-36.621,-1000.000
1742212041.330,-858.398,24.902,-40.039,-874.512
1742212041.333,576.172,127.930,-40.527,545.410
1742212041.337,999.512,-47.852,-39.062,999.512
1742212041.341,-433.105,-328.613,-38.086,-401.367
1742212041.345,-1000.000,-146.973,-45.898,-1000.000
1742212041.349,-839.355,20.508,-53.711,-883.789
1742212041.351,460.449,181.641,-45.898,382.324
1742212041.355,999.512,125.000,-40.039,999.512
1742212041.359,205.566,-100.098,-49.316,261.230
1742212041.363,-944.824,-77.637,-55.176,-906.738
1742212041.367,-1000.000,8.789,-48.340,-1000.000
1742212041.371,-165.527,157.715,-48.340,-272.949
1742212041.375,999.512,238.770,-47.363,999.512
1742212041.378,531.250,-125.977,-46.875,547.852
1742212041.382,-936.523,-247.070,-51.270,-905.762
1742212041.386,-1000.000,-60.059,-51.270,-1000.000
1742212041.390,331.055,194.824,-48.828,204.102
1742212041.394,999.512,67.383,-51.270,999.512
1742212041.351,460.449,181.641,-45.898,382.324
1742212041.355,999.512,125.000,-40.039,999.512
1742212041.359,205.566,-100.098,-49.316,261.230
1742212041.363,-944.824,-77.637,-55.176,-906.738
1742212041.367,-1000.000,8.789,-48.340,-1000.000
1742212041.371,-165.527,157.715,-48.340,-272.949
1742212041.375,999.512,238.770,-47.363,999.512
1742212041.378,531.250,-125.977,-46.875,547.852
1742212041.382,-936.523,-247.070,-51.270,-905.762
1742212041.386,-1000.000,-60.059,-51.270,-1000.000
1742212041.390,331.055,194.824,-48.828,204.102
1742212041.394,999.512,67.383,-51.270,999.512
1742212041.396,331.543,-239.746,-56.152,379.883
1742212041.400,-925.293,-206.543,-49.316,-882.812
1742212041.404,-1000.000,-49.805,-41.504,-1000.000
1742212041.408,19.043,120.605,-39.551,-174.316
1742212041.412,999.512,131.348,-42.480,999.512
1742212041.416,798.828,-14.160,-40.039,821.777
1742212041.420,-548.828,-203.613,-41.016,-569.824
1742212041.423,-1000.000,-218.750,-43.945,-1000.000
1742212041.427,-850.098,-56.641,-34.180,-850.586
1742212041.431,619.141,157.715,-27.344,610.840
1742212041.435,981.934,22.461,-26.367,996.094
1742212041.439,-562.012,-284.668,-32.227,-542.969
1742212041.396,331.543,-239.746,-56.152,379.883
1742212041.400,-925.293,-206.543,-49.316,-882.812
1742212041.404,-1000.000,-49.805,-41.504,-1000.000
1742212041.408,19.043,120.605,-39.551,-174.316
1742212041.412,999.512,131.348,-42.480,999.512
1742212041.416,798.828,-14.160,-40.039,821.777
1742212041.420,-548.828,-203.613,-41.016,-569.824
1742212041.423,-1000.000,-218.750,-43.945,-1000.000
1742212041.427,-850.098,-56.641,-34.180,-850.586
1742212041.431,619.141,157.715,-27.344,610.840
1742212041.435,981.934,22.461,-26.367,996.094
1742212041.439,-562.012,-284.668,-32.227,-542.969
1742212041.456,-1000.000,-143.066,-34.668,-1000.000
1742212041.460,-723.145,35.156,-35.156,-822.754
1742212041.464,760.742,160.156,-34.668,654.785
1742212041.468,937.988,-17.090,-26.855,970.703
1742212041.472,-581.543,-236.328,-21.973,-569.824
1742212041.476,-1000.000,-32.227,-24.902,-1000.000
1742212041.480,-600.586,110.352,-29.785,-743.164
1742212041.483,849.609,104.004,-34.668,727.539
1742212041.487,922.852,-69.336,-36.133,969.238
1742212041.491,-566.406,-213.379,-37.598,-548.828
1742212041.495,-1000.000,-91.797,-38.086,-1000.000
1742212041.499,-840.332,-1.465,-38.574,-852.539
1742212041.456,-1000.000,-143.066,-34.668,-1000.000
1742212041.460,-723.145,35.156,-35.156,-822.754
1742212041.464,760.742,160.156,-34.668,654.785
1742212041.468,937.988,-17.090,-26.855,970.703
1742212041.472,-581.543,-236.328,-21.973,-569.824
1742212041.476,-1000.000,-32.227,-24.902,-1000.000
1742212041.480,-600.586,110.352,-29.785,-743.164
1742212041.483,849.609,104.004,-34.668,727.539
1742212041.487,922.852,-69.336,-36.133,969.238
1742212041.491,-566.406,-213.379,-37.598,-548.828
1742212041.495,-1000.000,-91.797,-38.086,-1000.000
1742212041.499,-840.332,-1.465,-38.574,-852.539
1742212041.501,560.059,169.922,-43.945,542.480
1742212041.505,999.512,57.129,-44.922,999.512
1742212041.509,-324.707,-219.727,-35.645,-299.805
1742212041.513,-1000.000,-102.051,-24.414,-1000.000
1742212041.517,-838.379,-6.836,-25.879,-868.164
1742212041.521,524.902,146.973,-27.832,484.375
1742212041.525,999.512,76.172,-25.879,999.512
1742212041.528,-46.875,-270.508,-32.715,-14.648
1742212041.532,-1000.000,-247.070,-35.645,-1000.000
1742212041.536,-881.348,-55.176,-38.574,-951.660
1742212041.540,483.398,154.785,-33.691,371.094
1742212041.544,999.512,73.730,-29.785,999.512
1742212041.501,560.059,169.922,-43.945,542.480
1742212041.505,999.512,57.129,-44.922,999.512
1742212041.509,-324.707,-219.727,-35.645,-299.805
1742212041.513,-1000.000,-102.051,-24.414,-1000.000
1742212041.517,-838.379,-6.836,-25.879,-868.164
1742212041.521,524.902,146.973,-27.832,484.375
1742212041.525,999.512,76.172,-25.879,999.512
1742212041.528,-46.875,-270.508,-32.715,-14.648
1742212041.532,-1000.000,-247.070,-35.645,-1000.000
1742212041.536,-881.348,-55.176,-38.574,-951.660
1742212041.540,483.398,154.785,-33.691,371.094
1742212041.544,999.512,73.730,-29.785,999.512
1742212041.546,167.480,-205.566,-31.738,184.570
1742212041.550,-1000.000,-187.988,-30.273,-1000.000
1742212041.554,-941.895,11.230,-27.344,-1000.000
1742212041.558,395.996,205.078,-23.926,275.391
1742212041.562,999.512,145.508,-29.297,999.512
1742212041.566,638.184,-49.805,-36.133,639.648
1742212041.570,-675.293,-128.906,-34.180,-661.621
1742212041.573,-1000.000,-65.918,-31.738,-1000.000
1742212041.577,-451.172,26.855,-34.180,-550.781
1742212041.581,950.195,162.598,-35.645,894.043
1742212041.585,861.816,-7.812,-38.574,861.328
1742212041.589,-588.379,-216.309,-41.992,-620.117
1742212041.546,167.480,-205.566,-31.738,184.570
1742212041.550,-1000.000,-187.988,-30.273,-1000.000
1742212041.554,-941.895,11.230,-27.344,-1000.000
1742212041.558,395.996,205.078,-23.926,275.391
1742212041.562,999.512,145.508,-29.297,999.512
1742212041.566,638.184,-49.805,-36.133,639.648
1742212041.570,-675.293,-128.906,-34.180,-661.621
1742212041.573,-1000.000,-65.918,-31.738,-1000.000
1742212041.577,-451.172,26.855,-34.180,-550.781
1742212041.581,950.195,162.598,-35.645,894.043
1742212041.585,861.816,-7.812,-38.574,861.328
1742212041.589,-588.379,-216.309,-41.992,-620.117
1742212041.591,-1000.000,-114.258,-51.270,-1000.000
1742212041.595,-617.188,32.227,-47.852,-698.242
1742212041.599,851.562,180.176,-35.156,785.156
1742212041.603,918.945,4.883,-36.621,924.805
1742212041.607,-599.609,-205.566,-37.109,-609.863
1742212041.611,-1000.000,-35.645,-33.203,-1000.000
1742212041.615,-289.062,120.605,-29.785,-404.785
1742212041.618,999.512,116.211,-30.273,961.426
1742212041.622,833.496,-57.129,-37.598,846.191
1742212041.626,-581.055,-258.789,-30.762,-599.121
1742212041.630,-1000.000,-102.539,-28.320,-1000.000
1742212041.634,-578.125,87.402,-31.738,-679.199
1742212041.591,-1000.000,-114.258,-51.270,-1000.000
1742212041.595,-617.188,32.227,-47.852,-698.242
1742212041.599,851.562,180.176,-35.156,785.156
1742212041.603,918.945,4.883,-36.621,924.805
1742212041.607,-599.609,-205.566,-37.109,-609.863
1742212041.611,-1000.000,-35.645,-33.203,-1000.000
1742212041.615,-289.062,120.605,-29.785,-404.785
1742212041.618,999.512,116.211,-30.273,961.426
1742212041.622,833.496,-57.129,-37.598,846.191
1742212041.626,-581.055,-258.789,-30.762,-599.121
1742212041.630,-1000.000,-102.539,-28.320,-1000.000
1742212041.634,-578.125,87.402,-31.738,-679.199
1742212041.636,875.488,164.062,-23.926,786.621
1742212041.640,901.855,-24.414,-17.578,947.754
1742212041.644,-581.055,-203.613,-14.160,-553.711
1742212041.648,-1000.000,-87.891,-18.555,-1000.000
1742212041.652,-772.461,68.848,-26.367,-813.965
1742212041.656,682.129,222.656,-26.855,620.605
1742212041.660,999.512,65.918,-26.855,999.512
1742212041.663,-473.145,-244.141,-24.902,-426.270
1742212041.667,-1000.000,-160.156,-22.461,-1000.000
1742212041.671,-806.152,89.844,-22.461,-838.867
1742212041.675,653.809,267.090,-24.902,607.910
1742212041.679,999.512,-13.184,-30.762,999.512
1742212041.682,-496.582,-300.781,-37.109,-456.543
1742212041.686,-1000.000,-154.785,-33.691,-1000.000
1742212041.690,-803.223,51.758,-26.855,-829.590
1742212041.694,485.352,186.035,-25.879,458.008
1742212041.698,999.512,73.242,-25.391,999.512
1742212041.702,421.875,-63.477,-19.531,405.762
1742212041.706,-888.184,-126.465,-25.879,-855.469
1742212041.709,-1000.000,-67.383,-40.527,-1000.000
1742212041.713,103.027,130.371,-41.016,-60.547
1742212041.717,999.512,115.234,-34.180,999.512
1742212041.721,604.004,-53.223,-25.391,595.703
1742212041.725,-862.793,-128.418,-19.531,-852.539
1742212041.682,-496.582,-300.781,-37.109,-456.543
1742212041.686,-1000.000,-154.785,-33.691,-1000.000
1742212041.690,-803.223,51.758,-26.855,-829.590
1742212041.694,485.352,186.035,-25.879,458.008
1742212041.698,999.512,73.242,-25.391,999.512
1742212041.702,421.875,-63.477,-19.531,405.762
1742212041.706,-888.184,-126.465,-25.879,-855.469
1742212041.709,-1000.000,-67.383,-40.527,-1000.000
1742212041.713,103.027,130.371,-41.016,-60.547
1742212041.717,999.512,115.234,-34.180,999.512
1742212041.721,604.004,-53.223,-25.391,595.703
1742212041.725,-862.793,-128.418,-19.531,-852.539
1742212041.727,-1000.000,-6.836,-26.367,-1000.000
1742212041.731,362.793,264.648,-30.273,271.973
1742212041.735,999.512,101.562,-31.250,999.512
1742212041.739,490.723,-154.297,-38.574,487.793
1742212041.743,-887.695,-151.855,-37.598,-848.633
1742212041.747,-1000.000,36.621,-32.715,-1000.000
1742212041.751,269.531,219.238,-27.344,77.148
1742212041.754,999.512,114.258,-30.273,999.512
1742212041.758,579.590,-107.422,-35.156,591.797
1742212041.762,-732.910,-131.836,-36.133,-731.934
1742212041.766,-1000.000,-14.160,-38.574,-1000.000
1742212041.770,-579.102,46.387,-34.668,-681.152
1742212041.727,-1000.000,-6.836,-26.367,-1000.000
1742212041.731,362.793,264.648,-30.273,271.973
1742212041.735,999.512,101.562,-31.250,999.512
1742212041.739,490.723,-154.297,-38.574,487.793
1742212041.743,-887.695,-151.855,-37.598,-848.633
1742212041.747,-1000.000,36.621,-32.715,-1000.000
1742212041.751,269.531,219.238,-27.344,77.148
1742212041.754,999.512,114.258,-30.273,999.512
1742212041.758,579.590,-107.422,-35.156,591.797
1742212041.762,-732.910,-131.836,-36.133,-731.934
1742212041.766,-1000.000,-14.160,-38.574,-1000.000
1742212041.770,-579.102,46.387,-34.668,-681.152
1742212041.771,882.812,156.738,-29.297,809.082
1742212041.775,894.043,-19.531,-34.180,903.320
1742212041.779,-584.473,-216.309,-38.086,-611.328
1742212041.783,-1000.000,-55.176,-38.086,-1000.000
1742212041.787,-710.938,84.473,-38.574,-750.000
1742212041.791,784.668,243.164,-33.203,735.840
1742212041.795,922.852,31.250,-37.598,929.199
1742212041.798,-602.539,-267.578,-36.621,-611.328
1742212041.802,-1000.000,-96.191,-24.414,-1000.000
1742212041.806,-815.918,52.246,-26.367,-839.844
1742212041.810,653.320,183.105,-33.691,614.258
1742212041.814,984.375,32.715,-38.574,999.512
1742212041.771,882.812,156.738,-29.297,809.082
1742212041.775,894.043,-19.531,-34.180,903.320
1742212041.779,-584.473,-216.309,-38.086,-611.328
1742212041.783,-1000.000,-55.176,-38.086,-1000.000
1742212041.787,-710.938,84.473,-38.574,-750.000
1742212041.791,784.668,243.164,-33.203,735.840
1742212041.795,922.852,31.250,-37.598,929.199
1742212041.798,-602.539,-267.578,-36.621,-611.328
1742212041.802,-1000.000,-96.191,-24.414,-1000.000
1742212041.806,-815.918,52.246,-26.367,-839.844
1742212041.810,653.320,183.105,-33.691,614.258
1742212041.814,984.375,32.715,-38.574,999.512
1742212041.831,-551.758,-237.793,-34.180,-515.137
1742212041.835,-1000.000,-137.695,-33.691,-1000.000
1742212041.839,-836.426,35.156,-41.016,-840.820
1742212041.843,579.102,136.719,-35.645,569.824
1742212041.847,999.512,-35.645,-37.109,999.512
1742212041.851,-375.977,-295.898,-42.969,-354.004
1742212041.855,-1000.000,-150.879,-38.574,-1000.000
1742212041.858,-869.141,-36.133,-36.133,-910.645
1742212041.862,470.703,114.258,-41.504,389.648
1742212041.866,999.512,126.465,-43.457,999.512
1742212041.870,-56.152,-222.168,-42.969,10.742
1742212041.874,-1000.000,-232.422,-39.551,-1000.000
1742212041.831,-551.758,-237.793,-34.180,-515.137
1742212041.835,-1000.000,-137.695,-33.691,-1000.000
1742212041.839,-836.426,35.156,-41.016,-840.820
1742212041.843,579.102,136.719,-35.645,569.824
1742212041.847,999.512,-35.645,-37.109,999.512
1742212041.851,-375.977,-295.898,-42.969,-354.004
1742212041.855,-1000.000,-150.879,-38.574,-1000.000
1742212041.858,-869.141,-36.133,-36.133,-910.645
1742212041.862,470.703,114.258,-41.504,389.648
1742212041.866,999.512,126.465,-43.457,999.512
1742212041.870,-56.152,-222.168,-42.969,10.742
1742212041.874,-1000.000,-232.422,-39.551,-1000.000
1742212041.876,-918.945,-7.812,-31.250,-973.633
1742212041.880,452.637,183.105,-29.297,360.840
1742212041.884,999.512,123.535,-30.762,999.512
1742212041.888,-20.508,-188.477,-36.133,51.758
1742212041.892,-1000.000,-181.152,-34.668,-1000.000
1742212041.896,-850.098,71.777,-26.367,-896.484
1742212041.900,514.160,249.023,-23.438,466.797
1742212041.903,999.512,92.773,-19.043,999.512
1742212041.907,315.430,-106.445,-20.020,337.402
1742212041.911,-928.223,-205.566,-22.949,-886.230
1742212041.915,-1000.000,-78.125,-22.949,-1000.000
1742212041.919,63.965,166.016,-31.250,-106.934
1742212041.876,-918.945,-7.812,-31.250,-973.633
1742212041.880,452.637,183.105,-29.297,360.840
1742212041.884,999.512,123.535,-30.762,999.512
1742212041.888,-20.508,-188.477,-36.133,51.758
1742212041.892,-1000.000,-181.152,-34.668,-1000.000
1742212041.896,-850.098,71.777,-26.367,-896.484
1742212041.900,514.160,249.023,-23.438,466.797
1742212041.903,999.512,92.773,-19.043,999.512
1742212041.907,315.430,-106.445,-20.020,337.402
1742212041.911,-928.223,-205.566,-22.949,-886.230
1742212041.915,-1000.000,-78.125,-22.949,-1000.000
1742212041.919,63.965,166.016,-31.250,-106.934
1742212041.921,999.512,135.254,-36.621,999.512
1742212041.925,564.453,-120.117,-21.484,578.125
1742212041.929,-805.664,-159.668,-13.184,-796.387
1742212041.933,-1000.000,-49.805,-18.066,-1000.000
1742212041.937,-164.062,132.324,-17.578,-255.859
1742212041.941,999.512,207.031,-12.207,999.512
1742212041.945,767.578,-46.387,-6.348,804.199
1742212041.948,-619.141,-230.957,-10.742,-604.492
1742212041.952,-1000.000,-168.945,-23.438,-1000.000
1742212041.956,-629.395,40.527,-31.738,-672.363
1742212041.960,859.863,186.035,-30.273,816.406
1742212041.964,877.930,-97.656,-35.645,882.324
1742212041.921,999.512,135.254,-36.621,999.512
1742212041.925,564.453,-120.117,-21.484,578.125
1742212041.929,-805.664,-159.668,-13.184,-796.387
1742212041.933,-1000.000,-49.805,-18.066,-1000.000
1742212041.937,-164.062,132.324,-17.578,-255.859
1742212041.941,999.512,207.031,-12.207,999.512
1742212041.945,767.578,-46.387,-6.348,804.199
1742212041.948,-619.141,-230.957,-10.742,-604.492
1742212041.952,-1000.000,-168.945,-23.438,-1000.000
1742212041.956,-629.395,40.527,-31.738,-672.363
1742212041.960,859.863,186.035,-30.273,816.406
1742212041.964,877.930,-97.656,-35.645,882.324
1742212041.966,-621.582,-279.297,-38.574,-632.812
1742212041.970,-1000.000,-111.328,-31.250,-1000.000
1742212041.974,-654.785,76.660,-28.809,-708.008
1742212041.978,829.102,174.805,-24.902,768.066
1742212041.982,911.621,-16.602,-17.578,938.477
1742212041.986,-603.027,-180.664,-12.207,-583.984
1742212041.990,-1000.000,-89.844,-11.719,-1000.000
1742212041.993,-859.863,-28.320,-15.137,-856.934
1742212041.997,565.430,136.719,-22.949,561.523
1742212042.001,999.512,5.859,-24.902,999.512
1742212042.005,-433.105,-213.867,-19.531,-403.809
1742212042.009,-1000.000,-122.070,-19.531,-1000.000
1742212041.966,-621.582,-279.297,-38.574,-632.812
1742212041.970,-1000.000,-111.328,-31.250,-1000.000
1742212041.974,-654.785,76.660,-28.809,-708.008
1742212041.978,829.102,174.805,-24.902,768.066
1742212041.982,911.621,-16.602,-17.578,938.477
1742212041.986,-603.027,-180.664,-12.207,-583.984
1742212041.990,-1000.000,-89.844,-11.719,-1000.000
1742212041.993,-859.863,-28.320,-15.137,-856.934
1742212041.997,565.430,136.719,-22.949,561.523
1742212042.001,999.512,5.859,-24.902,999.512
1742212042.005,-433.105,-213.867,-19.531,-403.809
1742212042.009,-1000.000,-122.070,-19.531,-1000.000
1742212042.012,-860.352,43.457,-21.973,-854.980
1742212042.016,566.895,236.816,-18.066,567.383
1742212042.020,999.512,14.648,-23.438,999.512
1742212042.024,-408.203,-289.062,-24.414,-366.699
1742212042.028,-1000.000,-159.668,-19.531,-1000.000
1742212042.032,-861.328,64.453,-22.461,-851.562
1742212042.036,576.172,180.176,-22.949,579.102
1742212042.039,999.512,-26.367,-19.043,999.512
1742212042.043,-448.730,-278.320,-14.648,-396.484
1742212042.047,-1000.000,-122.070,-13.672,-1000.000
1742212042.051,-888.184,69.336,-16.602,-925.781
1742212042.055,384.277,171.387,-17.090,304.199
1742212042.012,-860.352,43.457,-21.973,-854.980
1742212042.016,566.895,236.816,-18.066,567.383
1742212042.020,999.512,14.648,-23.438,999.512
1742212042.024,-408.203,-289.062,-24.414,-366.699
1742212042.028,-1000.000,-159.668,-19.531,-1000.000
1742212042.032,-861.328,64.453,-22.461,-851.562
1742212042.036,576.172,180.176,-22.949,579.102
1742212042.039,999.512,-26.367,-19.043,999.512
1742212042.043,-448.730,-278.320,-14.648,-396.484
1742212042.047,-1000.000,-122.070,-13.672,-1000.000
1742212042.051,-888.184,69.336,-16.602,-925.781
1742212042.055,384.277,171.387,-17.090,304.199
1742212042.056,999.512,101.074,-15.137,999.512
1742212042.060,177.734,-137.695,-12.207,229.492
1742212042.064,-1000.000,-162.109,-8.789,-980.957
1742212042.068,-996.094,14.648,-8.789,-1000.000
1742212042.072,291.016,174.805,-10.254,193.848
1742212042.076,999.512,168.457,-4.883,999.512
1742212042.080,470.215,-79.102,-14.160,479.004
1742212042.083,-804.199,-205.566,-24.414,-793.945
1742212042.087,-1000.000,-91.309,-25.391,-1000.000
1742212042.091,-569.336,45.410,-24.414,-617.676
1742212042.095,903.320,167.480,-19.531,867.676
1742212042.099,875.000,-18.555,-16.113,867.188
1742212042.056,999.512,101.074,-15.137,999.512
1742212042.060,177.734,-137.695,-12.207,229.492
1742212042.064,-1000.000,-162.109,-8.789,-980.957
1742212042.068,-996.094,14.648,-8.789,-1000.000
1742212042.072,291.016,174.805,-10.254,193.848
1742212042.076,999.512,168.457,-4.883,999.512
1742212042.080,470.215,-79.102,-14.160,479.004
1742212042.083,-804.199,-205.566,-24.414,-793.945
1742212042.087,-1000.000,-91.309,-25.391,-1000.000
1742212042.091,-569.336,45.410,-24.414,-617.676
1742212042.095,903.320,167.480,-19.531,867.676
1742212042.099,875.000,-18.555,-16.113,867.188
1742212042.101,-611.816,-163.086,-7.812,-634.277
1742212042.105,-1000.000,-39.062,-10.254,-1000.000
1742212042.109,-475.586,121.094,-23.926,-543.457
1742212042.113,938.965,175.293,-28.809,894.531
1742212042.117,863.770,-17.090,-28.320,860.840
1742212042.121,-602.539,-106.934,-19.531,-624.512
1742212042.125,-1000.000,0.488,-13.184,-1000.000
1742212042.128,-485.352,76.660,-10.742,-567.383
1742212042.132,927.734,94.727,-14.160,874.512
1742212042.136,877.930,-31.250,-17.090,881.348
1742212042.140,-585.449,-150.391,-9.766,-610.352
1742212042.144,-1000.000,-104.004,-7.324,-1000.000
1742212042.101,-611.816,-163.086,-7.812,-634.277
1742212042.105,-1000.000,-39.062,-10.254,-1000.000
1742212042.109,-475.586,121.094,-23.926,-543.457
1742212042.113,938.965,175.293,-28.809,894.531
1742212042.117,863.770,-17.090,-28.320,860.840
1742212042.121,-602.539,-106.934,-19.531,-624.512
1742212042.125,-1000.000,0.488,-13.184,-1000.000
1742212042.128,-485.352,76.660,-10.742,-567.383
1742212042.132,927.734,94.727,-14.160,874.512
1742212042.136,877.930,-31.250,-17.090,881.348
1742212042.140,-585.449,-150.391,-9.766,-610.352
1742212042.144,-1000.000,-104.004,-7.324,-1000.000
1742212042.146,-802.734,53.223,-2.441,-822.754
1742212042.150,682.129,193.359,2.930,645.996
1742212042.154,957.520,15.625,5.371,983.398
1742212042.158,-580.566,-196.777,1.465,-546.875
1742212042.162,-1000.000,-68.848,-4.395,-1000.000
1742212042.166,-597.656,156.250,-2.930,-697.754
1742212042.170,866.211,187.988,-5.859,786.133
1742212042.173,900.391,-89.844,-9.766,924.805
1742212042.177,-597.168,-215.332,-13.184,-600.586
1742212042.181,-1000.000,-94.238,-12.695,-1000.000
1742212042.185,-836.426,10.742,-3.418,-848.633
1742212042.189,583.984,172.363,3.906,562.988
1742212042.146,-802.734,53.223,-2.441,-822.754
1742212042.150,682.129,193.359,2.930,645.996
1742212042.154,957.520,15.625,5.371,983.398
1742212042.158,-580.566,-196.777,1.465,-546.875
1742212042.162,-1000.000,-68.848,-4.395,-1000.000
1742212042.166,-597.656,156.250,-2.930,-697.754
1742212042.170,866.211,187.988,-5.859,786.133
1742212042.173,900.391,-89.844,-9.766,924.805
1742212042.177,-597.168,-215.332,-13.184,-600.586
1742212042.181,-1000.000,-94.238,-12.695,-1000.000
1742212042.185,-836.426,10.742,-3.418,-848.633
1742212042.189,583.984,172.363,3.906,562.988
1742212042.206,999.512,37.598,-0.488,999.512
1742212042.210,-398.438,-246.094,-11.719,-371.582
1742212042.214,-1000.000,-156.738,-11.719,-1000.000
1742212042.218,-813.965,55.176,-11.719,-834.473
1742212042.222,495.605,208.008,-9.766,473.633
1742212042.226,999.512,103.516,-9.277,999.512
1742212042.230,259.766,-88.867,-15.137,273.926
1742212042.233,-928.223,-172.363,-16.113,-893.555
1742212042.237,-1000.000,-85.938,-19.043,-1000.000
1742212042.241,-116.211,145.508,-13.184,-260.742
1742212042.245,999.512,159.180,-8.789,999.512
1742212042.249,706.543,-70.801,-13.672,690.918
1742212042.206,999.512,37.598,-0.488,999.512
1742212042.210,-398.438,-246.094,-11.719,-371.582
1742212042.214,-1000.000,-156.738,-11.719,-1000.000
1742212042.218,-813.965,55.176,-11.719,-834.473
1742212042.222,495.605,208.008,-9.766,473.633
1742212042.226,999.512,103.516,-9.277,999.512
1742212042.230,259.766,-88.867,-15.137,273.926
1742212042.233,-928.223,-172.363,-16.113,-893.555
1742212042.237,-1000.000,-85.938,-19.043,-1000.000
1742212042.241,-116.211,145.508,-13.184,-260.742
1742212042.245,999.512,159.180,-8.789,999.512
1742212042.249,706.543,-70.801,-13.672,690.918
1742212042.266,-748.047,-187.500,-7.812,-741.699
1742212042.270,-1000.000,-112.305,-6.836,-1000.000
1742212042.274,36.621,148.926,-11.230,-115.723
1742212042.278,999.512,125.977,-14.160,999.512
1742212042.282,540.527,-138.672,-12.207,542.480
1742212042.286,-800.293,-120.605,-5.371,-802.246
1742212042.290,-1000.000,-53.711,0.488,-1000.000
1742212042.293,-479.980,-12.695,-9.766,-549.805
1742212042.297,970.215,109.863,-26.855,918.945
1742212042.301,780.273,-49.805,-33.691,780.762
1742212042.305,-712.402,-126.953,-36.133,-702.148
1742212042.309,-1000.000,-9.766,-33.691,-1000.000
1742212042.266,-748.047,-187.500,-7.812,-741.699
1742212042.270,-1000.000,-112.305,-6.836,-1000.000
1742212042.274,36.621,148.926,-11.230,-115.723
1742212042.278,999.512,125.977,-14.160,999.512
1742212042.282,540.527,-138.672,-12.207,542.480
1742212042.286,-800.293,-120.605,-5.371,-802.246
1742212042.290,-1000.000,-53.711,0.488,-1000.000
1742212042.293,-479.980,-12.695,-9.766,-549.805
1742212042.297,970.215,109.863,-26.855,918.945
1742212042.301,780.273,-49.805,-33.691,780.762
1742212042.305,-712.402,-126.953,-36.133,-702.148
1742212042.309,-1000.000,-9.766,-33.691,-1000.000
1742212042.296,-340.820,112.305,-27.344,-483.887
1742212042.300,999.512,210.449,-27.344,942.383
1742212042.304,784.668,-50.781,-23.438,807.129
1742212042.308,-648.926,-201.172,-16.602,-656.738
1742212042.312,-1000.000,-72.754,-23.438,-1000.000
1742212042.316,-609.863,76.172,-27.344,-680.176
1742212042.320,872.559,224.121,-24.902,813.965
1742212042.323,868.164,-57.617,-25.391,876.465
1742212042.327,-633.301,-254.395,-22.949,-646.484
1742212042.331,-1000.000,-44.434,-25.391,-1000.000
1742212042.335,-791.992,88.379,-31.250,-822.754
1742212042.339,698.730,142.090,-27.344,662.598
1742212042.296,-340.820,112.305,-27.344,-483.887
1742212042.300,999.512,210.449,-27.344,942.383
1742212042.304,784.668,-50.781,-23.438,807.129
1742212042.308,-648.926,-201.172,-16.602,-656.738
1742212042.312,-1000.000,-72.754,-23.438,-1000.000
1742212042.316,-609.863,76.172,-27.344,-680.176
1742212042.320,872.559,224.121,-24.902,813.965
1742212042.323,868.164,-57.617,-25.391,876.465
1742212042.327,-633.301,-254.395,-22.949,-646.484
1742212042.331,-1000.000,-44.434,-25.391,-1000.000
1742212042.335,-791.992,88.379,-31.250,-822.754
1742212042.339,698.730,142.090,-27.344,662.598
1742212042.296,-340.820,112.305,-27.344,-483.887
1742212042.300,999.512,210.449,-27.344,942.383
1742212042.304,784.668,-50.781,-23.438,807.129
1742212042.308,-648.926,-201.172,-16.602,-656.738
1742212042.312,-1000.000,-72.754,-23.438,-1000.000
1742212042.316,-609.863,76.172,-27.344,-680.176
1742212042.320,872.559,224.121,-24.902,813.965
1742212042.323,868.164,-57.617,-25.391,876.465
1742212042.327,-633.301,-254.395,-22.949,-646.484
1742212042.331,-1000.000,-44.434,-25.391,-1000.000
1742212042.335,-791.992,88.379,-31.250,-822.754
1742212042.339,698.730,142.090,-27.344,662.598
1742212042.341,940.430,-24.902,-33.203,945.312
1742212042.345,-604.980,-230.469,-29.297,-613.281
1742212042.349,-1000.000,-77.637,-20.020,-1000.000
1742212042.353,-799.805,83.008,-24.414,-835.449
1742212042.357,683.105,181.152,-23.926,630.859
1742212042.361,960.449,-10.742,-24.902,992.676
1742212042.365,-594.727,-221.680,-33.203,-568.848
1742212042.368,-1000.000,-144.531,-42.969,-1000.000
1742212042.372,-884.766,-44.434,-41.016,-931.641
1742212042.376,443.359,164.062,-28.320,346.191
1742212042.380,999.512,97.656,-22.949,999.512
1742212042.384,-134.766,-171.387,-23.438,-94.727
1742212042.341,940.430,-24.902,-33.203,945.312
1742212042.345,-604.980,-230.469,-29.297,-613.281
1742212042.349,-1000.000,-77.637,-20.020,-1000.000
1742212042.353,-799.805,83.008,-24.414,-835.449
1742212042.357,683.105,181.152,-23.926,630.859
1742212042.361,960.449,-10.742,-24.902,992.676
1742212042.365,-594.727,-221.680,-33.203,-568.848
1742212042.368,-1000.000,-144.531,-42.969,-1000.000
1742212042.372,-884.766,-44.434,-41.016,-931.641
1742212042.376,443.359,164.062,-28.320,346.191
1742212042.380,999.512,97.656,-22.949,999.512
1742212042.384,-134.766,-171.387,-23.438,-94.727
1742212042.386,-1000.000,-142.578,-17.090,-1000.000
1742212042.390,-898.438,43.457,-17.090,-951.172
1742212042.394,520.508,231.934,-20.020,438.965
1742212042.398,999.512,54.688,-24.414,999.512
1742212042.402,-271.973,-224.121,-30.762,-240.234
1742212042.406,-1000.000,-83.984,-33.203,-1000.000
1742212042.410,-871.582,66.406,-33.203,-920.898
1742212042.413,524.902,204.590,-30.273,446.289
1742212042.417,999.512,38.086,-31.738,999.512
1742212042.421,-271.973,-198.242,-28.809,-234.863
1742212042.425,-1000.000,-62.988,-32.227,-1000.000
1742212042.429,-980.469,-12.207,-43.945,-1000.000
1742212042.431,134.277,147.949,-47.363,-22.461
1742212042.435,999.512,161.621,-50.781,999.512
1742212042.439,526.367,-91.309,-48.340,528.320
1742212042.443,-870.605,-166.504,-43.945,-848.145
1742212042.447,-1000.000,-46.875,-45.898,-1000.000
1742212042.451,218.262,225.098,-43.457,60.547
1742212042.455,999.512,157.715,-49.805,999.512
1742212042.458,340.820,-207.031,-55.664,378.906
1742212042.462,-891.113,-177.734,-49.805,-871.582
1742212042.466,-1000.000,-24.414,-47.852,-1000.000
1742212042.470,-358.398,48.340,-50.781,-502.930
1742212042.474,999.512,121.582,-38.086,937.988
1742212042.431,134.277,147.949,-47.363,-22.461
1742212042.435,999.512,161.621,-50.781,999.512
1742212042.439,526.367,-91.309,-48.340,528.320
1742212042.443,-870.605,-166.504,-43.945,-848.145
1742212042.447,-1000.000,-46.875,-45.898,-1000.000
1742212042.451,218.262,225.098,-43.457,60.547
1742212042.455,999.512,157.715,-49.805,999.512
1742212042.458,340.820,-207.031,-55.664,378.906
1742212042.462,-891.113,-177.734,-49.805,-871.582
1742212042.466,-1000.000,-24.414,-47.852,-1000.000
1742212042.470,-358.398,48.340,-50.781,-502.930
1742212042.474,999.512,121.582,-38.086,937.988
1742212042.476,835.449,-86.914,-31.738,841.309
1742212042.480,-590.332,-225.586,-32.227,-622.070
1742212042.484,-1000.000,-64.453,-37.109,-1000.000
1742212042.488,-570.801,65.918,-31.738,-683.105
1742212042.492,847.168,170.410,-18.555,752.930
1742212042.496,862.793,61.035,-21.973,904.785
1742212042.500,-521.973,-203.125,-26.855,-490.723
1742212042.503,-1000.000,-197.266,-29.785,-1000.000
1742212042.507,-862.305,6.836,-33.203,-863.281
1742212042.511,604.004,228.027,-33.691,596.191
1742212042.515,999.512,68.359,-31.250,999.512
1742212042.519,-514.648,-220.703,-33.691,-479.980
1742212042.476,835.449,-86.914,-31.738,841.309
1742212042.480,-590.332,-225.586,-32.227,-622.070
1742212042.484,-1000.000,-64.453,-37.109,-1000.000
1742212042.488,-570.801,65.918,-31.738,-683.105
1742212042.492,847.168,170.410,-18.555,752.930
1742212042.496,862.793,61.035,-21.973,904.785
1742212042.500,-521.973,-203.125,-26.855,-490.723
1742212042.503,-1000.000,-197.266,-29.785,-1000.000
1742212042.507,-862.305,6.836,-33.203,-863.281
1742212042.511,604.004,228.027,-33.691,596.191
1742212042.515,999.512,68.359,-31.250,999.512
1742212042.519,-514.648,-220.703,-33.691,-479.980
1742212042.522,-1000.000,-151.367,-28.320,-1000.000
1742212042.526,-851.074,1.953,-23.438,-855.469
1742212042.530,598.633,199.707,-23.438,586.914
1742212042.534,999.512,12.695,-24.902,999.512
1742212042.538,-492.676,-279.785,-25.391,-459.473
1742212042.542,-1000.000,-67.871,-17.578,-1000.000
1742212042.546,-816.406,74.707,-20.020,-822.266
1742212042.549,653.320,119.141,-25.391,629.883
1742212042.553,995.117,-13.184,-23.438,999.512
1742212042.557,-535.645,-275.879,-22.949,-479.004
1742212042.561,-1000.000,-119.629,-33.203,-1000.000
1742212042.565,-823.242,49.316,-39.551,-831.055
1742212042.522,-1000.000,-151.367,-28.320,-1000.000
1742212042.526,-851.074,1.953,-23.438,-855.469
1742212042.530,598.633,199.707,-23.438,586.914
1742212042.534,999.512,12.695,-24.902,999.512
1742212042.538,-492.676,-279.785,-25.391,-459.473
1742212042.542,-1000.000,-67.871,-17.578,-1000.000
1742212042.546,-816.406,74.707,-20.020,-822.266
1742212042.549,653.320,119.141,-25.391,629.883
1742212042.553,995.117,-13.184,-23.438,999.512
1742212042.557,-535.645,-275.879,-22.949,-479.004
1742212042.561,-1000.000,-119.629,-33.203,-1000.000
1742212042.565,-823.242,49.316,-39.551,-831.055
1742212042.581,509.277,175.781,-34.180,495.605
1742212042.585,999.512,105.957,-36.133,999.512
1742212042.589,54.688,-170.898,-42.480,114.258
1742212042.593,-1000.000,-226.074,-46.387,-1000.000
1742212042.597,-895.508,-6.836,-42.480,-947.754
1742212042.601,516.113,284.668,-32.227,443.848
1742212042.605,999.512,121.582,-21.973,999.512
1742212042.608,18.555,-230.469,-18.066,72.754
1742212042.612,-1000.000,-204.590,-21.973,-1000.000
1742212042.616,-856.934,54.199,-19.043,-903.320
1742212042.620,528.809,219.727,-9.277,474.609
1742212042.624,999.512,38.086,-4.883,999.512
1742212042.581,509.277,175.781,-34.180,495.605
1742212042.585,999.512,105.957,-36.133,999.512
1742212042.589,54.688,-170.898,-42.480,114.258
1742212042.593,-1000.000,-226.074,-46.387,-1000.000
1742212042.597,-895.508,-6.836,-42.480,-947.754
1742212042.601,516.113,284.668,-32.227,443.848
1742212042.605,999.512,121.582,-21.973,999.512
1742212042.608,18.555,-230.469,-18.066,72.754
1742212042.612,-1000.000,-204.590,-21.973,-1000.000
1742212042.616,-856.934,54.199,-19.043,-903.320
1742212042.620,528.809,219.727,-9.277,474.609
1742212042.624,999.512,38.086,-4.883,999.512
1742212042.626,214.844,-189.453,-12.207,247.559
1742212042.630,-1000.000,-184.082,-28.320,-957.031
1742212042.634,-993.164,-13.184,-28.809,-1000.000
1742212042.638,305.664,213.379,-24.902,123.047
1742212042.642,999.512,207.520,-23.438,999.512
1742212042.646,555.176,-81.543,-26.855,548.828
1742212042.650,-763.672,-141.602,-29.297,-752.930
1742212042.653,-1000.000,-79.590,-25.879,-1000.000
1742212042.657,-354.004,38.086,-23.438,-581.055
1742212042.661,990.234,130.371,-21.973,888.672
1742212042.665,837.402,-31.738,-22.461,851.074
1742212042.669,-597.168,-180.664,-20.020,-635.742
1742212042.626,214.844,-189.453,-12.207,247.559
1742212042.630,-1000.000,-184.082,-28.320,-957.031
1742212042.634,-993.164,-13.184,-28.809,-1000.000
1742212042.638,305.664,213.379,-24.902,123.047
1742212042.642,999.512,207.520,-23.438,999.512
1742212042.646,555.176,-81.543,-26.855,548.828
1742212042.650,-763.672,-141.602,-29.297,-752.930
1742212042.653,-1000.000,-79.590,-25.879,-1000.000
1742212042.657,-354.004,38.086,-23.438,-581.055
1742212042.661,990.234,130.371,-21.973,888.672
1742212042.665,837.402,-31.738,-22.461,851.074
1742212042.669,-597.168,-180.664,-20.020,-635.742
1742212042.671,-1000.000,-79.102,-15.625,-1000.000
1742212042.675,-517.578,81.055,-11.719,-672.363
1742212042.679,908.203,172.852,-7.324,809.570
1742212042.683,884.766,-16.113,-8.301,908.203
1742212042.687,-584.961,-198.730,-6.348,-609.375
1742212042.691,-1000.000,-51.270,1.953,-1000.000
1742212042.695,-778.320,85.938,-4.395,-821.289
1742212042.698,714.844,160.156,-18.555,666.504
1742212042.702,938.477,-62.500,-17.090,941.406
1742212042.706,-610.352,-208.008,-13.672,-621.094
1742212042.710,-1000.000,-44.434,-18.555,-1000.000
1742212042.714,-857.910,16.602,-22.461,-855.957
1742212042.671,-1000.000,-79.102,-15.625,-1000.000
1742212042.675,-517.578,81.055,-11.719,-672.363
1742212042.679,908.203,172.852,-7.324,809.570
1742212042.683,884.766,-16.113,-8.301,908.203
1742212042.687,-584.961,-198.730,-6.348,-609.375
1742212042.691,-1000.000,-51.270,1.953,-1000.000
1742212042.695,-778.320,85.938,-4.395,-821.289
1742212042.698,714.844,160.156,-18.555,666.504
1742212042.702,938.477,-62.500,-17.090,941.406
1742212042.706,-610.352,-208.008,-13.672,-621.094
1742212042.710,-1000.000,-44.434,-18.555,-1000.000
1742212042.714,-857.910,16.602,-22.461,-855.957
1742212042.716,574.707,182.617,-27.344,570.312
1742212042.720,999.512,30.762,-32.715,999.512
1742212042.724,-458.008,-232.422,-35.156,-430.664
1742212042.728,-1000.000,-132.324,-41.992,-1000.000
1742212042.732,-859.375,23.926,-41.016,-877.930
1742212042.736,566.406,237.793,-32.715,530.273
1742212042.740,999.512,53.711,-39.062,999.512
1742212042.743,-410.156,-339.844,-47.852,-370.605
1742212042.747,-1000.000,-195.312,-44.434,-1000.000
1742212042.751,-841.309,38.574,-41.016,-863.770
1742212042.755,530.273,150.391,-42.969,486.816
1742212042.759,999.512,25.391,-46.387,999.512
1742212042.716,574.707,182.617,-27.344,570.312
1742212042.720,999.512,30.762,-32.715,999.512
1742212042.724,-458.008,-232.422,-35.156,-430.664
1742212042.728,-1000.000,-132.324,-41.992,-1000.000
1742212042.732,-859.375,23.926,-41.016,-877.930
1742212042.736,566.406,237.793,-32.715,530.273
1742212042.740,999.512,53.711,-39.062,999.512
1742212042.743,-410.156,-339.844,-47.852,-370.605
1742212042.747,-1000.000,-195.312,-44.434,-1000.000
1742212042.751,-841.309,38.574,-41.016,-863.770
1742212042.755,530.273,150.391,-42.969,486.816
1742212042.759,999.512,25.391,-46.387,999.512
1742212042.761,-163.574,-258.301,-43.457,-82.031
1742212042.765,-1000.000,-219.238,-38.086,-1000.000
1742212042.769,-934.570,-7.812,-36.133,-989.258
1742212042.773,306.641,158.203,-30.762,203.613
1742212042.777,999.512,78.125,-34.668,999.512
1742212042.781,417.969,-127.441,-45.410,398.438
1742212042.785,-842.285,-201.660,-45.898,-834.961
1742212042.788,-1000.000,-160.156,-45.898,-1000.000
1742212042.792,-386.719,-33.203,-44.922,-515.625
1742212042.796,999.512,107.422,-39.551,969.238
1742212042.800,627.441,-114.258,-34.668,627.441
1742212042.804,-809.082,-187.500,-30.762,-814.453
1742212042.806,-1000.000,-89.355,-37.598,-1000.000
1742212042.810,-507.324,-5.371,-42.480,-582.520
1742212042.814,933.105,165.039,-35.645,886.230
1742212042.818,868.652,-28.809,-30.762,866.211
1742212042.822,-645.996,-215.332,-33.203,-655.762
1742212042.826,-1000.000,-26.855,-34.668,-1000.000
1742212042.830,-129.395,130.371,-38.574,-241.699
1742212042.833,999.512,52.246,-40.527,999.512
1742212042.837,728.027,-84.961,-38.574,762.695
1742212042.841,-661.621,-171.875,-33.691,-649.414
1742212042.845,-1000.000,-79.590,-29.785,-1000.000
1742212042.849,-720.703,52.734,-28.809,-767.090
1742212042.806,-1000.000,-89.355,-37.598,-1000.000
1742212042.810,-507.324,-5.371,-42.480,-582.520
1742212042.814,933.105,165.039,-35.645,886.230
1742212042.818,868.652,-28.809,-30.762,866.211
1742212042.822,-645.996,-215.332,-33.203,-655.762
1742212042.826,-1000.000,-26.855,-34.668,-1000.000
1742212042.830,-129.395,130.371,-38.574,-241.699
1742212042.833,999.512,52.246,-40.527,999.512
1742212042.837,728.027,-84.961,-38.574,762.695
1742212042.841,-661.621,-171.875,-33.691,-649.414
1742212042.845,-1000.000,-79.590,-29.785,-1000.000
1742212042.849,-720.703,52.734,-28.809,-767.090
1742212042.852,776.367,131.348,-36.133,720.703
1742212042.856,924.316,-70.312,-47.363,934.570
1742212042.860,-602.051,-230.957,-52.734,-605.957
1742212042.864,-1000.000,-149.414,-57.617,-1000.000
1742212042.868,-814.941,-12.207,-50.781,-831.055
1742212042.872,673.340,217.773,-36.621,651.855
1742212042.876,945.801,-24.902,-36.621,951.660
1742212042.879,-602.051,-359.863,-45.898,-604.492
1742212042.883,-1000.000,-187.012,-47.363,-1000.000
1742212042.887,-745.605,30.273,-37.109,-803.223
1742212042.891,747.070,142.578,-37.109,669.434
1742212042.895,938.965,-100.586,-44.434,977.539
1742212042.852,776.367,131.348,-36.133,720.703
1742212042.856,924.316,-70.312,-47.363,934.570
1742212042.860,-602.051,-230.957,-52.734,-605.957
1742212042.864,-1000.000,-149.414,-57.617,-1000.000
1742212042.868,-814.941,-12.207,-50.781,-831.055
1742212042.872,673.340,217.773,-36.621,651.855
1742212042.876,945.801,-24.902,-36.621,951.660
1742212042.879,-602.051,-359.863,-45.898,-604.492
1742212042.883,-1000.000,-187.012,-47.363,-1000.000
1742212042.887,-745.605,30.273,-37.109,-803.223
1742212042.891,747.070,142.578,-37.109,669.434
1742212042.895,938.965,-100.586,-44.434,977.539
1742212042.896,-596.191,-336.914,-47.852,-559.570
1742212042.900,-1000.000,-197.266,-46.387,-1000.000
1742212042.904,-842.773,22.461,-31.738,-843.262
1742212042.908,555.176,173.340,-29.297,541.504
1742212042.912,999.512,30.762,-37.598,999.512
1742212042.916,-332.031,-221.680,-37.598,-262.207
1742212042.920,-1000.000,-153.320,-39.551,-1000.000
1742212042.923,-929.688,-30.273,-41.504,-970.215
1742212042.927,331.543,174.316,-37.598,250.488
1742212042.931,999.512,90.332,-36.133,999.512
1742212042.935,104.492,-197.754,-39.551,135.742
1742212042.939,-1000.000,-171.387,-30.273,-1000.000
1742212042.896,-596.191,-336.914,-47.852,-559.570
1742212042.900,-1000.000,-197.266,-46.387,-1000.000
1742212042.904,-842.773,22.461,-31.738,-843.262
1742212042.908,555.176,173.340,-29.297,541.504
1742212042.912,999.512,30.762,-37.598,999.512
1742212042.916,-332.031,-221.680,-37.598,-262.207
1742212042.920,-1000.000,-153.320,-39.551,-1000.000
1742212042.923,-929.688,-30.273,-41.504,-970.215
1742212042.927,331.543,174.316,-37.598,250.488
1742212042.931,999.512,90.332,-36.133,999.512
1742212042.935,104.492,-197.754,-39.551,135.742
1742212042.939,-1000.000,-171.387,-30.273,-1000.000
1742212042.956,-947.266,-23.926,-23.926,-1000.000
1742212042.960,370.117,149.414,-25.391,253.418
1742212042.964,999.512,93.262,-24.902,999.512
1742212042.968,456.055,-128.418,-21.484,434.082
1742212042.972,-924.316,-163.086,-19.531,-900.879
1742212042.976,-1000.000,-17.578,-25.879,-1000.000
1742212042.980,367.676,216.309,-23.926,242.188
1742212042.983,999.512,102.539,-19.531,999.512
1742212042.987,299.805,-219.727,-19.531,296.387
1742212042.991,-944.824,-164.551,-25.879,-910.156
1742212042.995,-1000.000,-19.531,-30.762,-1000.000
1742212042.999,75.684,81.543,-25.879,-216.309
1742212043.466,511.230,59.570,-62.500,466.309
1742212043.470,999.512,-76.172,-61.035,999.512
1742212043.474,53.223,-300.781,-48.340,69.336
1742212043.478,-1000.000,-235.840,-40.527,-995.605
1742212043.482,-1000.000,-166.016,-46.875,-1000.000
1742212043.486,203.125,89.355,-43.945,-8.301
1742212043.490,999.512,85.449,-42.969,999.512
1742212043.493,203.125,-305.176,-45.898,243.164
1742212043.497,-992.188,-291.504,-49.316,-962.402
1742212043.501,-1000.000,-135.742,-56.641,-1000.000
1742212043.505,75.195,23.438,-56.152,-143.066
1742212043.509,999.512,32.227,-52.246,999.512
1742212043.001,999.512,136.719,-32.227,999.512
1742212043.005,744.141,-64.453,-42.480,760.254
1742212043.009,-636.230,-206.543,-37.598,-645.508
1742212043.013,-1000.000,-89.355,-31.738,-1000.000
1742212043.017,-193.359,99.609,-23.926,-443.359
1742212043.021,999.512,167.969,-24.902,959.961
1742212043.025,780.273,-54.688,-35.156,811.035
1742212043.028,-647.949,-250.000,-27.832,-652.832
1742212043.032,-1000.000,-95.703,-22.949,-1000.000
1742212043.036,-287.598,126.953,-28.809,-490.234
1742212043.040,999.512,117.188,-21.484,927.734
1742212043.044,839.355,-116.211,-13.184,860.840
1742212043.001,999.512,136.719,-32.227,999.512
1742212043.005,744.141,-64.453,-42.480,760.254
1742212043.009,-636.230,-206.543,-37.598,-645.508
1742212043.013,-1000.000,-89.355,-31.738,-1000.000
1742212043.017,-193.359,99.609,-23.926,-443.359
1742212043.021,999.512,167.969,-24.902,959.961
1742212043.025,780.273,-54.688,-35.156,811.035
1742212043.028,-647.949,-250.000,-27.832,-652.832
1742212043.032,-1000.000,-95.703,-22.949,-1000.000
1742212043.036,-287.598,126.953,-28.809,-490.234
1742212043.040,999.512,117.188,-21.484,927.734
1742212043.044,839.355,-116.211,-13.184,860.840
1742212043.046,-571.289,-232.910,-9.766,-605.957
1742212043.050,-1000.000,-102.539,-10.742,-1000.000
1742212043.054,-647.461,45.410,-12.207,-754.883
1742212043.058,799.805,157.227,-9.277,691.406
1742212043.062,982.910,-9.277,-13.672,999.512
1742212043.066,-484.375,-220.703,-21.484,-453.613
1742212043.070,-1000.000,-102.539,-21.973,-1000.000
1742212043.073,-835.938,-5.859,-31.250,-832.031
1742212043.077,522.949,121.094,-41.504,523.926
1742212043.081,999.512,76.660,-34.668,999.512
1742212043.085,-111.816,-208.984,-32.715,-42.480
1742212043.089,-1000.000,-219.238,-33.691,-1000.000
1742212043.046,-571.289,-232.910,-9.766,-605.957
1742212043.050,-1000.000,-102.539,-10.742,-1000.000
1742212043.054,-647.461,45.410,-12.207,-754.883
1742212043.058,799.805,157.227,-9.277,691.406
1742212043.062,982.910,-9.277,-13.672,999.512
1742212043.066,-484.375,-220.703,-21.484,-453.613
1742212043.070,-1000.000,-102.539,-21.973,-1000.000
1742212043.073,-835.938,-5.859,-31.250,-832.031
1742212043.077,522.949,121.094,-41.504,523.926
1742212043.081,999.512,76.660,-34.668,999.512
1742212043.085,-111.816,-208.984,-32.715,-42.480
1742212043.089,-1000.000,-219.238,-33.691,-1000.000
1742212043.091,-914.062,-25.879,-34.180,-954.590
1742212043.095,419.922,144.531,-31.738,362.793
1742212043.099,999.512,107.422,-24.902,999.512
1742212043.103,116.699,-145.020,-25.391,172.363
1742212043.107,-1000.000,-164.551,-29.297,-1000.000
1742212043.111,-908.203,81.543,-29.785,-907.227
1742212043.115,592.773,215.820,-27.832,594.238
1742212043.118,999.512,-21.484,-33.203,999.512
1742212043.122,-350.586,-271.484,-39.551,-264.648
1742212043.126,-1000.000,-166.992,-37.109,-1000.000
1742212043.130,-914.062,-12.207,-34.668,-955.078
1742212043.134,331.055,165.527,-32.227,262.207
1742212043.091,-914.062,-25.879,-34.180,-954.590
1742212043.095,419.922,144.531,-31.738,362.793
1742212043.099,999.512,107.422,-24.902,999.512
1742212043.103,116.699,-145.020,-25.391,172.363
1742212043.107,-1000.000,-164.551,-29.297,-1000.000
1742212043.111,-908.203,81.543,-29.785,-907.227
1742212043.115,592.773,215.820,-27.832,594.238
1742212043.118,999.512,-21.484,-33.203,999.512
1742212043.122,-350.586,-271.484,-39.551,-264.648
1742212043.126,-1000.000,-166.992,-37.109,-1000.000
1742212043.130,-914.062,-12.207,-34.668,-955.078
1742212043.134,331.055,165.527,-32.227,262.207
1742212043.137,999.512,113.281,-28.809,999.512
1742212043.141,252.441,-145.508,-22.949,288.086
1742212043.145,-967.285,-106.445,-21.484,-927.734
1742212043.149,-1000.000,-15.137,-24.902,-1000.000
1742212043.153,146.484,155.273,-13.672,31.738
1742212043.157,999.512,212.891,-3.906,999.512
1742212043.161,685.059,-58.105,-9.277,708.008
1742212043.164,-654.785,-221.191,-16.602,-635.742
1742212043.168,-1000.000,-145.020,-19.043,-1000.000
1742212043.172,-464.355,63.477,-20.020,-589.355
1742212043.176,948.242,166.016,-18.555,883.789
1742212043.180,867.676,-104.492,-20.996,853.027
1742212043.137,999.512,113.281,-28.809,999.512
1742212043.141,252.441,-145.508,-22.949,288.086
1742212043.145,-967.285,-106.445,-21.484,-927.734
1742212043.149,-1000.000,-15.137,-24.902,-1000.000
1742212043.153,146.484,155.273,-13.672,31.738
1742212043.157,999.512,212.891,-3.906,999.512
1742212043.161,685.059,-58.105,-9.277,708.008
1742212043.164,-654.785,-221.191,-16.602,-635.742
1742212043.168,-1000.000,-145.020,-19.043,-1000.000
1742212043.172,-464.355,63.477,-20.020,-589.355
1742212043.176,948.242,166.016,-18.555,883.789
1742212043.180,867.676,-104.492,-20.996,853.027
1742212043.181,-645.508,-229.004,-21.973,-660.156
1742212043.185,-1000.000,-90.820,-24.414,-1000.000
1742212043.189,-74.707,144.531,-26.855,-318.848
1742212043.193,999.512,166.504,-27.832,997.559
1742212043.197,813.965,-53.711,-23.438,837.891
1742212043.201,-547.852,-153.320,-20.508,-588.379
1742212043.205,-1000.000,-49.316,-23.926,-1000.000
1742212043.208,-722.168,47.852,-23.926,-737.793
1742212043.212,773.438,94.238,-23.438,739.746
1742212043.216,925.293,-96.680,-23.926,921.387
1742212043.220,-601.074,-235.840,-23.438,-616.211
1742212043.224,-1000.000,-104.980,-27.832,-1000.000
1742212043.181,-645.508,-229.004,-21.973,-660.156
1742212043.185,-1000.000,-90.820,-24.414,-1000.000
1742212043.189,-74.707,144.531,-26.855,-318.848
1742212043.193,999.512,166.504,-27.832,997.559
1742212043.197,813.965,-53.711,-23.438,837.891
1742212043.201,-547.852,-153.320,-20.508,-588.379
1742212043.205,-1000.000,-49.316,-23.926,-1000.000
1742212043.208,-722.168,47.852,-23.926,-737.793
1742212043.212,773.438,94.238,-23.438,739.746
1742212043.216,925.293,-96.680,-23.926,921.387
1742212043.220,-601.074,-235.840,-23.438,-616.211
1742212043.224,-1000.000,-104.980,-27.832,-1000.000
1742212043.227,-793.457,1.953,-24.902,-832.520
1742212043.231,688.477,121.582,-25.391,633.301
1742212043.235,975.586,-44.434,-35.645,999.512
1742212043.239,-583.984,-305.664,-45.410,-552.246
1742212043.243,-1000.000,-147.461,-41.992,-1000.000
1742212043.247,-232.422,91.797,-34.668,-314.453
1742212043.251,999.512,105.469,-35.156,955.078
1742212043.254,844.727,-79.590,-36.133,891.602
1742212043.258,-551.270,-314.453,-41.016,-511.719
1742212043.262,-1000.000,-156.250,-42.969,-1000.000
1742212043.266,-847.656,55.664,-42.969,-859.375
1742212043.270,545.898,148.438,-41.504,520.020
1742212043.227,-793.457,1.953,-24.902,-832.520
1742212043.231,688.477,121.582,-25.391,633.301
1742212043.235,975.586,-44.434,-35.645,999.512
1742212043.239,-583.984,-305.664,-45.410,-552.246
1742212043.243,-1000.000,-147.461,-41.992,-1000.000
1742212043.247,-232.422,91.797,-34.668,-314.453
1742212043.251,999.512,105.469,-35.156,955.078
1742212043.254,844.727,-79.590,-36.133,891.602
1742212043.258,-551.270,-314.453,-41.016,-511.719
1742212043.262,-1000.000,-156.250,-42.969,-1000.000
1742212043.266,-847.656,55.664,-42.969,-859.375
1742212043.270,545.898,148.438,-41.504,520.020
1742212043.271,999.512,26.855,-38.086,999.512
1742212043.275,-310.547,-240.723,-31.250,-259.766
1742212043.279,-1000.000,-148.926,-30.762,-1000.000
1742212043.283,-844.727,29.785,-31.250,-889.160
1742212043.287,476.562,187.988,-27.832,404.785
1742212043.291,999.512,151.855,-25.879,999.512
1742212043.295,138.184,-133.301,-34.668,233.398
1742212043.298,-963.379,-209.961,-39.062,-916.992
1742212043.302,-1000.000,-77.637,-38.086,-1000.000
1742212043.306,-208.496,119.629,-46.875,-284.180
1742212043.310,999.512,153.809,-58.594,999.512
1742212043.314,548.340,-131.348,-62.012,564.941
1742212043.271,999.512,26.855,-38.086,999.512
1742212043.275,-310.547,-240.723,-31.250,-259.766
1742212043.279,-1000.000,-148.926,-30.762,-1000.000
1742212043.283,-844.727,29.785,-31.250,-889.160
1742212043.287,476.562,187.988,-27.832,404.785
1742212043.291,999.512,151.855,-25.879,999.512
1742212043.295,138.184,-133.301,-34.668,233.398
1742212043.298,-963.379,-209.961,-39.062,-916.992
1742212043.302,-1000.000,-77.637,-38.086,-1000.000
1742212043.306,-208.496,119.629,-46.875,-284.180
1742212043.310,999.512,153.809,-58.594,999.512
1742212043.314,548.340,-131.348,-62.012,564.941
1742212043.331,-873.535,-168.945,-51.270,-841.797
1742212043.335,-1000.000,7.324,-46.387,-1000.000
1742212043.339,-33.203,186.523,-53.711,-212.402
1742212043.343,999.512,255.859,-43.945,999.512
1742212043.347,698.242,121.094,-38.574,703.125
1742212043.351,-677.734,177.246,-35.645,-687.988
1742212043.355,-1000.000,313.965,-32.227,-1000.000
1742212043.358,-502.441,369.629,-32.715,-614.746
1742212043.362,918.457,477.539,-26.855,853.516
1742212043.366,904.785,333.496,-22.461,910.156
1742212043.370,-642.578,104.492,-13.672,-662.109
1742212043.374,-1000.000,231.934,-15.137,-1000.000
1742212043.376,-562.012,242.188,-24.902,-646.484
1742212043.380,-647.461,52.734,-29.297,-691.406
1742212043.384,-1000.000,131.836,-36.621,-1000.000
1742212043.388,-779.297,185.547,-43.457,-866.211
1742212043.392,743.652,299.316,-37.598,647.949
1742212043.396,998.535,161.133,-35.645,999.512
1742212043.400,-492.676,-208.008,-44.434,-462.402
1742212043.403,-1000.000,-279.785,-48.828,-1000.000
1742212043.407,-867.188,-133.789,-47.852,-893.555
1742212043.411,584.961,66.406,-48.828,541.992
1742212043.415,999.512,-145.508,-43.457,999.512
1742212043.419,-513.672,-478.027,-36.133,-500.977
1742212043.376,-562.012,242.188,-24.902,-646.484
1742212043.380,-647.461,52.734,-29.297,-691.406
1742212043.384,-1000.000,131.836,-36.621,-1000.000
1742212043.388,-779.297,185.547,-43.457,-866.211
1742212043.392,743.652,299.316,-37.598,647.949
1742212043.396,998.535,161.133,-35.645,999.512
1742212043.400,-492.676,-208.008,-44.434,-462.402
1742212043.403,-1000.000,-279.785,-48.828,-1000.000
1742212043.407,-867.188,-133.789,-47.852,-893.555
1742212043.411,584.961,66.406,-48.828,541.992
1742212043.415,999.512,-145.508,-43.457,999.512
1742212043.419,-513.672,-478.027,-36.133,-500.977
1742212043.422,-1000.000,-298.828,-37.598,-1000.000
1742212043.426,-823.242,-117.188,-39.551,-861.328
1742212043.430,623.535,-41.992,-35.156,579.590
1742212043.434,999.512,-187.012,-31.250,999.512
1742212043.438,-486.328,-426.270,-37.109,-468.750
1742212043.442,-1000.000,-260.742,-46.875,-1000.000
1742212043.446,-842.285,-122.070,-55.176,-872.559
1742212043.449,595.703,-20.996,-50.781,555.176
1742212043.453,999.512,-183.105,-50.781,999.512
1742212043.457,-448.730,-494.141,-61.523,-439.453
1742212043.461,-1000.000,-366.211,-63.477,-1000.000
1742212043.465,-823.242,-145.020,-62.988,-853.027
1742212043.422,-1000.000,-298.828,-37.598,-1000.000
1742212043.426,-823.242,-117.188,-39.551,-861.328
1742212043.430,623.535,-41.992,-35.156,579.590
1742212043.434,999.512,-187.012,-31.250,999.512
1742212043.438,-486.328,-426.270,-37.109,-468.750
1742212043.442,-1000.000,-260.742,-46.875,-1000.000
1742212043.446,-842.285,-122.070,-55.176,-872.559
1742212043.449,595.703,-20.996,-50.781,555.176
1742212043.453,999.512,-183.105,-50.781,999.512
1742212043.457,-448.730,-494.141,-61.523,-439.453
1742212043.461,-1000.000,-366.211,-63.477,-1000.000
1742212043.465,-823.242,-145.020,-62.988,-853.027
1742212043.526,634.766,-187.988,-53.223,643.555
1742212043.530,-741.699,-254.395,-51.270,-735.352
1742212043.534,-1000.000,-153.320,-41.992,-1000.000
1742212043.538,-236.816,-21.484,-38.574,-457.520
1742212043.542,999.512,67.383,-34.668,941.895
1742212043.546,836.426,-69.336,-35.645,854.492
1742212043.550,-566.895,-271.973,-46.387,-604.004
1742212043.553,-1000.000,-194.336,-47.852,-1000.000
1742212043.557,-520.996,-10.742,-40.039,-620.117
1742212043.561,917.969,14.160,-42.969,849.609
1742212043.565,853.027,-186.523,-50.293,857.910
1742212043.569,-622.070,-315.430,-55.176,-647.949
1742212043.526,634.766,-187.988,-53.223,643.555
1742212043.530,-741.699,-254.395,-51.270,-735.352
1742212043.534,-1000.000,-153.320,-41.992,-1000.000
1742212043.538,-236.816,-21.484,-38.574,-457.520
1742212043.542,999.512,67.383,-34.668,941.895
1742212043.546,836.426,-69.336,-35.645,854.492
1742212043.550,-566.895,-271.973,-46.387,-604.004
1742212043.553,-1000.000,-194.336,-47.852,-1000.000
1742212043.557,-520.996,-10.742,-40.039,-620.117
1742212043.561,917.969,14.160,-42.969,849.609
1742212043.565,853.027,-186.523,-50.293,857.910
1742212043.569,-622.070,-315.430,-55.176,-647.949
1742212043.571,-1000.000,-168.945,-59.082,-1000.000
1742212043.575,-714.355,-39.062,-55.176,-791.016
1742212043.579,771.973,89.355,-42.480,684.082
1742212043.583,936.523,-91.797,-42.969,973.145
1742212043.587,-585.938,-271.973,-50.293,-559.570
1742212043.591,-1000.000,-63.477,-47.852,-1000.000
1742212043.595,-851.074,18.066,-40.039,-852.539
1742212043.598,622.559,123.047,-31.250,611.328
1742212043.602,972.656,29.297,-16.602,994.629
1742212043.606,-584.473,-267.578,-22.949,-550.781
1742212043.610,-1000.000,-138.672,-33.203,-1000.000
1742212043.614,-840.820,53.223,-32.227,-850.586
1742212043.571,-1000.000,-168.945,-59.082,-1000.000
1742212043.575,-714.355,-39.062,-55.176,-791.016
1742212043.579,771.973,89.355,-42.480,684.082
1742212043.583,936.523,-91.797,-42.969,973.145
1742212043.587,-585.938,-271.973,-50.293,-559.570
1742212043.591,-1000.000,-63.477,-47.852,-1000.000
1742212043.595,-851.074,18.066,-40.039,-852.539
1742212043.598,622.559,123.047,-31.250,611.328
1742212043.602,972.656,29.297,-16.602,994.629
1742212043.606,-584.473,-267.578,-22.949,-550.781
1742212043.610,-1000.000,-138.672,-33.203,-1000.000
1742212043.614,-840.820,53.223,-32.227,-850.586
1742212043.616,588.867,190.430,-33.203,572.266
1742212043.620,999.512,41.016,-35.156,999.512
1742212043.624,-431.641,-267.090,-36.621,-407.715
1742212043.628,-1000.000,-215.332,-39.551,-1000.000
1742212043.632,-852.051,19.043,-35.645,-865.723
1742212043.636,553.223,248.535,-31.250,524.902
1742212043.640,999.512,61.035,-29.297,999.512
1742212043.643,-334.961,-275.391,-28.809,-284.668
1742212043.647,-1000.000,-221.191,-29.785,-1000.000
1742212043.651,-910.645,-73.730,-29.785,-968.262
1742212043.655,370.605,169.434,-26.855,251.953
1742212043.659,999.512,84.961,-32.715,999.512
1742212043.616,588.867,190.430,-33.203,572.266
1742212043.620,999.512,41.016,-35.156,999.512
1742212043.624,-431.641,-267.090,-36.621,-407.715
1742212043.628,-1000.000,-215.332,-39.551,-1000.000
1742212043.632,-852.051,19.043,-35.645,-865.723
1742212043.636,553.223,248.535,-31.250,524.902
1742212043.640,999.512,61.035,-29.297,999.512
1742212043.643,-334.961,-275.391,-28.809,-284.668
1742212043.647,-1000.000,-221.191,-29.785,-1000.000
1742212043.651,-910.645,-73.730,-29.785,-968.262
1742212043.655,370.605,169.434,-26.855,251.953
1742212043.659,999.512,84.961,-32.715,999.512
1742212043.661,65.430,-219.238,-32.715,104.492
1742212043.665,-1000.000,-166.504,-28.320,-983.887
1742212043.669,-1000.000,-46.875,-30.762,-1000.000
1742212043.673,50.293,104.492,-31.738,-131.836
1742212043.677,999.512,148.926,-28.809,999.512
1742212043.681,762.207,-15.625,-30.273,768.555
1742212043.685,-570.312,-158.203,-30.762,-604.004
1742212043.688,-1000.000,-154.785,-33.203,-1000.000
1742212043.692,-675.781,11.719,-38.086,-723.633
1742212043.696,816.406,154.785,-32.715,770.996
1742212043.700,930.176,-52.734,-33.691,908.203
1742212043.704,-663.086,-255.371,-37.109,-672.852
1742212043.661,65.430,-219.238,-32.715,104.492
1742212043.665,-1000.000,-166.504,-28.320,-983.887
1742212043.669,-1000.000,-46.875,-30.762,-1000.000
1742212043.673,50.293,104.492,-31.738,-131.836
1742212043.677,999.512,148.926,-28.809,999.512
1742212043.681,762.207,-15.625,-30.273,768.555
1742212043.685,-570.312,-158.203,-30.762,-604.004
1742212043.688,-1000.000,-154.785,-33.203,-1000.000
1742212043.692,-675.781,11.719,-38.086,-723.633
1742212043.696,816.406,154.785,-32.715,770.996
1742212043.700,930.176,-52.734,-33.691,908.203
1742212043.704,-663.086,-255.371,-37.109,-672.852
1742212043.707,-1000.000,-70.801,-34.668,-1000.000
1742212043.711,75.684,183.594,-36.133,-99.609
1742212043.715,999.512,80.566,-32.227,999.512
1742212043.719,656.738,-181.641,-28.320,677.734
1742212043.723,-753.418,-223.145,-32.227,-725.098
1742212043.727,-1000.000,-71.289,-29.297,-1000.000
1742212043.731,-41.992,109.375,-26.367,-253.906
1742212043.734,999.512,88.379,-32.227,999.512
1742212043.738,735.352,-170.898,-33.691,777.832
1742212043.742,-632.812,-280.762,-27.832,-637.695
1742212043.746,-1000.000,-138.184,-31.738,-1000.000
1742212043.750,-729.004,-26.855,-31.738,-799.805
1742212043.707,-1000.000,-70.801,-34.668,-1000.000
1742212043.711,75.684,183.594,-36.133,-99.609
1742212043.715,999.512,80.566,-32.227,999.512
1742212043.719,656.738,-181.641,-28.320,677.734
1742212043.723,-753.418,-223.145,-32.227,-725.098
1742212043.727,-1000.000,-71.289,-29.297,-1000.000
1742212043.731,-41.992,109.375,-26.367,-253.906
1742212043.734,999.512,88.379,-32.227,999.512
1742212043.738,735.352,-170.898,-33.691,777.832
1742212043.742,-632.812,-280.762,-27.832,-637.695
1742212043.746,-1000.000,-138.184,-31.738,-1000.000
1742212043.750,-729.004,-26.855,-31.738,-799.805
1742212043.751,762.695,130.859,-25.391,677.246
1742212043.755,933.594,-48.340,-31.738,971.680
1742212043.759,-597.656,-303.711,-33.203,-566.406
1742212043.763,-1000.000,-134.277,-32.715,-1000.000
1742212043.767,-859.863,-27.344,-31.250,-854.980
1742212043.771,585.938,160.156,-28.809,583.008
1742212043.775,999.512,14.648,-39.062,999.512
1742212043.778,-502.441,-363.770,-44.434,-466.797
1742212043.782,-1000.000,-209.961,-35.156,-1000.000
1742212043.786,-850.586,26.367,-34.180,-857.422
1742212043.790,547.363,153.320,-40.039,533.691
1742212043.794,999.512,-21.484,-44.922,999.512
1742212043.751,762.695,130.859,-25.391,677.246
1742212043.755,933.594,-48.340,-31.738,971.680
1742212043.759,-597.656,-303.711,-33.203,-566.406
1742212043.763,-1000.000,-134.277,-32.715,-1000.000
1742212043.767,-859.863,-27.344,-31.250,-854.980
1742212043.771,585.938,160.156,-28.809,583.008
1742212043.775,999.512,14.648,-39.062,999.512
1742212043.778,-502.441,-363.770,-44.434,-466.797
1742212043.782,-1000.000,-209.961,-35.156,-1000.000
1742212043.786,-850.586,26.367,-34.180,-857.422
1742212043.790,547.363,153.320,-40.039,533.691
1742212043.794,999.512,-21.484,-44.922,999.512
1742212043.796,-313.477,-247.559,-51.270,-272.461
1742212043.800,-1000.000,-159.668,-47.852,-1000.000
1742212043.804,-824.707,15.137,-42.480,-867.676
1742212043.808,500.000,204.102,-38.574,445.312
1742212043.812,999.512,116.211,-36.621,999.512
1742212043.816,207.520,-81.543,-36.133,244.629
1742212043.820,-1000.000,-112.305,-35.156,-957.031
1742212043.823,-1000.000,-17.090,-35.645,-1000.000
1742212043.827,281.738,154.297,-39.062,171.875
1742212043.831,999.512,63.477,-46.387,999.512
1742212043.835,149.902,-180.664,-51.758,177.246
1742212043.839,-1000.000,-169.922,-51.270,-1000.000
1742212043.796,-313.477,-247.559,-51.270,-272.461
1742212043.800,-1000.000,-159.668,-47.852,-1000.000
1742212043.804,-824.707,15.137,-42.480,-867.676
1742212043.808,500.000,204.102,-38.574,445.312
1742212043.812,999.512,116.211,-36.621,999.512
1742212043.816,207.520,-81.543,-36.133,244.629
1742212043.820,-1000.000,-112.305,-35.156,-957.031
1742212043.823,-1000.000,-17.090,-35.645,-1000.000
1742212043.827,281.738,154.297,-39.062,171.875
1742212043.831,999.512,63.477,-46.387,999.512
1742212043.835,149.902,-180.664,-51.758,177.246
1742212043.839,-1000.000,-169.922,-51.270,-1000.000
1742212044.321,999.512,45.410,-43.945,999.512
1742212044.325,-287.598,-195.801,-42.480,-231.934
1742212044.329,-1000.000,-163.574,-41.992,-1000.000
1742212044.333,-858.887,16.113,-42.969,-882.324
1742212044.337,554.688,236.328,-40.527,527.344
1742212044.341,999.512,68.848,-44.434,999.512
1742212044.345,-307.129,-289.551,-47.363,-254.395
1742212044.348,-1000.000,-243.164,-47.852,-1000.000
1742212044.352,-892.578,-54.688,-46.387,-944.336
1742212044.356,465.332,162.598,-46.875,376.953
1742212044.360,999.512,61.035,-41.992,999.512
1742212044.364,-180.664,-229.492,-41.016,-123.535
1742212043.841,-958.984,21.973,-44.434,-1000.000
1742212043.845,373.535,235.352,-40.527,279.297
1742212043.849,999.512,101.562,-39.551,999.512
1742212043.853,367.188,-167.969,-35.645,380.859
1742212043.857,-949.219,-145.996,-38.574,-914.062
1742212043.861,-1000.000,67.871,-43.945,-1000.000
1742212043.865,283.203,168.945,-46.875,152.344
1742212043.868,999.512,23.926,-50.781,999.512
1742212043.872,630.371,-91.309,-49.316,631.836
1742212043.876,-683.105,-167.969,-50.293,-682.617
1742212043.880,-1000.000,-100.586,-46.387,-1000.000
1742212043.884,-629.395,26.855,-40.527,-716.309
1742212043.841,-958.984,21.973,-44.434,-1000.000
1742212043.845,373.535,235.352,-40.527,279.297
1742212043.849,999.512,101.562,-39.551,999.512
1742212043.853,367.188,-167.969,-35.645,380.859
1742212043.857,-949.219,-145.996,-38.574,-914.062
1742212043.861,-1000.000,67.871,-43.945,-1000.000
1742212043.865,283.203,168.945,-46.875,152.344
1742212043.868,999.512,23.926,-50.781,999.512
1742212043.872,630.371,-91.309,-49.316,631.836
1742212043.876,-683.105,-167.969,-50.293,-682.617
1742212043.880,-1000.000,-100.586,-46.387,-1000.000
1742212043.884,-629.395,26.855,-40.527,-716.309
1742212043.901,848.633,134.766,-40.527,782.715
1742212043.905,904.297,-38.574,-44.922,903.809
1742212043.909,-593.262,-229.980,-48.828,-621.094
1742212043.913,-1000.000,-130.371,-55.176,-1000.000
1742212043.917,-545.410,79.590,-50.781,-612.793
1742212043.921,898.926,212.891,-44.922,846.680
1742212043.925,890.137,-70.312,-51.270,902.344
1742212043.928,-593.750,-298.828,-48.340,-601.562
1742212043.932,-1000.000,-121.094,-51.270,-1000.000
1742212043.936,-858.398,-52.246,-59.082,-854.004
1742212043.940,609.863,148.926,-45.410,603.516
1742212043.944,980.957,15.625,-39.062,999.512
1742212043.901,848.633,134.766,-40.527,782.715
1742212043.905,904.297,-38.574,-44.922,903.809
1742212043.909,-593.262,-229.980,-48.828,-621.094
1742212043.913,-1000.000,-130.371,-55.176,-1000.000
1742212043.917,-545.410,79.590,-50.781,-612.793
1742212043.921,898.926,212.891,-44.922,846.680
1742212043.925,890.137,-70.312,-51.270,902.344
1742212043.928,-593.750,-298.828,-48.340,-601.562
1742212043.932,-1000.000,-121.094,-51.270,-1000.000
1742212043.936,-858.398,-52.246,-59.082,-854.004
1742212043.940,609.863,148.926,-45.410,603.516
1742212043.944,980.957,15.625,-39.062,999.512
1742212043.946,-575.195,-311.523,-38.574,-535.156
1742212043.950,-1000.000,-172.363,-34.668,-1000.000
1742212043.954,-819.336,-12.207,-37.598,-818.359
1742212043.958,527.344,93.262,-39.062,526.855
1742212043.962,999.512,60.059,-35.156,999.512
1742212043.966,-38.574,-108.398,-36.133,9.277
1742212043.970,-1000.000,-178.711,-48.340,-1000.000
1742212043.973,-960.449,-96.680,-50.293,-999.023
1742212043.977,418.457,146.973,-45.898,352.051
1742212043.981,999.512,54.688,-47.363,999.512
1742212043.985,-181.641,-280.273,-42.969,-130.859
1742212043.989,-1000.000,-227.539,-41.992,-1000.000
1742212043.946,-575.195,-311.523,-38.574,-535.156
1742212043.950,-1000.000,-172.363,-34.668,-1000.000
1742212043.954,-819.336,-12.207,-37.598,-818.359
1742212043.958,527.344,93.262,-39.062,526.855
1742212043.962,999.512,60.059,-35.156,999.512
1742212043.966,-38.574,-108.398,-36.133,9.277
1742212043.970,-1000.000,-178.711,-48.340,-1000.000
1742212043.973,-960.449,-96.680,-50.293,-999.023
1742212043.977,418.457,146.973,-45.898,352.051
1742212043.981,999.512,54.688,-47.363,999.512
1742212043.985,-181.641,-280.273,-42.969,-130.859
1742212043.989,-1000.000,-227.539,-41.992,-1000.000
1742212043.991,-869.629,45.410,-41.992,-875.000
1742212043.995,572.754,241.699,-36.621,569.336
1742212043.999,999.512,9.766,-33.691,999.512
1742212044.003,-344.727,-284.180,-39.551,-281.738
1742212044.007,-1000.000,-148.926,-36.621,-1000.000
1742212044.011,-830.566,68.848,-34.180,-846.680
1742212044.015,511.719,187.988,-33.203,491.211
1742212044.018,999.512,65.430,-27.344,999.512
1742212044.022,19.531,-208.496,-33.691,105.469
1742212044.026,-985.352,-185.547,-34.668,-943.848
1742212044.030,-1000.000,-33.691,-31.250,-1000.000
1742212044.034,-377.441,62.988,-34.180,-500.977
1742212043.991,-869.629,45.410,-41.992,-875.000
1742212043.995,572.754,241.699,-36.621,569.336
1742212043.999,999.512,9.766,-33.691,999.512
1742212044.003,-344.727,-284.180,-39.551,-281.738
1742212044.007,-1000.000,-148.926,-36.621,-1000.000
1742212044.011,-830.566,68.848,-34.180,-846.680
1742212044.015,511.719,187.988,-33.203,491.211
1742212044.018,999.512,65.430,-27.344,999.512
1742212044.022,19.531,-208.496,-33.691,105.469
1742212044.026,-985.352,-185.547,-34.668,-943.848
1742212044.030,-1000.000,-33.691,-31.250,-1000.000
1742212044.034,-377.441,62.988,-34.180,-500.977
1742212044.036,999.512,146.484,-35.156,956.543
1742212044.040,829.590,-60.547,-36.621,829.590
1742212044.044,-756.348,-211.914,-38.574,-751.465
1742212044.048,-1000.000,-43.945,-37.598,-1000.000
1742212044.052,405.762,178.711,-37.598,306.152
1742212044.056,999.512,116.699,-36.133,999.512
1742212044.060,612.305,-69.824,-35.645,626.953
1742212044.063,-700.195,-226.074,-38.086,-674.805
1742212044.067,-1000.000,-132.324,-36.133,-1000.000
1742212044.071,-506.348,44.434,-31.738,-635.742
1742212044.075,924.316,122.559,-29.297,847.656
1742212044.079,862.793,-97.656,-28.320,869.141
1742212044.036,999.512,146.484,-35.156,956.543
1742212044.040,829.590,-60.547,-36.621,829.590
1742212044.044,-756.348,-211.914,-38.574,-751.465
1742212044.048,-1000.000,-43.945,-37.598,-1000.000
1742212044.052,405.762,178.711,-37.598,306.152
1742212044.056,999.512,116.699,-36.133,999.512
1742212044.060,612.305,-69.824,-35.645,626.953
1742212044.063,-700.195,-226.074,-38.086,-674.805
1742212044.067,-1000.000,-132.324,-36.133,-1000.000
1742212044.071,-506.348,44.434,-31.738,-635.742
1742212044.075,924.316,122.559,-29.297,847.656
1742212044.079,862.793,-97.656,-28.320,869.141
1742212044.081,-607.422,-206.055,-25.879,-635.254
1742212044.085,-1000.000,-63.965,-28.809,-1000.000
1742212044.089,-534.668,53.223,-36.133,-625.488
1742212044.093,903.320,121.094,-30.273,839.844
1742212044.097,887.207,-68.848,-29.297,903.320
1742212044.101,-588.867,-209.473,-32.227,-602.051
1742212044.105,-1000.000,-76.660,-25.879,-1000.000
1742212044.108,-815.430,8.789,-25.879,-834.473
1742212044.112,673.340,153.320,-28.809,645.020
1742212044.116,946.289,-59.082,-34.668,960.449
1742212044.120,-607.422,-289.062,-38.086,-596.680
1742212044.124,-1000.000,-137.207,-37.109,-1000.000
1742212044.126,-803.711,29.297,-36.621,-833.008
1742212044.130,639.648,150.879,-34.180,596.191
1742212044.134,999.512,-13.672,-37.109,999.512
1742212044.138,-454.102,-265.137,-41.016,-420.410
1742212044.142,-1000.000,-170.898,-41.504,-1000.000
1742212044.146,-820.312,97.656,-32.715,-839.355
1742212044.150,622.559,183.594,-32.715,594.727
1742212044.153,999.512,-83.008,-36.621,999.512
1742212044.157,-448.730,-257.812,-29.785,-422.852
1742212044.161,-1000.000,-150.879,-30.273,-1000.000
1742212044.165,-894.043,-54.688,-30.762,-943.359
1742212044.169,392.578,136.230,-27.832,287.109
1742212044.126,-803.711,29.297,-36.621,-833.008
1742212044.130,639.648,150.879,-34.180,596.191
1742212044.134,999.512,-13.672,-37.109,999.512
1742212044.138,-454.102,-265.137,-41.016,-420.410
1742212044.142,-1000.000,-170.898,-41.504,-1000.000
1742212044.146,-820.312,97.656,-32.715,-839.355
1742212044.150,622.559,183.594,-32.715,594.727
1742212044.153,999.512,-83.008,-36.621,999.512
1742212044.157,-448.730,-257.812,-29.785,-422.852
1742212044.161,-1000.000,-150.879,-30.273,-1000.000
1742212044.165,-894.043,-54.688,-30.762,-943.359
1742212044.169,392.578,136.230,-27.832,287.109
1742212044.171,999.512,78.125,-30.762,999.512
1742212044.175,66.406,-199.707,-22.949,103.516
1742212044.179,-1000.000,-173.828,-12.695,-1000.000
1742212044.183,-962.402,-58.105,-20.508,-1000.000
1742212044.187,317.871,172.363,-28.809,208.984
1742212044.191,999.512,196.289,-30.273,999.512
1742212044.195,569.336,-134.277,-40.527,571.777
1742212044.198,-770.996,-242.188,-50.781,-747.559
1742212044.202,-1000.000,-72.754,-49.316,-1000.000
1742212044.206,-166.504,49.316,-43.457,-313.965
1742212044.210,999.512,77.637,-45.410,999.512
1742212044.214,753.418,-97.656,-48.828,765.625
1742212044.171,999.512,78.125,-30.762,999.512
1742212044.175,66.406,-199.707,-22.949,103.516
1742212044.179,-1000.000,-173.828,-12.695,-1000.000
1742212044.183,-962.402,-58.105,-20.508,-1000.000
1742212044.187,317.871,172.363,-28.809,208.984
1742212044.191,999.512,196.289,-30.273,999.512
1742212044.195,569.336,-134.277,-40.527,571.777
1742212044.198,-770.996,-242.188,-50.781,-747.559
1742212044.202,-1000.000,-72.754,-49.316,-1000.000
1742212044.206,-166.504,49.316,-43.457,-313.965
1742212044.210,999.512,77.637,-45.410,999.512
1742212044.214,753.418,-97.656,-48.828,765.625
1742212044.217,-665.527,-258.301,-48.828,-666.504
1742212044.221,-1000.000,-144.531,-46.875,-1000.000
1742212044.225,-318.359,38.086,-41.504,-452.148
1742212044.229,999.512,59.082,-36.621,953.125
1742212044.233,807.129,-108.398,-35.156,810.059
1742212044.237,-617.676,-146.484,-37.598,-646.973
1742212044.241,-1000.000,-87.891,-41.016,-1000.000
1742212044.244,-720.215,-66.895,-39.062,-761.230
1742212044.248,776.367,101.074,-35.645,731.934
1742212044.252,929.688,-62.500,-37.109,928.223
1742212044.256,-602.051,-267.090,-37.109,-622.559
1742212044.260,-1000.000,-123.047,-39.062,-1000.000
1742212044.217,-665.527,-258.301,-48.828,-666.504
1742212044.221,-1000.000,-144.531,-46.875,-1000.000
1742212044.225,-318.359,38.086,-41.504,-452.148
1742212044.229,999.512,59.082,-36.621,953.125
1742212044.233,807.129,-108.398,-35.156,810.059
1742212044.237,-617.676,-146.484,-37.598,-646.973
1742212044.241,-1000.000,-87.891,-41.016,-1000.000
1742212044.244,-720.215,-66.895,-39.062,-761.230
1742212044.248,776.367,101.074,-35.645,731.934
1742212044.252,929.688,-62.500,-37.109,928.223
1742212044.256,-602.051,-267.090,-37.109,-622.559
1742212044.260,-1000.000,-123.047,-39.062,-1000.000
1742212044.217,-665.527,-258.301,-48.828,-666.504
1742212044.221,-1000.000,-144.531,-46.875,-1000.000
1742212044.225,-318.359,38.086,-41.504,-452.148
1742212044.229,999.512,59.082,-36.621,953.125
1742212044.233,807.129,-108.398,-35.156,810.059
1742212044.237,-617.676,-146.484,-37.598,-646.973
1742212044.241,-1000.000,-87.891,-41.016,-1000.000
1742212044.244,-720.215,-66.895,-39.062,-761.230
1742212044.248,776.367,101.074,-35.645,731.934
1742212044.252,929.688,-62.500,-37.109,928.223
1742212044.256,-602.051,-267.090,-37.109,-622.559
1742212044.260,-1000.000,-123.047,-39.062,-1000.000
1742212044.276,-612.793,57.129,-41.016,-676.758
1742212044.280,813.965,178.711,-42.969,748.047
1742212044.284,915.039,-109.375,-47.852,913.086
1742212044.288,-590.332,-352.539,-49.316,-604.004
1742212044.292,-1000.000,-143.555,-42.969,-1000.000
1742212044.296,-451.172,82.520,-44.922,-607.422
1742212044.300,935.547,74.707,-49.316,836.426
1742212044.303,886.719,-145.020,-45.898,939.941
1742212044.307,-568.359,-266.602,-44.434,-544.434
1742212044.311,-1000.000,-201.172,-47.852,-1000.000
1742212044.315,-848.145,-57.129,-47.852,-857.910
1742212044.319,541.016,113.770,-44.922,518.066
1742212044.276,-612.793,57.129,-41.016,-676.758
1742212044.280,813.965,178.711,-42.969,748.047
1742212044.284,915.039,-109.375,-47.852,913.086
1742212044.288,-590.332,-352.539,-49.316,-604.004
1742212044.292,-1000.000,-143.555,-42.969,-1000.000
1742212044.296,-451.172,82.520,-44.922,-607.422
1742212044.300,935.547,74.707,-49.316,836.426
1742212044.303,886.719,-145.020,-45.898,939.941
1742212044.307,-568.359,-266.602,-44.434,-544.434
1742212044.311,-1000.000,-201.172,-47.852,-1000.000
1742212044.315,-848.145,-57.129,-47.852,-857.910
1742212044.319,541.016,113.770,-44.922,518.066
1742212044.366,-1000.000,-141.113,-42.480,-1000.000
1742212044.370,-897.949,18.066,-40.039,-956.055
1742212044.374,391.113,190.918,-42.969,295.410
1742212044.378,999.512,109.863,-45.410,999.512
1742212044.382,336.426,-115.234,-45.410,353.516
1742212044.386,-951.660,-90.820,-38.574,-914.551
1742212044.390,-1000.000,7.324,-32.715,-1000.000
1742212044.393,252.930,180.664,-35.645,112.305
1742212044.397,999.512,87.891,-39.551,999.512
1742212044.401,333.008,-235.352,-42.480,349.121
1742212044.405,-961.426,-246.094,-38.574,-926.270
1742212044.409,-1000.000,-75.684,-33.203,-1000.000
1742212044.366,-1000.000,-141.113,-42.480,-1000.000
1742212044.370,-897.949,18.066,-40.039,-956.055
1742212044.374,391.113,190.918,-42.969,295.410
1742212044.378,999.512,109.863,-45.410,999.512
1742212044.382,336.426,-115.234,-45.410,353.516
1742212044.386,-951.660,-90.820,-38.574,-914.551
1742212044.390,-1000.000,7.324,-32.715,-1000.000
1742212044.393,252.930,180.664,-35.645,112.305
1742212044.397,999.512,87.891,-39.551,999.512
1742212044.401,333.008,-235.352,-42.480,349.121
1742212044.405,-961.426,-246.094,-38.574,-926.270
1742212044.409,-1000.000,-75.684,-33.203,-1000.000
1742212044.411,227.539,140.625,-27.832,3.906
1742212044.415,999.512,93.262,-31.250,999.512
1742212044.419,698.242,-139.160,-44.434,719.238
1742212044.423,-701.172,-234.863,-48.340,-674.316
1742212044.427,-1000.000,-136.230,-52.246,-1000.000
1742212044.431,53.223,143.066,-55.176,-157.227
1742212044.435,999.512,110.840,-52.734,999.512
1742212044.438,590.820,-242.676,-56.641,623.535
1742212044.442,-756.348,-230.957,-60.059,-753.906
1742212044.446,-1000.000,-53.223,-58.105,-1000.000
1742212044.450,-645.020,-15.625,-54.688,-766.113
1742212044.454,834.961,108.887,-51.758,732.422
1742212044.456,907.227,-45.898,-53.223,932.617
1742212044.460,-593.750,-270.508,-53.711,-605.957
1742212044.464,-1000.000,-136.719,-56.152,-1000.000
1742212044.468,-765.625,-1.953,-54.688,-810.059
1742212044.472,684.082,128.906,-49.805,621.582
1742212044.476,999.512,26.855,-50.293,999.512
1742212044.480,-463.867,-295.898,-54.199,-429.688
1742212044.483,-1000.000,-219.727,-51.270,-1000.000
1742212044.487,-891.602,-40.039,-46.875,-929.688
1742212044.491,520.508,129.883,-47.852,447.754
1742212044.495,999.512,1.465,-54.199,999.512
1742212044.499,-429.199,-281.738,-53.711,-406.738
1742212044.456,907.227,-45.898,-53.223,932.617
1742212044.460,-593.750,-270.508,-53.711,-605.957
1742212044.464,-1000.000,-136.719,-56.152,-1000.000
1742212044.468,-765.625,-1.953,-54.688,-810.059
1742212044.472,684.082,128.906,-49.805,621.582
1742212044.476,999.512,26.855,-50.293,999.512
1742212044.480,-463.867,-295.898,-54.199,-429.688
1742212044.483,-1000.000,-219.727,-51.270,-1000.000
1742212044.487,-891.602,-40.039,-46.875,-929.688
1742212044.491,520.508,129.883,-47.852,447.754
1742212044.495,999.512,1.465,-54.199,999.512
1742212044.499,-429.199,-281.738,-53.711,-406.738
1742212044.501,-1000.000,-183.594,-45.410,-1000.000
1742212044.505,-842.773,-37.109,-47.363,-865.234
1742212044.509,532.715,152.344,-46.875,493.164
1742212044.513,999.512,9.766,-43.457,999.512
1742212044.517,-214.844,-241.211,-40.527,-163.086
1742212044.521,-1000.000,-98.145,-40.527,-1000.000
1742212044.525,-1000.000,-28.809,-41.504,-1000.000
1742212044.528,-80.078,-2.441,-47.363,-189.453
1742212044.532,999.512,81.055,-51.758,999.512
1742212044.536,558.594,-133.789,-46.387,537.598
1742212044.540,-897.461,-211.426,-47.852,-882.812
1742212044.544,-1000.000,-54.199,-52.734,-1000.000
1742212044.501,-1000.000,-183.594,-45.410,-1000.000
1742212044.505,-842.773,-37.109,-47.363,-865.234
1742212044.509,532.715,152.344,-46.875,493.164
1742212044.513,999.512,9.766,-43.457,999.512
1742212044.517,-214.844,-241.211,-40.527,-163.086
1742212044.521,-1000.000,-98.145,-40.527,-1000.000
1742212044.525,-1000.000,-28.809,-41.504,-1000.000
1742212044.528,-80.078,-2.441,-47.363,-189.453
1742212044.532,999.512,81.055,-51.758,999.512
1742212044.536,558.594,-133.789,-46.387,537.598
1742212044.540,-897.461,-211.426,-47.852,-882.812
1742212044.544,-1000.000,-54.199,-52.734,-1000.000
1742212044.547,288.574,149.414,-45.410,153.320
1742212044.551,999.512,117.188,-43.457,999.512
1742212044.555,567.383,-119.629,-50.293,564.453
1742212044.559,-824.707,-226.562,-49.805,-799.316
1742212044.563,-1000.000,-47.363,-49.316,-1000.000
1742212044.567,160.156,255.859,-51.758,-9.277
1742212044.571,999.512,141.113,-52.246,999.512
1742212044.574,387.695,-181.152,-51.758,398.926
1742212044.578,-891.602,-131.836,-48.340,-870.117
1742212044.582,-1000.000,-51.758,-54.199,-1000.000
1742212044.586,-198.730,71.777,-60.059,-436.035
1742212044.590,999.512,111.816,-54.199,966.797
1742212044.547,288.574,149.414,-45.410,153.320
1742212044.551,999.512,117.188,-43.457,999.512
1742212044.555,567.383,-119.629,-50.293,564.453
1742212044.559,-824.707,-226.562,-49.805,-799.316
1742212044.563,-1000.000,-47.363,-49.316,-1000.000
1742212044.567,160.156,255.859,-51.758,-9.277
1742212044.571,999.512,141.113,-52.246,999.512
1742212044.574,387.695,-181.152,-51.758,398.926
1742212044.578,-891.602,-131.836,-48.340,-870.117
1742212044.582,-1000.000,-51.758,-54.199,-1000.000
1742212044.586,-198.730,71.777,-60.059,-436.035
1742212044.590,999.512,111.816,-54.199,966.797
1742212044.591,812.988,-42.969,-46.387,832.520
1742212044.595,-574.707,-154.297,-38.574,-614.746
1742212044.599,-1000.000,-117.188,-34.180,-1000.000
1742212044.603,-635.254,35.156,-32.227,-707.520
1742212044.607,842.285,212.402,-27.344,774.902
1742212044.611,907.715,-14.160,-33.691,931.641
1742212044.615,-601.562,-295.898,-42.969,-593.262
1742212044.618,-1000.000,-201.660,-40.527,-1000.000
1742212044.622,-868.652,-24.414,-39.551,-867.188
1742212044.626,594.238,165.527,-39.551,587.891
1742212044.630,988.281,-26.855,-42.969,999.512
1742212044.634,-566.406,-294.922,-45.898,-535.156
1742212044.591,812.988,-42.969,-46.387,832.520
1742212044.595,-574.707,-154.297,-38.574,-614.746
1742212044.599,-1000.000,-117.188,-34.180,-1000.000
1742212044.603,-635.254,35.156,-32.227,-707.520
1742212044.607,842.285,212.402,-27.344,774.902
1742212044.611,907.715,-14.160,-33.691,931.641
1742212044.615,-601.562,-295.898,-42.969,-593.262
1742212044.618,-1000.000,-201.660,-40.527,-1000.000
1742212044.622,-868.652,-24.414,-39.551,-867.188
1742212044.626,594.238,165.527,-39.551,587.891
1742212044.630,988.281,-26.855,-42.969,999.512
1742212044.634,-566.406,-294.922,-45.898,-535.156
1742212044.652,-1000.000,-133.301,-38.086,-1000.000
1742212044.656,-837.891,9.766,-34.180,-846.191
1742212044.660,605.469,124.512,-33.691,590.820
1742212044.664,999.512,-59.082,-35.156,999.512
1742212044.668,-473.633,-291.504,-36.621,-448.242
1742212044.672,-1000.000,-120.117,-40.527,-1000.000
1742212044.676,-860.840,-26.367,-42.480,-858.398
1742212044.679,609.375,93.750,-45.898,602.539
1742212044.683,989.746,-22.461,-40.527,999.512
1742212044.687,-563.477,-356.445,-38.574,-520.996
1742212044.691,-1000.000,-203.125,-41.016,-1000.000
1742212044.695,-847.656,-3.906,-38.574,-849.121
1742212044.652,-1000.000,-133.301,-38.086,-1000.000
1742212044.656,-837.891,9.766,-34.180,-846.191
1742212044.660,605.469,124.512,-33.691,590.820
1742212044.664,999.512,-59.082,-35.156,999.512
1742212044.668,-473.633,-291.504,-36.621,-448.242
1742212044.672,-1000.000,-120.117,-40.527,-1000.000
1742212044.676,-860.840,-26.367,-42.480,-858.398
1742212044.679,609.375,93.750,-45.898,602.539
1742212044.683,989.746,-22.461,-40.527,999.512
1742212044.687,-563.477,-356.445,-38.574,-520.996
1742212044.691,-1000.000,-203.125,-41.016,-1000.000
1742212044.695,-847.656,-3.906,-38.574,-849.121
1742212044.726,541.016,186.523,-35.156,522.461
1742212044.730,999.512,39.551,-36.621,999.512
1742212044.734,-287.109,-307.617,-45.410,-190.430
1742212044.738,-1000.000,-248.047,-42.480,-1000.000
1742212044.742,-901.855,-45.410,-34.180,-937.988
1742212044.746,497.559,208.984,-36.133,432.617
1742212044.750,999.512,44.434,-37.598,999.512
1742212044.753,-362.305,-371.094,-39.551,-258.301
1742212044.757,-1000.000,-203.613,-40.527,-1000.000
1742212044.761,-996.094,8.789,-43.457,-1000.000
1742212044.765,267.090,66.406,-40.039,163.086
1742212044.769,999.512,49.316,-33.203,940.430
1742212044.726,541.016,186.523,-35.156,522.461
1742212044.730,999.512,39.551,-36.621,999.512
1742212044.734,-287.109,-307.617,-45.410,-190.430
1742212044.738,-1000.000,-248.047,-42.480,-1000.000
1742212044.742,-901.855,-45.410,-34.180,-937.988
1742212044.746,497.559,208.984,-36.133,432.617
1742212044.750,999.512,44.434,-37.598,999.512
1742212044.753,-362.305,-371.094,-39.551,-258.301
1742212044.757,-1000.000,-203.613,-40.527,-1000.000
1742212044.761,-996.094,8.789,-43.457,-1000.000
1742212044.765,267.090,66.406,-40.039,163.086
1742212044.769,999.512,49.316,-33.203,940.430
1742212044.771,659.668,215.332,-29.297,600.586
1742212044.775,999.512,148.438,-22.949,999.512
1742212044.779,203.613,-248.535,-17.090,180.664
1742212044.783,-1000.000,-229.980,-21.484,-1000.000
1742212044.787,-1000.000,-34.668,-28.320,-1000.000
1742212044.791,155.273,136.719,-23.438,44.434
1742212044.795,999.512,49.316,-29.785,999.512
1742212044.798,131.348,-242.676,-38.574,110.840
1742212044.802,-1000.000,-185.059,-40.527,-1000.000
1742212044.806,-1000.000,-78.613,-43.945,-1000.000
1742212044.810,11.230,43.945,-46.875,-129.883
1742212044.814,999.512,62.012,-44.434,999.512
1742212044.816,143.555,-209.473,-38.574,189.453
1742212044.820,-1000.000,-226.562,-43.457,-1000.000
1742212044.824,-1000.000,-58.105,-50.293,-1000.000
1742212044.828,-172.363,59.570,-45.898,-219.238
1742212044.832,999.512,102.051,-47.363,999.512
1742212044.836,408.691,-121.582,-46.387,436.523
1742212044.840,-920.410,-271.484,-48.340,-895.020
1742212044.843,-1000.000,-179.688,-51.270,-1000.000
1742212044.847,-262.695,78.613,-41.016,-314.453
1742212044.851,999.512,182.617,-35.156,999.512
1742212044.855,508.789,-148.438,-34.180,583.008
1742212044.859,-864.746,-209.473,-35.645,-789.551
1742212044.816,143.555,-209.473,-38.574,189.453
1742212044.820,-1000.000,-226.562,-43.457,-1000.000
1742212044.824,-1000.000,-58.105,-50.293,-1000.000
1742212044.828,-172.363,59.570,-45.898,-219.238
1742212044.832,999.512,102.051,-47.363,999.512
1742212044.836,408.691,-121.582,-46.387,436.523
1742212044.840,-920.410,-271.484,-48.340,-895.020
1742212044.843,-1000.000,-179.688,-51.270,-1000.000
1742212044.847,-262.695,78.613,-41.016,-314.453
1742212044.851,999.512,182.617,-35.156,999.512
1742212044.855,508.789,-148.438,-34.180,583.008
1742212044.859,-864.746,-209.473,-35.645,-789.551
1742212044.861,-1000.000,-90.332,-38.574,-1000.000
1742212044.865,-349.609,65.430,-35.156,-395.996
1742212044.869,999.512,206.055,-36.133,999.512
1742212044.873,693.359,-92.285,-40.039,749.512
1742212044.877,-706.543,-210.938,-38.574,-628.906
1742212044.881,-1000.000,-11.230,-36.621,-1000.000
1742212044.885,-306.641,120.605,-39.062,-370.117
1742212044.888,999.512,145.996,-45.410,999.512
1742212044.892,691.406,-75.684,-49.316,750.488
1742212044.896,-682.617,-190.430,-45.410,-618.652
1742212044.900,-1000.000,-65.918,-46.875,-1000.000
1742212044.904,-492.676,83.984,-48.828,-630.859
1742212044.861,-1000.000,-90.332,-38.574,-1000.000
1742212044.865,-349.609,65.430,-35.156,-395.996
1742212044.869,999.512,206.055,-36.133,999.512
1742212044.873,693.359,-92.285,-40.039,749.512
1742212044.877,-706.543,-210.938,-38.574,-628.906
1742212044.881,-1000.000,-11.230,-36.621,-1000.000
1742212044.885,-306.641,120.605,-39.062,-370.117
1742212044.888,999.512,145.996,-45.410,999.512
1742212044.892,691.406,-75.684,-49.316,750.488
1742212044.896,-682.617,-190.430,-45.410,-618.652
1742212044.900,-1000.000,-65.918,-46.875,-1000.000
1742212044.904,-492.676,83.984,-48.828,-630.859
1742212044.907,871.582,249.023,-41.992,737.305
1742212044.911,999.512,47.363,-35.156,999.512
1742212044.915,-217.285,-233.398,-37.598,-226.074
1742212044.919,-1000.000,-146.484,-43.945,-1000.000
1742212044.923,-475.098,117.676,-47.363,-608.398
1742212044.927,880.859,264.648,-44.434,760.742
1742212044.931,999.512,20.020,-45.410,999.512
1742212044.934,-135.254,-250.977,-47.852,-145.996
1742212044.938,-1000.000,-182.129,-44.434,-1000.000
1742212044.942,-642.578,37.109,-39.062,-796.387
1742212044.946,706.055,208.008,-36.621,504.395
1742212044.950,999.512,104.492,-37.598,999.512
1742212044.907,871.582,249.023,-41.992,737.305
1742212044.911,999.512,47.363,-35.156,999.512
1742212044.915,-217.285,-233.398,-37.598,-226.074
1742212044.919,-1000.000,-146.484,-43.945,-1000.000
1742212044.923,-475.098,117.676,-47.363,-608.398
1742212044.927,880.859,264.648,-44.434,760.742
1742212044.931,999.512,20.020,-45.410,999.512
1742212044.934,-135.254,-250.977,-47.852,-145.996
1742212044.938,-1000.000,-182.129,-44.434,-1000.000
1742212044.942,-642.578,37.109,-39.062,-796.387
1742212044.946,706.055,208.008,-36.621,504.395
1742212044.950,999.512,104.492,-37.598,999.512
1742212044.966,44.922,-187.500,-37.598,42.480
1742212044.970,-1000.000,-181.152,-37.598,-1000.000
1742212044.974,-1000.000,-27.832,-37.109,-1000.000
1742212044.978,98.145,151.367,-30.273,-25.879
1742212044.982,999.512,116.211,-28.320,999.512
1742212044.986,130.371,-168.945,-38.086,165.039
1742212044.990,-1000.000,-243.652,-46.387,-1000.000
1742212044.993,-1000.000,-133.789,-47.363,-1000.000
1742212044.997,-248.535,116.211,-36.133,-243.164
1742212045.001,999.512,169.434,-27.344,999.512
1742212045.005,227.539,-169.434,-32.715,272.461
1742212045.009,-1000.000,-204.102,-35.156,-996.582
1742212044.966,44.922,-187.500,-37.598,42.480
1742212044.970,-1000.000,-181.152,-37.598,-1000.000
1742212044.974,-1000.000,-27.832,-37.109,-1000.000
1742212044.978,98.145,151.367,-30.273,-25.879
1742212044.982,999.512,116.211,-28.320,999.512
1742212044.986,130.371,-168.945,-38.086,165.039
1742212044.990,-1000.000,-243.652,-46.387,-1000.000
1742212044.993,-1000.000,-133.789,-47.363,-1000.000
1742212044.997,-248.535,116.211,-36.133,-243.164
1742212045.001,999.512,169.434,-27.344,999.512
1742212045.005,227.539,-169.434,-32.715,272.461
1742212045.009,-1000.000,-204.102,-35.156,-996.582
1742212045.011,-1000.000,-41.504,-35.156,-1000.000
1742212045.015,-244.141,100.098,-30.762,-240.234
1742212045.019,999.512,131.836,-28.809,999.512
1742212045.023,286.621,-204.590,-35.645,321.777
1742212045.027,-994.141,-234.863,-41.016,-975.586
1742212045.031,-1000.000,-13.184,-41.016,-1000.000
1742212045.035,-221.680,120.605,-33.203,-227.051
1742212045.038,999.512,101.074,-27.832,999.512
1742212045.042,288.086,-233.887,-27.344,328.125
1742212045.046,-992.188,-253.906,-28.320,-970.215
1742212045.050,-1000.000,-70.312,-26.367,-1000.000
1742212045.054,-218.262,159.180,-23.926,-242.188
1742212045.011,-1000.000,-41.504,-35.156,-1000.000
1742212045.015,-244.141,100.098,-30.762,-240.234
1742212045.019,999.512,131.836,-28.809,999.512
1742212045.023,286.621,-204.590,-35.645,321.777
1742212045.027,-994.141,-234.863,-41.016,-975.586
1742212045.031,-1000.000,-13.184,-41.016,-1000.000
1742212045.035,-221.680,120.605,-33.203,-227.051
1742212045.038,999.512,101.074,-27.832,999.512
1742212045.042,288.086,-233.887,-27.344,328.125
1742212045.046,-992.188,-253.906,-28.320,-970.215
1742212045.050,-1000.000,-70.312,-26.367,-1000.000
1742212045.054,-218.262,159.180,-23.926,-242.188
1742212045.056,999.512,174.805,-31.250,999.512
1742212045.060,388.184,-185.547,-44.922,407.227
1742212045.064,-942.383,-250.488,-45.898,-926.758
1742212045.068,-1000.000,-51.758,-38.086,-1000.000
1742212045.072,-229.980,137.695,-34.180,-261.230
1742212045.076,999.512,215.332,-26.367,999.512
1742212045.080,726.074,-88.379,-25.391,762.695
1742212045.083,-621.094,-283.691,-30.273,-567.871
1742212045.087,-1000.000,-131.348,-34.668,-1000.000
1742212045.091,-425.781,49.805,-39.551,-607.910
1742212045.095,888.184,140.625,-39.062,745.605
1742212045.099,999.512,-26.855,-42.480,999.512
1742212045.056,999.512,174.805,-31.250,999.512
1742212045.060,388.184,-185.547,-44.922,407.227
1742212045.064,-942.383,-250.488,-45.898,-926.758
1742212045.068,-1000.000,-51.758,-38.086,-1000.000
1742212045.072,-229.980,137.695,-34.180,-261.230
1742212045.076,999.512,215.332,-26.367,999.512
1742212045.080,726.074,-88.379,-25.391,762.695
1742212045.083,-621.094,-283.691,-30.273,-567.871
1742212045.087,-1000.000,-131.348,-34.668,-1000.000
1742212045.091,-425.781,49.805,-39.551,-607.910
1742212045.095,888.184,140.625,-39.062,745.605
1742212045.099,999.512,-26.855,-42.480,999.512
1742212045.101,-146.973,-184.082,-44.434,-189.453
1742212045.105,-1000.000,-146.973,-36.133,-1000.000
1742212045.109,-926.758,-53.711,-35.156,-1000.000
1742212045.113,346.191,78.613,-34.668,189.941
1742212045.117,999.512,31.738,-31.738,999.512
1742212045.121,-63.477,-165.039,-30.273,-110.352
1742212045.125,-1000.000,-166.016,-31.738,-1000.000
1742212045.128,-1000.000,-89.355,-34.668,-1000.000
1742212045.132,187.988,101.074,-30.762,40.527
1742212045.136,999.512,76.660,-32.227,999.512
1742212045.140,140.137,-126.465,-29.785,115.234
1742212045.144,-1000.000,-90.332,-21.484,-1000.000
1742212045.101,-146.973,-184.082,-44.434,-189.453
1742212045.105,-1000.000,-146.973,-36.133,-1000.000
1742212045.109,-926.758,-53.711,-35.156,-1000.000
1742212045.113,346.191,78.613,-34.668,189.941
1742212045.117,999.512,31.738,-31.738,999.512
1742212045.121,-63.477,-165.039,-30.273,-110.352
1742212045.125,-1000.000,-166.016,-31.738,-1000.000
1742212045.128,-1000.000,-89.355,-34.668,-1000.000
1742212045.132,187.988,101.074,-30.762,40.527
1742212045.136,999.512,76.660,-32.227,999.512
1742212045.140,140.137,-126.465,-29.785,115.234
1742212045.144,-1000.000,-90.332,-21.484,-1000.000
1742212045.146,-1000.000,-54.199,-21.484,-1000.000
1742212045.150,73.730,67.871,-19.043,-22.461
1742212045.154,999.512,85.938,-16.602,999.512
1742212045.158,159.668,-206.055,-22.461,143.555
1742212045.162,-1000.000,-204.590,-24.902,-1000.000
1742212045.166,-1000.000,39.062,-26.855,-1000.000
1742212045.170,151.855,125.977,-27.832,24.902
1742212045.173,999.512,32.715,-23.926,999.512
1742212045.177,128.418,-198.730,-28.809,132.324
1742212045.181,-1000.000,-167.969,-29.785,-1000.000
1742212045.185,-1000.000,-53.711,-27.832,-1000.000
1742212045.189,-242.676,75.195,-24.902,-248.535
1742212045.192,999.512,166.504,-30.762,999.512
1742212045.196,436.035,-132.324,-34.180,467.773
1742212045.200,-914.062,-269.531,-28.320,-875.977
1742212045.204,-1000.000,-112.793,-29.297,-1000.000
1742212045.208,-274.414,118.652,-25.879,-327.637
1742212045.212,999.512,244.629,-20.508,999.512
1742212045.216,524.414,-133.789,-22.461,584.473
1742212045.219,-862.305,-319.336,-27.832,-798.340
1742212045.223,-1000.000,-106.445,-22.949,-1000.000
1742212045.227,-227.539,111.816,-17.578,-289.062
1742212045.231,999.512,117.188,-18.066,982.910
1742212045.235,974.121,-22.949,-23.926,982.422
1742212045.236,-272.461,-183.105,-29.297,-255.859
1742212045.240,-1000.000,-186.523,-29.785,-1000.000
1742212045.244,-911.621,-31.250,-35.645,-938.965
1742212045.248,312.988,168.457,-39.551,260.742
1742212045.252,999.512,109.863,-29.785,999.512
1742212045.256,42.480,-108.398,-22.461,20.996
1742212045.260,-1000.000,-150.879,-26.855,-1000.000
1742212045.263,-921.387,-56.641,-30.273,-951.660
1742212045.267,389.648,165.527,-28.320,315.918
1742212045.271,999.512,59.082,-33.203,999.512
1742212045.275,-47.852,-183.105,-40.527,-44.922
1742212045.279,-1000.000,-141.602,-37.598,-1000.000
1742212045.236,-272.461,-183.105,-29.297,-255.859
1742212045.240,-1000.000,-186.523,-29.785,-1000.000
1742212045.244,-911.621,-31.250,-35.645,-938.965
1742212045.248,312.988,168.457,-39.551,260.742
1742212045.252,999.512,109.863,-29.785,999.512
1742212045.256,42.480,-108.398,-22.461,20.996
1742212045.260,-1000.000,-150.879,-26.855,-1000.000
1742212045.263,-921.387,-56.641,-30.273,-951.660
1742212045.267,389.648,165.527,-28.320,315.918
1742212045.271,999.512,59.082,-33.203,999.512
1742212045.275,-47.852,-183.105,-40.527,-44.922
1742212045.279,-1000.000,-141.602,-37.598,-1000.000
1742212045.281,-729.004,35.156,-29.785,-836.426
1742212045.285,634.277,141.113,-24.902,480.957
1742212045.289,999.512,-6.348,-23.926,999.512
1742212045.293,-31.738,-200.684,-28.809,-24.414
1742212045.297,-1000.000,-193.359,-38.086,-1000.000
1742212045.301,-586.426,46.875,-40.527,-714.844
1742212045.305,800.781,144.531,-40.039,651.367
1742212045.308,999.512,-103.027,-43.457,999.512
1742212045.312,-128.418,-290.039,-43.457,-104.004
1742212045.316,-1000.000,-184.082,-44.922,-1000.000
1742212045.320,-988.770,-47.852,-44.434,-1000.000
1742212045.324,164.551,133.301,-38.574,43.945
1742212045.281,-729.004,35.156,-29.785,-836.426
1742212045.285,634.277,141.113,-24.902,480.957
1742212045.289,999.512,-6.348,-23.926,999.512
1742212045.293,-31.738,-200.684,-28.809,-24.414
1742212045.297,-1000.000,-193.359,-38.086,-1000.000
1742212045.301,-586.426,46.875,-40.527,-714.844
1742212045.305,800.781,144.531,-40.039,651.367
1742212045.308,999.512,-103.027,-43.457,999.512
1742212045.312,-128.418,-290.039,-43.457,-104.004
1742212045.316,-1000.000,-184.082,-44.922,-1000.000
1742212045.320,-988.770,-47.852,-44.434,-1000.000
1742212045.324,164.551,133.301,-38.574,43.945
1742212045.341,999.512,61.035,-37.109,999.512
1742212045.345,138.672,-259.277,-37.598,132.324
1742212045.349,-1000.000,-247.559,-39.062,-1000.000
1742212045.353,-1000.000,-53.223,-38.574,-1000.000
1742212045.357,-49.316,107.910,-39.551,-143.066
1742212045.361,999.512,168.945,-36.133,999.512
1742212045.365,205.078,-135.742,-34.668,269.043
1742212045.368,-1000.000,-274.902,-40.527,-984.375
1742212045.372,-1000.000,-40.527,-40.039,-1000.000
1742212045.376,-250.977,134.766,-42.480,-247.559
1742212045.380,999.512,91.797,-45.898,999.512
1742212045.384,372.070,-167.969,-44.922,389.160
1742212045.341,999.512,61.035,-37.109,999.512
1742212045.345,138.672,-259.277,-37.598,132.324
1742212045.349,-1000.000,-247.559,-39.062,-1000.000
1742212045.353,-1000.000,-53.223,-38.574,-1000.000
1742212045.357,-49.316,107.910,-39.551,-143.066
1742212045.361,999.512,168.945,-36.133,999.512
1742212045.365,205.078,-135.742,-34.668,269.043
1742212045.368,-1000.000,-274.902,-40.527,-984.375
1742212045.372,-1000.000,-40.527,-40.039,-1000.000
1742212045.376,-250.977,134.766,-42.480,-247.559
1742212045.380,999.512,91.797,-45.898,999.512
1742212045.384,372.070,-167.969,-44.922,389.160
1742212045.386,-951.172,-216.797,-41.992,-932.617
1742212045.390,-1000.000,-86.426,-40.039,-1000.000
1742212045.394,-252.930,70.312,-40.527,-318.848
1742212045.398,999.512,156.738,-41.504,999.512
1742212045.402,668.457,-75.195,-38.574,704.102
1742212045.406,-688.477,-169.922,-35.156,-647.949
1742212045.410,-1000.000,-72.754,-44.434,-1000.000
1742212045.413,-520.508,62.988,-49.316,-632.812
1742212045.417,951.172,196.289,-46.875,828.613
1742212045.421,820.312,-35.156,-45.898,846.680
1742212045.425,-618.164,-255.859,-45.410,-582.031
1742212045.429,-1000.000,-61.035,-39.062,-1000.000
1742212045.386,-951.172,-216.797,-41.992,-932.617
1742212045.390,-1000.000,-86.426,-40.039,-1000.000
1742212045.394,-252.930,70.312,-40.527,-318.848
1742212045.398,999.512,156.738,-41.504,999.512
1742212045.402,668.457,-75.195,-38.574,704.102
1742212045.406,-688.477,-169.922,-35.156,-647.949
1742212045.410,-1000.000,-72.754,-44.434,-1000.000
1742212045.413,-520.508,62.988,-49.316,-632.812
1742212045.417,951.172,196.289,-46.875,828.613
1742212045.421,820.312,-35.156,-45.898,846.680
1742212045.425,-618.164,-255.859,-45.410,-582.031
1742212045.429,-1000.000,-61.035,-39.062,-1000.000
1742212045.431,-287.598,144.043,-34.668,-377.441
1742212045.435,999.512,116.211,-35.156,999.512
1742212045.439,735.352,-124.512,-34.180,769.043
1742212045.443,-654.785,-241.211,-28.809,-607.910
1742212045.447,-1000.000,-83.008,-29.297,-1000.000
1742212045.451,-204.102,181.152,-31.250,-300.781
1742212045.455,999.512,166.504,-25.879,999.512
1742212045.458,881.836,-116.211,-22.949,912.109
1742212045.462,-405.273,-195.312,-22.949,-386.230
1742212045.466,-1000.000,-99.121,-23.438,-1000.000
1742212045.470,-729.004,7.324,-23.926,-865.723
1742212045.474,567.383,138.184,-24.414,373.535
1742212045.431,-287.598,144.043,-34.668,-377.441
1742212045.435,999.512,116.211,-35.156,999.512
1742212045.439,735.352,-124.512,-34.180,769.043
1742212045.443,-654.785,-241.211,-28.809,-607.910
1742212045.447,-1000.000,-83.008,-29.297,-1000.000
1742212045.451,-204.102,181.152,-31.250,-300.781
1742212045.455,999.512,166.504,-25.879,999.512
1742212045.458,881.836,-116.211,-22.949,912.109
1742212045.462,-405.273,-195.312,-22.949,-386.230
1742212045.466,-1000.000,-99.121,-23.438,-1000.000
1742212045.470,-729.004,7.324,-23.926,-865.723
1742212045.474,567.383,138.184,-24.414,373.535
1742212045.478,999.512,36.133,-23.438,999.512
1742212045.482,35.156,-167.480,-24.414,30.273
1742212045.486,-1000.000,-156.250,-24.902,-1000.000
1742212045.490,-949.219,-61.523,-26.367,-1000.000
1742212045.494,294.434,99.609,-27.344,170.898
1742212045.498,999.512,68.359,-31.738,999.512
1742212045.502,126.953,-209.961,-35.156,107.422
1742212045.505,-1000.000,-232.910,-36.621,-1000.000
1742212045.509,-1000.000,-50.781,-33.203,-1000.000
1742212045.513,-42.969,72.266,-34.180,-137.695
1742212045.517,999.512,103.516,-36.133,999.512
1742212045.521,342.773,-100.098,-33.203,377.930
1742212045.478,999.512,36.133,-23.438,999.512
1742212045.482,35.156,-167.480,-24.414,30.273
1742212045.486,-1000.000,-156.250,-24.902,-1000.000
1742212045.490,-949.219,-61.523,-26.367,-1000.000
1742212045.494,294.434,99.609,-27.344,170.898
1742212045.498,999.512,68.359,-31.738,999.512
1742212045.502,126.953,-209.961,-35.156,107.422
1742212045.505,-1000.000,-232.910,-36.621,-1000.000
1742212045.509,-1000.000,-50.781,-33.203,-1000.000
1742212045.513,-42.969,72.266,-34.180,-137.695
1742212045.517,999.512,103.516,-36.133,999.512
1742212045.521,342.773,-100.098,-33.203,377.930
1742212045.521,-938.477,-246.582,-38.086,-926.758
1742212045.525,-1000.000,-105.957,-38.574,-1000.000
1742212045.529,-248.047,53.223,-35.156,-263.184
1742212045.533,999.512,234.863,-32.227,999.512
1742212045.537,404.297,-60.059,-32.715,424.316
1742212045.541,-938.477,-267.578,-35.645,-917.480
1742212045.545,-1000.000,-121.582,-30.762,-1000.000
1742212045.548,-249.023,43.457,-32.715,-304.688
1742212045.552,999.512,161.133,-37.598,999.512
1742212045.556,485.352,-146.973,-32.227,509.277
1742212045.560,-890.625,-261.230,-32.715,-857.910
1742212045.564,-1000.000,-110.840,-36.133,-1000.000
1742212045.566,-264.648,118.652,-41.016,-317.383
1742212045.570,999.512,208.984,-39.062,999.512
1742212045.574,397.461,-205.078,-41.992,452.637
1742212045.578,-946.289,-275.391,-46.875,-916.992
1742212045.582,-1000.000,-74.707,-37.598,-1000.000
1742212045.586,-247.070,94.238,-30.273,-250.977
1742212045.590,999.512,178.223,-31.738,999.512
1742212045.593,546.387,-171.875,-36.133,627.441
1742212045.597,-817.383,-320.312,-38.086,-726.074
1742212045.601,-1000.000,-126.465,-37.598,-1000.000
1742212045.605,-460.938,72.754,-43.457,-533.691
1742212045.609,964.355,227.539,-38.086,881.836
1742212045.566,-264.648,118.652,-41.016,-317.383
1742212045.570,999.512,208.984,-39.062,999.512
1742212045.574,397.461,-205.078,-41.992,452.637
1742212045.578,-946.289,-275.391,-46.875,-916.992
1742212045.582,-1000.000,-74.707,-37.598,-1000.000
1742212045.586,-247.070,94.238,-30.273,-250.977
1742212045.590,999.512,178.223,-31.738,999.512
1742212045.593,546.387,-171.875,-36.133,627.441
1742212045.597,-817.383,-320.312,-38.086,-726.074
1742212045.601,-1000.000,-126.465,-37.598,-1000.000
1742212045.605,-460.938,72.754,-43.457,-533.691
1742212045.609,964.355,227.539,-38.086,881.836
1742212045.566,-264.648,118.652,-41.016,-317.383
1742212045.570,999.512,208.984,-39.062,999.512
1742212045.574,397.461,-205.078,-41.992,452.637
1742212045.578,-946.289,-275.391,-46.875,-916.992
1742212045.582,-1000.000,-74.707,-37.598,-1000.000
1742212045.586,-247.070,94.238,-30.273,-250.977
1742212045.590,999.512,178.223,-31.738,999.512
1742212045.593,546.387,-171.875,-36.133,627.441
1742212045.597,-817.383,-320.312,-38.086,-726.074
1742212045.601,-1000.000,-126.465,-37.598,-1000.000
1742212045.605,-460.938,72.754,-43.457,-533.691
1742212045.609,964.355,227.539,-38.086,881.836
1742212045.611,853.516,-68.359,-33.691,918.945
1742212045.615,-520.508,-283.203,-41.992,-441.406
1742212045.619,-1000.000,-168.457,-42.969,-1000.000
1742212045.623,-486.328,26.367,-45.898,-594.238
1742212045.627,818.359,177.734,-43.457,710.938
1742212045.631,999.512,76.172,-36.133,999.512
1742212045.635,83.984,-179.199,-44.434,70.312
1742212045.638,-1000.000,-242.676,-51.270,-1000.000
1742212045.642,-880.859,-11.719,-41.992,-974.609
1742212045.646,448.242,165.039,-37.598,285.645
1742212045.650,999.512,1.953,-44.922,999.512
1742212045.654,-6.348,-193.848,-49.805,-23.438
1742212045.611,853.516,-68.359,-33.691,918.945
1742212045.615,-520.508,-283.203,-41.992,-441.406
1742212045.619,-1000.000,-168.457,-42.969,-1000.000
1742212045.623,-486.328,26.367,-45.898,-594.238
1742212045.627,818.359,177.734,-43.457,710.938
1742212045.631,999.512,76.172,-36.133,999.512
1742212045.635,83.984,-179.199,-44.434,70.312
1742212045.638,-1000.000,-242.676,-51.270,-1000.000
1742212045.642,-880.859,-11.719,-41.992,-974.609
1742212045.646,448.242,165.039,-37.598,285.645
1742212045.650,999.512,1.953,-44.922,999.512
1742212045.654,-6.348,-193.848,-49.805,-23.438
1742212045.656,-1000.000,-132.812,-46.387,-1000.000
1742212045.660,-787.109,21.973,-45.410,-940.918
1742212045.664,521.484,138.184,-41.016,285.645
1742212045.668,999.512,27.344,-40.039,999.512
1742212045.672,115.234,-213.379,-44.922,93.750
1742212045.676,-1000.000,-121.582,-39.062,-1000.000
1742212045.680,-1000.000,9.277,-35.156,-1000.000
1742212045.683,-127.441,55.176,-37.109,-179.688
1742212045.687,999.512,127.441,-37.109,999.512
1742212045.691,181.641,-158.691,-41.016,207.031
1742212045.695,-1000.000,-260.742,-45.898,-1000.000
1742212045.699,-1000.000,16.113,-47.852,-1000.000
1742212045.656,-1000.000,-132.812,-46.387,-1000.000
1742212045.660,-787.109,21.973,-45.410,-940.918
1742212045.664,521.484,138.184,-41.016,285.645
1742212045.668,999.512,27.344,-40.039,999.512
1742212045.672,115.234,-213.379,-44.922,93.750
1742212045.676,-1000.000,-121.582,-39.062,-1000.000
1742212045.680,-1000.000,9.277,-35.156,-1000.000
1742212045.683,-127.441,55.176,-37.109,-179.688
1742212045.687,999.512,127.441,-37.109,999.512
1742212045.691,181.641,-158.691,-41.016,207.031
1742212045.695,-1000.000,-260.742,-45.898,-1000.000
1742212045.699,-1000.000,16.113,-47.852,-1000.000
1742212045.702,166.504,153.320,-46.875,24.414
1742212045.706,999.512,5.371,-51.758,999.512
1742212045.710,128.418,-277.344,-54.688,136.230
1742212045.714,-1000.000,-247.559,-51.270,-1000.000
1742212045.718,-1000.000,-51.758,-48.828,-1000.000
1742212045.722,-231.934,138.184,-44.434,-242.676
1742212045.726,999.512,159.180,-47.363,999.512
1742212045.729,210.938,-240.723,-55.176,265.625
1742212045.733,-1000.000,-247.559,-52.246,-996.094
1742212045.737,-1000.000,-20.020,-53.223,-1000.000
1742212045.741,-260.254,145.508,-49.316,-269.043
1742212045.745,999.512,221.680,-35.645,999.512
1742212045.702,166.504,153.320,-46.875,24.414
1742212045.706,999.512,5.371,-51.758,999.512
1742212045.710,128.418,-277.344,-54.688,136.230
1742212045.714,-1000.000,-247.559,-51.270,-1000.000
1742212045.718,-1000.000,-51.758,-48.828,-1000.000
1742212045.722,-231.934,138.184,-44.434,-242.676
1742212045.726,999.512,159.180,-47.363,999.512
1742212045.729,210.938,-240.723,-55.176,265.625
1742212045.733,-1000.000,-247.559,-52.246,-996.094
1742212045.737,-1000.000,-20.020,-53.223,-1000.000
1742212045.741,-260.254,145.508,-49.316,-269.043
1742212045.745,999.512,221.680,-35.645,999.512
1742212045.761,584.473,-72.266,-36.133,645.996
1742212045.765,-779.297,-169.922,-37.598,-703.125
1742212045.769,-1000.000,-51.758,-36.133,-1000.000
1742212045.773,-501.953,31.738,-40.527,-592.285
1742212045.777,843.262,178.223,-40.039,750.977
1742212045.781,999.512,96.191,-41.504,999.512
1742212045.785,-102.539,-150.879,-45.410,-119.629
1742212045.788,-1000.000,-155.762,-38.574,-1000.000
1742212045.792,-485.840,124.512,-29.785,-651.367
1742212045.796,932.129,244.141,-31.250,788.086
1742212045.800,965.332,-19.043,-38.574,974.609
1742212045.804,-357.422,-144.531,-36.133,-385.742
1742212045.761,584.473,-72.266,-36.133,645.996
1742212045.765,-779.297,-169.922,-37.598,-703.125
1742212045.769,-1000.000,-51.758,-36.133,-1000.000
1742212045.773,-501.953,31.738,-40.527,-592.285
1742212045.777,843.262,178.223,-40.039,750.977
1742212045.781,999.512,96.191,-41.504,999.512
1742212045.785,-102.539,-150.879,-45.410,-119.629
1742212045.788,-1000.000,-155.762,-38.574,-1000.000
1742212045.792,-485.840,124.512,-29.785,-651.367
1742212045.796,932.129,244.141,-31.250,788.086
1742212045.800,965.332,-19.043,-38.574,974.609
1742212045.804,-357.422,-144.531,-36.133,-385.742
1742212045.806,-1000.000,-76.660,-34.180,-1000.000
1742212045.810,-564.453,67.383,-37.598,-729.492
1742212045.814,777.832,178.711,-43.945,594.238
1742212045.818,999.512,20.996,-48.340,999.512
1742212045.822,-116.211,-76.172,-41.504,-110.840
1742212045.826,-1000.000,-42.480,-41.992,-1000.000
1742212045.830,-1000.000,-43.457,-46.875,-1000.000
1742212045.833,14.648,54.199,-45.410,-42.480
1742212045.837,999.512,84.961,-45.410,999.512
1742212045.841,153.809,-147.949,-43.945,127.930
1742212045.845,-1000.000,-137.695,-39.551,-1000.000
1742212045.849,-1000.000,28.809,-32.227,-1000.000
1742212045.806,-1000.000,-76.660,-34.180,-1000.000
1742212045.810,-564.453,67.383,-37.598,-729.492
1742212045.814,777.832,178.711,-43.945,594.238
1742212045.818,999.512,20.996,-48.340,999.512
1742212045.822,-116.211,-76.172,-41.504,-110.840
1742212045.826,-1000.000,-42.480,-41.992,-1000.000
1742212045.830,-1000.000,-43.457,-46.875,-1000.000
1742212045.833,14.648,54.199,-45.410,-42.480
1742212045.837,999.512,84.961,-45.410,999.512
1742212045.841,153.809,-147.949,-43.945,127.930
1742212045.845,-1000.000,-137.695,-39.551,-1000.000
1742212045.849,-1000.000,28.809,-32.227,-1000.000
1742212045.851,219.238,194.336,-25.879,107.422
1742212045.855,999.512,164.551,-27.344,999.512
1742212045.859,136.230,-173.828,-26.367,120.605
1742212045.863,-1000.000,-163.574,-25.879,-1000.000
1742212045.867,-1000.000,53.223,-25.391,-1000.000
1742212045.871,-14.648,179.688,-15.625,-100.586
1742212045.875,999.512,171.387,-17.090,999.512
1742212045.878,142.090,-214.355,-29.297,184.570
1742212045.882,-1000.000,-297.852,-35.156,-1000.000
1742212045.886,-1000.000,-89.355,-37.109,-1000.000
1742212045.890,-211.914,86.426,-31.738,-245.117
1742212045.894,999.512,173.340,-28.809,999.512
1742212045.851,219.238,194.336,-25.879,107.422
1742212045.855,999.512,164.551,-27.344,999.512
1742212045.859,136.230,-173.828,-26.367,120.605
1742212045.863,-1000.000,-163.574,-25.879,-1000.000
1742212045.867,-1000.000,53.223,-25.391,-1000.000
1742212045.871,-14.648,179.688,-15.625,-100.586
1742212045.875,999.512,171.387,-17.090,999.512
1742212045.878,142.090,-214.355,-29.297,184.570
1742212045.882,-1000.000,-297.852,-35.156,-1000.000
1742212045.886,-1000.000,-89.355,-37.109,-1000.000
1742212045.890,-211.914,86.426,-31.738,-245.117
1742212045.894,999.512,173.340,-28.809,999.512
1742212045.896,250.000,-200.195,-31.250,281.738
1742212045.900,-1000.000,-260.742,-31.250,-991.211
1742212045.904,-1000.000,-54.199,-35.156,-1000.000
1742212045.908,-223.633,128.906,-27.344,-241.699
1742212045.912,999.512,185.547,-21.973,999.512
1742212045.916,689.453,-42.969,-32.227,686.523
1742212045.920,-679.199,-223.145,-36.621,-646.973
1742212045.923,-1000.000,-200.684,-37.109,-1000.000
1742212045.927,-251.953,105.957,-25.391,-368.652
1742212045.931,999.512,229.980,-15.137,999.512
1742212045.935,423.340,-218.262,-20.508,449.707
1742212045.939,-933.594,-325.684,-28.320,-928.711
1742212045.896,250.000,-200.195,-31.250,281.738
1742212045.900,-1000.000,-260.742,-31.250,-991.211
1742212045.904,-1000.000,-54.199,-35.156,-1000.000
1742212045.908,-223.633,128.906,-27.344,-241.699
1742212045.912,999.512,185.547,-21.973,999.512
1742212045.916,689.453,-42.969,-32.227,686.523
1742212045.920,-679.199,-223.145,-36.621,-646.973
1742212045.923,-1000.000,-200.684,-37.109,-1000.000
1742212045.927,-251.953,105.957,-25.391,-368.652
1742212045.931,999.512,229.980,-15.137,999.512
1742212045.935,423.340,-218.262,-20.508,449.707
1742212045.939,-933.594,-325.684,-28.320,-928.711
1742212045.941,-1000.000,-46.387,-34.180,-1000.000
1742212045.945,-211.914,145.996,-32.715,-250.977
1742212045.949,999.512,181.641,-30.273,999.512
1742212045.953,764.160,-33.691,-33.203,792.969
1742212045.957,-562.500,-122.070,-30.762,-524.902
1742212045.961,-1000.000,-0.488,-30.273,-1000.000
1742212045.965,-605.957,51.270,-36.621,-693.359
1742212045.968,749.023,83.496,-35.645,636.230
1742212045.972,999.512,33.691,-34.180,999.512
1742212045.976,-125.488,-116.699,-34.180,-130.859
1742212045.980,-1000.000,-121.094,-30.762,-1000.000
1742212045.984,-592.773,116.211,-33.691,-674.316
1742212045.941,-1000.000,-46.387,-34.180,-1000.000
1742212045.945,-211.914,145.996,-32.715,-250.977
1742212045.949,999.512,181.641,-30.273,999.512
1742212045.953,764.160,-33.691,-33.203,792.969
1742212045.957,-562.500,-122.070,-30.762,-524.902
1742212045.961,-1000.000,-0.488,-30.273,-1000.000
1742212045.965,-605.957,51.270,-36.621,-693.359
1742212045.968,749.023,83.496,-35.645,636.230
1742212045.972,999.512,33.691,-34.180,999.512
1742212045.976,-125.488,-116.699,-34.180,-130.859
1742212045.980,-1000.000,-121.094,-30.762,-1000.000
1742212045.984,-592.773,116.211,-33.691,-674.316
1742212045.986,822.754,223.633,-38.086,721.680
1742212045.990,999.512,-55.664,-40.527,999.512
1742212045.994,-270.996,-304.199,-43.945,-244.141
1742212045.998,-1000.000,-178.711,-38.086,-1000.000
1742212046.002,-704.102,22.949,-32.227,-829.590
1742212046.006,639.648,179.688,-32.227,459.961
1742212046.010,999.512,0.977,-33.203,999.512
1742212046.013,-123.535,-279.297,-39.062,-79.590
1742212046.017,-1000.000,-173.828,-41.992,-1000.000
1742212046.021,-1000.000,-63.477,-36.133,-1000.000
1742212046.025,57.617,47.363,-31.738,-31.250
1742212046.029,999.512,94.238,-33.203,999.512
1742212045.986,822.754,223.633,-38.086,721.680
1742212045.990,999.512,-55.664,-40.527,999.512
1742212045.994,-270.996,-304.199,-43.945,-244.141
1742212045.998,-1000.000,-178.711,-38.086,-1000.000
1742212046.002,-704.102,22.949,-32.227,-829.590
1742212046.006,639.648,179.688,-32.227,459.961
1742212046.010,999.512,0.977,-33.203,999.512
1742212046.013,-123.535,-279.297,-39.062,-79.590
1742212046.017,-1000.000,-173.828,-41.992,-1000.000
1742212046.021,-1000.000,-63.477,-36.133,-1000.000
1742212046.025,57.617,47.363,-31.738,-31.250
1742212046.029,999.512,94.238,-33.203,999.512
1742212046.032,132.324,-215.820,-32.227,157.227
1742212046.036,-1000.000,-247.559,-30.273,-1000.000
1742212046.040,-1000.000,-76.660,-35.645,-1000.000
1742212046.044,-256.348,13.672,-38.086,-243.652
1742212046.048,999.512,80.566,-35.156,999.512
1742212046.052,540.527,-110.352,-33.203,577.148
1742212046.056,-834.961,-265.137,-41.016,-767.090
1742212046.059,-1000.000,-219.727,-44.434,-1000.000
1742212046.063,-288.086,65.430,-32.227,-357.422
1742212046.067,999.512,173.828,-23.438,999.512
1742212046.071,399.902,-196.777,-33.691,425.293
1742212046.075,-949.707,-229.492,-32.715,-940.918
1742212046.091,-1000.000,-70.801,-26.367,-1000.000
1742212046.095,-247.070,50.781,-31.250,-262.695
1742212046.099,999.512,154.785,-31.738,999.512
1742212046.103,468.750,-188.477,-34.180,480.469
1742212046.107,-910.156,-252.930,-31.250,-881.348
1742212046.111,-1000.000,14.160,-26.367,-1000.000
1742212046.115,-179.688,140.625,-25.879,-226.074
1742212046.118,999.512,111.816,-23.926,999.512
1742212046.122,418.457,-143.555,-29.785,431.641
1742212046.126,-912.598,-225.098,-33.691,-895.996
1742212046.130,-1000.000,-111.816,-28.809,-1000.000
1742212046.134,-311.523,78.125,-37.598,-436.035
1742212046.091,-1000.000,-70.801,-26.367,-1000.000
1742212046.095,-247.070,50.781,-31.250,-262.695
1742212046.099,999.512,154.785,-31.738,999.512
1742212046.103,468.750,-188.477,-34.180,480.469
1742212046.107,-910.156,-252.930,-31.250,-881.348
1742212046.111,-1000.000,14.160,-26.367,-1000.000
1742212046.115,-179.688,140.625,-25.879,-226.074
1742212046.118,999.512,111.816,-23.926,999.512
1742212046.122,418.457,-143.555,-29.785,431.641
1742212046.126,-912.598,-225.098,-33.691,-895.996
1742212046.130,-1000.000,-111.816,-28.809,-1000.000
1742212046.134,-311.523,78.125,-37.598,-436.035
1742212046.136,999.512,179.199,-43.457,946.289
1742212046.140,912.598,-86.426,-38.574,930.176
1742212046.144,-380.859,-245.605,-39.551,-369.629
1742212046.148,-1000.000,-132.812,-42.480,-1000.000
1742212046.152,-406.738,136.719,-40.527,-531.250
1742212046.156,979.004,283.691,-29.785,883.301
1742212046.160,892.578,-17.090,-27.344,941.895
1742212046.163,-448.730,-251.953,-35.156,-411.133
1742212046.167,-1000.000,-145.020,-44.922,-1000.000
1742212046.171,-618.652,-18.066,-53.711,-761.230
1742212046.175,725.098,145.996,-49.316,544.434
1742212046.179,999.512,25.391,-47.363,999.512
1742212046.136,999.512,179.199,-43.457,946.289
1742212046.140,912.598,-86.426,-38.574,930.176
1742212046.144,-380.859,-245.605,-39.551,-369.629
1742212046.148,-1000.000,-132.812,-42.480,-1000.000
1742212046.152,-406.738,136.719,-40.527,-531.250
1742212046.156,979.004,283.691,-29.785,883.301
1742212046.160,892.578,-17.090,-27.344,941.895
1742212046.163,-448.730,-251.953,-35.156,-411.133
1742212046.167,-1000.000,-145.020,-44.922,-1000.000
1742212046.171,-618.652,-18.066,-53.711,-761.230
1742212046.175,725.098,145.996,-49.316,544.434
1742212046.179,999.512,25.391,-47.363,999.512
1742212046.181,-57.617,-261.719,-53.223,-45.898
1742212046.185,-1000.000,-226.074,-54.199,-1000.000
1742212046.189,-1000.000,-62.012,-46.387,-1000.000
1742212046.193,100.586,83.496,-40.527,-0.977
1742212046.197,999.512,116.211,-41.016,999.512
1742212046.201,194.824,-99.609,-41.992,264.160
1742212046.205,-988.281,-161.621,-44.434,-970.215
1742212046.208,-1000.000,-41.016,-42.969,-1000.000
