timestamps,TP9,AF7,AF8,TP10
1741597157.894,-1000.000,-1000.000,647.461,-1000.000
1741597157.898,-221.191,-145.996,837.402,-234.863
1741597157.902,999.512,999.512,979.004,999.512
1741597157.906,950.195,938.965,961.914,952.637
1741597157.910,938.965,946.289,964.844,938.477
1741597157.914,974.121,973.145,967.285,983.887
1741597157.918,963.379,903.809,965.332,919.922
1741597157.921,908.691,999.512,968.750,999.512
1741597157.925,999.512,194.824,922.852,803.223
1741597157.929,183.594,-1000.000,876.953,-444.336
1741597157.933,-1000.000,-1000.000,722.168,-1000.000
1741597157.937,-161.621,-223.633,753.906,-334.961
1741597157.953,999.512,999.512,927.734,962.402
1741597157.957,940.430,969.238,890.137,986.816
1741597157.961,940.430,867.676,864.258,897.949
1741597157.965,899.902,999.512,944.336,966.797
1741597157.969,999.512,560.059,783.203,999.512
1741597157.973,115.234,-802.734,296.387,-167.969
1741597157.977,-968.750,-1000.000,332.031,-1000.000
1741597157.980,502.930,-118.652,685.547,-99.121
1741597157.984,999.512,999.512,526.367,999.512
1741597157.988,902.344,951.660,115.723,954.102
1741597157.992,946.777,873.047,-47.363,887.695
1741597157.996,955.078,999.512,9.766,999.512
1741597157.998,999.512,311.035,-65.430,761.719
1741597158.002,-172.852,-947.754,-557.129,-572.754
1741597158.006,-1000.000,-1000.000,-656.738,-1000.000
1741597158.010,-337.402,-613.281,-398.438,-833.008
1741597158.014,968.750,795.898,438.965,474.609
1741597158.018,960.449,962.891,978.027,999.512
1741597158.022,893.555,999.512,706.543,916.504
1741597158.025,999.512,612.305,302.246,947.754
1741597158.029,-84.473,-768.555,-606.445,-319.824
1741597158.033,-1000.000,-1000.000,-486.328,-1000.000
1741597158.037,-6.348,-163.086,364.258,-156.738
1741597158.041,999.512,999.512,503.418,999.512
1741597157.998,999.512,311.035,-65.430,761.719
1741597158.002,-172.852,-947.754,-557.129,-572.754
1741597158.006,-1000.000,-1000.000,-656.738,-1000.000
1741597158.010,-337.402,-613.281,-398.438,-833.008
1741597158.014,968.750,795.898,438.965,474.609
1741597158.018,960.449,962.891,978.027,999.512
1741597158.022,893.555,999.512,706.543,916.504
1741597158.025,999.512,612.305,302.246,947.754
1741597158.029,-84.473,-768.555,-606.445,-319.824
1741597158.033,-1000.000,-1000.000,-486.328,-1000.000
1741597158.037,-6.348,-163.086,364.258,-156.738
1741597158.041,999.512,999.512,503.418,999.512
1741597158.088,966.309,-1000.000,-387.695,966.797
1741597158.092,966.309,-165.527,126.953,967.285
1741597158.096,966.309,965.332,348.633,966.797
1741597158.100,966.309,999.512,348.145,966.797
1741597158.104,966.309,84.473,101.074,966.797
1741597158.108,966.309,-517.090,190.918,966.797
1741597158.112,966.309,999.512,744.141,966.797
1741597158.115,966.309,614.746,472.168,966.797
1741597158.119,966.309,-1000.000,-55.176,966.797
1741597158.123,972.168,-414.551,60.547,980.469
1741597158.127,897.949,999.512,342.285,906.250
1741597158.131,999.512,999.512,379.395,999.512
1741597158.088,966.309,-1000.000,-387.695,966.797
1741597158.092,966.309,-165.527,126.953,967.285
1741597158.096,966.309,965.332,348.633,966.797
1741597158.100,966.309,999.512,348.145,966.797
1741597158.104,966.309,84.473,101.074,966.797
1741597158.108,966.309,-517.090,190.918,966.797
1741597158.112,966.309,999.512,744.141,966.797
1741597158.115,966.309,614.746,472.168,966.797
1741597158.119,966.309,-1000.000,-55.176,966.797
1741597158.123,972.168,-414.551,60.547,980.469
1741597158.127,897.949,999.512,342.285,906.250
1741597158.131,999.512,999.512,379.395,999.512
1741597158.149,289.551,-162.109,-62.012,715.820
1741597158.153,-1000.000,-1000.000,-625.488,-694.336
1741597158.157,-1000.000,-941.406,-603.027,-1000.000
1741597158.161,-900.879,-942.871,-659.180,-873.535
1741597158.165,-1000.000,-1000.000,-680.664,-1000.000
1741597158.169,-298.828,-167.969,-332.031,-318.848
1741597158.173,999.512,999.512,-355.469,999.512
1741597158.176,172.852,183.594,-948.242,171.875
1741597158.180,-1000.000,-1000.000,-1000.000,-1000.000
1741597158.184,-977.051,-984.375,-980.469,-975.586
1741597158.188,-973.145,-976.074,-1000.000,-973.633
1741597158.192,-1000.000,-939.941,-985.840,-1000.000
1741597158.149,289.551,-162.109,-62.012,715.820
1741597158.153,-1000.000,-1000.000,-625.488,-694.336
1741597158.157,-1000.000,-941.406,-603.027,-1000.000
1741597158.161,-900.879,-942.871,-659.180,-873.535
1741597158.165,-1000.000,-1000.000,-680.664,-1000.000
1741597158.169,-298.828,-167.969,-332.031,-318.848
1741597158.173,999.512,999.512,-355.469,999.512
1741597158.176,172.852,183.594,-948.242,171.875
1741597158.180,-1000.000,-1000.000,-1000.000,-1000.000
1741597158.184,-977.051,-984.375,-980.469,-975.586
1741597158.188,-973.145,-976.074,-1000.000,-973.633
1741597158.192,-1000.000,-939.941,-985.840,-1000.000
1741597158.179,-1000.000,-1000.000,-1000.000,-1000.000
1741597158.183,-1000.000,-304.199,-920.898,-1000.000
1741597158.187,-1000.000,934.082,-689.941,-1000.000
1741597158.191,-1000.000,999.512,-822.754,-1000.000
1741597158.195,-1000.000,295.898,-1000.000,-1000.000
1741597158.199,-1000.000,-1000.000,-888.184,-1000.000
1741597158.203,-1000.000,-10.254,-388.672,-1000.000
1741597158.206,-1000.000,999.512,-110.352,-1000.000
1741597158.210,-1000.000,862.793,162.109,-1000.000
1741597158.214,-1000.000,999.512,606.934,-1000.000
1741597158.218,-1000.000,81.543,329.590,-1000.000
1741597158.222,-959.961,-1000.000,-116.211,-970.215
1741597158.223,-1000.000,-1000.000,-45.898,-992.188
1741597158.227,-976.562,-629.395,262.207,-1000.000
1741597158.231,357.422,770.020,770.996,221.680
1741597158.235,999.512,999.512,972.168,999.512
1741597158.239,913.574,889.160,809.570,905.762
1741597158.243,902.344,952.637,708.008,967.773
1741597158.247,999.512,999.512,636.230,967.285
1741597158.250,541.016,-114.746,154.785,966.797
1741597158.254,-814.453,-1000.000,-311.035,967.285
1741597158.258,-1000.000,-1000.000,-247.559,966.797
1741597158.262,-187.500,-282.715,264.648,966.797
1741597158.266,999.512,999.512,921.875,966.797
1741597158.283,953.125,961.914,687.500,966.797
1741597158.287,937.012,947.266,265.625,966.797
1741597158.291,973.633,914.062,241.211,966.797
1741597158.295,966.309,999.512,140.137,966.797
1741597158.299,966.309,686.035,254.395,966.797
1741597158.303,978.516,-659.180,431.152,978.516
1741597158.307,892.578,-1000.000,582.520,917.969
1741597158.310,999.512,9.277,554.688,999.512
1741597158.314,440.918,302.246,416.992,836.426
1741597158.318,-963.379,-1000.000,721.680,-521.973
1741597158.322,-1000.000,-1000.000,891.113,-1000.000
1741597158.326,-952.637,-962.891,449.707,-937.988
1741597158.283,953.125,961.914,687.500,966.797
1741597158.287,937.012,947.266,265.625,966.797
1741597158.291,973.633,914.062,241.211,966.797
1741597158.295,966.309,999.512,140.137,966.797
1741597158.299,966.309,686.035,254.395,966.797
1741597158.303,978.516,-659.180,431.152,978.516
1741597158.307,892.578,-1000.000,582.520,917.969
1741597158.310,999.512,9.277,554.688,999.512
1741597158.314,440.918,302.246,416.992,836.426
1741597158.318,-963.379,-1000.000,721.680,-521.973
1741597158.322,-1000.000,-1000.000,891.113,-1000.000
1741597158.326,-952.637,-962.891,449.707,-937.988
1741597158.328,-1000.000,-1000.000,-155.762,-1000.000
1741597158.332,-1000.000,-1000.000,-825.195,-1000.000
1741597158.336,-1000.000,-961.914,-1000.000,-1000.000
1741597158.340,-1000.000,-998.047,-983.398,-1000.000
1741597158.344,-1000.000,-1000.000,-1000.000,-1000.000
1741597158.348,-1000.000,412.109,-1000.000,-1000.000
1741597158.352,-1000.000,853.027,-1000.000,-1000.000
1741597158.355,-1000.000,-757.812,-1000.000,-1000.000
1741597158.359,-1000.000,-1000.000,-1000.000,-1000.000
1741597158.363,-1000.000,-937.500,-1000.000,-1000.000
1741597158.367,-1000.000,-951.172,-989.746,-1000.000
1741597158.371,-1000.000,-1000.000,-1000.000,-1000.000
1741597158.328,-1000.000,-1000.000,-155.762,-1000.000
1741597158.332,-1000.000,-1000.000,-825.195,-1000.000
1741597158.336,-1000.000,-961.914,-1000.000,-1000.000
1741597158.340,-1000.000,-998.047,-983.398,-1000.000
1741597158.344,-1000.000,-1000.000,-1000.000,-1000.000
1741597158.348,-1000.000,412.109,-1000.000,-1000.000
1741597158.352,-1000.000,853.027,-1000.000,-1000.000
1741597158.355,-1000.000,-757.812,-1000.000,-1000.000
1741597158.359,-1000.000,-1000.000,-1000.000,-1000.000
1741597158.363,-1000.000,-937.500,-1000.000,-1000.000
1741597158.367,-1000.000,-951.172,-989.746,-1000.000
1741597158.371,-1000.000,-1000.000,-1000.000,-1000.000
1741597158.376,-1000.000,-214.355,-908.203,-1000.000
1741597158.380,-1000.000,999.512,-617.676,-1000.000
1741597158.384,-1000.000,877.930,-484.375,-1000.000
1741597158.388,-999.023,999.512,-528.320,-1000.000
1741597158.392,-940.918,150.879,-755.859,-1000.000
1741597158.396,-1000.000,-975.098,-335.449,-1000.000
1741597158.400,-258.789,370.605,283.203,-1000.000
1741597158.403,999.512,999.512,90.332,-1000.000
1741597158.407,482.422,330.078,-155.762,-1000.000
1741597158.411,-869.141,-900.391,-135.742,-933.594
1741597158.415,-1000.000,-1000.000,62.988,-1000.000
1741597158.419,-503.906,-357.422,424.316,-702.637
1741597158.376,-1000.000,-214.355,-908.203,-1000.000
1741597158.380,-1000.000,999.512,-617.676,-1000.000
1741597158.384,-1000.000,877.930,-484.375,-1000.000
1741597158.388,-999.023,999.512,-528.320,-1000.000
1741597158.392,-940.918,150.879,-755.859,-1000.000
1741597158.396,-1000.000,-975.098,-335.449,-1000.000
1741597158.400,-258.789,370.605,283.203,-1000.000
1741597158.403,999.512,999.512,90.332,-1000.000
1741597158.407,482.422,330.078,-155.762,-1000.000
1741597158.411,-869.141,-900.391,-135.742,-933.594
1741597158.415,-1000.000,-1000.000,62.988,-1000.000
1741597158.419,-503.906,-357.422,424.316,-702.637
1741597158.418,866.699,951.172,952.148,734.863
1741597158.422,999.512,989.746,869.629,999.512
1741597158.426,911.621,841.309,705.078,904.785
1741597158.430,981.445,999.512,922.363,981.445
1741597158.434,980.957,235.840,881.348,973.145
1741597158.438,901.855,-753.906,612.793,939.941
1741597158.442,999.512,853.516,311.035,952.148
1741597158.445,775.391,738.770,-409.180,999.512
1741597158.449,-864.258,-1000.000,-1000.000,-354.004
1741597158.453,-534.668,-559.082,-668.457,-364.746
1741597158.457,999.512,960.449,-149.414,999.512
1741597158.461,976.562,990.723,-386.719,955.078
1741597158.464,920.410,914.551,-806.152,937.500
1741597158.468,979.492,921.875,-973.145,974.121
1741597158.472,966.309,999.512,-604.004,966.797
1741597158.476,966.309,218.750,-516.602,966.797
1741597158.480,966.309,-1000.000,-567.383,966.797
1741597158.484,966.309,-251.465,-224.121,966.797
1741597158.488,966.309,999.512,194.824,966.797
1741597158.491,966.309,519.531,95.215,966.797
1741597158.495,966.309,-1000.000,-222.168,966.797
1741597158.499,966.309,-397.949,148.438,966.797
1741597158.503,966.309,964.355,256.348,966.797
1741597158.507,966.309,999.512,-194.824,966.797
1741597158.508,966.309,175.781,-293.945,966.797
1741597158.512,966.309,-990.723,-145.996,966.797
1741597158.516,966.309,-1000.000,138.672,966.797
1741597158.520,966.309,-166.992,253.418,966.797
1741597158.524,966.309,999.512,66.895,966.797
1741597158.528,966.309,894.531,308.594,966.797
1741597158.532,966.309,999.512,705.078,966.797
1741597158.535,966.309,82.520,274.414,966.797
1741597158.539,966.309,-1000.000,9.766,966.797
1741597158.543,966.309,-987.793,189.941,966.797
1741597158.547,966.309,-932.129,349.609,966.797
1741597158.551,966.309,344.238,466.309,966.797
1741597158.553,974.121,999.512,377.930,967.285
1741597158.557,932.617,836.426,359.375,966.797
1741597158.561,958.984,999.512,224.121,967.285
1741597158.565,999.512,411.621,-119.629,967.285
1741597158.569,-301.270,-1000.000,-334.961,966.797
1741597158.573,-1000.000,-948.730,-308.594,966.797
1741597158.577,254.395,385.742,189.453,966.797
1741597158.580,999.512,999.512,-174.316,966.797
1741597158.584,520.508,177.246,-791.504,966.797
1741597158.588,-993.652,-1000.000,-270.508,966.797
1741597158.592,-702.637,-1000.000,72.266,966.797
1741597158.596,799.316,170.898,124.023,966.797
1741597158.553,974.121,999.512,377.930,967.285
1741597158.557,932.617,836.426,359.375,966.797
1741597158.561,958.984,999.512,224.121,967.285
1741597158.565,999.512,411.621,-119.629,967.285
1741597158.569,-301.270,-1000.000,-334.961,966.797
1741597158.573,-1000.000,-948.730,-308.594,966.797
1741597158.577,254.395,385.742,189.453,966.797
1741597158.580,999.512,999.512,-174.316,966.797
1741597158.584,520.508,177.246,-791.504,966.797
1741597158.588,-993.652,-1000.000,-270.508,966.797
1741597158.592,-702.637,-1000.000,72.266,966.797
1741597158.596,799.316,170.898,124.023,966.797
1741597158.598,999.512,999.512,61.523,966.797
1741597158.602,914.551,923.828,-157.227,966.797
1741597158.606,954.590,899.414,105.469,978.027
1741597158.610,946.289,999.512,375.977,899.414
1741597158.614,999.512,617.188,360.840,999.512
1741597158.618,-110.840,-707.031,-314.453,574.219
1741597158.622,-1000.000,-1000.000,-381.348,-1000.000
1741597158.625,-480.957,-586.426,374.512,-367.676
1741597158.629,832.031,722.656,783.203,982.910
1741597158.633,999.512,999.512,760.254,999.512
1741597158.637,143.066,153.320,20.996,175.293
1741597158.641,-1000.000,-1000.000,-772.461,-1000.000
1741597158.598,999.512,999.512,61.523,966.797
1741597158.602,914.551,923.828,-157.227,966.797
1741597158.606,954.590,899.414,105.469,978.027
1741597158.610,946.289,999.512,375.977,899.414
1741597158.614,999.512,617.188,360.840,999.512
1741597158.618,-110.840,-707.031,-314.453,574.219
1741597158.622,-1000.000,-1000.000,-381.348,-1000.000
1741597158.625,-480.957,-586.426,374.512,-367.676
1741597158.629,832.031,722.656,783.203,982.910
1741597158.633,999.512,999.512,760.254,999.512
1741597158.637,143.066,153.320,20.996,175.293
1741597158.641,-1000.000,-1000.000,-772.461,-1000.000
1741597158.658,-985.352,-988.281,-660.156,-987.793
1741597158.662,-972.168,-977.539,-307.129,-971.191
1741597158.666,-1000.000,-979.492,-232.910,-1000.000
1741597158.670,-935.547,-988.281,-683.105,-1000.000
1741597158.674,-1000.000,-1000.000,-1000.000,-1000.000
1741597158.678,-779.297,131.348,-674.805,-1000.000
1741597158.682,842.285,999.512,-238.770,-1000.000
1741597158.685,563.477,615.234,-692.383,-1000.000
1741597158.689,-995.605,-758.789,-1000.000,-1000.000
1741597158.693,-955.566,-1000.000,-713.379,-1000.000
1741597158.697,-1000.000,-1000.000,-376.465,-1000.000
1741597158.701,-422.852,-229.492,-231.934,-1000.000
1741597158.658,-985.352,-988.281,-660.156,-987.793
1741597158.662,-972.168,-977.539,-307.129,-971.191
1741597158.666,-1000.000,-979.492,-232.910,-1000.000
1741597158.670,-935.547,-988.281,-683.105,-1000.000
1741597158.674,-1000.000,-1000.000,-1000.000,-1000.000
1741597158.678,-779.297,131.348,-674.805,-1000.000
1741597158.682,842.285,999.512,-238.770,-1000.000
1741597158.685,563.477,615.234,-692.383,-1000.000
1741597158.689,-995.605,-758.789,-1000.000,-1000.000
1741597158.693,-955.566,-1000.000,-713.379,-1000.000
1741597158.697,-1000.000,-1000.000,-376.465,-1000.000
1741597158.701,-422.852,-229.492,-231.934,-1000.000
1741597158.703,999.512,999.512,-262.207,-1000.000
1741597158.707,229.004,310.059,-823.730,-1000.000
1741597158.711,-1000.000,-1000.000,-1000.000,-1000.000
1741597158.715,-938.965,-995.117,-518.066,-941.406
1741597158.719,-1000.000,-1000.000,-106.445,-1000.000
1741597158.723,-71.289,137.695,415.527,-724.609
1741597158.727,999.512,999.512,999.512,741.699
1741597158.730,141.602,125.977,591.797,-16.113
1741597158.734,-1000.000,-1000.000,112.305,-1000.000
1741597158.738,-962.402,-930.176,391.602,-949.707
1741597158.742,-942.383,-1000.000,778.320,-924.316
1741597158.746,-1000.000,-833.984,969.727,-1000.000
1741597158.749,81.543,553.223,962.402,-318.359
1741597158.753,999.512,999.512,956.055,999.512
1741597158.757,844.238,838.867,945.312,898.926
1741597158.761,999.512,999.512,983.887,999.512
1741597158.765,293.945,230.469,323.730,301.270
1741597158.769,-1000.000,-1000.000,-528.320,-1000.000
1741597158.773,-938.965,-928.223,-151.855,-942.383
1741597158.776,-1000.000,-1000.000,291.992,-1000.000
1741597158.780,-230.469,-228.516,566.406,-195.801
1741597158.784,999.512,999.512,999.512,999.512
1741597158.788,949.707,886.719,670.898,946.289
1741597158.792,938.965,999.512,341.797,942.383
1741597158.749,81.543,553.223,962.402,-318.359
1741597158.753,999.512,999.512,956.055,999.512
1741597158.757,844.238,838.867,945.312,898.926
1741597158.761,999.512,999.512,983.887,999.512
1741597158.765,293.945,230.469,323.730,301.270
1741597158.769,-1000.000,-1000.000,-528.320,-1000.000
1741597158.773,-938.965,-928.223,-151.855,-942.383
1741597158.776,-1000.000,-1000.000,291.992,-1000.000
1741597158.780,-230.469,-228.516,566.406,-195.801
1741597158.784,999.512,999.512,999.512,999.512
1741597158.788,949.707,886.719,670.898,946.289
1741597158.792,938.965,999.512,341.797,942.383
1741597158.808,979.492,215.820,540.527,981.445
1741597158.812,896.973,-1000.000,775.391,896.484
1741597158.816,999.512,-987.793,999.512,999.512
1741597158.820,302.246,-984.863,832.520,348.145
1741597158.824,-1000.000,-938.477,714.844,-994.141
1741597158.828,-945.801,-1000.000,955.078,-970.215
1741597158.832,-1000.000,-602.051,969.727,-1000.000
1741597158.835,-171.875,815.918,966.797,-53.711
1741597158.839,999.512,999.512,695.801,999.512
1741597158.843,942.383,909.180,349.609,931.641
1741597158.847,880.859,922.363,581.055,889.160
1741597158.851,999.512,999.512,933.594,999.512
1741597158.838,187.012,141.113,458.496,187.012
1741597158.842,-1000.000,-1000.000,-62.500,-1000.000
1741597158.846,-988.281,-967.773,292.480,-989.746
1741597158.850,-902.832,-929.688,771.973,-896.484
1741597158.854,-1000.000,-1000.000,496.094,-1000.000
1741597158.858,-330.078,-100.586,438.965,-323.242
1741597158.862,999.512,999.512,596.191,999.512
1741597158.865,-69.824,49.805,-440.918,-309.082
1741597158.869,-1000.000,-1000.000,-1000.000,-1000.000
1741597158.873,-942.871,-967.285,-685.547,-929.199
1741597158.877,-991.699,-982.422,-336.914,-1000.000
1741597158.881,-1000.000,-996.094,-399.414,-1000.000
1741597158.838,187.012,141.113,458.496,187.012
1741597158.842,-1000.000,-1000.000,-62.500,-1000.000
1741597158.846,-988.281,-967.773,292.480,-989.746
1741597158.850,-902.832,-929.688,771.973,-896.484
1741597158.854,-1000.000,-1000.000,496.094,-1000.000
1741597158.858,-330.078,-100.586,438.965,-323.242
1741597158.862,999.512,999.512,596.191,999.512
1741597158.865,-69.824,49.805,-440.918,-309.082
1741597158.869,-1000.000,-1000.000,-1000.000,-1000.000
1741597158.873,-942.871,-967.285,-685.547,-929.199
1741597158.877,-991.699,-982.422,-336.914,-1000.000
1741597158.881,-1000.000,-996.094,-399.414,-1000.000
1741597158.883,-932.129,-952.148,-767.090,-1000.000
1741597158.887,-1000.000,-1000.000,-770.996,-1000.000
1741597158.891,-318.359,-81.055,-135.742,-1000.000
1741597158.895,999.512,999.512,61.523,-1000.000
1741597158.899,967.285,933.594,-165.527,-1000.000
1741597158.903,868.652,887.695,-6.348,-1000.000
1741597158.907,999.512,999.512,659.668,-1000.000
1741597158.910,187.012,195.801,624.512,-1000.000
1741597158.914,-1000.000,-1000.000,10.742,-1000.000
1741597158.918,-983.887,-1000.000,103.516,-1000.000
1741597158.922,-911.621,123.535,305.664,-931.152
1741597158.926,-1000.000,999.512,263.184,-1000.000
1741597158.883,-932.129,-952.148,-767.090,-1000.000
1741597158.887,-1000.000,-1000.000,-770.996,-1000.000
1741597158.891,-318.359,-81.055,-135.742,-1000.000
1741597158.895,999.512,999.512,61.523,-1000.000
1741597158.899,967.285,933.594,-165.527,-1000.000
1741597158.903,868.652,887.695,-6.348,-1000.000
1741597158.907,999.512,999.512,659.668,-1000.000
1741597158.910,187.012,195.801,624.512,-1000.000
1741597158.914,-1000.000,-1000.000,10.742,-1000.000
1741597158.918,-983.887,-1000.000,103.516,-1000.000
1741597158.922,-911.621,123.535,305.664,-931.152
1741597158.926,-1000.000,999.512,263.184,-1000.000
1741597158.930,-208.496,917.480,417.969,-583.008
1741597158.934,999.512,960.449,736.328,829.590
1741597158.938,948.242,968.750,774.414,999.512
1741597158.942,941.895,980.469,501.953,913.086
1741597158.946,962.891,894.531,752.441,980.469
1741597158.950,919.922,999.512,974.121,905.273
1741597158.954,999.512,509.277,984.375,999.512
1741597158.957,7.812,-926.758,761.230,163.574
1741597158.961,-1000.000,-971.680,202.148,-1000.000
1741597158.965,-1000.000,-1000.000,300.781,-1000.000
1741597158.969,-636.719,-687.012,574.707,-397.949
1741597158.973,812.012,791.992,686.035,941.895
1741597158.930,-208.496,917.480,417.969,-583.008
1741597158.934,999.512,960.449,736.328,829.590
1741597158.938,948.242,968.750,774.414,999.512
1741597158.942,941.895,980.469,501.953,913.086
1741597158.946,962.891,894.531,752.441,980.469
1741597158.950,919.922,999.512,974.121,905.273
1741597158.954,999.512,509.277,984.375,999.512
1741597158.957,7.812,-926.758,761.230,163.574
1741597158.961,-1000.000,-971.680,202.148,-1000.000
1741597158.965,-1000.000,-1000.000,300.781,-1000.000
1741597158.969,-636.719,-687.012,574.707,-397.949
1741597158.973,812.012,791.992,686.035,941.895
1741597158.974,999.512,999.512,722.656,987.305
1741597158.978,911.621,904.785,380.371,935.059
1741597158.982,913.574,921.387,214.844,927.246
1741597158.986,999.512,999.512,332.520,999.512
1741597158.990,313.477,182.617,186.523,797.852
1741597158.994,-1000.000,-1000.000,149.902,-564.941
1741597158.998,-942.871,-920.410,230.957,-1000.000
1741597159.001,-1000.000,-1000.000,-176.758,-1000.000
1741597159.005,-231.445,-227.539,108.398,-133.789
1741597159.009,999.512,999.512,600.586,999.512
1741597159.013,954.590,958.008,402.344,938.477
1741597159.017,917.969,908.691,44.434,944.824
1741597158.974,999.512,999.512,722.656,987.305
1741597158.978,911.621,904.785,380.371,935.059
1741597158.982,913.574,921.387,214.844,927.246
1741597158.986,999.512,999.512,332.520,999.512
1741597158.990,313.477,182.617,186.523,797.852
1741597158.994,-1000.000,-1000.000,149.902,-564.941
1741597158.998,-942.871,-920.410,230.957,-1000.000
1741597159.001,-1000.000,-1000.000,-176.758,-1000.000
1741597159.005,-231.445,-227.539,108.398,-133.789
1741597159.009,999.512,999.512,600.586,999.512
1741597159.013,954.590,958.008,402.344,938.477
1741597159.017,917.969,908.691,44.434,944.824
1741597159.033,945.801,969.238,-416.504,912.109
1741597159.037,999.512,993.164,-847.168,999.512
1741597159.041,-135.254,-267.578,-1000.000,151.855
1741597159.045,-1000.000,-1000.000,-956.055,-1000.000
1741597159.049,-1000.000,-1000.000,-1000.000,-1000.000
1741597159.053,-215.820,-208.984,-677.734,-185.547
1741597159.057,999.512,964.844,132.812,999.512
1741597159.060,949.707,999.512,-65.430,949.219
1741597159.064,938.965,437.012,-480.957,940.430
1741597159.068,973.145,-950.195,-205.078,973.633
1741597159.072,966.309,-967.285,19.043,966.797
1741597159.076,966.309,-1000.000,-45.898,966.797
1741597159.033,945.801,969.238,-416.504,912.109
1741597159.037,999.512,993.164,-847.168,999.512
1741597159.041,-135.254,-267.578,-1000.000,151.855
1741597159.045,-1000.000,-1000.000,-956.055,-1000.000
1741597159.049,-1000.000,-1000.000,-1000.000,-1000.000
1741597159.053,-215.820,-208.984,-677.734,-185.547
1741597159.057,999.512,964.844,132.812,999.512
1741597159.060,949.707,999.512,-65.430,949.219
1741597159.064,938.965,437.012,-480.957,940.430
1741597159.068,973.145,-950.195,-205.078,973.633
1741597159.072,966.309,-967.285,19.043,966.797
1741597159.076,966.309,-1000.000,-45.898,966.797
1741597159.078,966.309,-676.270,77.148,967.285
1741597159.082,971.680,776.367,139.648,966.797
1741597159.086,941.406,965.332,-179.688,966.797
1741597159.090,947.266,999.512,-440.430,966.797
1741597159.094,999.512,606.934,-293.457,967.285
1741597159.098,-185.547,-832.031,-114.746,967.285
1741597159.102,-1000.000,-1000.000,147.949,966.797
1741597159.105,-874.023,-869.141,64.941,967.285
1741597159.109,-1000.000,-1000.000,-231.445,966.797
1741597159.113,-351.562,-474.609,140.625,976.562
1741597159.117,921.875,859.375,438.477,929.199
1741597159.121,999.512,999.512,440.918,979.004
1741597159.078,966.309,-676.270,77.148,967.285
1741597159.082,971.680,776.367,139.648,966.797
1741597159.086,941.406,965.332,-179.688,966.797
1741597159.090,947.266,999.512,-440.430,966.797
1741597159.094,999.512,606.934,-293.457,967.285
1741597159.098,-185.547,-832.031,-114.746,967.285
1741597159.102,-1000.000,-1000.000,147.949,966.797
1741597159.105,-874.023,-869.141,64.941,967.285
1741597159.109,-1000.000,-1000.000,-231.445,966.797
1741597159.113,-351.562,-474.609,140.625,976.562
1741597159.117,921.875,859.375,438.477,929.199
1741597159.121,999.512,999.512,440.918,979.004
1741597159.123,718.262,241.211,465.820,950.684
1741597159.127,-648.438,-1000.000,-168.457,-363.770
1741597159.131,-1000.000,-985.840,-350.586,-1000.000
1741597159.135,-873.047,-926.758,-142.578,-874.023
1741597159.139,-1000.000,-1000.000,-431.641,-1000.000
1741597159.143,-209.961,33.203,39.551,-208.008
1741597159.147,963.867,999.512,323.730,969.727
1741597159.150,999.512,999.512,-206.543,999.512
1741597159.154,383.301,374.512,-476.074,305.664
1741597159.158,-974.121,-990.234,-952.637,-1000.000
1741597159.162,-1000.000,-1000.000,-1000.000,-1000.000
1741597159.166,-900.391,-886.230,-972.656,-937.012
1741597159.123,718.262,241.211,465.820,950.684
1741597159.127,-648.438,-1000.000,-168.457,-363.770
1741597159.131,-1000.000,-985.840,-350.586,-1000.000
1741597159.135,-873.047,-926.758,-142.578,-874.023
1741597159.139,-1000.000,-1000.000,-431.641,-1000.000
1741597159.143,-209.961,33.203,39.551,-208.008
1741597159.147,963.867,999.512,323.730,969.727
1741597159.150,999.512,999.512,-206.543,999.512
1741597159.154,383.301,374.512,-476.074,305.664
1741597159.158,-974.121,-990.234,-952.637,-1000.000
1741597159.162,-1000.000,-1000.000,-1000.000,-1000.000
1741597159.166,-900.391,-886.230,-972.656,-937.012
1741597159.168,-1000.000,-1000.000,-972.168,-991.699
1741597159.172,-837.402,-557.129,-382.812,-1000.000
1741597159.176,472.656,776.855,446.289,79.590
1741597159.180,999.512,999.512,731.934,999.512
1741597159.184,460.449,526.367,395.020,254.883
1741597159.188,-903.320,-851.074,-97.168,-1000.000
1741597159.192,-1000.000,-1000.000,-28.809,-1000.000
1741597159.195,-915.039,-869.629,-16.113,-962.891
1741597159.199,-1000.000,-1000.000,-201.172,-1000.000
1741597159.203,-1000.000,-544.922,-61.035,-1000.000
1741597159.207,159.668,798.340,166.992,-1000.000
1741597159.211,999.512,999.512,161.133,-1000.000
1741597159.168,-1000.000,-1000.000,-972.168,-991.699
1741597159.172,-837.402,-557.129,-382.812,-1000.000
1741597159.176,472.656,776.855,446.289,79.590
1741597159.180,999.512,999.512,731.934,999.512
1741597159.184,460.449,526.367,395.020,254.883
1741597159.188,-903.320,-851.074,-97.168,-1000.000
1741597159.192,-1000.000,-1000.000,-28.809,-1000.000
1741597159.195,-915.039,-869.629,-16.113,-962.891
1741597159.199,-1000.000,-1000.000,-201.172,-1000.000
1741597159.203,-1000.000,-544.922,-61.035,-1000.000
1741597159.207,159.668,798.340,166.992,-1000.000
1741597159.211,999.512,999.512,161.133,-1000.000
1741597159.213,569.336,466.797,-12.695,-1000.000
1741597159.217,-812.500,-891.113,-254.883,-1000.000
1741597159.221,-1000.000,-1000.000,-153.809,-1000.000
1741597159.225,-881.836,-933.594,38.086,-937.988
1741597159.229,-1000.000,-1000.000,14.648,-1000.000
1741597159.233,-164.551,180.176,14.160,-212.891
1741597159.237,986.328,999.512,-144.531,977.539
1741597159.240,999.512,999.512,-666.504,999.512
1741597159.244,188.965,185.059,-1000.000,157.715
1741597159.248,-1000.000,-1000.000,-539.551,-1000.000
1741597159.252,-925.293,-921.387,190.918,-921.387
1741597159.256,-1000.000,-1000.000,134.766,-1000.000
1741597159.213,569.336,466.797,-12.695,-1000.000
1741597159.217,-812.500,-891.113,-254.883,-1000.000
1741597159.221,-1000.000,-1000.000,-153.809,-1000.000
1741597159.225,-881.836,-933.594,38.086,-937.988
1741597159.229,-1000.000,-1000.000,14.648,-1000.000
1741597159.233,-164.551,180.176,14.160,-212.891
1741597159.237,986.328,999.512,-144.531,977.539
1741597159.240,999.512,999.512,-666.504,999.512
1741597159.244,188.965,185.059,-1000.000,157.715
1741597159.248,-1000.000,-1000.000,-539.551,-1000.000
1741597159.252,-925.293,-921.387,190.918,-921.387
1741597159.256,-1000.000,-1000.000,134.766,-1000.000
1741597159.273,-228.516,-227.539,381.348,-224.609
1741597159.277,999.512,999.512,903.320,999.512
1741597159.281,879.883,884.277,901.367,894.043
1741597159.285,999.512,999.512,586.914,999.512
1741597159.289,693.848,315.430,145.996,856.445
1741597159.293,-957.031,-1000.000,80.566,-750.977
1741597159.297,-289.062,-241.699,195.801,-327.637
1741597159.300,999.512,999.512,-196.777,999.512
1741597159.304,999.512,972.168,-680.176,999.512
1741597159.308,203.125,-203.613,-917.969,205.078
1741597159.312,-1000.000,-1000.000,-917.480,-1000.000
1741597159.316,-817.871,-862.793,-191.895,-679.688
1741597159.273,-228.516,-227.539,381.348,-224.609
1741597159.277,999.512,999.512,903.320,999.512
1741597159.281,879.883,884.277,901.367,894.043
1741597159.285,999.512,999.512,586.914,999.512
1741597159.289,693.848,315.430,145.996,856.445
1741597159.293,-957.031,-1000.000,80.566,-750.977
1741597159.297,-289.062,-241.699,195.801,-327.637
1741597159.300,999.512,999.512,-196.777,999.512
1741597159.304,999.512,972.168,-680.176,999.512
1741597159.308,203.125,-203.613,-917.969,205.078
1741597159.312,-1000.000,-1000.000,-917.480,-1000.000
1741597159.316,-817.871,-862.793,-191.895,-679.688
1741597159.318,602.051,366.699,813.965,745.605
1741597159.322,999.512,999.512,764.648,999.512
1741597159.326,899.902,402.832,68.359,906.738
1741597159.330,979.004,-1000.000,-238.770,980.469
1741597159.334,966.309,-872.070,115.234,967.285
1741597159.338,966.797,589.355,598.145,967.285
1741597159.342,903.320,999.512,452.148,904.297
1741597159.345,999.512,999.512,408.203,999.512
1741597159.349,186.523,134.766,217.773,187.012
1741597159.353,-1000.000,-1000.000,67.383,-1000.000
1741597159.357,-983.887,-975.586,321.289,-983.887
1741597159.361,-980.957,-978.027,62.012,-979.004
1741597159.318,602.051,366.699,813.965,745.605
1741597159.322,999.512,999.512,764.648,999.512
1741597159.326,899.902,402.832,68.359,906.738
1741597159.330,979.004,-1000.000,-238.770,980.469
1741597159.334,966.309,-872.070,115.234,967.285
1741597159.338,966.797,589.355,598.145,967.285
1741597159.342,903.320,999.512,452.148,904.297
1741597159.345,999.512,999.512,408.203,999.512
1741597159.349,186.523,134.766,217.773,187.012
1741597159.353,-1000.000,-1000.000,67.383,-1000.000
1741597159.357,-983.887,-975.586,321.289,-983.887
1741597159.361,-980.957,-978.027,62.012,-979.004
1741597159.363,-936.523,-943.848,-149.414,-938.477
1741597159.367,-1000.000,-1000.000,-305.176,-1000.000
1741597159.371,-364.746,-209.961,-415.039,-323.730
1741597159.375,998.047,999.512,-157.227,999.512
1741597159.379,916.504,882.812,-280.273,908.691
1741597159.383,990.234,999.512,-439.941,999.512
1741597159.387,802.246,667.969,-550.293,757.324
1741597159.390,-624.023,-770.508,-859.375,-661.133
1741597159.394,-1000.000,-1000.000,-404.785,-1000.000
1741597159.398,-934.082,-918.945,271.973,-937.500
1741597159.402,-951.660,-988.770,239.746,-950.195
1741597159.406,-1000.000,-1000.000,87.402,-1000.000
1741597159.408,-195.801,103.027,596.191,-215.820
1741597159.412,967.773,999.512,951.660,970.703
1741597159.416,999.512,999.512,629.395,999.512
1741597159.420,388.184,431.152,160.645,244.629
1741597159.424,-972.656,-898.926,-355.469,-1000.000
1741597159.428,-1000.000,-1000.000,-79.590,-998.535
1741597159.432,-954.590,-272.461,519.531,-966.309
1741597159.435,-1000.000,999.512,397.949,-1000.000
1741597159.439,-1000.000,243.164,-196.289,-1000.000
1741597159.443,-1000.000,-1000.000,-510.742,-1000.000
1741597159.447,-937.500,-926.758,-128.906,-937.500
1741597159.451,-1000.000,-1000.000,241.699,-1000.000
1741597159.453,-220.703,-208.496,614.746,-220.703
1741597159.457,999.512,999.512,802.734,999.512
1741597159.461,950.195,947.754,82.031,950.684
1741597159.465,950.195,954.102,-200.684,950.684
1741597159.469,929.688,920.410,125.977,930.664
1741597159.473,990.234,999.512,289.551,991.699
1741597159.477,920.898,828.125,249.023,911.621
1741597159.480,-432.617,-563.965,-513.672,-431.152
1741597159.484,-1000.000,-1000.000,-704.590,-1000.000
1741597159.488,-903.320,-880.859,-57.617,-908.203
1741597159.492,-998.535,-1000.000,74.219,-993.652
1741597159.496,-1000.000,-837.402,254.395,-1000.000
1741597159.453,-220.703,-208.496,614.746,-220.703
1741597159.457,999.512,999.512,802.734,999.512
1741597159.461,950.195,947.754,82.031,950.684
1741597159.465,950.195,954.102,-200.684,950.684
1741597159.469,929.688,920.410,125.977,930.664
1741597159.473,990.234,999.512,289.551,991.699
1741597159.477,920.898,828.125,249.023,911.621
1741597159.480,-432.617,-563.965,-513.672,-431.152
1741597159.484,-1000.000,-1000.000,-704.590,-1000.000
1741597159.488,-903.320,-880.859,-57.617,-908.203
1741597159.492,-998.535,-1000.000,74.219,-993.652
1741597159.496,-1000.000,-837.402,254.395,-1000.000
1741597159.498,220.215,552.246,695.312,186.035
1741597159.502,999.512,999.512,666.992,999.512
1741597159.506,902.832,902.832,446.777,907.715
1741597159.510,983.398,988.770,522.461,980.469
1741597159.514,892.090,894.043,658.203,895.020
1741597159.518,999.512,999.512,732.910,999.512
1741597159.522,535.645,415.527,671.875,542.480
1741597159.525,-909.180,-986.328,564.941,-888.672
1741597159.529,-1000.000,-959.473,583.496,-1000.000
1741597159.533,-882.324,-1000.000,531.250,-885.742
1741597159.537,-1000.000,-580.078,488.770,-1000.000
1741597159.541,-220.703,813.477,593.750,-188.477
1741597159.543,999.512,999.512,640.625,999.512
1741597159.547,950.684,907.715,243.164,945.801
1741597159.551,876.465,930.176,2.441,880.859
1741597159.555,999.512,999.512,112.305,999.512
1741597159.559,186.523,56.152,-252.441,167.969
1741597159.563,-1000.000,-1000.000,-21.484,-1000.000
1741597159.567,-983.887,-968.262,403.320,-981.445
1741597159.570,-986.816,-992.188,-20.508,-986.328
1741597159.574,-932.617,-932.617,35.156,-934.082
1741597159.578,-1000.000,-1000.000,29.785,-1000.000
1741597159.582,-520.020,-421.387,51.758,-476.562
1741597159.586,915.527,957.031,559.082,934.082
1741597159.543,999.512,999.512,640.625,999.512
1741597159.547,950.684,907.715,243.164,945.801
1741597159.551,876.465,930.176,2.441,880.859
1741597159.555,999.512,999.512,112.305,999.512
1741597159.559,186.523,56.152,-252.441,167.969
1741597159.563,-1000.000,-1000.000,-21.484,-1000.000
1741597159.567,-983.887,-968.262,403.320,-981.445
1741597159.570,-986.816,-992.188,-20.508,-986.328
1741597159.574,-932.617,-932.617,35.156,-934.082
1741597159.578,-1000.000,-1000.000,29.785,-1000.000
1741597159.582,-520.020,-421.387,51.758,-476.562
1741597159.586,915.527,957.031,559.082,934.082
1741597159.603,931.641,920.898,611.328,924.805
1741597159.607,999.512,999.512,504.883,999.512
1741597159.611,380.859,231.934,-73.730,393.066
1741597159.615,-924.316,-991.211,-551.270,-918.457
1741597159.619,-1000.000,-1000.000,-48.828,-1000.000
1741597159.623,-392.578,-271.973,460.449,-355.469
1741597159.627,955.078,999.512,923.828,967.285
1741597159.630,918.457,896.484,580.566,920.410
1741597159.634,999.512,999.512,-47.852,999.512
1741597159.638,662.109,295.898,-88.867,742.188
1741597159.642,-795.410,-1000.000,-299.316,-687.500
1741597159.646,-1000.000,-1000.000,-299.316,-1000.000
1741597159.603,931.641,920.898,611.328,924.805
1741597159.607,999.512,999.512,504.883,999.512
1741597159.611,380.859,231.934,-73.730,393.066
1741597159.615,-924.316,-991.211,-551.270,-918.457
1741597159.619,-1000.000,-1000.000,-48.828,-1000.000
1741597159.623,-392.578,-271.973,460.449,-355.469
1741597159.627,955.078,999.512,923.828,967.285
1741597159.630,918.457,896.484,580.566,920.410
1741597159.634,999.512,999.512,-47.852,999.512
1741597159.638,662.109,295.898,-88.867,742.188
1741597159.642,-795.410,-1000.000,-299.316,-687.500
1741597159.646,-1000.000,-1000.000,-299.316,-1000.000
1741597159.648,-941.895,-965.820,27.832,-940.918
1741597159.652,-949.707,-947.266,210.938,-947.266
1741597159.656,-1000.000,-1000.000,255.371,-1000.000
1741597159.660,-257.324,-209.961,365.723,-267.578
1741597159.664,946.777,965.332,588.867,945.801
1741597159.668,999.512,999.512,125.977,999.512
1741597159.672,418.457,371.094,-632.324,378.418
1741597159.675,-953.125,-979.492,-1000.000,-968.262
1741597159.679,-1000.000,-1000.000,-635.254,-1000.000
1741597159.683,-903.809,-887.207,-61.523,-917.480
1741597159.687,-1000.000,-1000.000,83.008,-1000.000
1741597159.691,-917.969,-617.188,106.934,-993.164
1741597159.693,469.727,818.848,392.578,335.449
1741597159.697,999.512,953.125,173.828,999.512
1741597159.701,999.512,999.512,-421.387,999.512
1741597159.705,539.551,603.516,-818.848,439.453
1741597159.709,-928.223,-855.957,-1000.000,-974.121
1741597159.713,-978.516,-1000.000,-984.375,-964.355
1741597159.717,-1000.000,-1000.000,-1000.000,-1000.000
1741597159.720,-694.336,-183.594,-927.734,-688.965
1741597159.724,746.094,974.609,-844.727,709.961
1741597159.728,999.512,999.512,-1000.000,999.512
1741597159.732,999.512,418.945,-965.820,967.773
1741597159.736,-57.617,-952.637,-964.844,-136.719
1741597159.693,469.727,818.848,392.578,335.449
1741597159.697,999.512,953.125,173.828,999.512
1741597159.701,999.512,999.512,-421.387,999.512
1741597159.705,539.551,603.516,-818.848,439.453
1741597159.709,-928.223,-855.957,-1000.000,-974.121
1741597159.713,-978.516,-1000.000,-984.375,-964.355
1741597159.717,-1000.000,-1000.000,-1000.000,-1000.000
1741597159.720,-694.336,-183.594,-927.734,-688.965
1741597159.724,746.094,974.609,-844.727,709.961
1741597159.728,999.512,999.512,-1000.000,999.512
1741597159.732,999.512,418.945,-965.820,967.773
1741597159.736,-57.617,-952.637,-964.844,-136.719
1741597159.738,-1000.000,-1000.000,-910.645,-1000.000
1741597159.742,-888.672,-879.883,-841.309,-892.090
1741597159.746,-1000.000,-1000.000,-1000.000,-1000.000
1741597159.750,-770.508,-520.020,-911.133,-805.664
1741597159.754,673.828,901.367,-367.676,620.117
1741597159.758,980.957,936.523,-192.871,990.234
1741597159.762,999.512,999.512,-568.359,999.512
1741597159.765,465.332,316.406,-924.316,406.738
1741597159.769,-960.449,-1000.000,-1000.000,-984.375
1741597159.773,-1000.000,-1000.000,-864.746,-1000.000
1741597159.777,-953.613,-964.355,-605.957,-960.938
1741597159.781,-950.195,-947.754,-397.949,-945.312
1741597159.738,-1000.000,-1000.000,-910.645,-1000.000
1741597159.742,-888.672,-879.883,-841.309,-892.090
1741597159.746,-1000.000,-1000.000,-1000.000,-1000.000
1741597159.750,-770.508,-520.020,-911.133,-805.664
1741597159.754,673.828,901.367,-367.676,620.117
1741597159.758,980.957,936.523,-192.871,990.234
1741597159.762,999.512,999.512,-568.359,999.512
1741597159.765,465.332,316.406,-924.316,406.738
1741597159.769,-960.449,-1000.000,-1000.000,-984.375
1741597159.773,-1000.000,-1000.000,-864.746,-1000.000
1741597159.777,-953.613,-964.355,-605.957,-960.938
1741597159.781,-950.195,-947.754,-397.949,-945.312
1741597159.783,-1000.000,-1000.000,-481.445,-1000.000
1741597159.787,-245.117,-217.285,-217.285,-299.316
1741597159.791,999.512,999.512,464.355,999.512
1741597159.795,964.355,964.844,312.500,974.121
1741597159.799,895.020,875.488,-3.418,891.602
1741597159.803,993.164,999.512,-44.434,996.582
1741597159.807,933.594,685.059,-91.309,923.828
1741597159.810,-409.668,-742.676,-373.047,-410.645
1741597159.814,-1000.000,-1000.000,-510.742,-1000.000
1741597159.818,-862.305,-874.512,-198.242,-863.281
1741597159.822,-1000.000,-1000.000,-61.523,-1000.000
1741597159.826,-379.395,-241.699,269.531,-423.828
1741597159.828,978.027,999.512,955.078,956.055
1741597159.832,977.539,948.730,951.660,986.816
1741597159.836,863.281,884.766,906.250,860.352
1741597159.840,999.512,999.512,919.922,999.512
1741597159.844,187.012,95.703,714.844,187.012
1741597159.848,-1000.000,-1000.000,812.500,-1000.000
1741597159.852,-984.375,-972.656,993.652,-984.375
1741597159.855,-973.633,-979.980,959.473,-975.586
1741597159.859,-944.336,-942.871,965.820,-942.383
1741597159.863,-1000.000,-1000.000,968.262,-1000.000
1741597159.867,-220.703,-213.379,962.402,-251.465
1741597159.871,999.512,999.512,968.262,999.512
1741597159.828,978.027,999.512,955.078,956.055
1741597159.832,977.539,948.730,951.660,986.816
1741597159.836,863.281,884.766,906.250,860.352
1741597159.840,999.512,999.512,919.922,999.512
1741597159.844,187.012,95.703,714.844,187.012
1741597159.848,-1000.000,-1000.000,812.500,-1000.000
1741597159.852,-984.375,-972.656,993.652,-984.375
1741597159.855,-973.633,-979.980,959.473,-975.586
1741597159.859,-944.336,-942.871,965.820,-942.383
1741597159.863,-1000.000,-1000.000,968.262,-1000.000
1741597159.867,-220.703,-213.379,962.402,-251.465
1741597159.871,999.512,999.512,968.262,999.512
1741597159.874,878.906,884.277,922.363,885.254
1741597159.878,999.512,999.512,751.953,999.512
1741597159.882,337.891,237.793,303.711,324.707
1741597159.886,-941.895,-993.652,64.453,-946.777
1741597159.890,-1000.000,-1000.000,614.746,-1000.000
1741597159.894,-361.816,-184.082,999.512,-355.469
1741597159.898,957.520,999.512,791.992,958.008
1741597159.901,917.969,904.297,295.410,918.457
1741597159.905,999.512,999.512,192.383,999.512
1741597159.909,198.730,35.645,-120.605,194.336
1741597159.913,-1000.000,-1000.000,-522.949,-1000.000
1741597159.917,-979.004,-940.430,-333.008,-977.539
1741597159.918,-918.457,-966.797,-140.137,-920.410
1741597159.922,-1000.000,-1000.000,125.488,-1000.000
1741597159.926,-113.770,164.062,149.902,-105.957
1741597159.930,999.512,999.512,-114.258,996.582
1741597159.934,999.512,953.125,-458.008,999.512
1741597159.938,746.582,862.305,-910.645,614.746
1741597159.942,-649.902,-514.648,-1000.000,-767.578
1741597159.945,-1000.000,-1000.000,-986.328,-1000.000
1741597159.949,-931.152,-896.973,-1000.000,-939.941
1741597159.953,-957.520,-1000.000,-1000.000,-955.078
1741597159.957,-1000.000,-998.047,-1000.000,-1000.000
1741597159.961,-145.020,321.777,-1000.000,-169.922
1741597159.978,999.512,999.512,-1000.000,999.512
1741597159.982,882.812,999.512,-996.582,899.902
1741597159.986,999.512,516.113,-982.422,999.512
1741597159.990,191.406,-833.984,-1000.000,97.656
1741597159.994,-1000.000,-1000.000,-648.926,-1000.000
1741597159.998,-304.688,-231.445,239.746,-291.016
1741597160.002,999.512,960.938,864.746,999.512
1741597160.005,903.809,973.145,790.039,908.203
1741597160.009,999.512,920.410,553.223,999.512
1741597160.013,157.227,-347.656,90.820,132.812
1741597160.017,-1000.000,-1000.000,42.969,-1000.000
1741597160.021,-1000.000,-1000.000,521.484,-1000.000
1741597159.978,999.512,999.512,-1000.000,999.512
1741597159.982,882.812,999.512,-996.582,899.902
1741597159.986,999.512,516.113,-982.422,999.512
1741597159.990,191.406,-833.984,-1000.000,97.656
1741597159.994,-1000.000,-1000.000,-648.926,-1000.000
1741597159.998,-304.688,-231.445,239.746,-291.016
1741597160.002,999.512,960.938,864.746,999.512
1741597160.005,903.809,973.145,790.039,908.203
1741597160.009,999.512,920.410,553.223,999.512
1741597160.013,157.227,-347.656,90.820,132.812
1741597160.017,-1000.000,-1000.000,42.969,-1000.000
1741597160.021,-1000.000,-1000.000,521.484,-1000.000
1741597160.023,-196.777,-225.098,628.418,-93.750
1741597160.027,999.512,999.512,469.238,999.512
1741597160.031,949.707,950.684,135.742,938.965
1741597160.035,954.590,953.125,-145.020,961.914
1741597160.039,900.391,899.414,-414.062,904.785
1741597160.043,999.512,999.512,-242.676,999.512
1741597160.047,586.426,495.117,-250.488,662.109
1741597160.050,-861.328,-931.641,-989.258,-776.855
1741597160.054,-1000.000,-1000.000,-698.242,-1000.000
1741597160.058,-880.371,-886.230,-3.906,-892.090
1741597160.062,-1000.000,-1000.000,-114.746,-1000.000
1741597160.066,-209.961,-201.172,215.332,-75.195
1741597160.068,999.512,999.512,586.914,999.512
1741597160.072,948.242,953.613,476.074,933.594
1741597160.076,939.941,921.387,494.629,949.707
1741597160.080,972.656,-238.770,493.652,970.703
1741597160.084,966.309,-1000.000,444.824,966.797
1741597160.088,969.727,-138.184,465.820,974.609
1741597160.092,899.902,979.980,330.566,896.484
1741597160.095,999.512,999.512,89.844,999.512
1741597160.099,243.164,186.523,-101.562,328.125
1741597160.103,-1000.000,-1000.000,-523.438,-1000.000
1741597160.107,-993.164,-987.793,-637.207,-1000.000
1741597160.111,-968.750,-971.191,-92.285,-961.914
1741597160.068,999.512,999.512,586.914,999.512
1741597160.072,948.242,953.613,476.074,933.594
1741597160.076,939.941,921.387,494.629,949.707
1741597160.080,972.656,-238.770,493.652,970.703
1741597160.084,966.309,-1000.000,444.824,966.797
1741597160.088,969.727,-138.184,465.820,974.609
1741597160.092,899.902,979.980,330.566,896.484
1741597160.095,999.512,999.512,89.844,999.512
1741597160.099,243.164,186.523,-101.562,328.125
1741597160.103,-1000.000,-1000.000,-523.438,-1000.000
1741597160.107,-993.164,-987.793,-637.207,-1000.000
1741597160.111,-968.750,-971.191,-92.285,-961.914
1741597160.113,-1000.000,-1000.000,488.770,-1000.000
1741597160.117,-937.500,-937.500,312.500,-961.914
1741597160.121,-1000.000,-1000.000,17.090,-1000.000
1741597160.125,-742.188,-220.703,-68.359,-978.516
1741597160.129,694.824,999.512,245.605,343.750
1741597160.133,975.098,879.395,501.465,999.512
1741597160.137,999.512,999.512,364.746,999.512
1741597160.140,464.355,371.582,-208.984,390.625
1741597160.144,-962.891,-1000.000,-775.391,-990.234
1741597160.148,-1000.000,-973.633,-569.336,-1000.000
1741597160.152,-909.668,-981.445,-68.848,-908.691
1741597160.156,-1000.000,-949.219,166.016,-1000.000
1741597160.113,-1000.000,-1000.000,488.770,-1000.000
1741597160.117,-937.500,-937.500,312.500,-961.914
1741597160.121,-1000.000,-1000.000,17.090,-1000.000
1741597160.125,-742.188,-220.703,-68.359,-978.516
1741597160.129,694.824,999.512,245.605,343.750
1741597160.133,975.098,879.395,501.465,999.512
1741597160.137,999.512,999.512,364.746,999.512
1741597160.140,464.355,371.582,-208.984,390.625
1741597160.144,-962.891,-1000.000,-775.391,-990.234
1741597160.148,-1000.000,-973.633,-569.336,-1000.000
1741597160.152,-909.668,-981.445,-68.848,-908.691
1741597160.156,-1000.000,-949.219,166.016,-1000.000
1741597160.159,-8.301,380.371,542.480,-71.289
1741597160.163,999.512,999.512,628.906,999.512
1741597160.167,874.023,833.984,508.789,884.277
1741597160.171,990.234,999.512,643.555,985.352
1741597160.175,884.277,412.598,525.391,880.859
1741597160.179,-490.723,-971.680,398.438,-481.445
1741597160.183,-1000.000,-1000.000,302.734,-1000.000
1741597160.186,-933.594,-955.078,269.531,-935.547
1741597160.190,-1000.000,-1000.000,541.504,-1000.000
1741597160.194,-925.781,-934.082,660.645,-928.223
1741597160.198,-1000.000,-1000.000,636.230,-1000.000
1741597160.202,-494.629,-284.180,684.082,-590.332
1741597160.203,920.410,999.512,895.508,844.727
1741597160.207,999.023,961.426,981.445,999.512
1741597160.211,920.898,939.941,960.938,914.551
1741597160.215,913.574,906.738,896.484,916.016
1741597160.219,999.512,999.512,819.336,999.512
1741597160.223,252.441,281.250,485.840,238.770
1741597160.227,-1000.000,-1000.000,-60.059,-1000.000
1741597160.230,-994.629,-1000.000,51.758,-992.676
1741597160.234,-968.750,-949.219,673.828,-969.238
1741597160.238,-946.289,-976.074,875.977,-946.289
1741597160.242,-1000.000,-1000.000,589.844,-1000.000
1741597160.246,-205.566,47.852,728.516,-198.730
1741597160.248,965.820,999.512,977.539,969.727
1741597160.252,999.512,999.512,705.078,999.512
1741597160.256,563.477,406.250,35.156,562.012
1741597160.260,-765.625,-896.973,-650.391,-760.742
1741597160.264,-1000.000,-1000.000,-554.199,-1000.000
1741597160.268,-590.820,-315.430,156.738,-601.074
1741597160.272,695.801,893.066,576.172,677.734
1741597160.275,999.512,999.512,143.066,999.512
1741597160.279,585.938,601.562,-521.973,496.582
1741597160.283,-785.156,-792.480,-996.094,-849.609
1741597160.287,-1000.000,-1000.000,-815.430,-1000.000
1741597160.291,-938.965,-939.453,-396.973,-945.312
1741597160.248,965.820,999.512,977.539,969.727
1741597160.252,999.512,999.512,705.078,999.512
1741597160.256,563.477,406.250,35.156,562.012
1741597160.260,-765.625,-896.973,-650.391,-760.742
1741597160.264,-1000.000,-1000.000,-554.199,-1000.000
1741597160.268,-590.820,-315.430,156.738,-601.074
1741597160.272,695.801,893.066,576.172,677.734
1741597160.275,999.512,999.512,143.066,999.512
1741597160.279,585.938,601.562,-521.973,496.582
1741597160.283,-785.156,-792.480,-996.094,-849.609
1741597160.287,-1000.000,-1000.000,-815.430,-1000.000
1741597160.291,-938.965,-939.453,-396.973,-945.312
1741597160.293,-1000.000,-1000.000,-319.824,-1000.000
1741597160.297,-937.500,-938.477,-463.379,-938.477
1741597160.301,-1000.000,-1000.000,-622.559,-1000.000
1741597160.305,-206.543,-195.801,-145.996,-194.824
1741597160.309,979.492,969.727,257.812,979.492
1741597160.313,999.512,999.512,298.828,999.512
1741597160.317,760.254,538.086,-143.555,712.891
1741597160.320,-622.070,-861.328,-985.352,-676.270
1741597160.324,-1000.000,-1000.000,-903.809,-1000.000
1741597160.328,-932.129,-898.438,-319.336,-936.035
1741597160.332,-954.590,-1000.000,-399.414,-952.637
1741597160.336,-1000.000,-903.809,-791.504,-1000.000
1741597160.353,-177.246,434.570,-500.488,-203.125
1741597160.357,999.512,999.512,-109.863,999.512
1741597160.361,869.629,833.008,-489.258,876.465
1741597160.365,999.512,999.512,-858.887,999.512
1741597160.369,460.938,375.000,-889.160,406.738
1741597160.373,-958.008,-995.605,-992.676,-980.469
1741597160.377,-1000.000,-1000.000,-972.656,-1000.000
1741597160.380,-951.660,-960.938,-780.762,-956.055
1741597160.384,-1000.000,-997.070,-776.367,-1000.000
1741597160.388,-939.941,-962.402,-965.332,-938.965
1741597160.392,-1000.000,-1000.000,-1000.000,-1000.000
1741597160.396,-176.270,31.250,-598.145,-190.430
1741597160.353,-177.246,434.570,-500.488,-203.125
1741597160.357,999.512,999.512,-109.863,999.512
1741597160.361,869.629,833.008,-489.258,876.465
1741597160.365,999.512,999.512,-858.887,999.512
1741597160.369,460.938,375.000,-889.160,406.738
1741597160.373,-958.008,-995.605,-992.676,-980.469
1741597160.377,-1000.000,-1000.000,-972.656,-1000.000
1741597160.380,-951.660,-960.938,-780.762,-956.055
1741597160.384,-1000.000,-997.070,-776.367,-1000.000
1741597160.388,-939.941,-962.402,-965.332,-938.965
1741597160.392,-1000.000,-1000.000,-1000.000,-1000.000
1741597160.396,-176.270,31.250,-598.145,-190.430
1741597160.399,987.793,999.512,-62.500,981.445
1741597160.403,999.512,999.512,-338.867,999.512
1741597160.407,750.488,492.188,-729.004,696.289
1741597160.411,-545.410,-841.797,-1000.000,-604.492
1741597160.415,-1000.000,-1000.000,-759.766,-1000.000
1741597160.419,-473.145,-255.859,-177.734,-521.484
1741597160.423,800.781,916.016,1.953,761.230
1741597160.426,999.512,999.512,-471.191,999.512
1741597160.430,354.980,335.449,-893.066,251.465
1741597160.434,-966.797,-999.512,-881.348,-1000.000
1741597160.438,-1000.000,-973.145,-584.473,-1000.000
1741597160.442,-893.555,-983.887,-327.637,-898.438
1741597160.399,987.793,999.512,-62.500,981.445
1741597160.403,999.512,999.512,-338.867,999.512
1741597160.407,750.488,492.188,-729.004,696.289
1741597160.411,-545.410,-841.797,-1000.000,-604.492
1741597160.415,-1000.000,-1000.000,-759.766,-1000.000
1741597160.419,-473.145,-255.859,-177.734,-521.484
1741597160.423,800.781,916.016,1.953,761.230
1741597160.426,999.512,999.512,-471.191,999.512
1741597160.430,354.980,335.449,-893.066,251.465
1741597160.434,-966.797,-999.512,-881.348,-1000.000
1741597160.438,-1000.000,-973.145,-584.473,-1000.000
1741597160.442,-893.555,-983.887,-327.637,-898.438
1741597160.444,-1000.000,-944.336,-257.324,-1000.000
1741597160.448,-209.961,397.461,-147.461,-255.859
1741597160.452,999.512,999.512,226.562,999.512
1741597160.456,956.543,908.203,246.582,962.891
1741597160.460,868.652,906.738,150.391,867.676
1741597160.464,999.512,999.512,419.922,999.512
1741597160.468,342.773,250.000,119.629,305.176
1741597160.471,-1000.000,-1000.000,-283.691,-1000.000
1741597160.475,-1000.000,-994.629,-0.977,-1000.000
1741597160.479,-971.680,-968.262,133.301,-972.656
1741597160.483,-967.285,-947.266,57.617,-972.168
1741597160.487,-1000.000,-1000.000,-291.504,-1000.000
1741597160.444,-1000.000,-944.336,-257.324,-1000.000
1741597160.448,-209.961,397.461,-147.461,-255.859
1741597160.452,999.512,999.512,226.562,999.512
1741597160.456,956.543,908.203,246.582,962.891
1741597160.460,868.652,906.738,150.391,867.676
1741597160.464,999.512,999.512,419.922,999.512
1741597160.468,342.773,250.000,119.629,305.176
1741597160.471,-1000.000,-1000.000,-283.691,-1000.000
1741597160.475,-1000.000,-994.629,-0.977,-1000.000
1741597160.479,-971.680,-968.262,133.301,-972.656
1741597160.483,-967.285,-947.266,57.617,-972.168
1741597160.487,-1000.000,-1000.000,-291.504,-1000.000
1741597160.488,-947.266,-208.496,-392.578,-972.656
1741597160.492,406.250,999.512,31.738,338.379
1741597160.496,999.512,949.707,220.215,999.512
1741597160.500,839.355,877.930,-24.902,867.676
1741597160.504,999.512,999.512,-179.688,999.512
1741597160.508,157.715,187.012,-527.344,-22.461
1741597160.512,-1000.000,-1000.000,-917.969,-1000.000
1741597160.515,-979.980,-984.375,-887.695,-963.379
1741597160.519,-976.074,-973.145,-753.418,-987.305
1741597160.523,-943.848,-944.824,-827.637,-940.918
1741597160.527,-1000.000,-1000.000,-1000.000,-1000.000
1741597160.531,-212.402,-199.707,-499.512,-218.262
1741597160.533,999.512,972.656,146.484,997.559
1741597160.537,947.266,999.512,-76.660,964.355
1741597160.541,969.727,562.500,-456.543,917.969
1741597160.545,-226.074,-759.766,-870.605,-297.363
1741597160.549,-1000.000,-1000.000,-729.980,-1000.000
1741597160.553,-142.090,-114.258,139.160,-144.531
1741597160.557,959.473,961.914,395.996,959.961
1741597160.560,999.512,999.512,-118.652,999.512
1741597160.564,475.098,365.723,-565.430,439.941
1741597160.568,-922.852,-982.422,-921.875,-938.477
1741597160.572,-1000.000,-1000.000,-530.762,-1000.000
1741597160.576,-962.891,-971.680,-68.359,-962.891
1741597160.608,-946.289,-948.242,-81.543,-946.289
1741597160.612,-1000.000,-1000.000,-217.773,-1000.000
1741597160.616,-680.664,-743.652,-211.914,-585.938
1741597160.620,765.625,696.777,155.762,822.754
1741597160.624,999.512,999.512,291.504,999.512
1741597160.628,830.078,874.023,270.020,842.773
1741597160.632,999.512,999.512,79.102,999.512
1741597160.635,498.047,-60.059,-275.391,520.996
1741597160.639,-868.164,-1000.000,-307.129,-826.660
1741597160.643,-1000.000,-1000.000,-274.902,-1000.000
1741597160.647,-167.969,-255.371,72.754,-166.992
1741597160.651,999.512,999.512,819.824,999.512
1741597160.608,-946.289,-948.242,-81.543,-946.289
1741597160.612,-1000.000,-1000.000,-217.773,-1000.000
1741597160.616,-680.664,-743.652,-211.914,-585.938
1741597160.620,765.625,696.777,155.762,822.754
1741597160.624,999.512,999.512,291.504,999.512
1741597160.628,830.078,874.023,270.020,842.773
1741597160.632,999.512,999.512,79.102,999.512
1741597160.635,498.047,-60.059,-275.391,520.996
1741597160.639,-868.164,-1000.000,-307.129,-826.660
1741597160.643,-1000.000,-1000.000,-274.902,-1000.000
1741597160.647,-167.969,-255.371,72.754,-166.992
1741597160.651,999.512,999.512,819.824,999.512
1741597160.653,889.160,915.527,831.055,895.020
1741597160.657,999.512,999.512,254.883,999.512
1741597160.661,167.480,21.973,-462.402,120.117
1741597160.665,-1000.000,-1000.000,-437.500,-1000.000
1741597160.669,-1000.000,-1000.000,111.816,-1000.000
1741597160.673,-189.453,-34.668,689.941,-165.039
1741597160.677,999.512,999.512,761.230,999.512
1741597160.680,898.438,857.422,97.656,900.879
1741597160.684,982.910,999.512,355.469,972.168
1741597160.688,861.816,369.629,652.832,898.926
1741597160.692,-529.785,-998.047,223.633,-457.520
1741597160.696,-1000.000,-1000.000,-3.906,-1000.000
1741597160.653,889.160,915.527,831.055,895.020
1741597160.657,999.512,999.512,254.883,999.512
1741597160.661,167.480,21.973,-462.402,120.117
1741597160.665,-1000.000,-1000.000,-437.500,-1000.000
1741597160.669,-1000.000,-1000.000,111.816,-1000.000
1741597160.673,-189.453,-34.668,689.941,-165.039
1741597160.677,999.512,999.512,761.230,999.512
1741597160.680,898.438,857.422,97.656,900.879
1741597160.684,982.910,999.512,355.469,972.168
1741597160.688,861.816,369.629,652.832,898.926
1741597160.692,-529.785,-998.047,223.633,-457.520
1741597160.696,-1000.000,-1000.000,-3.906,-1000.000
1741597160.698,-934.570,-957.031,80.566,-936.035
1741597160.702,-948.242,-952.148,356.445,-945.801
1741597160.706,-1000.000,-1000.000,437.988,-1000.000
1741597160.710,-220.703,-185.547,679.688,-215.820
1741597160.714,999.512,999.512,888.184,999.512
1741597160.718,883.789,883.301,635.254,882.324
1741597160.722,999.512,999.512,601.562,999.512
1741597160.725,248.535,190.918,88.867,278.320
1741597160.729,-1000.000,-1000.000,-418.945,-1000.000
1741597160.733,-928.711,-922.852,-101.074,-931.641
1741597160.737,-1000.000,-1000.000,-45.898,-1000.000
1741597160.741,-235.840,-195.312,407.227,-280.273
1741597160.698,-934.570,-957.031,80.566,-936.035
1741597160.702,-948.242,-952.148,356.445,-945.801
1741597160.706,-1000.000,-1000.000,437.988,-1000.000
1741597160.710,-220.703,-185.547,679.688,-215.820
1741597160.714,999.512,999.512,888.184,999.512
1741597160.718,883.789,883.301,635.254,882.324
1741597160.722,999.512,999.512,601.562,999.512
1741597160.725,248.535,190.918,88.867,278.320
1741597160.729,-1000.000,-1000.000,-418.945,-1000.000
1741597160.733,-928.711,-922.852,-101.074,-931.641
1741597160.737,-1000.000,-1000.000,-45.898,-1000.000
1741597160.741,-235.840,-195.312,407.227,-280.273
1741597160.758,955.078,968.750,943.359,942.383
1741597160.762,999.512,999.512,362.793,999.512
1741597160.766,506.836,427.246,-321.777,473.145
1741597160.770,-899.414,-889.160,-875.977,-906.738
1741597160.774,-989.258,-1000.000,-743.652,-986.328
1741597160.778,-1000.000,-758.789,-117.188,-1000.000
1741597160.782,-208.008,539.062,166.016,-201.172
1741597160.785,999.512,999.512,-104.980,999.512
1741597160.789,999.512,999.512,-540.527,926.270
1741597160.793,-60.547,11.230,-722.656,-313.477
1741597160.797,-1000.000,-1000.000,-816.406,-1000.000
1741597160.801,-885.742,-896.484,-637.207,-896.484
1741597160.758,955.078,968.750,943.359,942.383
1741597160.762,999.512,999.512,362.793,999.512
1741597160.766,506.836,427.246,-321.777,473.145
1741597160.770,-899.414,-889.160,-875.977,-906.738
1741597160.774,-989.258,-1000.000,-743.652,-986.328
1741597160.778,-1000.000,-758.789,-117.188,-1000.000
1741597160.782,-208.008,539.062,166.016,-201.172
1741597160.785,999.512,999.512,-104.980,999.512
1741597160.789,999.512,999.512,-540.527,926.270
1741597160.793,-60.547,11.230,-722.656,-313.477
1741597160.797,-1000.000,-1000.000,-816.406,-1000.000
1741597160.801,-885.742,-896.484,-637.207,-896.484
1741597160.803,-1000.000,-1000.000,-431.641,-1000.000
1741597160.807,-663.574,-223.145,-386.230,-883.789
1741597160.811,777.344,999.512,-215.820,490.234
1741597160.815,999.512,950.195,-272.461,999.512
1741597160.819,849.121,878.418,-398.438,858.887
1741597160.823,999.512,999.512,-396.973,999.512
1741597160.827,123.535,169.922,-810.059,6.836
1741597160.830,-1000.000,-1000.000,-1000.000,-1000.000
1741597160.834,-975.586,-977.539,-883.789,-966.309
1741597160.838,-915.039,-918.945,-712.402,-919.434
1741597160.842,-1000.000,-1000.000,-871.094,-1000.000
1741597160.846,-215.820,-129.395,-551.270,-274.902
1741597160.803,-1000.000,-1000.000,-431.641,-1000.000
1741597160.807,-663.574,-223.145,-386.230,-883.789
1741597160.811,777.344,999.512,-215.820,490.234
1741597160.815,999.512,950.195,-272.461,999.512
1741597160.819,849.121,878.418,-398.438,858.887
1741597160.823,999.512,999.512,-396.973,999.512
1741597160.827,123.535,169.922,-810.059,6.836
1741597160.830,-1000.000,-1000.000,-1000.000,-1000.000
1741597160.834,-975.586,-977.539,-883.789,-966.309
1741597160.838,-915.039,-918.945,-712.402,-919.434
1741597160.842,-1000.000,-1000.000,-871.094,-1000.000
1741597160.846,-215.820,-129.395,-551.270,-274.902
1741597160.848,999.512,999.512,43.457,990.234
1741597160.852,923.828,999.512,-145.508,944.824
1741597160.856,999.512,743.164,-375.977,992.676
1741597160.860,-145.508,-623.047,-708.984,-196.289
1741597160.864,-1000.000,-1000.000,-778.809,-1000.000
1741597160.868,-943.359,-1000.000,-434.082,-942.871
1741597160.872,-997.070,-194.336,-259.277,-998.535
1741597160.875,-1000.000,987.305,-409.180,-1000.000
1741597160.879,-1000.000,999.512,-284.668,-1000.000
1741597160.883,-1000.000,126.953,-292.480,-1000.000
1741597160.887,-982.910,-1000.000,-541.992,-988.770
1741597160.891,-965.820,-1000.000,-253.906,-956.055
1741597160.893,-1000.000,-911.621,-104.492,-1000.000
1741597160.897,55.176,362.305,29.297,-31.250
1741597160.901,999.512,999.512,176.758,999.512
1741597160.905,915.527,907.227,-159.180,925.781
1741597160.909,965.820,974.121,-83.984,959.961
1741597160.913,897.461,902.344,272.949,900.879
1741597160.917,999.512,999.512,341.797,999.512
1741597160.920,314.941,222.656,-14.648,300.293
1741597160.924,-1000.000,-1000.000,-464.844,-1000.000
1741597160.928,-939.941,-927.246,-22.461,-937.012
1741597160.932,-1000.000,-1000.000,372.559,-1000.000
1741597160.936,-274.902,-213.867,662.109,-285.156
1741597160.938,999.512,966.797,920.410,999.512
1741597160.942,895.020,999.512,502.930,907.227
1741597160.946,999.512,444.824,256.836,999.512
1741597160.950,189.453,-872.070,399.902,118.164
1741597160.954,-1000.000,-1000.000,715.820,-1000.000
1741597160.958,-1000.000,-832.520,938.477,-1000.000
1741597160.962,-151.367,445.312,970.215,-121.582
1741597160.965,999.512,999.512,897.461,999.512
1741597160.969,877.441,840.820,824.219,884.277
1741597160.973,999.512,999.512,906.738,999.512
1741597160.977,679.199,214.844,885.742,790.527
1741597160.981,-763.672,-1000.000,428.711,-611.328
1741597160.983,-1000.000,-925.781,578.613,-1000.000
1741597160.987,-1000.000,-1000.000,999.512,-1000.000
1741597160.991,-235.840,-228.027,945.312,-193.848
1741597160.995,999.512,999.512,997.070,999.512
1741597160.999,921.875,885.742,802.734,932.617
1741597161.003,925.293,999.512,730.957,901.367
1741597161.007,999.512,680.176,783.691,999.512
1741597161.010,-230.957,-757.812,76.172,-32.715
1741597161.014,-1000.000,-1000.000,-154.297,-1000.000
1741597161.018,-901.855,-936.035,48.828,-928.711
1741597161.022,-1000.000,-1000.000,-78.613,-1000.000
1741597161.026,30.273,255.859,335.449,94.727
1741597161.028,999.512,999.512,773.438,999.512
1741597161.032,917.480,999.512,533.691,913.086
1741597161.036,957.031,311.035,400.879,961.426
1741597161.040,970.703,-980.469,629.883,969.238
1741597161.044,951.172,-1000.000,803.711,959.473
1741597161.048,927.246,17.578,931.152,916.016
1741597161.052,999.512,999.512,846.191,999.512
1741597161.055,-59.570,-330.566,-5.371,49.805
1741597161.059,-1000.000,-1000.000,-227.051,-1000.000
1741597161.063,-927.246,-911.133,491.211,-1000.000
1741597161.067,-1000.000,-1000.000,766.113,-842.773
1741597161.071,121.582,122.559,884.277,448.730
1741597161.028,999.512,999.512,773.438,999.512
1741597161.032,917.480,999.512,533.691,913.086
1741597161.036,957.031,311.035,400.879,961.426
1741597161.040,970.703,-980.469,629.883,969.238
1741597161.044,951.172,-1000.000,803.711,959.473
1741597161.048,927.246,17.578,931.152,916.016
1741597161.052,999.512,999.512,846.191,999.512
1741597161.055,-59.570,-330.566,-5.371,49.805
1741597161.059,-1000.000,-1000.000,-227.051,-1000.000
1741597161.063,-927.246,-911.133,491.211,-1000.000
1741597161.067,-1000.000,-1000.000,766.113,-842.773
1741597161.071,121.582,122.559,884.277,448.730
1741597161.074,999.512,999.512,927.246,999.512
1741597161.078,862.793,999.512,908.691,855.469
1741597161.082,999.512,520.020,894.043,999.512
1741597161.086,15.625,-819.824,527.344,105.957
1741597161.090,-1000.000,-1000.000,487.793,-1000.000
1741597161.094,-1000.000,-667.480,854.004,-1000.000
1741597161.098,-145.020,677.246,979.492,-80.078
1741597161.101,999.512,999.512,957.031,999.512
1741597161.105,867.188,843.750,966.309,862.305
1741597161.109,999.512,999.512,967.285,999.512
1741597161.113,441.895,186.523,966.797,504.883
1741597161.117,-966.797,-1000.000,967.285,-925.781
1741597161.074,999.512,999.512,927.246,999.512
1741597161.078,862.793,999.512,908.691,855.469
1741597161.082,999.512,520.020,894.043,999.512
1741597161.086,15.625,-819.824,527.344,105.957
1741597161.090,-1000.000,-1000.000,487.793,-1000.000
1741597161.094,-1000.000,-667.480,854.004,-1000.000
1741597161.098,-145.020,677.246,979.492,-80.078
1741597161.101,999.512,999.512,957.031,999.512
1741597161.105,867.188,843.750,966.309,862.305
1741597161.109,999.512,999.512,967.285,999.512
1741597161.113,441.895,186.523,966.797,504.883
1741597161.117,-966.797,-1000.000,967.285,-925.781
1741597161.133,-1000.000,-986.816,967.285,-1000.000
1741597161.137,-953.125,-959.961,966.797,-947.266
1741597161.141,-951.660,-966.309,967.285,-954.102
1741597161.145,-1000.000,-1000.000,967.285,-1000.000
1741597161.149,-212.402,-5.859,966.797,-197.754
1741597161.153,999.512,999.512,969.238,999.512
1741597161.157,881.348,861.328,953.613,883.789
1741597161.160,999.512,999.512,978.516,999.512
1741597161.164,677.734,186.035,929.199,696.289
1741597161.168,-772.461,-1000.000,537.109,-732.910
1741597161.172,-1000.000,-986.328,491.211,-1000.000
1741597161.176,-946.289,-960.938,884.766,-950.195
1741597161.178,-944.336,-966.797,918.457,-941.406
1741597161.182,-1000.000,-1000.000,707.520,-1000.000
1741597161.186,-381.348,-20.508,636.230,-478.516
1741597161.190,984.375,999.512,750.977,931.641
1741597161.194,941.406,860.352,764.648,958.496
1741597161.198,931.152,999.512,875.000,932.129
1741597161.202,986.816,642.578,984.863,962.402
1741597161.205,-333.984,-791.504,479.492,-373.047
1741597161.209,-1000.000,-1000.000,166.016,-1000.000
1741597161.213,-872.559,-882.324,545.410,-870.117
1741597161.217,-1000.000,-1000.000,622.559,-1000.000
1741597161.221,-206.543,-158.203,761.230,-250.977
1741597161.178,-944.336,-966.797,918.457,-941.406
1741597161.182,-1000.000,-1000.000,707.520,-1000.000
1741597161.186,-381.348,-20.508,636.230,-478.516
1741597161.190,984.375,999.512,750.977,931.641
1741597161.194,941.406,860.352,764.648,958.496
1741597161.198,931.152,999.512,875.000,932.129
1741597161.202,986.816,642.578,984.863,962.402
1741597161.205,-333.984,-791.504,479.492,-373.047
1741597161.209,-1000.000,-1000.000,166.016,-1000.000
1741597161.213,-872.559,-882.324,545.410,-870.117
1741597161.217,-1000.000,-1000.000,622.559,-1000.000
1741597161.221,-206.543,-158.203,761.230,-250.977
1741597161.223,978.516,977.051,919.434,963.379
1741597161.227,999.512,999.512,594.727,999.512
1741597161.231,753.418,412.109,458.496,721.680
1741597161.235,-631.348,-909.668,122.559,-652.344
1741597161.239,-1000.000,-1000.000,-31.738,-1000.000
1741597161.243,-934.082,-852.539,100.098,-936.523
1741597161.247,-1000.000,321.777,-137.695,-1000.000
1741597161.250,-1000.000,999.512,-253.418,-1000.000
1741597161.254,-1000.000,565.430,-144.043,-1000.000
1741597161.258,-1000.000,-772.949,142.090,-1000.000
1741597161.262,-1000.000,-1000.000,-202.148,-1000.000
1741597161.266,-937.500,-885.254,-947.266,-934.082
1741597161.223,978.516,977.051,919.434,963.379
1741597161.227,999.512,999.512,594.727,999.512
1741597161.231,753.418,412.109,458.496,721.680
1741597161.235,-631.348,-909.668,122.559,-652.344
1741597161.239,-1000.000,-1000.000,-31.738,-1000.000
1741597161.243,-934.082,-852.539,100.098,-936.523
1741597161.247,-1000.000,321.777,-137.695,-1000.000
1741597161.250,-1000.000,999.512,-253.418,-1000.000
1741597161.254,-1000.000,565.430,-144.043,-1000.000
1741597161.258,-1000.000,-772.949,142.090,-1000.000
1741597161.262,-1000.000,-1000.000,-202.148,-1000.000
1741597161.266,-937.500,-885.254,-947.266,-934.082
1741597161.268,-1000.000,-1000.000,-1000.000,-1000.000
1741597161.272,-221.680,-172.363,-861.328,-280.273
1741597161.276,999.512,999.512,-403.320,999.512
1741597161.280,951.172,950.684,-229.004,961.914
1741597161.284,931.641,915.527,-459.473,928.223
1741597161.288,921.875,961.426,-264.648,923.340
1741597161.292,999.512,999.512,-32.227,999.512
1741597161.295,55.664,-231.934,-646.484,73.242
1741597161.299,-1000.000,-1000.000,-1000.000,-1000.000
1741597161.303,-907.227,-912.109,-956.055,-910.156
1741597161.307,-1000.000,-1000.000,-717.285,-1000.000
1741597161.311,-171.875,74.707,134.277,-177.734
1741597161.268,-1000.000,-1000.000,-1000.000,-1000.000
1741597161.272,-221.680,-172.363,-861.328,-280.273
1741597161.276,999.512,999.512,-403.320,999.512
1741597161.280,951.172,950.684,-229.004,961.914
1741597161.284,931.641,915.527,-459.473,928.223
1741597161.288,921.875,961.426,-264.648,923.340
1741597161.292,999.512,999.512,-32.227,999.512
1741597161.295,55.664,-231.934,-646.484,73.242
1741597161.299,-1000.000,-1000.000,-1000.000,-1000.000
1741597161.303,-907.227,-912.109,-956.055,-910.156
1741597161.307,-1000.000,-1000.000,-717.285,-1000.000
1741597161.311,-171.875,74.707,134.277,-177.734
1741597161.313,984.375,999.512,529.785,983.887
1741597161.317,999.512,999.512,72.754,999.512
1741597161.321,204.102,179.199,-628.906,192.383
1741597161.325,-975.586,-1000.000,-965.820,-979.980
1741597161.329,-1000.000,-1000.000,-725.098,-1000.000
1741597161.333,-395.508,-205.566,-218.750,-394.043
1741597161.337,947.266,999.512,217.773,946.777
1741597161.340,999.512,955.566,-383.789,999.512
1741597161.344,847.656,873.535,-615.234,852.539
1741597161.348,999.512,999.512,178.223,999.512
1741597161.352,505.859,229.004,172.852,582.520
1741597161.356,-927.246,-1000.000,-426.270,-853.516
1741597161.359,-979.492,-934.082,-648.438,-995.605
1741597161.363,-1000.000,-1000.000,-677.246,-1000.000
1741597161.367,-235.840,-162.109,59.082,-232.910
1741597161.371,999.512,999.512,482.910,999.512
1741597161.375,950.684,930.176,349.609,950.684
1741597161.379,876.465,901.855,401.855,876.953
1741597161.383,999.512,999.512,338.867,999.512
1741597161.386,186.523,-4.395,-100.586,187.012
1741597161.390,-1000.000,-1000.000,-417.480,-1000.000
1741597161.394,-921.387,-914.551,-11.230,-921.387
1741597161.398,-1000.000,-1000.000,68.359,-1000.000
1741597161.402,-227.539,-58.594,203.125,-227.539
1741597161.359,-979.492,-934.082,-648.438,-995.605
1741597161.363,-1000.000,-1000.000,-677.246,-1000.000
1741597161.367,-235.840,-162.109,59.082,-232.910
1741597161.371,999.512,999.512,482.910,999.512
1741597161.375,950.684,930.176,349.609,950.684
1741597161.379,876.465,901.855,401.855,876.953
1741597161.383,999.512,999.512,338.867,999.512
1741597161.386,186.523,-4.395,-100.586,187.012
1741597161.390,-1000.000,-1000.000,-417.480,-1000.000
1741597161.394,-921.387,-914.551,-11.230,-921.387
1741597161.398,-1000.000,-1000.000,68.359,-1000.000
1741597161.402,-227.539,-58.594,203.125,-227.539
1741597161.403,999.512,999.512,680.664,999.512
1741597161.407,892.090,857.422,689.453,896.484
1741597161.411,999.512,999.512,719.727,994.141
1741597161.415,795.898,481.934,435.059,821.777
1741597161.419,-626.465,-927.734,-182.129,-581.543
1741597161.423,-1000.000,-1000.000,47.363,-1000.000
1741597161.427,-934.082,-950.684,470.703,-935.059
1741597161.430,-1000.000,-1000.000,189.941,-1000.000
1741597161.434,-937.500,-941.895,18.555,-937.500
1741597161.438,-1000.000,-1000.000,59.082,-1000.000
1741597161.442,-220.703,-174.805,439.453,-220.215
1741597161.446,999.512,999.512,701.660,999.512
1741597161.448,877.930,875.977,441.406,881.836
1741597161.452,999.512,999.512,297.852,999.512
1741597161.456,350.098,293.945,-208.984,295.410
1741597161.460,-933.105,-964.355,-265.137,-954.590
1741597161.464,-1000.000,-1000.000,322.266,-1000.000
1741597161.468,-454.102,-279.785,679.688,-463.379
1741597161.472,924.316,997.559,760.254,917.969
1741597161.475,935.059,899.902,257.324,941.406
1741597161.479,998.535,999.512,239.258,988.770
1741597161.483,730.469,269.531,404.297,756.836
1741597161.487,-715.820,-1000.000,-83.984,-666.992
1741597161.491,-1000.000,-996.094,-8.789,-1000.000
1741597161.448,877.930,875.977,441.406,881.836
1741597161.452,999.512,999.512,297.852,999.512
1741597161.456,350.098,293.945,-208.984,295.410
1741597161.460,-933.105,-964.355,-265.137,-954.590
1741597161.464,-1000.000,-1000.000,322.266,-1000.000
1741597161.468,-454.102,-279.785,679.688,-463.379
1741597161.472,924.316,997.559,760.254,917.969
1741597161.475,935.059,899.902,257.324,941.406
1741597161.479,998.535,999.512,239.258,988.770
1741597161.483,730.469,269.531,404.297,756.836
1741597161.487,-715.820,-1000.000,-83.984,-666.992
1741597161.491,-1000.000,-996.094,-8.789,-1000.000
1741597161.511,-938.477,-973.633,21.973,-938.965
1741597161.515,-1000.000,-980.957,-432.129,-1000.000
1741597161.519,-954.102,-989.746,-122.070,-953.613
1741597161.523,-1000.000,-1000.000,-20.020,-1000.000
1741597161.527,-41.992,195.801,319.336,-54.199
1741597161.531,999.512,999.512,632.812,999.512
1741597161.535,878.418,839.844,72.754,883.789
1741597161.538,986.816,999.512,-83.008,981.934
1741597161.542,887.695,344.727,66.406,895.020
1741597161.546,-485.840,-1000.000,-3.906,-457.031
1741597161.550,-1000.000,-1000.000,-225.586,-1000.000
1741597161.554,-933.594,-960.938,-386.719,-935.547
1741597161.511,-938.477,-973.633,21.973,-938.965
1741597161.515,-1000.000,-980.957,-432.129,-1000.000
1741597161.519,-954.102,-989.746,-122.070,-953.613
1741597161.523,-1000.000,-1000.000,-20.020,-1000.000
1741597161.527,-41.992,195.801,319.336,-54.199
1741597161.531,999.512,999.512,632.812,999.512
1741597161.535,878.418,839.844,72.754,883.789
1741597161.538,986.816,999.512,-83.008,981.934
1741597161.542,887.695,344.727,66.406,895.020
1741597161.546,-485.840,-1000.000,-3.906,-457.031
1741597161.550,-1000.000,-1000.000,-225.586,-1000.000
1741597161.554,-933.594,-960.938,-386.719,-935.547
1741597161.553,-1000.000,-1000.000,-162.109,-1000.000
1741597161.557,-937.012,-942.383,-3.418,-931.641
1741597161.561,-1000.000,-1000.000,-150.391,-1000.000
1741597161.565,-224.121,-156.738,-120.605,-324.219
1741597161.569,999.512,981.934,136.230,980.469
1741597161.573,914.551,999.512,351.074,935.547
1741597161.577,999.512,606.934,178.711,999.512
1741597161.580,-73.730,-803.711,-485.352,-78.613
1741597161.584,-1000.000,-1000.000,-783.691,-1000.000
1741597161.588,-924.316,-976.074,-879.883,-922.363
1741597161.592,-1000.000,-914.551,-645.020,-1000.000
1741597161.596,90.332,423.340,315.430,45.410
1741597161.598,999.512,999.512,548.828,999.512
1741597161.602,991.211,928.711,-328.613,896.484
1741597161.606,-179.199,-259.277,-947.754,-349.609
1741597161.610,-1000.000,-1000.000,-607.422,-1000.000
1741597161.614,-1000.000,-1000.000,18.555,-1000.000
1741597161.618,-225.098,-42.480,350.586,-208.984
1741597161.622,999.512,999.512,187.988,999.512
1741597161.625,238.770,255.859,-763.184,197.754
1741597161.629,-1000.000,-1000.000,-968.750,-1000.000
1741597161.633,-1000.000,-1000.000,-366.699,-997.559
1741597161.637,-898.926,-902.832,-20.508,-918.457
1741597161.641,-1000.000,-1000.000,-38.086,-1000.000
1741597161.598,999.512,999.512,548.828,999.512
1741597161.602,991.211,928.711,-328.613,896.484
1741597161.606,-179.199,-259.277,-947.754,-349.609
1741597161.610,-1000.000,-1000.000,-607.422,-1000.000
1741597161.614,-1000.000,-1000.000,18.555,-1000.000
1741597161.618,-225.098,-42.480,350.586,-208.984
1741597161.622,999.512,999.512,187.988,999.512
1741597161.625,238.770,255.859,-763.184,197.754
1741597161.629,-1000.000,-1000.000,-968.750,-1000.000
1741597161.633,-1000.000,-1000.000,-366.699,-997.559
1741597161.637,-898.926,-902.832,-20.508,-918.457
1741597161.641,-1000.000,-1000.000,-38.086,-1000.000
1741597161.644,-679.688,-212.402,-130.371,-864.746
1741597161.648,759.277,999.512,266.113,518.555
1741597161.652,999.512,966.309,766.602,999.512
1741597161.656,831.055,871.094,686.035,831.055
1741597161.660,999.512,999.512,450.195,999.512
1741597161.664,545.898,652.832,133.789,417.969
1741597161.668,-899.902,-794.922,-62.012,-962.891
1741597161.671,-1000.000,-1000.000,-11.719,-1000.000
1741597161.675,-944.824,-922.852,160.156,-955.566
1741597161.679,-953.125,-978.516,182.129,-950.195
1741597161.683,-1000.000,-1000.000,-226.074,-1000.000
1741597161.687,-214.355,43.457,175.293,-214.844
1741597161.733,999.512,999.512,940.430,999.512
1741597161.737,932.617,999.512,580.078,933.594
1741597161.741,991.699,579.102,254.395,986.816
1741597161.745,-125.000,-748.535,-354.492,-116.699
1741597161.749,-1000.000,-1000.000,-455.078,-1000.000
1741597161.753,-502.441,-329.102,513.672,-509.766
1741597161.757,849.121,925.293,964.844,822.754
1741597161.760,998.047,970.703,664.062,999.512
1741597161.764,973.145,971.680,234.375,875.977
1741597161.768,-188.965,-221.680,-400.391,-321.777
1741597161.772,-1000.000,-1000.000,-444.336,-1000.000
1741597161.776,-1000.000,-1000.000,186.523,-956.543
1741597161.733,999.512,999.512,940.430,999.512
1741597161.737,932.617,999.512,580.078,933.594
1741597161.741,991.699,579.102,254.395,986.816
1741597161.745,-125.000,-748.535,-354.492,-116.699
1741597161.749,-1000.000,-1000.000,-455.078,-1000.000
1741597161.753,-502.441,-329.102,513.672,-509.766
1741597161.757,849.121,925.293,964.844,822.754
1741597161.760,998.047,970.703,664.062,999.512
1741597161.764,973.145,971.680,234.375,875.977
1741597161.768,-188.965,-221.680,-400.391,-321.777
1741597161.772,-1000.000,-1000.000,-444.336,-1000.000
1741597161.776,-1000.000,-1000.000,186.523,-956.543
1741597161.739,22.949,3.906,806.152,185.059
1741597161.743,999.512,999.512,819.824,999.512
1741597161.747,999.512,999.512,74.707,942.383
1741597161.751,92.285,11.719,-335.449,-99.121
1741597161.755,-1000.000,-1000.000,135.742,-1000.000
1741597161.759,-184.570,-176.758,868.164,-150.391
1741597161.763,999.512,999.512,897.461,999.512
1741597161.766,946.777,902.832,618.652,944.824
1741597161.770,953.125,973.145,812.012,954.590
1741597161.774,913.574,880.859,989.258,916.504
1741597161.778,999.512,-474.609,951.172,999.512
1741597161.782,769.043,-1000.000,996.094,773.438
1741597161.739,22.949,3.906,806.152,185.059
1741597161.743,999.512,999.512,819.824,999.512
1741597161.747,999.512,999.512,74.707,942.383
1741597161.751,92.285,11.719,-335.449,-99.121
1741597161.755,-1000.000,-1000.000,135.742,-1000.000
1741597161.759,-184.570,-176.758,868.164,-150.391
1741597161.763,999.512,999.512,897.461,999.512
1741597161.766,946.777,902.832,618.652,944.824
1741597161.770,953.125,973.145,812.012,954.590
1741597161.774,913.574,880.859,989.258,916.504
1741597161.778,999.512,-474.609,951.172,999.512
1741597161.782,769.043,-1000.000,996.094,773.438
1741597161.778,-650.879,-937.500,763.184,-626.953
1741597161.782,-1000.000,-1000.000,749.512,-1000.000
1741597161.786,-872.070,-941.895,993.164,-885.742
1741597161.790,-1000.000,-1000.000,963.379,-1000.000
1741597161.794,-221.191,-173.828,963.379,-122.559
1741597161.798,999.512,999.512,967.773,999.512
1741597161.802,964.844,875.000,966.797,953.613
1741597161.805,865.723,999.512,966.309,879.395
1741597161.809,999.512,554.688,963.379,999.512
1741597161.813,547.363,-856.445,981.445,603.516
1741597161.817,-894.043,-1000.000,895.020,-815.430
1741597161.821,-1000.000,-923.340,887.695,-1000.000
1741597161.778,-650.879,-937.500,763.184,-626.953
1741597161.782,-1000.000,-1000.000,749.512,-1000.000
1741597161.786,-872.070,-941.895,993.164,-885.742
1741597161.790,-1000.000,-1000.000,963.379,-1000.000
1741597161.794,-221.191,-173.828,963.379,-122.559
1741597161.798,999.512,999.512,967.773,999.512
1741597161.802,964.844,875.000,966.797,953.613
1741597161.805,865.723,999.512,966.309,879.395
1741597161.809,999.512,554.688,963.379,999.512
1741597161.813,547.363,-856.445,981.445,603.516
1741597161.817,-894.043,-1000.000,895.020,-815.430
1741597161.821,-1000.000,-923.340,887.695,-1000.000
1741597161.823,-905.762,-991.699,979.004,-935.059
1741597161.827,-1000.000,-1000.000,964.844,-1000.000
1741597161.831,20.508,136.230,965.820,199.707
1741597161.835,999.512,999.512,967.285,999.512
1741597161.839,874.512,841.309,967.285,882.812
1741597161.843,983.887,999.512,951.172,957.520
1741597161.847,906.250,310.059,999.512,999.023
1741597161.850,-445.312,-1000.000,797.363,-252.441
1741597161.854,-1000.000,-1000.000,467.773,-1000.000
1741597161.858,-872.070,-907.715,686.523,-882.812
1741597161.862,-1000.000,-1000.000,852.051,-1000.000
1741597161.866,-226.074,-149.902,850.098,-195.312
1741597161.823,-905.762,-991.699,979.004,-935.059
1741597161.827,-1000.000,-1000.000,964.844,-1000.000
1741597161.831,20.508,136.230,965.820,199.707
1741597161.835,999.512,999.512,967.285,999.512
1741597161.839,874.512,841.309,967.285,882.812
1741597161.843,983.887,999.512,951.172,957.520
1741597161.847,906.250,310.059,999.512,999.023
1741597161.850,-445.312,-1000.000,797.363,-252.441
1741597161.854,-1000.000,-1000.000,467.773,-1000.000
1741597161.858,-872.070,-907.715,686.523,-882.812
1741597161.862,-1000.000,-1000.000,852.051,-1000.000
1741597161.866,-226.074,-149.902,850.098,-195.312
1741597161.883,982.910,999.512,999.512,999.512
1741597161.887,999.512,999.512,675.781,999.512
1741597161.891,85.938,76.172,-194.336,-15.625
1741597161.895,-1000.000,-1000.000,-207.520,-1000.000
1741597161.899,-1000.000,-1000.000,433.594,-1000.000
1741597161.903,126.953,262.207,884.277,212.891
1741597161.907,999.512,999.512,809.082,999.512
1741597161.910,909.668,848.145,330.078,907.715
1741597161.914,901.855,999.512,502.930,905.273
1741597161.918,999.512,729.980,797.852,999.512
1741597161.922,162.598,-654.785,570.312,167.969
1741597161.926,-1000.000,-1000.000,95.215,-1000.000
1741597161.883,982.910,999.512,999.512,999.512
1741597161.887,999.512,999.512,675.781,999.512
1741597161.891,85.938,76.172,-194.336,-15.625
1741597161.895,-1000.000,-1000.000,-207.520,-1000.000
1741597161.899,-1000.000,-1000.000,433.594,-1000.000
1741597161.903,126.953,262.207,884.277,212.891
1741597161.907,999.512,999.512,809.082,999.512
1741597161.910,909.668,848.145,330.078,907.715
1741597161.914,901.855,999.512,502.930,905.273
1741597161.918,999.512,729.980,797.852,999.512
1741597161.922,162.598,-654.785,570.312,167.969
1741597161.926,-1000.000,-1000.000,95.215,-1000.000
1741597161.929,-913.086,-876.953,105.469,-914.062
1741597161.933,-1000.000,-1000.000,588.379,-1000.000
1741597161.937,-298.828,-208.496,887.207,-306.641
1741597161.941,937.988,963.867,960.449,941.895
1741597161.945,999.512,999.512,551.270,999.512
1741597161.949,320.312,418.457,86.426,212.891
1741597161.953,-999.512,-956.543,-102.539,-1000.000
1741597161.956,-1000.000,-1000.000,17.090,-995.117
1741597161.960,-949.707,-909.180,467.773,-965.820
1741597161.964,-964.844,-1000.000,499.023,-950.684
1741597161.968,-1000.000,-946.777,89.844,-1000.000
1741597161.972,-35.645,405.273,510.742,-154.297
1741597161.973,999.512,999.512,830.566,984.375
1741597161.977,999.512,999.512,383.789,999.512
1741597161.981,677.734,408.203,192.383,637.207
1741597161.985,-666.504,-918.457,-211.914,-688.965
1741597161.989,-1000.000,-1000.000,83.008,-1000.000
1741597161.993,-277.832,-177.246,833.496,-298.828
1741597161.997,916.016,963.379,938.965,918.457
1741597162.000,999.512,999.512,563.477,999.512
1741597162.004,137.695,138.184,-340.332,52.246
1741597162.008,-1000.000,-1000.000,-525.879,-1000.000
1741597162.012,-1000.000,-1000.000,273.926,-1000.000
1741597162.016,-899.902,-908.691,639.160,-777.344
1741597161.973,999.512,999.512,830.566,984.375
1741597161.977,999.512,999.512,383.789,999.512
1741597161.981,677.734,408.203,192.383,637.207
1741597161.985,-666.504,-918.457,-211.914,-688.965
1741597161.989,-1000.000,-1000.000,83.008,-1000.000
1741597161.993,-277.832,-177.246,833.496,-298.828
1741597161.997,916.016,963.379,938.965,918.457
1741597162.000,999.512,999.512,563.477,999.512
1741597162.004,137.695,138.184,-340.332,52.246
1741597162.008,-1000.000,-1000.000,-525.879,-1000.000
1741597162.012,-1000.000,-1000.000,273.926,-1000.000
1741597162.016,-899.902,-908.691,639.160,-777.344
1741597162.018,393.066,368.164,800.293,571.289
1741597162.022,999.512,999.512,364.258,999.512
1741597162.026,-16.113,59.570,-613.770,-218.262
1741597162.030,-1000.000,-1000.000,-623.535,-1000.000
1741597162.034,-1000.000,-1000.000,-181.641,-1000.000
1741597162.038,-270.508,-179.199,183.594,-315.430
1741597162.042,999.512,968.262,536.621,999.512
1741597162.045,895.020,999.512,197.266,904.297
1741597162.049,999.512,599.121,187.500,999.512
1741597162.053,241.699,-783.203,226.074,243.164
1741597162.057,-1000.000,-1000.000,79.590,-1000.000
1741597162.061,-992.188,-941.895,317.383,-993.652
1741597162.018,393.066,368.164,800.293,571.289
1741597162.022,999.512,999.512,364.258,999.512
1741597162.026,-16.113,59.570,-613.770,-218.262
1741597162.030,-1000.000,-1000.000,-623.535,-1000.000
1741597162.034,-1000.000,-1000.000,-181.641,-1000.000
1741597162.038,-270.508,-179.199,183.594,-315.430
1741597162.042,999.512,968.262,536.621,999.512
1741597162.045,895.020,999.512,197.266,904.297
1741597162.049,999.512,599.121,187.500,999.512
1741597162.053,241.699,-783.203,226.074,243.164
1741597162.057,-1000.000,-1000.000,79.590,-1000.000
1741597162.061,-992.188,-941.895,317.383,-993.652
1741597162.063,-906.738,-951.172,287.598,-906.738
1741597162.067,-1000.000,-1000.000,213.867,-1000.000
1741597162.071,-238.281,-229.980,632.812,-242.676
1741597162.075,999.512,997.070,830.566,999.512
1741597162.079,999.512,999.512,292.480,970.703
1741597162.083,-117.676,-55.664,-575.684,-292.480
1741597162.087,-1000.000,-1000.000,-568.359,-1000.000
1741597162.090,-949.219,-926.270,-104.492,-941.895
1741597162.094,-1000.000,-980.469,66.406,-1000.000
1741597162.098,-931.152,-1000.000,-279.297,-929.199
1741597162.102,-1000.000,213.867,-737.793,-1000.000
1741597162.106,-359.863,999.512,-434.082,-416.504
1741597162.108,954.102,854.980,349.609,920.898
1741597162.112,960.938,999.512,557.617,984.375
1741597162.116,987.305,784.180,33.691,945.801
1741597162.120,-161.133,-527.832,-819.336,-213.867
1741597162.124,-1000.000,-1000.000,-810.547,-1000.000
1741597162.128,-158.691,-155.273,324.707,-158.691
1741597162.132,999.512,999.512,684.570,999.512
1741597162.135,875.977,913.574,-13.672,880.371
1741597162.139,999.512,999.512,-219.727,999.512
1741597162.143,533.691,62.988,73.242,557.129
1741597162.147,-1000.000,-1000.000,240.723,-1000.000
1741597162.151,-575.684,-489.258,605.957,-442.871
1741597162.108,954.102,854.980,349.609,920.898
1741597162.112,960.938,999.512,557.617,984.375
1741597162.116,987.305,784.180,33.691,945.801
1741597162.120,-161.133,-527.832,-819.336,-213.867
1741597162.124,-1000.000,-1000.000,-810.547,-1000.000
1741597162.128,-158.691,-155.273,324.707,-158.691
1741597162.132,999.512,999.512,684.570,999.512
1741597162.135,875.977,913.574,-13.672,880.371
1741597162.139,999.512,999.512,-219.727,999.512
1741597162.143,533.691,62.988,73.242,557.129
1741597162.147,-1000.000,-1000.000,240.723,-1000.000
1741597162.151,-575.684,-489.258,605.957,-442.871
1741597162.154,939.941,916.504,999.512,999.512
1741597162.158,995.117,999.512,583.496,969.727
1741597162.162,912.598,915.039,213.867,924.805
1741597162.166,986.328,984.863,674.316,985.352
1741597162.170,898.438,901.367,850.098,897.949
1741597162.174,999.512,999.512,999.512,999.512
1741597162.178,250.488,217.773,593.262,291.992
1741597162.181,-985.840,-998.535,-312.012,-958.496
1741597162.185,-1000.000,-1000.000,118.164,-1000.000
1741597162.189,-776.367,-791.992,702.637,-487.793
1741597162.193,601.074,584.961,931.152,864.258
1741597162.197,999.512,999.512,814.453,999.512
1741597162.154,939.941,916.504,999.512,999.512
1741597162.158,995.117,999.512,583.496,969.727
1741597162.162,912.598,915.039,213.867,924.805
1741597162.166,986.328,984.863,674.316,985.352
1741597162.170,898.438,901.367,850.098,897.949
1741597162.174,999.512,999.512,999.512,999.512
1741597162.178,250.488,217.773,593.262,291.992
1741597162.181,-985.840,-998.535,-312.012,-958.496
1741597162.185,-1000.000,-1000.000,118.164,-1000.000
1741597162.189,-776.367,-791.992,702.637,-487.793
1741597162.193,601.074,584.961,931.152,864.258
1741597162.197,999.512,999.512,814.453,999.512
1741597162.198,828.613,832.031,585.938,867.188
1741597162.202,999.512,999.512,829.590,999.512
1741597162.206,579.102,298.340,766.602,846.680
1741597162.210,-806.152,-956.543,230.957,-459.473
1741597162.214,-1000.000,-1000.000,-182.617,-1000.000
1741597162.218,-877.441,-330.566,182.617,-789.062
1741597162.222,428.711,984.863,884.277,536.621
1741597162.225,999.512,910.645,734.863,999.512
1741597162.229,984.863,999.512,409.668,981.445
1741597162.233,701.172,683.105,10.254,723.145
1741597162.237,-660.156,-671.875,-708.008,-637.695
1741597162.241,-1000.000,-1000.000,-250.977,-1000.000
1741597162.258,-385.254,-453.125,629.395,-235.840
1741597162.262,929.688,894.531,960.938,995.117
1741597162.266,989.746,999.512,664.551,963.867
1741597162.270,920.410,916.016,-97.656,933.594
1741597162.274,979.980,980.469,35.156,979.492
1741597162.278,903.320,906.738,448.242,900.879
1741597162.282,999.512,999.512,496.582,999.512
1741597162.285,171.875,142.578,-165.039,231.445
1741597162.289,-996.582,-1000.000,-1000.000,-984.863
1741597162.293,-1000.000,-1000.000,-518.066,-1000.000
1741597162.297,-533.203,-625.488,204.102,-320.801
1741597162.301,874.512,791.016,652.832,976.562
1741597162.258,-385.254,-453.125,629.395,-235.840
1741597162.262,929.688,894.531,960.938,995.117
1741597162.266,989.746,999.512,664.551,963.867
1741597162.270,920.410,916.016,-97.656,933.594
1741597162.274,979.980,980.469,35.156,979.492
1741597162.278,903.320,906.738,448.242,900.879
1741597162.282,999.512,999.512,496.582,999.512
1741597162.285,171.875,142.578,-165.039,231.445
1741597162.289,-996.582,-1000.000,-1000.000,-984.863
1741597162.293,-1000.000,-1000.000,-518.066,-1000.000
1741597162.297,-533.203,-625.488,204.102,-320.801
1741597162.301,874.512,791.016,652.832,976.562
1741597162.303,999.512,999.512,676.758,973.633
1741597162.307,923.828,914.062,164.062,930.664
1741597162.311,931.152,913.574,41.504,969.727
1741597162.315,999.512,999.512,253.906,916.992
1741597162.319,842.773,318.848,328.125,999.512
1741597162.323,-534.668,-1000.000,125.000,60.547
1741597162.327,-1000.000,-1000.000,-194.824,-1000.000
1741597162.330,-935.547,-965.332,-302.246,-968.262
1741597162.334,-1000.000,-996.582,-146.484,-989.258
1741597162.338,-937.500,-960.449,-119.141,-935.059
1741597162.342,-1000.000,-1000.000,-416.504,-1000.000
1741597162.346,-221.191,8.789,-300.781,-352.539
1741597162.303,999.512,999.512,676.758,973.633
1741597162.307,923.828,914.062,164.062,930.664
1741597162.311,931.152,913.574,41.504,969.727
1741597162.315,999.512,999.512,253.906,916.992
1741597162.319,842.773,318.848,328.125,999.512
1741597162.323,-534.668,-1000.000,125.000,60.547
1741597162.327,-1000.000,-1000.000,-194.824,-1000.000
1741597162.330,-935.547,-965.332,-302.246,-968.262
1741597162.334,-1000.000,-996.582,-146.484,-989.258
1741597162.338,-937.500,-960.449,-119.141,-935.059
1741597162.342,-1000.000,-1000.000,-416.504,-1000.000
1741597162.346,-221.191,8.789,-300.781,-352.539
1741597162.348,999.512,999.512,106.445,995.605
1741597162.352,925.781,896.973,38.086,932.129
1741597162.356,916.992,933.594,-226.562,950.684
1741597162.360,999.512,999.512,-467.773,920.898
1741597162.364,-182.617,-190.918,-844.727,-411.621
1741597162.368,-1000.000,-1000.000,-833.008,-1000.000
1741597162.372,-941.406,-951.172,-264.648,-937.988
1741597162.375,-999.023,-955.078,-227.051,-1000.000
1741597162.379,-938.477,-1000.000,-340.332,-930.176
1741597162.383,-1000.000,-913.574,-669.434,-1000.000
1741597162.387,-213.379,416.992,-714.355,-523.438
1741597162.391,999.512,999.512,-184.082,877.441
1741597162.348,999.512,999.512,106.445,995.605
1741597162.352,925.781,896.973,38.086,932.129
1741597162.356,916.992,933.594,-226.562,950.684
1741597162.360,999.512,999.512,-467.773,920.898
1741597162.364,-182.617,-190.918,-844.727,-411.621
1741597162.368,-1000.000,-1000.000,-833.008,-1000.000
1741597162.372,-941.406,-951.172,-264.648,-937.988
1741597162.375,-999.023,-955.078,-227.051,-1000.000
1741597162.379,-938.477,-1000.000,-340.332,-930.176
1741597162.383,-1000.000,-913.574,-669.434,-1000.000
1741597162.387,-213.379,416.992,-714.355,-523.438
1741597162.391,999.512,999.512,-184.082,877.441
1741597162.393,886.230,842.285,68.359,945.312
1741597162.397,999.512,999.512,-99.609,999.512
1741597162.401,192.383,189.941,-645.996,187.012
1741597162.405,-1000.000,-1000.000,-1000.000,-1000.000
1741597162.409,-1000.000,-1000.000,-757.812,-1000.000
1741597162.413,-268.555,-220.703,219.727,-266.602
1741597162.417,999.512,999.512,724.121,999.512
1741597162.420,516.602,511.230,-295.410,395.020
1741597162.424,-938.477,-927.734,-1000.000,-1000.000
1741597162.428,-978.027,-988.281,-804.199,-956.055
1741597162.432,-1000.000,-1000.000,-496.094,-1000.000
1741597162.436,-283.203,-188.477,61.035,-281.738
1741597162.393,886.230,842.285,68.359,945.312
1741597162.397,999.512,999.512,-99.609,999.512
1741597162.401,192.383,189.941,-645.996,187.012
1741597162.405,-1000.000,-1000.000,-1000.000,-1000.000
1741597162.409,-1000.000,-1000.000,-757.812,-1000.000
1741597162.413,-268.555,-220.703,219.727,-266.602
1741597162.417,999.512,999.512,724.121,999.512
1741597162.420,516.602,511.230,-295.410,395.020
1741597162.424,-938.477,-927.734,-1000.000,-1000.000
1741597162.428,-978.027,-988.281,-804.199,-956.055
1741597162.432,-1000.000,-1000.000,-496.094,-1000.000
1741597162.436,-283.203,-188.477,61.035,-281.738
1741597162.439,999.512,999.512,106.445,999.512
1741597162.443,878.906,863.770,-710.449,610.352
1741597162.447,-500.000,-485.840,-1000.000,-794.434
1741597162.451,-1000.000,-1000.000,-823.242,-999.023
1741597162.455,-1000.000,-1000.000,-632.324,-1000.000
1741597162.459,-229.980,-104.980,-497.559,-228.027
1741597162.463,999.512,999.512,-558.105,999.512
1741597162.466,956.055,863.281,-995.605,957.520
1741597162.470,870.605,999.512,-936.035,870.117
1741597162.474,999.512,405.273,-823.242,999.512
1741597162.478,283.203,-982.422,-957.031,329.102
1741597162.482,-967.285,-954.590,-1000.000,-949.219
1741597162.483,-1000.000,-1000.000,-900.391,-1000.000
1741597162.487,-259.277,-317.383,-111.328,-217.285
1741597162.491,999.512,999.512,439.453,994.629
1741597162.495,961.914,974.121,146.973,999.023
1741597162.499,933.105,860.840,-463.379,823.730
1741597162.503,977.539,999.512,-282.227,697.754
1741597162.507,953.613,383.301,529.785,942.383
1741597162.510,923.340,-991.699,402.832,942.871
1741597162.514,999.512,-1000.000,307.129,999.512
1741597162.518,56.152,-889.160,-3.418,58.105
1741597162.522,-1000.000,-1000.000,-83.984,-1000.000
1741597162.526,-485.840,-311.035,717.773,-460.938
1741597162.528,844.238,938.477,880.371,858.887
1741597162.532,999.512,999.512,396.973,999.512
1741597162.536,193.848,199.707,-417.480,195.312
1741597162.540,-993.164,-1000.000,-854.004,-1000.000
1741597162.544,-1000.000,-1000.000,-6.348,-1000.000
1741597162.548,-88.379,-37.109,837.891,-17.578
1741597162.552,999.512,999.512,914.062,999.512
1741597162.555,482.910,463.867,-15.625,403.320
1741597162.559,-847.656,-851.562,-969.727,-887.695
1741597162.563,-1000.000,-1000.000,-492.188,-1000.000
1741597162.567,-464.844,-499.023,395.996,-375.000
1741597162.571,809.570,791.016,806.152,860.840
1741597162.573,999.512,999.512,418.457,999.512
1741597162.577,559.082,562.012,-174.805,382.812
1741597162.581,-735.352,-727.051,-370.117,-860.840
1741597162.585,-1000.000,-1000.000,-109.863,-1000.000
1741597162.589,-615.723,-604.492,286.621,-487.793
1741597162.593,754.883,764.160,420.410,851.562
1741597162.597,999.512,999.512,-24.414,999.512
1741597162.600,871.582,844.727,-428.223,887.207
1741597162.604,980.957,999.512,88.379,972.168
1741597162.608,991.211,175.293,292.969,994.629
1741597162.612,-305.664,-1000.000,-376.953,-250.488
1741597162.616,-1000.000,-958.984,-483.887,-1000.000
1741597162.573,999.512,999.512,418.457,999.512
1741597162.577,559.082,562.012,-174.805,382.812
1741597162.581,-735.352,-727.051,-370.117,-860.840
1741597162.585,-1000.000,-1000.000,-109.863,-1000.000
1741597162.589,-615.723,-604.492,286.621,-487.793
1741597162.593,754.883,764.160,420.410,851.562
1741597162.597,999.512,999.512,-24.414,999.512
1741597162.600,871.582,844.727,-428.223,887.207
1741597162.604,980.957,999.512,88.379,972.168
1741597162.608,991.211,175.293,292.969,994.629
1741597162.612,-305.664,-1000.000,-376.953,-250.488
1741597162.616,-1000.000,-958.984,-483.887,-1000.000
1741597162.633,-914.551,-951.172,79.102,-965.820
1741597162.637,-1000.000,-1000.000,185.059,-924.805
1741597162.641,117.676,123.535,350.586,325.684
1741597162.645,999.512,999.512,237.305,999.512
1741597162.649,979.492,999.512,-371.582,756.836
1741597162.653,-195.312,-42.480,-549.316,-505.859
1741597162.657,-1000.000,-1000.000,-234.863,-1000.000
1741597162.660,-949.707,-955.566,-203.613,-952.148
1741597162.664,-927.734,-926.758,-399.902,-934.082
1741597162.668,-1000.000,-1000.000,-759.766,-1000.000
1741597162.672,-376.953,-225.586,-572.266,-427.734
1741597162.676,985.840,999.512,320.312,958.496
1741597162.633,-914.551,-951.172,79.102,-965.820
1741597162.637,-1000.000,-1000.000,185.059,-924.805
1741597162.641,117.676,123.535,350.586,325.684
1741597162.645,999.512,999.512,237.305,999.512
1741597162.649,979.492,999.512,-371.582,756.836
1741597162.653,-195.312,-42.480,-549.316,-505.859
1741597162.657,-1000.000,-1000.000,-234.863,-1000.000
1741597162.660,-949.707,-955.566,-203.613,-952.148
1741597162.664,-927.734,-926.758,-399.902,-934.082
1741597162.668,-1000.000,-1000.000,-759.766,-1000.000
1741597162.672,-376.953,-225.586,-572.266,-427.734
1741597162.676,985.840,999.512,320.312,958.496
1741597162.678,906.738,884.277,215.332,919.922
1741597162.682,999.512,999.512,-363.281,999.512
1741597162.686,320.312,273.438,-811.035,277.832
1741597162.690,-972.168,-993.164,-970.703,-995.605
1741597162.694,-1000.000,-1000.000,-584.473,-1000.000
1741597162.698,-145.508,-121.094,308.594,-105.469
1741597162.702,999.512,999.512,641.113,999.512
1741597162.705,957.520,866.211,-235.840,817.383
1741597162.709,-249.512,-381.836,-901.855,-446.289
1741597162.713,-1000.000,-1000.000,-600.098,-1000.000
1741597162.717,-365.234,-469.727,32.227,-277.832
1741597162.721,950.195,889.160,538.086,985.840
1741597162.678,906.738,884.277,215.332,919.922
1741597162.682,999.512,999.512,-363.281,999.512
1741597162.686,320.312,273.438,-811.035,277.832
1741597162.690,-972.168,-993.164,-970.703,-995.605
1741597162.694,-1000.000,-1000.000,-584.473,-1000.000
1741597162.698,-145.508,-121.094,308.594,-105.469
1741597162.702,999.512,999.512,641.113,999.512
1741597162.705,957.520,866.211,-235.840,817.383
1741597162.709,-249.512,-381.836,-901.855,-446.289
1741597162.713,-1000.000,-1000.000,-600.098,-1000.000
1741597162.717,-365.234,-469.727,32.227,-277.832
1741597162.721,950.195,889.160,538.086,985.840
1741597162.723,986.328,999.512,6.348,973.633
1741597162.727,922.852,850.098,-544.922,835.449
1741597162.731,916.016,999.512,144.043,854.980
1741597162.735,999.512,222.168,541.992,999.512
1741597162.739,187.012,-1000.000,158.691,224.609
1741597162.743,-1000.000,-990.234,-309.570,-1000.000
1741597162.747,-983.887,-970.215,-222.168,-991.211
1741597162.750,-973.145,-1000.000,-28.809,-969.727
1741597162.754,-1000.000,-1000.000,-76.660,-1000.000
1741597162.758,-991.211,-962.891,15.137,-994.629
1741597162.762,-952.148,-1000.000,-250.977,-946.777
1741597162.766,-1000.000,-979.492,-644.043,-1000.000
1741597162.723,986.328,999.512,6.348,973.633
1741597162.727,922.852,850.098,-544.922,835.449
1741597162.731,916.016,999.512,144.043,854.980
1741597162.735,999.512,222.168,541.992,999.512
1741597162.739,187.012,-1000.000,158.691,224.609
1741597162.743,-1000.000,-990.234,-309.570,-1000.000
1741597162.747,-983.887,-970.215,-222.168,-991.211
1741597162.750,-973.145,-1000.000,-28.809,-969.727
1741597162.754,-1000.000,-1000.000,-76.660,-1000.000
1741597162.758,-991.211,-962.891,15.137,-994.629
1741597162.762,-952.148,-1000.000,-250.977,-946.777
1741597162.766,-1000.000,-979.492,-644.043,-1000.000
1741597162.768,-58.594,329.102,52.246,-114.258
1741597162.772,999.512,999.512,663.574,999.512
1741597162.776,900.391,869.141,160.645,931.641
1741597162.780,999.512,999.512,-340.820,974.121
1741597162.784,-134.277,-83.008,-828.125,-255.371
1741597162.788,-1000.000,-1000.000,-786.621,-1000.000
1741597162.792,-944.824,-950.195,-204.590,-941.406
1741597162.795,-998.535,-997.559,-248.047,-1000.000
1741597162.799,-987.305,-979.492,-696.289,-988.281
1741597162.803,-959.473,-976.074,-1000.000,-958.008
1741597162.807,-1000.000,-1000.000,-835.449,-1000.000
1741597162.811,5.859,120.117,171.387,-17.578
1741597162.768,-58.594,329.102,52.246,-114.258
1741597162.772,999.512,999.512,663.574,999.512
1741597162.776,900.391,869.141,160.645,931.641
1741597162.780,999.512,999.512,-340.820,974.121
1741597162.784,-134.277,-83.008,-828.125,-255.371
1741597162.788,-1000.000,-1000.000,-786.621,-1000.000
1741597162.792,-944.824,-950.195,-204.590,-941.406
1741597162.795,-998.535,-997.559,-248.047,-1000.000
1741597162.799,-987.305,-979.492,-696.289,-988.281
1741597162.803,-959.473,-976.074,-1000.000,-958.008
1741597162.807,-1000.000,-1000.000,-835.449,-1000.000
1741597162.811,5.859,120.117,171.387,-17.578
1741597162.813,999.512,999.512,470.215,999.512
1741597162.817,999.512,999.512,-489.258,999.512
1741597162.821,176.758,194.824,-977.539,102.539
1741597162.825,-1000.000,-1000.000,-904.297,-1000.000
1741597162.829,-1000.000,-1000.000,-594.727,-1000.000
1741597162.833,-242.188,-73.730,64.941,-209.961
1741597162.837,999.512,999.512,210.449,999.512
1741597162.840,341.797,311.523,-620.605,270.508
1741597162.844,-1000.000,-1000.000,-1000.000,-1000.000
1741597162.848,-1000.000,-1000.000,-773.926,-996.582
1741597162.852,-966.309,-956.543,-387.695,-975.098
1741597162.856,-941.406,-954.590,-441.406,-937.500
1741597162.858,-1000.000,-1000.000,-875.488,-1000.000
1741597162.862,-358.887,-161.621,-837.891,-445.801
1741597162.866,992.676,999.512,-350.586,953.125
1741597162.870,944.824,919.434,-313.477,944.336
1741597162.874,915.527,921.387,-495.605,958.984
1741597162.878,999.512,999.512,-685.059,864.746
1741597162.882,-238.770,-173.340,-884.766,-490.723
1741597162.885,-1000.000,-1000.000,-961.914,-1000.000
1741597162.889,-941.406,-924.805,-422.852,-942.383
1741597162.893,-935.059,-965.332,-199.219,-917.480
1741597162.897,-1000.000,-1000.000,-842.773,-1000.000
1741597162.901,-272.949,69.336,-746.094,-394.531
1741597162.858,-1000.000,-1000.000,-875.488,-1000.000
1741597162.862,-358.887,-161.621,-837.891,-445.801
1741597162.866,992.676,999.512,-350.586,953.125
1741597162.870,944.824,919.434,-313.477,944.336
1741597162.874,915.527,921.387,-495.605,958.984
1741597162.878,999.512,999.512,-685.059,864.746
1741597162.882,-238.770,-173.340,-884.766,-490.723
1741597162.885,-1000.000,-1000.000,-961.914,-1000.000
1741597162.889,-941.406,-924.805,-422.852,-942.383
1741597162.893,-935.059,-965.332,-199.219,-917.480
1741597162.897,-1000.000,-1000.000,-842.773,-1000.000
1741597162.901,-272.949,69.336,-746.094,-394.531
1741597162.918,999.512,999.512,17.090,952.637
1741597162.922,914.551,999.512,64.941,946.289
1741597162.926,999.512,452.148,-240.723,999.512
1741597162.930,28.809,-867.188,-733.398,-24.902
1741597162.934,-1000.000,-1000.000,-1000.000,-1000.000
1741597162.938,-1000.000,-645.508,-732.910,-985.840
1741597162.942,173.340,650.391,-9.277,164.551
1741597162.945,999.512,999.512,-196.289,999.512
1741597162.949,781.738,754.883,-870.605,645.996
1741597162.953,-458.008,-491.699,-993.652,-616.211
1741597162.957,-1000.000,-1000.000,-986.816,-1000.000
1741597162.961,-355.957,-270.508,-319.336,-337.891
1741597162.965,-996.582,-999.512,-959.961,-1000.000
1741597162.969,-1000.000,-1000.000,-750.000,-1000.000
1741597162.973,-255.859,-247.559,-91.797,-261.230
1741597162.977,999.512,999.512,219.238,999.512
1741597162.980,720.703,713.379,-611.328,553.223
1741597162.984,-718.750,-713.379,-1000.000,-861.816
1741597162.988,-1000.000,-1000.000,-635.742,-991.699
1741597162.992,-1000.000,-1000.000,-265.625,-1000.000
1741597162.996,-212.402,-64.453,14.648,-180.664
1741597162.965,-996.582,-999.512,-959.961,-1000.000
1741597162.969,-1000.000,-1000.000,-750.000,-1000.000
1741597162.973,-255.859,-247.559,-91.797,-261.230
1741597162.977,999.512,999.512,219.238,999.512
1741597162.980,720.703,713.379,-611.328,553.223
1741597162.984,-718.750,-713.379,-1000.000,-861.816
1741597162.988,-1000.000,-1000.000,-635.742,-991.699
1741597162.992,-1000.000,-1000.000,-265.625,-1000.000
1741597162.996,-212.402,-64.453,14.648,-180.664
1741597163.008,999.512,999.512,-269.043,999.512
1741597163.012,930.664,926.758,-640.137,930.664
1741597163.016,904.297,949.219,-442.871,903.809
1741597163.020,999.512,-251.465,-567.871,999.512
1741597163.024,-71.777,-1000.000,-813.965,-10.742
1741597163.028,-1000.000,-949.219,-906.250,-1000.000
1741597163.032,-888.672,-935.059,-627.441,-904.297
1741597163.035,-1000.000,-1000.000,-520.020,-1000.000
1741597163.039,-222.656,-220.703,-144.043,-178.711
1741597163.043,999.512,999.512,86.426,999.512
1741597163.047,949.707,950.684,-455.078,944.824
1741597163.051,946.289,952.637,-451.660,949.707
1741597163.053,943.359,919.922,311.035,945.312
1741597163.057,956.055,999.512,677.734,952.637
1741597163.061,999.512,808.105,485.840,999.512
1741597163.065,-252.930,-583.496,-442.383,-221.680
1741597163.069,-1000.000,-1000.000,-827.637,-1000.000
1741597163.073,-937.012,-935.547,-72.754,-940.430
1741597163.077,-1000.000,-1000.000,17.090,-1000.000
1741597163.080,-986.328,-965.820,-301.270,-989.746
1741597163.084,-959.961,-1000.000,-558.594,-955.566
1741597163.088,-1000.000,-1000.000,-733.887,-1000.000
1741597163.092,14.160,294.922,-168.457,-24.414
1741597163.096,999.512,999.512,484.863,999.512
1741597163.053,943.359,919.922,311.035,945.312
1741597163.057,956.055,999.512,677.734,952.637
1741597163.061,999.512,808.105,485.840,999.512
1741597163.065,-252.930,-583.496,-442.383,-221.680
1741597163.069,-1000.000,-1000.000,-827.637,-1000.000
1741597163.073,-937.012,-935.547,-72.754,-940.430
1741597163.077,-1000.000,-1000.000,17.090,-1000.000
1741597163.080,-986.328,-965.820,-301.270,-989.746
1741597163.084,-959.961,-1000.000,-558.594,-955.566
1741597163.088,-1000.000,-1000.000,-733.887,-1000.000
1741597163.092,14.160,294.922,-168.457,-24.414
1741597163.096,999.512,999.512,484.863,999.512
1741597163.098,897.461,912.109,158.203,927.246
1741597163.102,999.512,956.055,-583.496,949.219
1741597163.106,-116.211,-278.320,-984.863,-233.398
1741597163.110,-1000.000,-1000.000,-797.363,-1000.000
1741597163.114,-734.863,-726.074,-275.391,-564.453
1741597163.118,541.992,538.574,224.121,700.195
1741597163.122,999.512,999.512,-8.789,999.512
1741597163.125,551.758,508.301,-788.086,468.262
1741597163.129,-820.801,-857.422,-1000.000,-874.023
1741597163.133,-999.023,-990.234,-907.715,-985.352
1741597163.137,-1000.000,-1000.000,-660.156,-1000.000
1741597163.141,-291.504,-289.062,-472.168,-236.816
1741597163.145,999.512,999.512,-542.969,999.512
1741597163.149,963.867,964.355,-640.625,958.496
1741597163.153,913.086,913.086,-553.223,911.621
1741597163.157,947.266,952.637,-525.391,963.379
1741597163.161,999.512,999.512,-724.609,999.512
1741597163.165,-158.691,-168.945,-1000.000,-242.188
1741597163.169,-1000.000,-1000.000,-909.668,-1000.000
1741597163.172,-1000.000,-1000.000,-896.973,-1000.000
1741597163.176,-736.816,-505.859,-809.570,-704.102
1741597163.180,696.289,916.992,-555.664,723.633
1741597163.184,999.512,958.496,-914.551,999.512
1741597163.188,917.969,948.730,-803.711,919.922
1741597163.145,999.512,999.512,-542.969,999.512
1741597163.149,963.867,964.355,-640.625,958.496
1741597163.153,913.086,913.086,-553.223,911.621
1741597163.157,947.266,952.637,-525.391,963.379
1741597163.161,999.512,999.512,-724.609,999.512
1741597163.165,-158.691,-168.945,-1000.000,-242.188
1741597163.169,-1000.000,-1000.000,-909.668,-1000.000
1741597163.172,-1000.000,-1000.000,-896.973,-1000.000
1741597163.176,-736.816,-505.859,-809.570,-704.102
1741597163.180,696.289,916.992,-555.664,723.633
1741597163.184,999.512,958.496,-914.551,999.512
1741597163.188,917.969,948.730,-803.711,919.922
1741597163.188,911.133,888.672,-464.844,915.039
1741597163.192,999.512,-466.797,-492.676,999.512
1741597163.196,616.699,-1000.000,-528.809,626.465
1741597163.200,-738.770,-868.652,-836.426,-709.961
1741597163.204,-1000.000,-1000.000,-843.750,-1000.000
1741597163.208,-526.367,-337.402,-251.465,-556.152
1741597163.212,781.738,930.664,184.570,748.535
1741597163.215,999.512,999.512,-485.352,999.512
1741597163.219,129.395,156.250,-1000.000,108.887
1741597163.223,-992.676,-1000.000,-970.703,-1000.000
1741597163.227,-1000.000,-1000.000,-961.914,-1000.000
1741597163.231,-266.113,-159.668,30.762,-245.605
1741597163.188,911.133,888.672,-464.844,915.039
1741597163.192,999.512,-466.797,-492.676,999.512
1741597163.196,616.699,-1000.000,-528.809,626.465
1741597163.200,-738.770,-868.652,-836.426,-709.961
1741597163.204,-1000.000,-1000.000,-843.750,-1000.000
1741597163.208,-526.367,-337.402,-251.465,-556.152
1741597163.212,781.738,930.664,184.570,748.535
1741597163.215,999.512,999.512,-485.352,999.512
1741597163.219,129.395,156.250,-1000.000,108.887
1741597163.223,-992.676,-1000.000,-970.703,-1000.000
1741597163.227,-1000.000,-1000.000,-961.914,-1000.000
1741597163.231,-266.113,-159.668,30.762,-245.605
1741597163.248,999.512,999.512,449.707,999.512
1741597163.252,350.098,372.070,-634.766,267.090
1741597163.256,-1000.000,-991.211,-1000.000,-1000.000
1741597163.260,-945.312,-973.633,-808.594,-932.617
1741597163.264,-1000.000,-1000.000,-437.012,-1000.000
1741597163.268,-307.129,-105.469,-208.008,-292.480
1741597163.272,999.512,999.512,-184.082,999.512
1741597163.275,471.191,190.430,-561.035,508.789
1741597163.279,-974.121,-1000.000,-958.496,-937.012
1741597163.283,-997.070,-923.828,-944.824,-1000.000
1741597163.287,-950.195,-1000.000,-1000.000,-940.918
1741597163.291,-1000.000,-711.426,-731.445,-1000.000
1741597163.248,999.512,999.512,449.707,999.512
1741597163.252,350.098,372.070,-634.766,267.090
1741597163.256,-1000.000,-991.211,-1000.000,-1000.000
1741597163.260,-945.312,-973.633,-808.594,-932.617
1741597163.264,-1000.000,-1000.000,-437.012,-1000.000
1741597163.268,-307.129,-105.469,-208.008,-292.480
1741597163.272,999.512,999.512,-184.082,999.512
1741597163.275,471.191,190.430,-561.035,508.789
1741597163.279,-974.121,-1000.000,-958.496,-937.012
1741597163.283,-997.070,-923.828,-944.824,-1000.000
1741597163.287,-950.195,-1000.000,-1000.000,-940.918
1741597163.291,-1000.000,-711.426,-731.445,-1000.000
1741597163.293,261.230,699.219,70.312,204.102
1741597163.297,999.512,999.512,-26.855,999.512
1741597163.301,989.746,999.512,-463.867,896.484
1741597163.305,-63.477,-21.484,-853.516,-248.047
1741597163.309,-1000.000,-1000.000,-905.273,-1000.000
1741597163.313,-271.484,-195.312,140.137,-286.133
1741597163.317,980.957,999.512,969.238,990.723
1741597163.320,999.512,999.512,173.828,999.512
1741597163.324,-150.391,-131.348,-870.605,-262.695
1741597163.328,-1000.000,-1000.000,-811.035,-1000.000
1741597163.332,-1000.000,-1000.000,-166.016,-1000.000
1741597163.336,-200.195,-189.941,318.359,-50.293
1741597163.293,261.230,699.219,70.312,204.102
1741597163.297,999.512,999.512,-26.855,999.512
1741597163.301,989.746,999.512,-463.867,896.484
1741597163.305,-63.477,-21.484,-853.516,-248.047
1741597163.309,-1000.000,-1000.000,-905.273,-1000.000
1741597163.313,-271.484,-195.312,140.137,-286.133
1741597163.317,980.957,999.512,969.238,990.723
1741597163.320,999.512,999.512,173.828,999.512
1741597163.324,-150.391,-131.348,-870.605,-262.695
1741597163.328,-1000.000,-1000.000,-811.035,-1000.000
1741597163.332,-1000.000,-1000.000,-166.016,-1000.000
1741597163.336,-200.195,-189.941,318.359,-50.293
1741597163.339,999.512,999.512,290.039,999.512
1741597163.343,956.543,946.777,-309.082,945.801
1741597163.347,868.652,880.371,-190.430,878.418
1741597163.351,999.512,999.512,202.148,999.512
1741597163.355,358.398,168.945,-52.246,520.996
1741597163.359,-1000.000,-1000.000,-208.984,-912.109
1741597163.363,-989.258,-956.055,-104.980,-1000.000
1741597163.366,-937.012,-955.566,29.785,-959.961
1741597163.370,-1000.000,-1000.000,119.141,-976.562
1741597163.374,114.746,132.812,592.285,286.133
1741597163.378,999.512,999.512,739.746,999.512
1741597163.382,954.102,943.359,-102.051,803.223
1741597163.383,-267.578,-281.738,-773.438,-474.609
1741597163.387,-1000.000,-1000.000,-610.840,-1000.000
1741597163.391,-934.082,-864.746,-14.160,-937.988
1741597163.395,-944.336,-1000.000,-163.574,-945.801
1741597163.399,-1000.000,-420.410,-690.430,-1000.000
1741597163.403,-155.762,964.844,-282.227,-200.195
1741597163.407,989.746,914.551,378.906,982.422
1741597163.410,999.512,999.512,-14.648,999.512
1741597163.414,741.211,379.395,-478.027,745.117
1741597163.418,-651.855,-999.512,-861.816,-628.906
1741597163.422,-1000.000,-952.637,-878.418,-1000.000
1741597163.426,-1000.000,-1000.000,-319.336,-1000.000
1741597163.428,-233.398,-230.957,325.195,-228.027
1741597163.432,974.609,975.098,760.254,980.469
1741597163.436,999.512,999.512,412.109,999.512
1741597163.440,230.957,244.629,-143.555,197.266
1741597163.444,-1000.000,-1000.000,-257.812,-1000.000
1741597163.448,-639.648,-492.676,360.352,-620.117
1741597163.452,777.832,893.555,999.512,804.199
1741597163.455,999.512,999.512,687.988,999.512
1741597163.459,-11.230,-16.113,-533.203,-133.789
1741597163.463,-1000.000,-1000.000,-593.750,-1000.000
1741597163.467,-968.750,-976.562,-6.348,-956.055
1741597163.471,-965.332,-925.293,-133.301,-980.469
1741597163.428,-233.398,-230.957,325.195,-228.027
1741597163.432,974.609,975.098,760.254,980.469
1741597163.436,999.512,999.512,412.109,999.512
1741597163.440,230.957,244.629,-143.555,197.266
1741597163.444,-1000.000,-1000.000,-257.812,-1000.000
1741597163.448,-639.648,-492.676,360.352,-620.117
1741597163.452,777.832,893.555,999.512,804.199
1741597163.455,999.512,999.512,687.988,999.512
1741597163.459,-11.230,-16.113,-533.203,-133.789
1741597163.463,-1000.000,-1000.000,-593.750,-1000.000
1741597163.467,-968.750,-976.562,-6.348,-956.055
1741597163.471,-965.332,-925.293,-133.301,-980.469
1741597163.473,-970.703,-1000.000,-375.488,-956.543
1741597163.477,-1000.000,-774.414,-653.809,-1000.000
1741597163.481,64.453,633.301,-121.094,-43.945
1741597163.485,999.512,999.512,372.070,999.512
1741597163.489,842.773,833.008,-4.395,859.863
1741597163.493,999.512,999.512,-129.395,999.512
1741597163.497,341.309,333.984,-454.590,269.531
1741597163.500,-937.988,-944.336,-844.238,-968.750
1741597163.504,-1000.000,-1000.000,-538.574,-1000.000
1741597163.508,-351.074,-289.551,147.949,-326.172
1741597163.512,927.734,910.156,636.230,935.059
1741597163.516,972.656,999.512,70.801,982.910
1741597163.473,-970.703,-1000.000,-375.488,-956.543
1741597163.477,-1000.000,-774.414,-653.809,-1000.000
1741597163.481,64.453,633.301,-121.094,-43.945
1741597163.485,999.512,999.512,372.070,999.512
1741597163.489,842.773,833.008,-4.395,859.863
1741597163.493,999.512,999.512,-129.395,999.512
1741597163.497,341.309,333.984,-454.590,269.531
1741597163.500,-937.988,-944.336,-844.238,-968.750
1741597163.504,-1000.000,-1000.000,-538.574,-1000.000
1741597163.508,-351.074,-289.551,147.949,-326.172
1741597163.512,927.734,910.156,636.230,935.059
1741597163.516,972.656,999.512,70.801,982.910
1741597163.518,970.215,452.148,-135.254,919.922
1741597163.522,-253.418,-911.133,50.293,-320.312
1741597163.526,-1000.000,-1000.000,195.801,-1000.000
1741597163.530,-867.676,-894.043,128.906,-868.164
1741597163.534,-1000.000,-1000.000,-442.871,-1000.000
1741597163.538,-321.777,-136.230,-187.012,-375.000
1741597163.542,922.363,989.746,541.504,902.344
1741597163.545,999.512,999.512,226.074,999.512
1741597163.549,541.016,245.117,-327.148,581.055
1741597163.553,-849.121,-1000.000,-557.129,-785.645
1741597163.557,-1000.000,-957.520,-411.133,-1000.000
1741597163.561,-1000.000,-1000.000,-108.398,-1000.000
1741597163.518,970.215,452.148,-135.254,919.922
1741597163.522,-253.418,-911.133,50.293,-320.312
1741597163.526,-1000.000,-1000.000,195.801,-1000.000
1741597163.530,-867.676,-894.043,128.906,-868.164
1741597163.534,-1000.000,-1000.000,-442.871,-1000.000
1741597163.538,-321.777,-136.230,-187.012,-375.000
1741597163.542,922.363,989.746,541.504,902.344
1741597163.545,999.512,999.512,226.074,999.512
1741597163.549,541.016,245.117,-327.148,581.055
1741597163.553,-849.121,-1000.000,-557.129,-785.645
1741597163.557,-1000.000,-957.520,-411.133,-1000.000
1741597163.561,-1000.000,-1000.000,-108.398,-1000.000
1741597163.578,-105.469,-6.348,378.418,-42.969
1741597163.582,999.512,999.512,487.305,999.512
1741597163.586,999.512,999.512,70.312,999.512
1741597163.590,187.012,202.148,-300.293,143.555
1741597163.594,-1000.000,-1000.000,-362.305,-1000.000
1741597163.598,-1000.000,-1000.000,149.902,-969.727
1741597163.602,29.297,140.625,539.062,262.207
1741597163.605,999.512,999.512,48.828,999.512
1741597163.609,134.766,140.137,-823.242,-10.742
1741597163.613,-1000.000,-1000.000,-596.191,-1000.000
1741597163.617,-920.898,-974.121,178.223,-706.543
1741597163.621,437.988,352.051,525.391,617.188
1741597163.578,-105.469,-6.348,378.418,-42.969
1741597163.582,999.512,999.512,487.305,999.512
1741597163.586,999.512,999.512,70.312,999.512
1741597163.590,187.012,202.148,-300.293,143.555
1741597163.594,-1000.000,-1000.000,-362.305,-1000.000
1741597163.598,-1000.000,-1000.000,149.902,-969.727
1741597163.602,29.297,140.625,539.062,262.207
1741597163.605,999.512,999.512,48.828,999.512
1741597163.609,134.766,140.137,-823.242,-10.742
1741597163.613,-1000.000,-1000.000,-596.191,-1000.000
1741597163.617,-920.898,-974.121,178.223,-706.543
1741597163.621,437.988,352.051,525.391,617.188
1741597163.624,999.512,999.512,154.297,999.512
1741597163.628,911.133,903.320,-420.898,728.516
1741597163.632,901.367,908.691,-17.090,178.711
1741597163.636,999.512,999.512,479.004,883.301
1741597163.640,427.734,208.984,180.664,598.633
1741597163.644,-984.863,-1000.000,-388.672,-953.613
1741597163.648,-974.121,-938.965,-540.039,-977.051
1741597163.651,-1000.000,-1000.000,-413.086,-1000.000
1741597163.655,-888.184,-916.016,11.719,-729.980
1741597163.659,519.531,470.703,764.160,684.082
1741597163.663,999.512,999.512,761.230,995.117
1741597163.667,999.512,999.512,126.465,999.512
1741597163.668,198.242,197.266,-232.422,97.168
1741597163.672,-1000.000,-1000.000,-310.547,-1000.000
1741597163.676,-984.863,-983.887,-43.457,-976.562
1741597163.680,-910.156,-911.621,-120.605,-914.551
1741597163.684,-1000.000,-1000.000,-686.523,-1000.000
1741597163.688,-205.566,-193.359,-222.168,-238.770
1741597163.692,972.168,970.703,846.680,963.867
1741597163.695,999.512,999.512,464.844,999.512
1741597163.699,661.621,360.840,-363.281,671.875
1741597163.703,-687.012,-942.871,-926.758,-652.344
1741597163.707,-1000.000,-1000.000,-554.688,-1000.000
1741597163.711,-870.117,-948.730,199.219,-753.418
1741597163.668,198.242,197.266,-232.422,97.168
1741597163.672,-1000.000,-1000.000,-310.547,-1000.000
1741597163.676,-984.863,-983.887,-43.457,-976.562
1741597163.680,-910.156,-911.621,-120.605,-914.551
1741597163.684,-1000.000,-1000.000,-686.523,-1000.000
1741597163.688,-205.566,-193.359,-222.168,-238.770
1741597163.692,972.168,970.703,846.680,963.867
1741597163.695,999.512,999.512,464.844,999.512
1741597163.699,661.621,360.840,-363.281,671.875
1741597163.703,-687.012,-942.871,-926.758,-652.344
1741597163.707,-1000.000,-1000.000,-554.688,-1000.000
1741597163.711,-870.117,-948.730,199.219,-753.418
1741597163.728,322.266,220.703,539.551,469.238
1741597163.732,999.512,999.512,270.508,999.512
1741597163.736,551.758,590.820,-506.836,428.711
1741597163.740,-773.926,-746.094,-865.723,-860.352
1741597163.744,-1000.000,-1000.000,-366.211,-1000.000
1741597163.748,-70.801,-40.039,587.891,-46.875
1741597163.752,999.512,999.512,999.512,999.512
1741597163.755,976.074,923.828,532.715,921.875
1741597163.759,-218.750,-339.355,-342.285,-318.359
1741597163.763,-1000.000,-1000.000,130.859,-1000.000
1741597163.767,-952.637,-953.125,756.348,-947.754
1741597163.771,-973.145,-948.730,549.316,-981.445
1741597163.758,-979.004,-1000.000,25.391,-970.703
1741597163.762,-1000.000,-833.496,-241.211,-1000.000
1741597163.766,142.090,554.688,539.062,84.473
1741597163.770,999.512,999.512,925.781,999.512
1741597163.774,845.703,840.332,639.648,866.699
1741597163.778,999.512,999.512,408.691,999.512
1741597163.782,179.688,176.270,-193.359,48.340
1741597163.785,-1000.000,-1000.000,-416.504,-1000.000
1741597163.789,-937.012,-1000.000,-62.500,-923.340
1741597163.793,-1000.000,-890.625,-38.086,-1000.000
1741597163.797,-48.828,418.457,-26.855,-44.922
1741597163.801,999.512,999.512,-525.879,999.512
1741597163.803,929.199,852.539,-1000.000,931.152
1741597163.807,887.207,853.516,-605.469,886.230
1741597163.811,999.512,999.512,-409.180,999.512
