timestamps,TP9,AF7,AF8,TP10
1742469376.531,341.309,653.809,-91.309,253.418
1742469376.535,999.512,240.234,80.078,999.512
1742469376.539,519.531,-299.316,165.039,358.887
1742469376.543,-840.332,-474.121,92.285,-872.070
1742469376.547,-1000.000,-153.809,-158.203,-1000.000
1742469376.551,133.789,605.469,-8.301,-1.465
1742469376.555,999.512,523.926,412.598,999.512
1742469376.558,-44.922,-637.207,279.297,-46.875
1742469376.562,-1000.000,-605.469,-44.922,-1000.000
1742469376.566,-380.859,339.844,-214.355,-249.023
1742469376.570,999.512,518.066,-172.852,999.512
1742469376.574,889.648,-133.301,29.297,775.391
1742469376.577,-715.820,-736.816,53.223,-769.531
1742469376.581,-1000.000,-231.934,-118.164,-1000.000
1742469376.585,774.902,826.660,-146.973,682.617
1742469376.589,516.602,-152.832,-157.227,320.801
1742469376.593,-984.375,-642.578,-171.387,-1000.000
1742469376.597,571.289,799.316,51.758,591.309
1742469376.601,999.512,323.242,219.238,947.266
1742469376.604,-645.508,-763.672,-89.355,-716.309
1742469376.608,-1000.000,-514.160,-503.418,-1000.000
1742469376.612,-171.875,219.727,-475.098,-136.230
1742469376.616,999.512,600.098,-139.648,999.512
1742469376.620,713.867,-129.395,-120.605,628.906
1742469376.577,-715.820,-736.816,53.223,-769.531
1742469376.581,-1000.000,-231.934,-118.164,-1000.000
1742469376.585,774.902,826.660,-146.973,682.617
1742469376.589,516.602,-152.832,-157.227,320.801
1742469376.593,-984.375,-642.578,-171.387,-1000.000
1742469376.597,571.289,799.316,51.758,591.309
1742469376.601,999.512,323.242,219.238,947.266
1742469376.604,-645.508,-763.672,-89.355,-716.309
1742469376.608,-1000.000,-514.160,-503.418,-1000.000
1742469376.612,-171.875,219.727,-475.098,-136.230
1742469376.616,999.512,600.098,-139.648,999.512
1742469376.620,713.867,-129.395,-120.605,628.906
1742469376.622,-855.469,-695.312,-425.293,-863.770
1742469376.626,-1000.000,-182.129,-629.883,-1000.000
1742469376.630,519.531,696.777,-429.688,487.305
1742469376.634,999.512,408.691,-130.371,999.512
1742469376.638,-82.031,-457.520,-72.266,-160.156
1742469376.642,-1000.000,-476.562,-293.457,-1000.000
1742469376.646,-890.137,265.137,-384.277,-852.539
1742469376.649,614.258,564.941,-328.613,644.043
1742469376.653,999.512,-45.410,-334.473,999.512
1742469376.657,-644.043,-798.340,-327.637,-636.719
1742469376.661,-1000.000,-239.258,-413.574,-1000.000
1742469376.665,598.633,806.152,-461.914,607.910
1742469376.622,-855.469,-695.312,-425.293,-863.770
1742469376.626,-1000.000,-182.129,-629.883,-1000.000
1742469376.630,519.531,696.777,-429.688,487.305
1742469376.634,999.512,408.691,-130.371,999.512
1742469376.638,-82.031,-457.520,-72.266,-160.156
1742469376.642,-1000.000,-476.562,-293.457,-1000.000
1742469376.646,-890.137,265.137,-384.277,-852.539
1742469376.649,614.258,564.941,-328.613,644.043
1742469376.653,999.512,-45.410,-334.473,999.512
1742469376.657,-644.043,-798.340,-327.637,-636.719
1742469376.661,-1000.000,-239.258,-413.574,-1000.000
1742469376.665,598.633,806.152,-461.914,607.910
1742469376.666,999.512,261.719,-282.715,999.512
1742469376.670,-647.461,-855.957,-102.051,-694.336
1742469376.674,-796.387,-26.855,-60.547,-622.070
1742469376.678,880.371,643.555,-50.293,925.293
1742469376.682,-517.090,-690.430,-165.039,-555.664
1742469376.686,-925.293,-0.977,-48.828,-833.496
1742469376.690,992.188,810.547,246.094,998.047
1742469376.693,734.375,-184.570,213.379,631.836
1742469376.697,-846.680,-766.113,-42.480,-859.863
1742469376.701,-1000.000,-435.059,-497.559,-1000.000
1742469376.705,113.281,445.312,-469.727,73.730
1742469376.709,999.512,473.633,14.160,999.512
1742469376.666,999.512,261.719,-282.715,999.512
1742469376.670,-647.461,-855.957,-102.051,-694.336
1742469376.674,-796.387,-26.855,-60.547,-622.070
1742469376.678,880.371,643.555,-50.293,925.293
1742469376.682,-517.090,-690.430,-165.039,-555.664
1742469376.686,-925.293,-0.977,-48.828,-833.496
1742469376.690,992.188,810.547,246.094,998.047
1742469376.693,734.375,-184.570,213.379,631.836
1742469376.697,-846.680,-766.113,-42.480,-859.863
1742469376.701,-1000.000,-435.059,-497.559,-1000.000
1742469376.705,113.281,445.312,-469.727,73.730
1742469376.709,999.512,473.633,14.160,999.512
1742469376.710,949.219,2.441,211.914,977.539
1742469376.714,-244.629,-542.969,53.711,-140.625
1742469376.718,-1000.000,-519.043,-266.602,-1000.000
1742469376.722,-355.469,353.516,-255.371,-264.160
1742469376.726,875.977,498.535,52.246,909.180
1742469376.730,999.512,384.766,302.246,999.512
1742469376.734,173.828,-182.617,307.617,169.922
1742469376.737,-1000.000,-853.027,-300.781,-1000.000
1742469376.741,-791.504,16.602,-466.309,-718.262
1742469376.745,815.918,886.719,62.500,859.375
1742469376.749,903.809,-22.461,217.773,840.820
1742469376.753,-629.395,-759.766,-67.871,-666.992
1742469376.710,949.219,2.441,211.914,977.539
1742469376.714,-244.629,-542.969,53.711,-140.625
1742469376.718,-1000.000,-519.043,-266.602,-1000.000
1742469376.722,-355.469,353.516,-255.371,-264.160
1742469376.726,875.977,498.535,52.246,909.180
1742469376.730,999.512,384.766,302.246,999.512
1742469376.734,173.828,-182.617,307.617,169.922
1742469376.737,-1000.000,-853.027,-300.781,-1000.000
1742469376.741,-791.504,16.602,-466.309,-718.262
1742469376.745,815.918,886.719,62.500,859.375
1742469376.749,903.809,-22.461,217.773,840.820
1742469376.753,-629.395,-759.766,-67.871,-666.992
1742469376.771,-1000.000,-251.953,-316.406,-1000.000
1742469376.775,-847.168,-4.883,-379.395,-842.285
1742469376.779,537.598,647.461,-72.754,557.617
1742469376.783,999.512,305.664,213.867,999.512
1742469376.787,-273.926,-645.996,135.254,-289.551
1742469376.791,-1000.000,-379.883,-77.148,-1000.000
1742469376.795,-903.320,266.602,-116.699,-942.871
1742469376.798,570.312,738.770,-28.320,524.902
1742469376.802,999.512,51.758,-89.355,984.863
1742469376.806,-709.961,-879.883,-273.926,-775.879
1742469376.810,-1000.000,-144.043,-399.902,-999.023
1742469376.814,681.641,856.934,-355.957,731.445
1742469376.771,-1000.000,-251.953,-316.406,-1000.000
1742469376.775,-847.168,-4.883,-379.395,-842.285
1742469376.779,537.598,647.461,-72.754,557.617
1742469376.783,999.512,305.664,213.867,999.512
1742469376.787,-273.926,-645.996,135.254,-289.551
1742469376.791,-1000.000,-379.883,-77.148,-1000.000
1742469376.795,-903.320,266.602,-116.699,-942.871
1742469376.798,570.312,738.770,-28.320,524.902
1742469376.802,999.512,51.758,-89.355,984.863
1742469376.806,-709.961,-879.883,-273.926,-775.879
1742469376.810,-1000.000,-144.043,-399.902,-999.023
1742469376.814,681.641,856.934,-355.957,731.445
1742469376.816,999.512,232.910,-156.738,999.512
1742469376.820,-850.586,-894.043,-262.207,-815.430
1742469376.824,-542.480,167.480,-270.996,-354.980
1742469376.828,942.871,501.465,-200.195,955.566
1742469376.832,-682.129,-819.336,-394.043,-722.168
1742469376.836,-781.738,52.734,-230.469,-637.207
1742469376.840,999.512,802.734,305.176,999.512
1742469376.843,693.359,-327.637,278.320,584.473
1742469376.847,-947.754,-754.883,-108.887,-944.824
1742469376.851,-958.496,-64.941,-374.023,-966.797
1742469376.855,537.598,727.539,-161.133,510.742
1742469376.859,999.512,458.984,197.754,999.512
1742469376.816,999.512,232.910,-156.738,999.512
1742469376.820,-850.586,-894.043,-262.207,-815.430
1742469376.824,-542.480,167.480,-270.996,-354.980
1742469376.828,942.871,501.465,-200.195,955.566
1742469376.832,-682.129,-819.336,-394.043,-722.168
1742469376.836,-781.738,52.734,-230.469,-637.207
1742469376.840,999.512,802.734,305.176,999.512
1742469376.843,693.359,-327.637,278.320,584.473
1742469376.847,-947.754,-754.883,-108.887,-944.824
1742469376.851,-958.496,-64.941,-374.023,-966.797
1742469376.855,537.598,727.539,-161.133,510.742
1742469376.859,999.512,458.984,197.754,999.512
1742469376.905,-800.293,-712.891,-129.883,-817.871
1742469376.909,-940.918,-110.352,-144.531,-892.578
1742469376.913,809.082,741.699,159.180,826.172
1742469376.917,938.477,13.184,135.742,875.977
1742469376.921,-660.645,-666.504,-130.371,-715.820
1742469376.925,-1000.000,-48.340,-261.230,-1000.000
1742469376.929,181.641,579.102,-347.168,158.691
1742469376.932,999.512,255.371,-429.688,999.512
1742469376.936,-480.957,-858.887,-519.043,-406.250
1742469376.940,-1000.000,-525.879,-769.043,-1000.000
1742469376.944,695.801,804.688,-858.398,712.891
1742469376.948,999.512,189.453,-631.348,867.676
1742469376.905,-800.293,-712.891,-129.883,-817.871
1742469376.909,-940.918,-110.352,-144.531,-892.578
1742469376.913,809.082,741.699,159.180,826.172
1742469376.917,938.477,13.184,135.742,875.977
1742469376.921,-660.645,-666.504,-130.371,-715.820
1742469376.925,-1000.000,-48.340,-261.230,-1000.000
1742469376.929,181.641,579.102,-347.168,158.691
1742469376.932,999.512,255.371,-429.688,999.512
1742469376.936,-480.957,-858.887,-519.043,-406.250
1742469376.940,-1000.000,-525.879,-769.043,-1000.000
1742469376.944,695.801,804.688,-858.398,712.891
1742469376.948,999.512,189.453,-631.348,867.676
1742469376.951,-869.141,-839.844,-540.527,-935.547
1742469376.955,-432.129,142.090,-643.555,-250.977
1742469376.959,999.512,589.355,-520.996,999.512
1742469376.963,-302.246,-601.562,-578.125,-368.164
1742469376.967,-1000.000,-520.996,-851.562,-1000.000
1742469376.971,-96.680,402.832,-652.344,-67.383
1742469376.975,999.512,709.961,-112.793,999.512
1742469376.978,819.336,42.480,-23.438,646.484
1742469376.982,-714.844,-756.836,-296.387,-800.293
1742469376.986,-1000.000,-496.582,-708.008,-1000.000
1742469376.990,425.781,597.168,-442.871,395.020
1742469376.994,999.512,447.754,77.637,999.512
1742469376.997,763.184,-196.777,45.410,662.109
1742469377.001,-654.785,-603.027,-24.414,-709.961
1742469377.005,-1000.000,-164.062,-82.031,-1000.000
1742469377.009,303.711,610.840,-3.418,251.465
1742469377.013,999.512,445.312,328.613,999.512
1742469377.017,820.801,210.938,625.977,851.074
1742469377.021,-455.566,-577.148,428.223,-440.430
1742469377.024,-1000.000,-716.309,-212.402,-1000.000
1742469377.028,-470.215,193.848,-296.387,-362.305
1742469377.032,974.121,541.504,85.938,995.117
1742469377.036,783.691,-32.227,267.578,727.051
1742469377.040,-728.027,-659.668,-91.309,-736.328
1742469376.997,763.184,-196.777,45.410,662.109
1742469377.001,-654.785,-603.027,-24.414,-709.961
1742469377.005,-1000.000,-164.062,-82.031,-1000.000
1742469377.009,303.711,610.840,-3.418,251.465
1742469377.013,999.512,445.312,328.613,999.512
1742469377.017,820.801,210.938,625.977,851.074
1742469377.021,-455.566,-577.148,428.223,-440.430
1742469377.024,-1000.000,-716.309,-212.402,-1000.000
1742469377.028,-470.215,193.848,-296.387,-362.305
1742469377.032,974.121,541.504,85.938,995.117
1742469377.036,783.691,-32.227,267.578,727.051
1742469377.040,-728.027,-659.668,-91.309,-736.328
1742469377.041,-1000.000,-229.980,-485.352,-1000.000
1742469377.045,-179.199,383.789,-388.672,-231.934
1742469377.049,999.512,537.598,0.000,999.512
1742469377.053,892.578,-62.012,205.078,875.488
1742469377.057,-648.926,-700.195,150.879,-676.758
1742469377.061,-1000.000,4.883,128.418,-1000.000
1742469377.065,472.656,775.391,180.176,437.988
1742469377.068,999.512,256.836,357.422,999.512
1742469377.072,-38.574,-685.547,342.285,-18.555
1742469377.076,-1000.000,-597.168,28.320,-1000.000
1742469377.080,-1000.000,-108.887,-187.500,-1000.000
1742469377.084,-80.078,417.480,-199.219,-95.703
1742469377.041,-1000.000,-229.980,-485.352,-1000.000
1742469377.045,-179.199,383.789,-388.672,-231.934
1742469377.049,999.512,537.598,0.000,999.512
1742469377.053,892.578,-62.012,205.078,875.488
1742469377.057,-648.926,-700.195,150.879,-676.758
1742469377.061,-1000.000,4.883,128.418,-1000.000
1742469377.065,472.656,775.391,180.176,437.988
1742469377.068,999.512,256.836,357.422,999.512
1742469377.072,-38.574,-685.547,342.285,-18.555
1742469377.076,-1000.000,-597.168,28.320,-1000.000
1742469377.080,-1000.000,-108.887,-187.500,-1000.000
1742469377.084,-80.078,417.480,-199.219,-95.703
1742469377.087,999.512,583.008,95.703,999.512
1742469377.091,-315.430,-629.883,37.598,-314.941
1742469377.095,-1000.000,-435.547,-178.223,-1000.000
1742469377.099,-902.344,94.727,-171.875,-962.402
1742469377.103,320.801,591.309,-116.211,183.105
1742469377.107,999.512,787.109,341.309,999.512
1742469377.111,337.891,-247.559,468.262,165.527
1742469377.114,-879.395,-658.691,13.672,-922.852
1742469377.118,-1000.000,-189.453,-197.266,-1000.000
1742469377.122,-874.512,44.434,-180.176,-861.816
1742469377.126,567.383,625.977,-7.812,600.586
1742469377.130,999.512,267.090,219.727,999.512
1742469377.087,999.512,583.008,95.703,999.512
1742469377.091,-315.430,-629.883,37.598,-314.941
1742469377.095,-1000.000,-435.547,-178.223,-1000.000
1742469377.099,-902.344,94.727,-171.875,-962.402
1742469377.103,320.801,591.309,-116.211,183.105
1742469377.107,999.512,787.109,341.309,999.512
1742469377.111,337.891,-247.559,468.262,165.527
1742469377.114,-879.395,-658.691,13.672,-922.852
1742469377.118,-1000.000,-189.453,-197.266,-1000.000
1742469377.122,-874.512,44.434,-180.176,-861.816
1742469377.126,567.383,625.977,-7.812,600.586
1742469377.130,999.512,267.090,219.727,999.512
1742469377.147,-369.141,-708.496,190.918,-394.531
1742469377.151,-1000.000,-583.008,-145.996,-1000.000
1742469377.155,-388.672,404.297,-182.617,-313.965
1742469377.159,999.512,615.234,185.547,999.512
1742469377.163,831.543,-256.836,187.012,743.164
1742469377.167,-936.035,-636.719,71.289,-923.340
1742469377.171,-780.273,331.055,-2.930,-601.074
1742469377.174,790.039,421.875,-230.469,813.965
1742469377.178,-618.164,-863.281,-273.438,-627.441
1742469377.182,-849.609,-198.242,-192.871,-685.059
1742469377.186,999.512,728.516,-97.656,999.512
1742469377.190,244.141,-358.887,-166.992,157.227
1742469377.147,-369.141,-708.496,190.918,-394.531
1742469377.151,-1000.000,-583.008,-145.996,-1000.000
1742469377.155,-388.672,404.297,-182.617,-313.965
1742469377.159,999.512,615.234,185.547,999.512
1742469377.163,831.543,-256.836,187.012,743.164
1742469377.167,-936.035,-636.719,71.289,-923.340
1742469377.171,-780.273,331.055,-2.930,-601.074
1742469377.174,790.039,421.875,-230.469,813.965
1742469377.178,-618.164,-863.281,-273.438,-627.441
1742469377.182,-849.609,-198.242,-192.871,-685.059
1742469377.186,999.512,728.516,-97.656,999.512
1742469377.190,244.141,-358.887,-166.992,157.227
1742469377.191,-1000.000,-660.645,-411.621,-1000.000
1742469377.195,-43.945,382.324,-326.660,64.941
1742469377.199,999.512,500.977,59.570,999.512
1742469377.203,970.215,11.719,273.926,967.285
1742469377.207,-293.457,-583.984,207.031,-229.980
1742469377.211,-1000.000,-451.660,-20.508,-1000.000
1742469377.215,14.160,610.352,72.754,-11.230
1742469377.218,999.512,333.984,273.926,999.512
1742469377.222,-170.898,-756.836,119.629,-116.211
1742469377.226,-1000.000,-646.484,-163.574,-1000.000
1742469377.230,-796.387,208.496,-268.066,-710.938
1742469377.234,725.586,670.410,-154.785,761.230
1742469377.191,-1000.000,-660.645,-411.621,-1000.000
1742469377.195,-43.945,382.324,-326.660,64.941
1742469377.199,999.512,500.977,59.570,999.512
1742469377.203,970.215,11.719,273.926,967.285
1742469377.207,-293.457,-583.984,207.031,-229.980
1742469377.211,-1000.000,-451.660,-20.508,-1000.000
1742469377.215,14.160,610.352,72.754,-11.230
1742469377.218,999.512,333.984,273.926,999.512
1742469377.222,-170.898,-756.836,119.629,-116.211
1742469377.226,-1000.000,-646.484,-163.574,-1000.000
1742469377.230,-796.387,208.496,-268.066,-710.938
1742469377.234,725.586,670.410,-154.785,761.230
1742469377.235,958.496,17.090,77.637,944.336
1742469377.239,-680.664,-780.273,91.797,-660.156
1742469377.243,-1000.000,-238.281,-18.066,-1000.000
1742469377.247,-1000.000,-41.992,-255.371,-997.559
1742469377.251,-795.410,64.941,-367.676,-816.895
1742469377.255,850.586,803.223,21.484,803.223
1742469377.259,791.504,-7.324,104.980,675.781
1742469377.262,-753.418,-587.891,-255.859,-812.500
1742469377.266,-1000.000,-192.871,-585.449,-1000.000
1742469377.270,-804.688,-175.293,-799.316,-791.992
1742469377.274,542.969,586.426,-375.488,576.172
1742469377.278,999.512,374.023,133.301,999.512
1742469377.235,958.496,17.090,77.637,944.336
1742469377.239,-680.664,-780.273,91.797,-660.156
1742469377.243,-1000.000,-238.281,-18.066,-1000.000
1742469377.247,-1000.000,-41.992,-255.371,-997.559
1742469377.251,-795.410,64.941,-367.676,-816.895
1742469377.255,850.586,803.223,21.484,803.223
1742469377.259,791.504,-7.324,104.980,675.781
1742469377.262,-753.418,-587.891,-255.859,-812.500
1742469377.266,-1000.000,-192.871,-585.449,-1000.000
1742469377.270,-804.688,-175.293,-799.316,-791.992
1742469377.274,542.969,586.426,-375.488,576.172
1742469377.278,999.512,374.023,133.301,999.512
1742469377.280,24.414,-574.219,78.613,-5.859
1742469377.284,-1000.000,-656.250,-242.188,-1000.000
1742469377.288,-590.332,241.699,-179.688,-511.230
1742469377.292,937.988,630.371,173.340,961.426
1742469377.296,883.301,-109.863,228.027,782.227
1742469377.300,-638.672,-465.332,265.625,-711.914
1742469377.304,-1000.000,-82.031,177.246,-1000.000
1742469377.307,-972.168,-208.008,-148.926,-982.422
1742469377.311,114.746,291.016,-122.559,6.836
1742469377.315,999.512,475.586,181.152,999.512
1742469377.319,779.297,-36.621,386.719,767.578
1742469377.323,-526.855,-621.094,201.172,-574.707
1742469377.280,24.414,-574.219,78.613,-5.859
1742469377.284,-1000.000,-656.250,-242.188,-1000.000
1742469377.288,-590.332,241.699,-179.688,-511.230
1742469377.292,937.988,630.371,173.340,961.426
1742469377.296,883.301,-109.863,228.027,782.227
1742469377.300,-638.672,-465.332,265.625,-711.914
1742469377.304,-1000.000,-82.031,177.246,-1000.000
1742469377.307,-972.168,-208.008,-148.926,-982.422
1742469377.311,114.746,291.016,-122.559,6.836
1742469377.315,999.512,475.586,181.152,999.512
1742469377.319,779.297,-36.621,386.719,767.578
1742469377.323,-526.855,-621.094,201.172,-574.707
1742469377.325,-1000.000,-322.266,-52.246,-1000.000
1742469377.329,-707.031,188.965,54.199,-708.008
1742469377.333,845.703,575.684,264.648,790.527
1742469377.337,720.215,-89.844,317.871,525.391
1742469377.341,-971.680,-650.879,-55.664,-1000.000
1742469377.345,-1000.000,208.008,-131.836,-980.469
1742469377.349,714.844,895.020,2.930,672.363
1742469377.352,778.320,57.617,-264.648,649.414
1742469377.356,-1000.000,-887.207,-441.406,-1000.000
1742469377.360,-893.066,-74.707,-386.719,-808.105
1742469377.364,907.715,708.496,-266.602,848.145
1742469377.368,-20.508,-433.105,-90.820,-212.891
1742469377.372,-1000.000,-308.594,47.363,-1000.000
1742469377.376,659.668,649.414,87.402,670.898
1742469377.380,-104.980,-499.512,-120.605,-189.941
1742469377.384,-1000.000,-591.309,-483.398,-1000.000
1742469377.388,-783.691,142.578,-500.000,-770.020
1742469377.392,701.172,749.512,-70.801,707.031
1742469377.396,999.512,220.215,91.309,951.172
1742469377.399,-717.285,-861.816,-460.449,-756.836
1742469377.403,-1000.000,-264.648,-742.188,-1000.000
1742469377.407,570.801,723.145,-536.621,541.016
1742469377.411,999.512,329.590,-165.039,999.512
1742469377.415,991.699,33.203,35.645,983.887
1742469377.372,-1000.000,-308.594,47.363,-1000.000
1742469377.376,659.668,649.414,87.402,670.898
1742469377.380,-104.980,-499.512,-120.605,-189.941
1742469377.384,-1000.000,-591.309,-483.398,-1000.000
1742469377.388,-783.691,142.578,-500.000,-770.020
1742469377.392,701.172,749.512,-70.801,707.031
1742469377.396,999.512,220.215,91.309,951.172
1742469377.399,-717.285,-861.816,-460.449,-756.836
1742469377.403,-1000.000,-264.648,-742.188,-1000.000
1742469377.407,570.801,723.145,-536.621,541.016
1742469377.411,999.512,329.590,-165.039,999.512
1742469377.415,991.699,33.203,35.645,983.887
1742469377.415,591.797,-199.219,2.441,629.395
1742469377.419,-1000.000,-754.395,-169.922,-934.570
1742469377.423,-739.746,152.832,-70.312,-620.605
1742469377.427,929.199,729.492,274.414,965.820
1742469377.431,889.160,-126.953,265.625,867.676
1742469377.435,-600.586,-542.480,233.887,-578.125
1742469377.439,-1000.000,-131.348,39.062,-1000.000
1742469377.442,-856.445,41.504,-236.816,-739.746
1742469377.446,559.082,439.453,-175.293,652.344
1742469377.450,999.512,155.762,123.047,999.512
1742469377.454,-389.160,-693.848,125.488,-397.461
1742469377.458,-1000.000,-466.797,-138.672,-1000.000
1742469377.415,591.797,-199.219,2.441,629.395
1742469377.419,-1000.000,-754.395,-169.922,-934.570
1742469377.423,-739.746,152.832,-70.312,-620.605
1742469377.427,929.199,729.492,274.414,965.820
1742469377.431,889.160,-126.953,265.625,867.676
1742469377.435,-600.586,-542.480,233.887,-578.125
1742469377.439,-1000.000,-131.348,39.062,-1000.000
1742469377.442,-856.445,41.504,-236.816,-739.746
1742469377.446,559.082,439.453,-175.293,652.344
1742469377.450,999.512,155.762,123.047,999.512
1742469377.454,-389.160,-693.848,125.488,-397.461
1742469377.458,-1000.000,-466.797,-138.672,-1000.000
1742469377.461,-781.250,111.328,-255.859,-744.141
1742469377.465,718.262,496.094,-202.148,727.051
1742469377.469,984.375,143.066,-159.668,973.145
1742469377.473,-653.809,-748.535,-638.184,-629.395
1742469377.477,-1000.000,-365.234,-960.938,-1000.000
1742469377.481,246.582,673.340,-511.719,135.254
1742469377.485,999.512,578.125,-19.531,999.512
1742469377.488,20.020,-516.113,20.020,-62.988
1742469377.492,-1000.000,-761.719,-34.668,-1000.000
1742469377.496,-261.719,311.523,-148.926,-221.191
1742469377.500,907.227,313.965,-267.090,791.992
1742469377.504,-738.770,-762.695,-51.270,-792.480
1742469377.461,-781.250,111.328,-255.859,-744.141
1742469377.465,718.262,496.094,-202.148,727.051
1742469377.469,984.375,143.066,-159.668,973.145
1742469377.473,-653.809,-748.535,-638.184,-629.395
1742469377.477,-1000.000,-365.234,-960.938,-1000.000
1742469377.481,246.582,673.340,-511.719,135.254
1742469377.485,999.512,578.125,-19.531,999.512
1742469377.488,20.020,-516.113,20.020,-62.988
1742469377.492,-1000.000,-761.719,-34.668,-1000.000
1742469377.496,-261.719,311.523,-148.926,-221.191
1742469377.500,907.227,313.965,-267.090,791.992
1742469377.504,-738.770,-762.695,-51.270,-792.480
1742469377.520,-120.117,258.789,189.453,-102.051
1742469377.524,999.512,346.680,329.102,999.512
1742469377.528,-567.383,-754.883,386.230,-576.660
1742469377.532,-1000.000,-291.504,312.500,-1000.000
1742469377.536,-812.012,189.941,401.367,-814.941
1742469377.540,751.953,742.188,756.836,706.543
1742469377.544,643.066,-5.371,848.145,404.297
1742469377.547,-897.949,-588.379,464.844,-979.004
1742469377.551,-1000.000,-164.062,67.871,-1000.000
1742469377.555,-898.438,-253.418,-90.332,-920.898
1742469377.559,621.582,646.973,71.777,636.230
1742469377.563,888.672,182.129,270.508,724.609
1742469377.520,-120.117,258.789,189.453,-102.051
1742469377.524,999.512,346.680,329.102,999.512
1742469377.528,-567.383,-754.883,386.230,-576.660
1742469377.532,-1000.000,-291.504,312.500,-1000.000
1742469377.536,-812.012,189.941,401.367,-814.941
1742469377.540,751.953,742.188,756.836,706.543
1742469377.544,643.066,-5.371,848.145,404.297
1742469377.547,-897.949,-588.379,464.844,-979.004
1742469377.551,-1000.000,-164.062,67.871,-1000.000
1742469377.555,-898.438,-253.418,-90.332,-920.898
1742469377.559,621.582,646.973,71.777,636.230
1742469377.563,888.672,182.129,270.508,724.609
1742469377.566,-703.125,-633.301,133.789,-814.941
1742469377.570,-1000.000,-198.242,-123.535,-1000.000
1742469377.574,-887.207,98.633,-94.727,-895.996
1742469377.578,648.438,744.141,104.980,643.066
1742469377.582,794.922,53.711,84.473,610.840
1742469377.586,-872.070,-510.254,-206.543,-958.496
1742469377.590,-1000.000,110.840,-416.504,-969.238
1742469377.593,-1000.000,-221.680,-522.461,-1000.000
1742469377.597,-361.816,35.645,-645.996,-466.797
1742469377.601,999.512,452.148,-713.867,953.125
1742469377.605,609.375,-76.660,-605.469,310.547
1742469377.609,-959.961,-593.750,-580.078,-1000.000
1742469377.566,-703.125,-633.301,133.789,-814.941
1742469377.570,-1000.000,-198.242,-123.535,-1000.000
1742469377.574,-887.207,98.633,-94.727,-895.996
1742469377.578,648.438,744.141,104.980,643.066
1742469377.582,794.922,53.711,84.473,610.840
1742469377.586,-872.070,-510.254,-206.543,-958.496
1742469377.590,-1000.000,110.840,-416.504,-969.238
1742469377.593,-1000.000,-221.680,-522.461,-1000.000
1742469377.597,-361.816,35.645,-645.996,-466.797
1742469377.601,999.512,452.148,-713.867,953.125
1742469377.605,609.375,-76.660,-605.469,310.547
1742469377.609,-959.961,-593.750,-580.078,-1000.000
1742469377.611,-973.633,-155.762,-676.758,-959.961
1742469377.615,626.953,734.375,-375.488,571.289
1742469377.619,999.512,278.320,-61.523,999.512
1742469377.623,-367.676,-685.059,-58.594,-400.879
1742469377.627,-1000.000,-448.730,-323.730,-1000.000
1742469377.631,-837.402,149.902,-431.152,-803.711
1742469377.635,662.598,690.918,-68.359,678.711
1742469377.638,951.172,128.418,151.855,959.473
1742469377.642,-599.121,-844.727,-47.363,-582.520
1742469377.646,-1000.000,-515.625,-325.195,-1000.000
1742469377.650,-559.570,310.059,-197.266,-584.473
1742469377.654,749.512,529.297,166.992,731.934
1742469377.611,-973.633,-155.762,-676.758,-959.961
1742469377.615,626.953,734.375,-375.488,571.289
1742469377.619,999.512,278.320,-61.523,999.512
1742469377.623,-367.676,-685.059,-58.594,-400.879
1742469377.627,-1000.000,-448.730,-323.730,-1000.000
1742469377.631,-837.402,149.902,-431.152,-803.711
1742469377.635,662.598,690.918,-68.359,678.711
1742469377.638,951.172,128.418,151.855,959.473
1742469377.642,-599.121,-844.727,-47.363,-582.520
1742469377.646,-1000.000,-515.625,-325.195,-1000.000
1742469377.650,-559.570,310.059,-197.266,-584.473
1742469377.654,749.512,529.297,166.992,731.934
1742469377.656,999.512,239.746,406.250,999.512
1742469377.660,212.402,-219.238,539.551,29.297
1742469377.664,-1000.000,-591.309,224.609,-1000.000
1742469377.668,-951.172,-65.430,-98.633,-955.078
1742469377.672,419.922,626.953,125.488,392.090
1742469377.676,999.512,620.605,482.910,999.512
1742469377.680,275.879,-291.992,427.734,220.703
1742469377.683,-955.566,-730.957,-109.863,-957.031
1742469377.687,-1000.000,-203.125,-481.934,-1000.000
1742469377.691,123.535,422.363,-350.586,96.191
1742469377.695,999.512,494.629,56.152,999.512
1742469377.699,843.750,23.438,268.555,835.449
1742469377.656,999.512,239.746,406.250,999.512
1742469377.660,212.402,-219.238,539.551,29.297
1742469377.664,-1000.000,-591.309,224.609,-1000.000
1742469377.668,-951.172,-65.430,-98.633,-955.078
1742469377.672,419.922,626.953,125.488,392.090
1742469377.676,999.512,620.605,482.910,999.512
1742469377.680,275.879,-291.992,427.734,220.703
1742469377.683,-955.566,-730.957,-109.863,-957.031
1742469377.687,-1000.000,-203.125,-481.934,-1000.000
1742469377.691,123.535,422.363,-350.586,96.191
1742469377.695,999.512,494.629,56.152,999.512
1742469377.699,843.750,23.438,268.555,835.449
1742469377.701,-613.770,-702.148,-2.930,-637.695
1742469377.705,-1000.000,-326.172,-236.816,-1000.000
1742469377.709,389.160,754.395,10.254,398.926
1742469377.713,999.512,570.801,472.656,999.512
1742469377.717,125.488,-494.141,547.852,69.336
1742469377.721,-1000.000,-375.977,369.629,-1000.000
1742469377.725,111.816,687.500,250.000,197.754
1742469377.728,999.512,335.449,211.914,999.512
1742469377.732,-798.340,-903.320,5.371,-818.848
1742469377.736,-814.453,-65.918,-24.414,-678.223
1742469377.740,863.281,687.500,182.617,881.836
1742469377.744,-408.203,-625.000,126.953,-464.355
1742469377.701,-613.770,-702.148,-2.930,-637.695
1742469377.705,-1000.000,-326.172,-236.816,-1000.000
1742469377.709,389.160,754.395,10.254,398.926
1742469377.713,999.512,570.801,472.656,999.512
1742469377.717,125.488,-494.141,547.852,69.336
1742469377.721,-1000.000,-375.977,369.629,-1000.000
1742469377.725,111.816,687.500,250.000,197.754
1742469377.728,999.512,335.449,211.914,999.512
1742469377.732,-798.340,-903.320,5.371,-818.848
1742469377.736,-814.453,-65.918,-24.414,-678.223
1742469377.740,863.281,687.500,182.617,881.836
1742469377.744,-408.203,-625.000,126.953,-464.355
1742469377.746,-1000.000,-529.785,-71.289,-1000.000
1742469377.750,396.973,654.785,69.824,424.316
1742469377.754,999.512,562.988,540.039,999.512
1742469377.758,124.512,-402.832,574.219,44.922
1742469377.762,-1000.000,-613.770,155.273,-1000.000
1742469377.766,-836.426,214.844,94.727,-791.016
1742469377.770,803.711,783.203,487.305,799.316
1742469377.773,813.477,-112.305,516.602,746.582
1742469377.777,-900.879,-804.688,120.117,-908.691
1742469377.781,-1000.000,-120.117,-95.215,-996.094
1742469377.785,464.844,630.859,-56.641,437.012
1742469377.789,999.512,357.422,238.770,999.512
1742469377.746,-1000.000,-529.785,-71.289,-1000.000
1742469377.750,396.973,654.785,69.824,424.316
1742469377.754,999.512,562.988,540.039,999.512
1742469377.758,124.512,-402.832,574.219,44.922
1742469377.762,-1000.000,-613.770,155.273,-1000.000
1742469377.766,-836.426,214.844,94.727,-791.016
1742469377.770,803.711,783.203,487.305,799.316
1742469377.773,813.477,-112.305,516.602,746.582
1742469377.777,-900.879,-804.688,120.117,-908.691
1742469377.781,-1000.000,-120.117,-95.215,-996.094
1742469377.785,464.844,630.859,-56.641,437.012
1742469377.789,999.512,357.422,238.770,999.512
1742469377.791,768.066,-224.121,324.707,754.883
1742469377.795,-512.695,-630.859,133.789,-548.340
1742469377.799,-1000.000,-272.949,-74.219,-1000.000
1742469377.803,-517.578,325.684,-86.426,-441.895
1742469377.807,757.812,509.766,230.957,763.184
1742469377.811,999.512,400.879,537.598,999.512
1742469377.815,708.008,-7.812,589.355,702.148
1742469377.818,-604.492,-642.090,243.652,-604.004
1742469377.822,-1000.000,-378.418,-339.355,-1000.000
1742469377.826,-784.180,-51.270,-679.199,-720.703
1742469377.830,713.379,581.055,-518.555,764.160
1742469377.834,973.145,68.848,-359.375,854.492
1742469377.791,768.066,-224.121,324.707,754.883
1742469377.795,-512.695,-630.859,133.789,-548.340
1742469377.799,-1000.000,-272.949,-74.219,-1000.000
1742469377.803,-517.578,325.684,-86.426,-441.895
1742469377.807,757.812,509.766,230.957,763.184
1742469377.811,999.512,400.879,537.598,999.512
1742469377.815,708.008,-7.812,589.355,702.148
1742469377.818,-604.492,-642.090,243.652,-604.004
1742469377.822,-1000.000,-378.418,-339.355,-1000.000
1742469377.826,-784.180,-51.270,-679.199,-720.703
1742469377.830,713.379,581.055,-518.555,764.160
1742469377.834,973.145,68.848,-359.375,854.492
1742469377.835,-757.812,-729.492,-439.453,-816.406
1742469377.839,-1000.000,-202.148,-604.980,-1000.000
1742469377.843,552.246,723.145,-416.016,523.926
1742469377.847,999.512,403.809,-36.621,999.512
1742469377.851,33.203,-521.973,-70.801,-14.160
1742469377.855,-1000.000,-314.453,-194.336,-1000.000
1742469377.859,-108.398,534.668,-208.008,-99.121
1742469377.862,999.512,343.750,-208.496,999.512
1742469377.866,637.695,-417.969,-117.676,496.094
1742469377.870,-1000.000,-647.461,-223.145,-993.652
1742469377.874,-8.789,517.578,-362.793,111.328
1742469377.878,807.129,204.590,-388.672,626.953
1742469377.835,-757.812,-729.492,-439.453,-816.406
1742469377.839,-1000.000,-202.148,-604.980,-1000.000
1742469377.843,552.246,723.145,-416.016,523.926
1742469377.847,999.512,403.809,-36.621,999.512
1742469377.851,33.203,-521.973,-70.801,-14.160
1742469377.855,-1000.000,-314.453,-194.336,-1000.000
1742469377.859,-108.398,534.668,-208.008,-99.121
1742469377.862,999.512,343.750,-208.496,999.512
1742469377.866,637.695,-417.969,-117.676,496.094
1742469377.870,-1000.000,-647.461,-223.145,-993.652
1742469377.874,-8.789,517.578,-362.793,111.328
1742469377.878,807.129,204.590,-388.672,626.953
1742469377.896,-893.066,-753.418,-627.930,-934.570
1742469377.900,78.613,409.668,-471.191,147.949
1742469377.904,999.512,612.305,156.738,999.512
1742469377.908,760.254,-172.852,303.711,687.988
1742469377.912,-729.004,-652.832,23.926,-779.785
1742469377.916,-1000.000,-63.965,-42.480,-961.426
1742469377.920,721.191,779.297,275.879,765.137
1742469377.923,941.406,111.816,379.395,916.504
1742469377.927,-601.074,-834.473,23.438,-626.953
1742469377.931,-1000.000,-533.203,-400.391,-1000.000
1742469377.935,-438.965,297.363,-291.504,-394.043
1742469377.939,795.410,504.395,126.953,793.457
1742469377.896,-893.066,-753.418,-627.930,-934.570
1742469377.900,78.613,409.668,-471.191,147.949
1742469377.904,999.512,612.305,156.738,999.512
1742469377.908,760.254,-172.852,303.711,687.988
1742469377.912,-729.004,-652.832,23.926,-779.785
1742469377.916,-1000.000,-63.965,-42.480,-961.426
1742469377.920,721.191,779.297,275.879,765.137
1742469377.923,941.406,111.816,379.395,916.504
1742469377.927,-601.074,-834.473,23.438,-626.953
1742469377.931,-1000.000,-533.203,-400.391,-1000.000
1742469377.935,-438.965,297.363,-291.504,-394.043
1742469377.939,795.410,504.395,126.953,793.457
1742469377.940,999.512,165.039,331.543,999.512
1742469377.944,533.691,-180.176,251.465,543.457
1742469377.948,-938.477,-644.531,-30.762,-922.852
1742469377.952,-920.410,-3.418,-68.848,-889.160
1742469377.956,561.523,678.711,273.438,601.074
1742469377.960,999.512,250.977,442.383,999.512
1742469377.964,773.438,-39.062,302.246,769.531
1742469377.967,-598.145,-624.512,-233.398,-623.047
1742469377.971,-1000.000,-403.809,-750.977,-1000.000
1742469377.975,114.746,465.332,-618.652,193.848
1742469377.979,999.512,529.297,-229.492,999.512
1742469377.983,737.793,-119.629,-162.109,661.133
1742469377.940,999.512,165.039,331.543,999.512
1742469377.944,533.691,-180.176,251.465,543.457
1742469377.948,-938.477,-644.531,-30.762,-922.852
1742469377.952,-920.410,-3.418,-68.848,-889.160
1742469377.956,561.523,678.711,273.438,601.074
1742469377.960,999.512,250.977,442.383,999.512
1742469377.964,773.438,-39.062,302.246,769.531
1742469377.967,-598.145,-624.512,-233.398,-623.047
1742469377.971,-1000.000,-403.809,-750.977,-1000.000
1742469377.975,114.746,465.332,-618.652,193.848
1742469377.979,999.512,529.297,-229.492,999.512
1742469377.983,737.793,-119.629,-162.109,661.133
1742469377.986,-803.711,-687.988,-397.461,-835.449
1742469377.990,-980.957,-43.945,-466.309,-888.672
1742469377.994,620.605,632.812,-183.594,675.781
1742469377.998,999.512,268.066,-15.625,999.512
1742469378.002,-53.223,-434.570,-256.348,-5.371
1742469378.006,-1000.000,-575.195,-586.426,-1000.000
1742469378.010,-586.914,330.566,-483.398,-514.160
1742469378.013,915.527,584.473,-144.531,919.922
1742469378.017,938.477,-203.613,20.020,918.945
1742469378.021,-645.508,-808.105,-3.906,-639.648
1742469378.025,-1000.000,-241.211,-166.992,-1000.000
1742469378.029,343.750,677.246,-291.504,353.027
1742469377.986,-803.711,-687.988,-397.461,-835.449
1742469377.990,-980.957,-43.945,-466.309,-888.672
1742469377.994,620.605,632.812,-183.594,675.781
1742469377.998,999.512,268.066,-15.625,999.512
1742469378.002,-53.223,-434.570,-256.348,-5.371
1742469378.006,-1000.000,-575.195,-586.426,-1000.000
1742469378.010,-586.914,330.566,-483.398,-514.160
1742469378.013,915.527,584.473,-144.531,919.922
1742469378.017,938.477,-203.613,20.020,918.945
1742469378.021,-645.508,-808.105,-3.906,-639.648
1742469378.025,-1000.000,-241.211,-166.992,-1000.000
1742469378.029,343.750,677.246,-291.504,353.027
1742469378.031,999.512,328.125,116.699,999.512
1742469378.035,948.242,-62.500,577.637,946.777
1742469378.039,882.812,41.992,796.387,905.273
1742469378.043,-564.453,-657.715,788.086,-543.945
1742469378.047,-1000.000,-413.086,560.059,-1000.000
1742469378.051,165.039,540.039,520.508,219.727
1742469378.055,999.512,706.055,622.070,999.512
1742469378.058,-348.633,-504.883,373.047,-304.199
1742469378.062,-1000.000,-644.531,-93.750,-1000.000
1742469378.066,-1000.000,-102.539,-365.723,-1000.000
1742469378.070,-609.375,130.371,-344.727,-587.402
1742469378.074,984.863,577.148,-132.812,949.219
1742469378.031,999.512,328.125,116.699,999.512
1742469378.035,948.242,-62.500,577.637,946.777
1742469378.039,882.812,41.992,796.387,905.273
1742469378.043,-564.453,-657.715,788.086,-543.945
1742469378.047,-1000.000,-413.086,560.059,-1000.000
1742469378.051,165.039,540.039,520.508,219.727
1742469378.055,999.512,706.055,622.070,999.512
1742469378.058,-348.633,-504.883,373.047,-304.199
1742469378.062,-1000.000,-644.531,-93.750,-1000.000
1742469378.066,-1000.000,-102.539,-365.723,-1000.000
1742469378.070,-609.375,130.371,-344.727,-587.402
1742469378.074,984.863,577.148,-132.812,949.219
1742469378.076,651.855,-197.754,-143.066,497.559
1742469378.080,-819.336,-633.301,-242.188,-874.512
1742469378.084,-1000.000,-101.074,-175.293,-1000.000
1742469378.088,-666.016,192.871,-152.344,-719.238
1742469378.092,766.602,564.453,-59.570,714.355
1742469378.096,999.512,307.617,113.770,999.512
1742469378.100,-350.098,-488.281,100.098,-375.000
1742469378.103,-1000.000,-541.016,-333.008,-1000.000
1742469378.107,-857.422,65.918,-601.074,-836.426
1742469378.111,637.207,599.609,-233.398,661.133
1742469378.115,958.496,23.926,-37.109,947.754
1742469378.119,-594.238,-712.402,-171.387,-602.051
1742469378.121,-1000.000,-384.766,-300.293,-1000.000
1742469378.125,-613.770,81.055,-158.203,-584.961
1742469378.129,857.910,594.238,256.348,840.820
1742469378.133,918.945,45.898,355.469,943.848
1742469378.137,-561.035,-746.094,-40.039,-535.156
1742469378.141,-1000.000,-168.945,-471.680,-1000.000
1742469378.145,-617.188,398.926,-534.668,-483.887
1742469378.148,750.000,304.199,-376.953,779.785
1742469378.152,999.512,15.625,-121.094,999.512
1742469378.156,-88.867,-557.129,49.805,-29.297
1742469378.160,-1000.000,-406.738,-198.242,-1000.000
1742469378.164,-690.430,388.184,-278.809,-573.242
1742469378.121,-1000.000,-384.766,-300.293,-1000.000
1742469378.125,-613.770,81.055,-158.203,-584.961
1742469378.129,857.910,594.238,256.348,840.820
1742469378.133,918.945,45.898,355.469,943.848
1742469378.137,-561.035,-746.094,-40.039,-535.156
1742469378.141,-1000.000,-168.945,-471.680,-1000.000
1742469378.145,-617.188,398.926,-534.668,-483.887
1742469378.148,750.000,304.199,-376.953,779.785
1742469378.152,999.512,15.625,-121.094,999.512
1742469378.156,-88.867,-557.129,49.805,-29.297
1742469378.160,-1000.000,-406.738,-198.242,-1000.000
1742469378.164,-690.430,388.184,-278.809,-573.242
1742469378.165,909.180,477.051,-70.801,913.574
1742469378.169,680.176,-276.855,62.988,455.566
1742469378.173,-852.539,-464.355,0.977,-908.691
1742469378.177,-1000.000,-0.488,-332.520,-1000.000
1742469378.181,-945.312,9.766,-678.223,-978.027
1742469378.185,376.465,669.922,-669.434,349.609
1742469378.189,999.512,548.340,-329.590,999.512
1742469378.192,-222.656,-591.797,-393.066,-254.883
1742469378.196,-1000.000,-750.977,-800.781,-1000.000
1742469378.200,-816.406,-87.891,-925.781,-820.312
1742469378.204,492.676,669.434,-608.887,520.508
1742469378.208,999.512,354.492,-274.414,999.512
1742469378.165,909.180,477.051,-70.801,913.574
1742469378.169,680.176,-276.855,62.988,455.566
1742469378.173,-852.539,-464.355,0.977,-908.691
1742469378.177,-1000.000,-0.488,-332.520,-1000.000
1742469378.181,-945.312,9.766,-678.223,-978.027
1742469378.185,376.465,669.922,-669.434,349.609
1742469378.189,999.512,548.340,-329.590,999.512
1742469378.192,-222.656,-591.797,-393.066,-254.883
1742469378.196,-1000.000,-750.977,-800.781,-1000.000
1742469378.200,-816.406,-87.891,-925.781,-820.312
1742469378.204,492.676,669.434,-608.887,520.508
1742469378.208,999.512,354.492,-274.414,999.512
1742469378.212,509.277,-311.035,-136.230,335.449
1742469378.216,-780.762,-290.527,-151.855,-819.824
1742469378.220,-1000.000,-116.211,-391.602,-1000.000
1742469378.224,-873.535,-40.039,-519.043,-890.137
1742469378.228,563.477,699.707,-373.047,574.707
1742469378.232,999.512,493.652,23.926,999.512
1742469378.236,-420.410,-648.438,38.574,-466.309
1742469378.239,-1000.000,-667.480,-476.074,-1000.000
1742469378.243,-828.613,83.984,-517.090,-805.176
1742469378.247,741.699,557.129,-227.539,727.539
1742469378.251,691.406,-74.219,-166.992,454.590
1742469378.255,-861.816,-471.680,-559.082,-949.219
1742469378.212,509.277,-311.035,-136.230,335.449
1742469378.216,-780.762,-290.527,-151.855,-819.824
1742469378.220,-1000.000,-116.211,-391.602,-1000.000
1742469378.224,-873.535,-40.039,-519.043,-890.137
1742469378.228,563.477,699.707,-373.047,574.707
1742469378.232,999.512,493.652,23.926,999.512
1742469378.236,-420.410,-648.438,38.574,-466.309
1742469378.239,-1000.000,-667.480,-476.074,-1000.000
1742469378.243,-828.613,83.984,-517.090,-805.176
1742469378.247,741.699,557.129,-227.539,727.539
1742469378.251,691.406,-74.219,-166.992,454.590
1742469378.255,-861.816,-471.680,-559.082,-949.219
1742469378.271,-1000.000,-51.270,-689.453,-1000.000
1742469378.275,-773.926,133.789,-557.617,-822.754
1742469378.279,730.469,599.121,-256.348,698.242
1742469378.283,972.656,87.891,96.680,913.574
1742469378.287,-626.465,-737.793,125.977,-675.293
1742469378.291,-1000.000,-371.582,-102.539,-1000.000
1742469378.295,229.004,704.102,20.508,96.191
1742469378.298,954.102,358.887,380.859,823.730
1742469378.302,-663.086,-782.715,256.836,-720.215
1742469378.306,-1000.000,-273.926,1.953,-1000.000
1742469378.310,-905.762,68.359,-116.699,-869.141
1742469378.314,-1000.000,-147.949,-450.195,-1000.000
1742469378.271,-1000.000,-51.270,-689.453,-1000.000
1742469378.275,-773.926,133.789,-557.617,-822.754
1742469378.279,730.469,599.121,-256.348,698.242
1742469378.283,972.656,87.891,96.680,913.574
1742469378.287,-626.465,-737.793,125.977,-675.293
1742469378.291,-1000.000,-371.582,-102.539,-1000.000
1742469378.295,229.004,704.102,20.508,96.191
1742469378.298,954.102,358.887,380.859,823.730
1742469378.302,-663.086,-782.715,256.836,-720.215
1742469378.306,-1000.000,-273.926,1.953,-1000.000
1742469378.310,-905.762,68.359,-116.699,-869.141
1742469378.314,-1000.000,-147.949,-450.195,-1000.000
1742469378.316,243.164,508.789,-373.535,-101.074
1742469378.320,999.512,447.754,-78.125,983.398
1742469378.324,-389.160,-677.734,-271.973,-404.297
1742469378.328,-1000.000,-454.102,-814.941,-1000.000
1742469378.332,-874.512,95.703,-921.875,-913.086
1742469378.336,601.562,735.352,-474.609,539.062
1742469378.340,995.117,456.055,89.844,978.027
1742469378.343,-632.324,-728.516,30.762,-684.082
1742469378.347,-1000.000,-543.457,-698.730,-1000.000
1742469378.351,-1000.000,-205.566,-916.504,-1000.000
1742469378.355,-191.406,298.828,-571.289,-482.422
1742469378.359,999.512,563.965,-119.629,873.047
1742469378.316,243.164,508.789,-373.535,-101.074
1742469378.320,999.512,447.754,-78.125,983.398
1742469378.324,-389.160,-677.734,-271.973,-404.297
1742469378.328,-1000.000,-454.102,-814.941,-1000.000
1742469378.332,-874.512,95.703,-921.875,-913.086
1742469378.336,601.562,735.352,-474.609,539.062
1742469378.340,995.117,456.055,89.844,978.027
1742469378.343,-632.324,-728.516,30.762,-684.082
1742469378.347,-1000.000,-543.457,-698.730,-1000.000
1742469378.351,-1000.000,-205.566,-916.504,-1000.000
1742469378.355,-191.406,298.828,-571.289,-482.422
1742469378.359,999.512,563.965,-119.629,873.047
1742469378.361,-230.469,-579.590,83.008,-356.934
1742469378.365,-1000.000,-538.574,-209.961,-1000.000
1742469378.369,-969.238,128.906,-245.117,-992.188
1742469378.373,160.156,466.797,50.781,-120.117
1742469378.377,999.512,479.980,246.094,999.512
1742469378.381,809.082,163.086,532.227,828.613
1742469378.385,-478.516,-492.676,619.629,-510.742
1742469378.388,-1000.000,-480.469,177.246,-1000.000
1742469378.392,-787.598,96.191,111.816,-767.578
1742469378.396,678.711,454.102,357.910,638.672
1742469378.400,-98.145,-503.418,50.293,-185.547
1742469378.404,-1000.000,-430.664,-121.094,-1000.000
1742469378.361,-230.469,-579.590,83.008,-356.934
1742469378.365,-1000.000,-538.574,-209.961,-1000.000
1742469378.369,-969.238,128.906,-245.117,-992.188
1742469378.373,160.156,466.797,50.781,-120.117
1742469378.377,999.512,479.980,246.094,999.512
1742469378.381,809.082,163.086,532.227,828.613
1742469378.385,-478.516,-492.676,619.629,-510.742
1742469378.388,-1000.000,-480.469,177.246,-1000.000
1742469378.392,-787.598,96.191,111.816,-767.578
1742469378.396,678.711,454.102,357.910,638.672
1742469378.400,-98.145,-503.418,50.293,-185.547
1742469378.404,-1000.000,-430.664,-121.094,-1000.000
1742469378.406,-989.258,-0.977,-92.285,-978.027
1742469378.410,-853.027,-140.137,-177.246,-888.672
1742469378.414,730.957,680.664,180.176,706.055
1742469378.418,947.266,113.281,359.375,880.371
1742469378.422,-637.207,-665.039,56.152,-719.238
1742469378.426,-1000.000,67.383,-76.172,-1000.000
1742469378.430,-1000.000,55.664,-47.363,-1000.000
1742469378.433,263.184,427.734,-131.348,122.559
1742469378.437,999.512,316.895,46.875,980.957
1742469378.441,-535.156,-768.066,103.027,-519.043
1742469378.445,-1000.000,-294.434,-120.605,-1000.000
1742469378.449,-527.344,524.414,-170.898,-528.320
1742469378.406,-989.258,-0.977,-92.285,-978.027
1742469378.410,-853.027,-140.137,-177.246,-888.672
1742469378.414,730.957,680.664,180.176,706.055
1742469378.418,947.266,113.281,359.375,880.371
1742469378.422,-637.207,-665.039,56.152,-719.238
1742469378.426,-1000.000,67.383,-76.172,-1000.000
1742469378.430,-1000.000,55.664,-47.363,-1000.000
1742469378.433,263.184,427.734,-131.348,122.559
1742469378.437,999.512,316.895,46.875,980.957
1742469378.441,-535.156,-768.066,103.027,-519.043
1742469378.445,-1000.000,-294.434,-120.605,-1000.000
1742469378.449,-527.344,524.414,-170.898,-528.320
1742469378.451,999.512,490.723,-84.961,944.824
1742469378.455,344.727,-438.965,-81.055,261.230
1742469378.459,-1000.000,-444.336,-18.555,-1000.000
1742469378.463,176.270,567.871,-167.969,243.652
1742469378.467,999.512,378.418,-225.098,999.512
1742469378.471,858.398,61.523,153.809,625.977
1742469378.475,999.512,304.199,414.551,999.512
1742469378.478,86.426,-289.062,416.504,229.980
1742469378.482,-1000.000,-855.469,-44.922,-1000.000
1742469378.486,-843.750,-166.016,-337.891,-835.938
1742469378.490,519.043,654.297,65.430,562.988
1742469378.494,999.512,325.684,401.367,999.512
1742469378.497,799.805,-167.480,482.910,752.441
1742469378.501,-682.129,-597.656,277.832,-729.492
1742469378.505,-1000.000,37.598,289.551,-880.371
1742469378.509,694.336,619.629,514.648,770.508
1742469378.513,999.512,73.242,519.531,999.512
1742469378.517,-488.281,-450.195,493.652,-405.273
1742469378.521,-1000.000,-330.078,375.000,-1000.000
1742469378.524,-857.910,-140.137,80.078,-873.535
1742469378.528,416.992,519.043,160.156,407.715
1742469378.532,999.512,357.422,568.359,999.512
1742469378.536,891.602,16.602,784.180,919.922
1742469378.540,-438.965,-530.273,714.844,-393.066
1742469378.497,799.805,-167.480,482.910,752.441
1742469378.501,-682.129,-597.656,277.832,-729.492
1742469378.505,-1000.000,37.598,289.551,-880.371
1742469378.509,694.336,619.629,514.648,770.508
1742469378.513,999.512,73.242,519.531,999.512
1742469378.517,-488.281,-450.195,493.652,-405.273
1742469378.521,-1000.000,-330.078,375.000,-1000.000
1742469378.524,-857.910,-140.137,80.078,-873.535
1742469378.528,416.992,519.043,160.156,407.715
1742469378.532,999.512,357.422,568.359,999.512
1742469378.536,891.602,16.602,784.180,919.922
1742469378.540,-438.965,-530.273,714.844,-393.066
1742469378.540,-1000.000,-511.230,389.160,-1000.000
1742469378.544,291.504,614.746,369.141,350.098
1742469378.548,999.512,447.266,605.957,999.512
1742469378.552,-209.473,-520.020,551.758,-205.566
1742469378.556,-1000.000,-213.867,265.625,-1000.000
1742469378.560,-989.258,-21.484,-111.328,-1000.000
1742469378.564,-946.777,184.570,-349.609,-912.598
1742469378.567,665.039,683.105,-194.824,672.852
1742469378.571,817.871,-279.785,-75.195,569.824
1742469378.575,-876.953,-773.438,-133.789,-948.242
1742469378.579,-1000.000,-80.566,-103.027,-1000.000
1742469378.583,448.730,690.918,-91.797,331.055
1742469378.540,-1000.000,-511.230,389.160,-1000.000
1742469378.544,291.504,614.746,369.141,350.098
1742469378.548,999.512,447.266,605.957,999.512
1742469378.552,-209.473,-520.020,551.758,-205.566
1742469378.556,-1000.000,-213.867,265.625,-1000.000
1742469378.560,-989.258,-21.484,-111.328,-1000.000
1742469378.564,-946.777,184.570,-349.609,-912.598
1742469378.567,665.039,683.105,-194.824,672.852
1742469378.571,817.871,-279.785,-75.195,569.824
1742469378.575,-876.953,-773.438,-133.789,-948.242
1742469378.579,-1000.000,-80.566,-103.027,-1000.000
1742469378.583,448.730,690.918,-91.797,331.055
1742469378.586,976.562,327.637,67.383,943.848
1742469378.590,-680.664,-767.578,26.367,-690.918
1742469378.594,-1000.000,-232.422,-140.625,-1000.000
1742469378.598,-1000.000,-19.531,-227.051,-1000.000
1742469378.602,-592.285,178.223,-227.051,-694.336
1742469378.606,922.852,769.531,-53.711,780.762
1742469378.610,52.246,-259.766,-283.203,-12.207
1742469378.613,-1000.000,-662.598,-713.379,-1000.000
1742469378.617,-868.652,-97.168,-983.887,-881.836
1742469378.621,462.402,513.184,-842.285,422.852
1742469378.625,999.512,335.938,-370.605,999.512
1742469378.629,921.387,-8.789,-46.387,905.273
1742469378.586,976.562,327.637,67.383,943.848
1742469378.590,-680.664,-767.578,26.367,-690.918
1742469378.594,-1000.000,-232.422,-140.625,-1000.000
1742469378.598,-1000.000,-19.531,-227.051,-1000.000
1742469378.602,-592.285,178.223,-227.051,-694.336
1742469378.606,922.852,769.531,-53.711,780.762
1742469378.610,52.246,-259.766,-283.203,-12.207
1742469378.613,-1000.000,-662.598,-713.379,-1000.000
1742469378.617,-868.652,-97.168,-983.887,-881.836
1742469378.621,462.402,513.184,-842.285,422.852
1742469378.625,999.512,335.938,-370.605,999.512
1742469378.629,921.387,-8.789,-46.387,905.273
1742469378.646,-483.398,-684.082,95.215,-495.605
1742469378.650,-1000.000,-418.457,-1.953,-1000.000
1742469378.654,649.414,830.078,163.574,664.062
1742469378.658,999.512,296.387,434.082,999.512
1742469378.662,-681.152,-816.406,435.059,-695.312
1742469378.666,-914.551,30.273,298.828,-805.664
1742469378.670,654.297,683.105,5.859,711.914
1742469378.673,-541.504,-729.004,-252.441,-584.473
1742469378.677,-1000.000,-444.824,-332.031,-1000.000
1742469378.681,703.125,694.336,-242.188,744.629
1742469378.685,992.676,52.734,-76.172,979.980
1742469378.689,-664.062,-787.598,-156.250,-674.805
1742469378.646,-483.398,-684.082,95.215,-495.605
1742469378.650,-1000.000,-418.457,-1.953,-1000.000
1742469378.654,649.414,830.078,163.574,664.062
1742469378.658,999.512,296.387,434.082,999.512
1742469378.662,-681.152,-816.406,435.059,-695.312
1742469378.666,-914.551,30.273,298.828,-805.664
1742469378.670,654.297,683.105,5.859,711.914
1742469378.673,-541.504,-729.004,-252.441,-584.473
1742469378.677,-1000.000,-444.824,-332.031,-1000.000
1742469378.681,703.125,694.336,-242.188,744.629
1742469378.685,992.676,52.734,-76.172,979.980
1742469378.689,-664.062,-787.598,-156.250,-674.805
1742469378.646,-483.398,-684.082,95.215,-495.605
1742469378.650,-1000.000,-418.457,-1.953,-1000.000
1742469378.654,649.414,830.078,163.574,664.062
1742469378.658,999.512,296.387,434.082,999.512
1742469378.662,-681.152,-816.406,435.059,-695.312
1742469378.666,-914.551,30.273,298.828,-805.664
1742469378.670,654.297,683.105,5.859,711.914
1742469378.673,-541.504,-729.004,-252.441,-584.473
1742469378.677,-1000.000,-444.824,-332.031,-1000.000
1742469378.681,703.125,694.336,-242.188,744.629
1742469378.685,992.676,52.734,-76.172,979.980
1742469378.689,-664.062,-787.598,-156.250,-674.805
1742469378.690,-1000.000,-293.945,-368.164,-1000.000
1742469378.694,298.340,589.355,-235.840,330.078
1742469378.698,999.512,469.238,88.867,999.512
1742469378.702,-45.898,-474.121,55.664,-144.043
1742469378.706,-1000.000,-517.578,-365.723,-1000.000
1742469378.710,-1000.000,20.508,-533.203,-1000.000
1742469378.714,375.488,652.832,-194.824,-37.109
1742469378.717,890.137,111.816,-92.773,575.684
1742469378.721,-804.688,-747.559,-251.953,-885.742
1742469378.725,-1000.000,-136.719,-233.887,-1000.000
1742469378.729,-1000.000,-8.301,-655.762,-1000.000
1742469378.733,-854.980,160.645,-1000.000,-847.168
1742469378.690,-1000.000,-293.945,-368.164,-1000.000
1742469378.694,298.340,589.355,-235.840,330.078
1742469378.698,999.512,469.238,88.867,999.512
1742469378.702,-45.898,-474.121,55.664,-144.043
1742469378.706,-1000.000,-517.578,-365.723,-1000.000
1742469378.710,-1000.000,20.508,-533.203,-1000.000
1742469378.714,375.488,652.832,-194.824,-37.109
1742469378.717,890.137,111.816,-92.773,575.684
1742469378.721,-804.688,-747.559,-251.953,-885.742
1742469378.725,-1000.000,-136.719,-233.887,-1000.000
1742469378.729,-1000.000,-8.301,-655.762,-1000.000
1742469378.733,-854.980,160.645,-1000.000,-847.168
1742469378.736,738.770,519.531,-501.465,657.227
1742469378.740,-43.457,-553.223,-332.520,-195.801
1742469378.744,-1000.000,-391.602,-316.406,-1000.000
1742469378.748,-1000.000,38.086,-235.840,-998.535
1742469378.752,-525.879,154.297,-181.152,-810.547
1742469378.756,973.633,815.918,337.891,804.688
1742469378.760,798.828,46.875,620.117,675.293
1742469378.763,-679.688,-598.145,469.727,-805.176
1742469378.767,-1000.000,-435.059,119.629,-1000.000
1742469378.771,-875.488,-217.285,-52.246,-882.324
1742469378.775,602.539,663.086,295.410,609.375
1742469378.779,975.586,174.316,501.465,981.445
1742469378.736,738.770,519.531,-501.465,657.227
1742469378.740,-43.457,-553.223,-332.520,-195.801
1742469378.744,-1000.000,-391.602,-316.406,-1000.000
1742469378.748,-1000.000,38.086,-235.840,-998.535
1742469378.752,-525.879,154.297,-181.152,-810.547
1742469378.756,973.633,815.918,337.891,804.688
1742469378.760,798.828,46.875,620.117,675.293
1742469378.763,-679.688,-598.145,469.727,-805.176
1742469378.767,-1000.000,-435.059,119.629,-1000.000
1742469378.771,-875.488,-217.285,-52.246,-882.324
1742469378.775,602.539,663.086,295.410,609.375
1742469378.779,975.586,174.316,501.465,981.445
1742469378.782,-684.082,-870.605,332.031,-671.875
1742469378.786,-1000.000,-336.426,13.672,-1000.000
1742469378.790,-1000.000,152.832,-18.555,-1000.000
1742469378.794,-509.277,251.953,-4.883,-547.852
1742469378.798,890.137,405.762,-48.340,811.035
1742469378.802,-337.891,-449.219,-112.305,-416.504
1742469378.806,-1000.000,-367.188,-443.848,-1000.000
1742469378.809,-1000.000,-250.000,-773.438,-1000.000
1742469378.813,71.777,269.043,-339.355,-522.949
1742469378.817,977.539,415.527,351.074,693.848
1742469378.821,-613.770,-647.949,437.988,-591.309
1742469378.825,-1000.000,-252.930,21.484,-1000.000
1742469378.782,-684.082,-870.605,332.031,-671.875
1742469378.786,-1000.000,-336.426,13.672,-1000.000
1742469378.790,-1000.000,152.832,-18.555,-1000.000
1742469378.794,-509.277,251.953,-4.883,-547.852
1742469378.798,890.137,405.762,-48.340,811.035
1742469378.802,-337.891,-449.219,-112.305,-416.504
1742469378.806,-1000.000,-367.188,-443.848,-1000.000
1742469378.809,-1000.000,-250.000,-773.438,-1000.000
1742469378.813,71.777,269.043,-339.355,-522.949
1742469378.817,977.539,415.527,351.074,693.848
1742469378.821,-613.770,-647.949,437.988,-591.309
1742469378.825,-1000.000,-252.930,21.484,-1000.000
1742469378.826,-1000.000,-85.938,-222.656,-1000.000
1742469378.830,-468.750,158.691,18.555,-763.184
1742469378.834,759.766,563.965,372.070,522.461
1742469378.838,-507.812,-566.895,309.570,-505.371
1742469378.842,-1000.000,-200.195,154.785,-1000.000
1742469378.846,-916.016,234.863,178.223,-1000.000
1742469378.850,507.324,633.301,167.969,83.984
1742469378.853,968.262,337.891,408.203,823.242
1742469378.857,-634.766,-829.590,190.430,-721.680
1742469378.861,-1000.000,-425.781,-265.137,-1000.000
1742469378.865,-969.238,25.879,-192.871,-1000.000
1742469378.869,430.176,640.625,126.953,125.000
1742469378.826,-1000.000,-85.938,-222.656,-1000.000
1742469378.830,-468.750,158.691,18.555,-763.184
1742469378.834,759.766,563.965,372.070,522.461
1742469378.838,-507.812,-566.895,309.570,-505.371
1742469378.842,-1000.000,-200.195,154.785,-1000.000
1742469378.846,-916.016,234.863,178.223,-1000.000
1742469378.850,507.324,633.301,167.969,83.984
1742469378.853,968.262,337.891,408.203,823.242
1742469378.857,-634.766,-829.590,190.430,-721.680
1742469378.861,-1000.000,-425.781,-265.137,-1000.000
1742469378.865,-969.238,25.879,-192.871,-1000.000
1742469378.869,430.176,640.625,126.953,125.000
1742469378.871,991.211,363.281,477.539,920.898
1742469378.875,-686.035,-767.578,403.809,-704.590
1742469378.879,-1000.000,-222.168,168.945,-1000.000
1742469378.883,-961.914,-18.555,-10.742,-964.844
1742469378.887,-976.074,-125.000,-136.230,-980.469
1742469378.891,655.273,781.738,88.867,647.949
1742469378.895,812.500,193.359,196.777,641.113
1742469378.898,-775.879,-783.691,-197.754,-865.723
1742469378.902,-1000.000,-382.812,-537.109,-1000.000
1742469378.906,-812.988,9.277,-492.188,-818.359
1742469378.910,759.277,668.945,-118.164,730.469
1742469378.914,674.316,-21.973,28.809,442.383
1742469378.871,991.211,363.281,477.539,920.898
1742469378.875,-686.035,-767.578,403.809,-704.590
1742469378.879,-1000.000,-222.168,168.945,-1000.000
1742469378.883,-961.914,-18.555,-10.742,-964.844
1742469378.887,-976.074,-125.000,-136.230,-980.469
1742469378.891,655.273,781.738,88.867,647.949
1742469378.895,812.500,193.359,196.777,641.113
1742469378.898,-775.879,-783.691,-197.754,-865.723
1742469378.902,-1000.000,-382.812,-537.109,-1000.000
1742469378.906,-812.988,9.277,-492.188,-818.359
1742469378.910,759.277,668.945,-118.164,730.469
1742469378.914,674.316,-21.973,28.809,442.383
1742469378.915,-865.234,-636.719,-182.129,-953.125
1742469378.919,-1000.000,-121.094,-269.531,-1000.000
1742469378.923,-719.238,205.566,-270.996,-769.531
1742469378.927,835.449,604.004,-131.348,775.879
1742469378.931,780.273,-29.297,50.781,577.148
1742469378.935,-766.113,-332.031,-1.465,-865.234
1742469378.939,-1000.000,35.645,-316.406,-1000.000
1742469378.942,-875.977,64.941,-477.051,-828.125
1742469378.946,591.309,424.316,-481.445,661.621
1742469378.950,999.512,-21.484,-417.969,780.273
1742469378.954,-744.629,-719.727,-398.926,-912.598
1742469378.958,-1000.000,29.297,-324.707,-855.957
1742469378.915,-865.234,-636.719,-182.129,-953.125
1742469378.919,-1000.000,-121.094,-269.531,-1000.000
1742469378.923,-719.238,205.566,-270.996,-769.531
1742469378.927,835.449,604.004,-131.348,775.879
1742469378.931,780.273,-29.297,50.781,577.148
1742469378.935,-766.113,-332.031,-1.465,-865.234
1742469378.939,-1000.000,35.645,-316.406,-1000.000
1742469378.942,-875.977,64.941,-477.051,-828.125
1742469378.946,591.309,424.316,-481.445,661.621
1742469378.950,999.512,-21.484,-417.969,780.273
1742469378.954,-744.629,-719.727,-398.926,-912.598
1742469378.958,-1000.000,29.297,-324.707,-855.957
1742469378.961,874.512,640.137,-107.422,868.164
1742469378.965,190.430,-507.812,41.504,-3.418
1742469378.969,-934.082,-297.852,115.723,-833.496
1742469378.973,841.309,745.117,191.406,880.371
1742469378.977,-104.492,-481.445,142.090,-192.871
1742469378.981,-1000.000,-185.547,137.695,-983.398
1742469378.985,701.660,707.031,448.730,720.703
1742469378.988,999.512,-71.777,388.184,999.512
1742469378.992,-400.879,-721.191,109.375,-260.254
1742469378.996,-1000.000,-381.836,-144.531,-1000.000
1742469379.000,395.508,628.418,-240.723,487.793
1742469379.004,999.512,426.270,134.277,999.512
1742469378.961,874.512,640.137,-107.422,868.164
1742469378.965,190.430,-507.812,41.504,-3.418
1742469378.969,-934.082,-297.852,115.723,-833.496
1742469378.973,841.309,745.117,191.406,880.371
1742469378.977,-104.492,-481.445,142.090,-192.871
1742469378.981,-1000.000,-185.547,137.695,-983.398
1742469378.985,701.660,707.031,448.730,720.703
1742469378.988,999.512,-71.777,388.184,999.512
1742469378.992,-400.879,-721.191,109.375,-260.254
1742469378.996,-1000.000,-381.836,-144.531,-1000.000
1742469379.000,395.508,628.418,-240.723,487.793
1742469379.004,999.512,426.270,134.277,999.512
1742469378.961,874.512,640.137,-107.422,868.164
1742469378.965,190.430,-507.812,41.504,-3.418
1742469378.969,-934.082,-297.852,115.723,-833.496
1742469378.973,841.309,745.117,191.406,880.371
1742469378.977,-104.492,-481.445,142.090,-192.871
1742469378.981,-1000.000,-185.547,137.695,-983.398
1742469378.985,701.660,707.031,448.730,720.703
1742469378.988,999.512,-71.777,388.184,999.512
1742469378.992,-400.879,-721.191,109.375,-260.254
1742469378.996,-1000.000,-381.836,-144.531,-1000.000
1742469379.000,395.508,628.418,-240.723,487.793
1742469379.004,999.512,426.270,134.277,999.512
1742469379.021,957.520,45.898,523.926,982.910
1742469379.025,-432.617,-708.008,498.047,-330.566
1742469379.029,-1000.000,-355.469,240.723,-995.605
1742469379.033,648.926,748.535,189.941,665.527
1742469379.037,999.512,264.648,285.156,999.512
1742469379.041,963.867,260.254,440.430,939.453
1742469379.045,782.227,65.430,510.254,897.949
1742469379.048,-811.523,-780.273,233.398,-703.613
1742469379.052,-970.215,-349.121,-302.246,-956.055
1742469379.056,602.051,556.152,-320.312,665.527
1742469379.060,999.512,189.453,-22.949,999.512
1742469379.064,999.512,14.648,28.809,999.512
1742469379.021,957.520,45.898,523.926,982.910
1742469379.025,-432.617,-708.008,498.047,-330.566
1742469379.029,-1000.000,-355.469,240.723,-995.605
1742469379.033,648.926,748.535,189.941,665.527
1742469379.037,999.512,264.648,285.156,999.512
1742469379.041,963.867,260.254,440.430,939.453
1742469379.045,782.227,65.430,510.254,897.949
1742469379.048,-811.523,-780.273,233.398,-703.613
1742469379.052,-970.215,-349.121,-302.246,-956.055
1742469379.056,602.051,556.152,-320.312,665.527
1742469379.060,999.512,189.453,-22.949,999.512
1742469379.064,999.512,14.648,28.809,999.512
1742469379.067,-259.766,-548.340,-46.875,-74.707
1742469379.071,-1000.000,-541.016,-271.973,-1000.000
1742469379.075,507.324,715.820,74.707,498.535
1742469379.079,999.512,266.113,483.398,999.512
1742469379.083,247.070,-441.406,407.715,185.059
1742469379.087,-929.688,-187.012,388.184,-926.758
1742469379.091,-1000.000,-117.676,205.078,-1000.000
1742469379.094,-159.668,155.273,-35.156,-82.031
1742469379.098,999.512,440.918,-60.547,999.512
1742469379.102,692.383,-278.809,-48.828,559.082
1742469379.106,-916.016,-552.246,-31.738,-872.070
1742469379.110,-302.734,324.219,-47.363,-166.504
1742469379.067,-259.766,-548.340,-46.875,-74.707
1742469379.071,-1000.000,-541.016,-271.973,-1000.000
1742469379.075,507.324,715.820,74.707,498.535
1742469379.079,999.512,266.113,483.398,999.512
1742469379.083,247.070,-441.406,407.715,185.059
1742469379.087,-929.688,-187.012,388.184,-926.758
1742469379.091,-1000.000,-117.676,205.078,-1000.000
1742469379.094,-159.668,155.273,-35.156,-82.031
1742469379.098,999.512,440.918,-60.547,999.512
1742469379.102,692.383,-278.809,-48.828,559.082
1742469379.106,-916.016,-552.246,-31.738,-872.070
1742469379.110,-302.734,324.219,-47.363,-166.504
1742469379.111,999.512,459.473,138.184,999.512
1742469379.115,913.086,-153.320,350.586,923.340
1742469379.119,-625.977,-712.402,353.027,-594.238
1742469379.123,-1000.000,-223.633,253.418,-977.539
1742469379.127,822.266,807.617,36.621,892.578
1742469379.131,453.125,-166.992,54.199,347.656
1742469379.135,-999.512,-425.293,117.676,-936.035
1742469379.138,699.219,770.020,85.449,762.695
1742469379.142,607.910,-262.207,-66.895,577.637
1742469379.146,-1000.000,-877.441,-543.945,-1000.000
1742469379.150,86.914,506.348,-552.246,196.777
1742469379.154,999.512,549.316,-121.582,999.512
1742469379.111,999.512,459.473,138.184,999.512
1742469379.115,913.086,-153.320,350.586,923.340
1742469379.119,-625.977,-712.402,353.027,-594.238
1742469379.123,-1000.000,-223.633,253.418,-977.539
1742469379.127,822.266,807.617,36.621,892.578
1742469379.131,453.125,-166.992,54.199,347.656
1742469379.135,-999.512,-425.293,117.676,-936.035
1742469379.138,699.219,770.020,85.449,762.695
1742469379.142,607.910,-262.207,-66.895,577.637
1742469379.146,-1000.000,-877.441,-543.945,-1000.000
1742469379.150,86.914,506.348,-552.246,196.777
1742469379.154,999.512,549.316,-121.582,999.512
1742469379.156,863.281,-69.824,26.855,886.230
1742469379.160,-375.488,-632.812,-88.379,-334.961
1742469379.164,-1000.000,-494.629,-426.758,-1000.000
1742469379.168,-451.172,310.059,-605.469,-303.711
1742469379.172,807.129,546.387,-271.484,851.074
1742469379.176,999.512,335.938,232.910,999.512
1742469379.180,824.219,69.336,262.695,888.184
1742469379.183,-556.152,-723.633,-161.621,-520.508
1742469379.187,-1000.000,-664.062,-812.988,-1000.000
1742469379.191,95.703,359.375,-936.035,259.766
1742469379.195,999.512,533.691,-294.922,999.512
1742469379.199,866.699,-110.352,94.727,812.500
1742469379.156,863.281,-69.824,26.855,886.230
1742469379.160,-375.488,-632.812,-88.379,-334.961
1742469379.164,-1000.000,-494.629,-426.758,-1000.000
1742469379.168,-451.172,310.059,-605.469,-303.711
1742469379.172,807.129,546.387,-271.484,851.074
1742469379.176,999.512,335.938,232.910,999.512
1742469379.180,824.219,69.336,262.695,888.184
1742469379.183,-556.152,-723.633,-161.621,-520.508
1742469379.187,-1000.000,-664.062,-812.988,-1000.000
1742469379.191,95.703,359.375,-936.035,259.766
1742469379.195,999.512,533.691,-294.922,999.512
1742469379.199,866.699,-110.352,94.727,812.500
1742469379.200,-661.621,-757.324,-40.039,-715.820
1742469379.204,-981.445,-108.887,-162.109,-904.297
1742469379.208,594.238,709.961,25.879,659.180
1742469379.212,999.512,219.727,255.371,999.512
1742469379.216,840.332,-110.840,240.723,871.094
1742469379.220,-629.883,-599.121,175.781,-602.539
1742469379.224,-1000.000,-81.543,48.340,-964.355
1742469379.227,613.281,665.527,70.801,663.086
1742469379.231,999.512,-133.789,-24.414,999.512
1742469379.235,-159.668,-658.691,-99.121,32.715
1742469379.239,-1000.000,-394.531,-83.008,-1000.000
1742469379.243,-935.547,-126.465,-288.574,-966.797
1742469379.246,339.355,530.273,-198.242,347.168
1742469379.250,999.512,434.082,174.316,999.512
1742469379.254,947.754,-65.430,279.297,978.516
1742469379.258,-416.016,-651.855,134.766,-311.523
1742469379.262,-1000.000,-426.758,-177.734,-1000.000
1742469379.266,476.562,746.582,12.695,490.234
1742469379.270,999.512,391.113,409.668,999.512
1742469379.273,806.641,-387.207,274.414,807.129
1742469379.277,-691.406,-792.480,133.789,-702.637
1742469379.281,-958.008,-94.238,-74.219,-792.969
1742469379.285,620.605,579.590,-154.785,750.488
1742469379.289,999.512,139.648,-15.137,999.512
1742469379.246,339.355,530.273,-198.242,347.168
1742469379.250,999.512,434.082,174.316,999.512
1742469379.254,947.754,-65.430,279.297,978.516
1742469379.258,-416.016,-651.855,134.766,-311.523
1742469379.262,-1000.000,-426.758,-177.734,-1000.000
1742469379.266,476.562,746.582,12.695,490.234
1742469379.270,999.512,391.113,409.668,999.512
1742469379.273,806.641,-387.207,274.414,807.129
1742469379.277,-691.406,-792.480,133.789,-702.637
1742469379.281,-958.008,-94.238,-74.219,-792.969
1742469379.285,620.605,579.590,-154.785,750.488
1742469379.289,999.512,139.648,-15.137,999.512
1742469379.292,866.699,99.609,144.043,924.316
1742469379.296,-523.926,-640.625,-30.762,-450.195
1742469379.300,-1000.000,-411.133,-339.355,-1000.000
1742469379.304,517.578,780.273,-218.750,554.688
1742469379.308,999.512,257.324,-98.145,999.512
1742469379.312,-682.129,-613.770,-185.059,-683.594
1742469379.316,-1000.000,-33.203,-247.559,-1000.000
1742469379.319,518.555,643.555,-430.176,409.668
1742469379.323,119.629,-431.641,-637.207,-117.188
1742469379.327,-1000.000,-607.422,-589.355,-1000.000
1742469379.331,643.066,762.695,-321.289,698.730
1742469379.335,999.512,172.363,-152.344,928.711
1742469379.292,866.699,99.609,144.043,924.316
1742469379.296,-523.926,-640.625,-30.762,-450.195
1742469379.300,-1000.000,-411.133,-339.355,-1000.000
1742469379.304,517.578,780.273,-218.750,554.688
1742469379.308,999.512,257.324,-98.145,999.512
1742469379.312,-682.129,-613.770,-185.059,-683.594
1742469379.316,-1000.000,-33.203,-247.559,-1000.000
1742469379.319,518.555,643.555,-430.176,409.668
1742469379.323,119.629,-431.641,-637.207,-117.188
1742469379.327,-1000.000,-607.422,-589.355,-1000.000
1742469379.331,643.066,762.695,-321.289,698.730
1742469379.335,999.512,172.363,-152.344,928.711
1742469379.351,-686.035,-750.977,-302.734,-757.324
1742469379.355,-1000.000,-307.617,-631.836,-1000.000
1742469379.359,479.004,763.184,-522.949,454.102
1742469379.363,999.512,390.625,-116.211,999.512
1742469379.367,-691.406,-870.605,-441.406,-711.426
1742469379.371,-1000.000,-26.367,-787.598,-1000.000
1742469379.375,813.965,828.613,-676.758,831.543
1742469379.378,594.238,-375.488,-518.555,353.027
1742469379.382,-916.016,-621.094,-493.652,-946.777
1742469379.386,561.035,631.348,-519.531,608.887
1742469379.390,999.512,338.867,-346.191,999.512
1742469379.394,-708.008,-793.457,-246.094,-698.242
1742469379.351,-686.035,-750.977,-302.734,-757.324
1742469379.355,-1000.000,-307.617,-631.836,-1000.000
1742469379.359,479.004,763.184,-522.949,454.102
1742469379.363,999.512,390.625,-116.211,999.512
1742469379.367,-691.406,-870.605,-441.406,-711.426
1742469379.371,-1000.000,-26.367,-787.598,-1000.000
1742469379.375,813.965,828.613,-676.758,831.543
1742469379.378,594.238,-375.488,-518.555,353.027
1742469379.382,-916.016,-621.094,-493.652,-946.777
1742469379.386,561.035,631.348,-519.531,608.887
1742469379.390,999.512,338.867,-346.191,999.512
1742469379.394,-708.008,-793.457,-246.094,-698.242
1742469379.396,-1000.000,-256.348,-313.477,-905.762
1742469379.400,703.613,622.070,-274.902,782.227
1742469379.404,999.512,130.371,37.598,999.512
1742469379.408,-624.023,-790.039,72.266,-604.492
1742469379.412,-1000.000,-365.723,-246.582,-1000.000
1742469379.416,533.203,745.117,61.035,529.297
1742469379.420,999.512,390.137,363.770,999.512
1742469379.423,574.219,-277.832,313.965,532.227
1742469379.427,-869.629,-719.727,142.578,-844.727
1742469379.431,-1000.000,-365.723,-238.281,-1000.000
1742469379.435,447.754,634.277,61.523,423.340
1742469379.439,999.512,457.031,455.078,999.512
1742469379.396,-1000.000,-256.348,-313.477,-905.762
1742469379.400,703.613,622.070,-274.902,782.227
1742469379.404,999.512,130.371,37.598,999.512
1742469379.408,-624.023,-790.039,72.266,-604.492
1742469379.412,-1000.000,-365.723,-246.582,-1000.000
1742469379.416,533.203,745.117,61.035,529.297
1742469379.420,999.512,390.137,363.770,999.512
1742469379.423,574.219,-277.832,313.965,532.227
1742469379.427,-869.629,-719.727,142.578,-844.727
1742469379.431,-1000.000,-365.723,-238.281,-1000.000
1742469379.435,447.754,634.277,61.523,423.340
1742469379.439,999.512,457.031,455.078,999.512
1742469379.441,496.582,-315.918,372.070,379.395
1742469379.445,-958.008,-698.730,163.574,-986.816
1742469379.449,-900.879,41.992,-0.977,-779.785
1742469379.453,669.922,675.781,138.672,734.863
1742469379.457,996.094,71.289,224.121,983.398
1742469379.461,996.582,78.613,301.758,990.234
1742469379.465,474.121,-72.266,419.922,487.793
1742469379.468,-1000.000,-626.465,5.371,-989.746
1742469379.472,-908.203,-122.070,-318.848,-887.695
1742469379.476,541.016,530.762,-221.191,587.891
1742469379.480,999.512,346.680,48.828,999.512
1742469379.484,411.621,-256.348,60.059,351.074
1742469379.441,496.582,-315.918,372.070,379.395
1742469379.445,-958.008,-698.730,163.574,-986.816
1742469379.449,-900.879,41.992,-0.977,-779.785
1742469379.453,669.922,675.781,138.672,734.863
1742469379.457,996.094,71.289,224.121,983.398
1742469379.461,996.582,78.613,301.758,990.234
1742469379.465,474.121,-72.266,419.922,487.793
1742469379.468,-1000.000,-626.465,5.371,-989.746
1742469379.472,-908.203,-122.070,-318.848,-887.695
1742469379.476,541.016,530.762,-221.191,587.891
1742469379.480,999.512,346.680,48.828,999.512
1742469379.484,411.621,-256.348,60.059,351.074
1742469379.486,-1000.000,-595.215,-252.441,-1000.000
1742469379.490,-853.027,54.688,-278.320,-771.973
1742469379.494,794.434,708.008,245.117,830.078
1742469379.498,995.117,21.973,431.641,947.754
1742469379.502,-712.891,-827.637,273.438,-766.113
1742469379.506,-1000.000,13.184,231.934,-978.516
1742469379.510,760.742,855.469,378.906,777.832
1742469379.513,708.496,-109.375,475.586,459.473
1742469379.517,-1000.000,-970.703,200.684,-1000.000
1742469379.521,-649.414,32.715,44.434,-479.492
1742469379.525,823.242,591.797,175.781,818.848
1742469379.529,-702.637,-761.230,-66.895,-719.727
1742469379.486,-1000.000,-595.215,-252.441,-1000.000
1742469379.490,-853.027,54.688,-278.320,-771.973
1742469379.494,794.434,708.008,245.117,830.078
1742469379.498,995.117,21.973,431.641,947.754
1742469379.502,-712.891,-827.637,273.438,-766.113
1742469379.506,-1000.000,13.184,231.934,-978.516
1742469379.510,760.742,855.469,378.906,777.832
1742469379.513,708.496,-109.375,475.586,459.473
1742469379.517,-1000.000,-970.703,200.684,-1000.000
1742469379.521,-649.414,32.715,44.434,-479.492
1742469379.525,823.242,591.797,175.781,818.848
1742469379.529,-702.637,-761.230,-66.895,-719.727
1742469379.530,-602.051,-22.949,16.602,-493.652
1742469379.534,999.512,653.809,158.691,999.512
1742469379.538,-290.039,-613.770,-185.059,-287.109
1742469379.542,-1000.000,-516.602,-458.008,-1000.000
1742469379.546,-838.867,161.621,-513.672,-806.152
1742469379.550,609.863,730.957,7.812,646.973
1742469379.554,999.512,212.891,491.211,999.512
1742469379.557,-502.930,-768.066,375.488,-499.512
1742469379.561,-1000.000,-448.242,-72.266,-1000.000
1742469379.565,-830.566,9.766,-595.703,-843.750
1742469379.569,445.801,596.680,-410.156,421.387
1742469379.573,999.512,462.891,74.219,999.512
1742469379.530,-602.051,-22.949,16.602,-493.652
1742469379.534,999.512,653.809,158.691,999.512
1742469379.538,-290.039,-613.770,-185.059,-287.109
1742469379.542,-1000.000,-516.602,-458.008,-1000.000
1742469379.546,-838.867,161.621,-513.672,-806.152
1742469379.550,609.863,730.957,7.812,646.973
1742469379.554,999.512,212.891,491.211,999.512
1742469379.557,-502.930,-768.066,375.488,-499.512
1742469379.561,-1000.000,-448.242,-72.266,-1000.000
1742469379.565,-830.566,9.766,-595.703,-843.750
1742469379.569,445.801,596.680,-410.156,421.387
1742469379.573,999.512,462.891,74.219,999.512
1742469379.576,808.105,-18.555,38.574,743.652
1742469379.580,-602.051,-666.992,-375.977,-660.645
1742469379.584,-1000.000,-308.105,-668.457,-1000.000
1742469379.588,398.438,704.590,-481.934,389.160
1742469379.592,999.512,346.191,-153.809,999.512
1742469379.596,948.730,152.344,353.516,957.520
1742469379.600,869.629,106.934,682.129,816.895
1742469379.603,-706.543,-700.684,367.188,-748.535
1742469379.607,-1000.000,-354.492,38.086,-983.887
1742469379.611,634.766,555.176,179.688,667.480
1742469379.615,999.512,169.922,400.879,999.512
1742469379.619,-338.379,-668.457,244.141,-309.570
1742469379.621,-1000.000,-538.574,-116.211,-1000.000
1742469379.625,-233.398,272.949,-94.238,-111.328
1742469379.629,999.512,619.141,345.215,999.512
1742469379.633,913.574,31.250,453.613,871.094
1742469379.637,-702.148,-807.617,70.801,-734.375
1742469379.641,-981.445,61.035,-103.027,-875.000
1742469379.645,934.570,774.902,95.703,959.961
1742469379.648,639.648,-439.453,90.332,526.367
1742469379.652,-888.184,-630.859,46.387,-887.207
1742469379.656,618.652,748.535,254.883,650.391
1742469379.660,999.512,108.398,317.871,936.523
1742469379.664,-673.828,-787.109,242.676,-671.387
1742469379.666,243.164,433.594,350.098,345.215
1742469379.670,999.512,388.672,524.902,999.512
1742469379.674,895.020,-76.660,604.004,934.082
1742469379.678,-525.391,-655.762,524.414,-442.383
1742469379.682,-1000.000,-391.113,315.430,-981.445
1742469379.686,579.590,800.293,438.477,615.234
1742469379.690,999.512,529.297,789.551,999.512
1742469379.693,836.426,-64.453,840.820,875.977
1742469379.697,-625.977,-854.492,456.055,-563.477
1742469379.701,-1000.000,-605.469,-198.730,-1000.000
1742469379.705,522.461,677.734,89.355,533.203
1742469379.709,999.512,424.805,572.754,999.512
1742469379.666,243.164,433.594,350.098,345.215
1742469379.670,999.512,388.672,524.902,999.512
1742469379.674,895.020,-76.660,604.004,934.082
1742469379.678,-525.391,-655.762,524.414,-442.383
1742469379.682,-1000.000,-391.113,315.430,-981.445
1742469379.686,579.590,800.293,438.477,615.234
1742469379.690,999.512,529.297,789.551,999.512
1742469379.693,836.426,-64.453,840.820,875.977
1742469379.697,-625.977,-854.492,456.055,-563.477
1742469379.701,-1000.000,-605.469,-198.730,-1000.000
1742469379.705,522.461,677.734,89.355,533.203
1742469379.709,999.512,424.805,572.754,999.512
1742469379.711,454.590,-372.559,442.871,414.062
1742469379.715,-1000.000,-583.984,196.777,-946.777
1742469379.719,-249.512,370.605,120.605,-71.289
1742469379.723,999.512,477.051,313.965,999.512
1742469379.727,999.512,-50.781,365.234,990.723
1742469379.731,24.902,-200.195,419.434,215.332
1742469379.735,-1000.000,-439.453,305.176,-1000.000
1742469379.738,-870.117,-123.047,-22.461,-924.805
1742469379.742,465.820,545.898,101.562,454.590
1742469379.746,999.512,208.008,270.020,999.512
1742469379.750,659.668,-260.254,254.395,615.234
1742469379.754,-642.090,-555.664,106.445,-651.855
1742469379.711,454.590,-372.559,442.871,414.062
1742469379.715,-1000.000,-583.984,196.777,-946.777
1742469379.719,-249.512,370.605,120.605,-71.289
1742469379.723,999.512,477.051,313.965,999.512
1742469379.727,999.512,-50.781,365.234,990.723
1742469379.731,24.902,-200.195,419.434,215.332
1742469379.735,-1000.000,-439.453,305.176,-1000.000
1742469379.738,-870.117,-123.047,-22.461,-924.805
1742469379.742,465.820,545.898,101.562,454.590
1742469379.746,999.512,208.008,270.020,999.512
1742469379.750,659.668,-260.254,254.395,615.234
1742469379.754,-642.090,-555.664,106.445,-651.855
1742469379.771,-1000.000,-297.363,-78.613,-1000.000
1742469379.775,-553.223,175.781,-9.766,-544.434
1742469379.779,887.695,573.242,320.312,864.746
1742469379.783,933.594,7.812,441.895,946.777
1742469379.787,-561.523,-625.488,190.430,-541.504
1742469379.791,-1000.000,-192.871,3.906,-1000.000
1742469379.795,-176.758,510.254,101.562,-218.262
1742469379.798,999.512,510.742,266.602,999.512
1742469379.802,-9.766,-652.344,176.270,-6.836
1742469379.806,-1000.000,-707.031,-147.949,-1000.000
1742469379.810,405.762,737.793,-380.371,461.914
1742469379.814,999.512,297.852,-479.492,999.512
1742469379.771,-1000.000,-297.363,-78.613,-1000.000
1742469379.775,-553.223,175.781,-9.766,-544.434
1742469379.779,887.695,573.242,320.312,864.746
1742469379.783,933.594,7.812,441.895,946.777
1742469379.787,-561.523,-625.488,190.430,-541.504
1742469379.791,-1000.000,-192.871,3.906,-1000.000
1742469379.795,-176.758,510.254,101.562,-218.262
1742469379.798,999.512,510.742,266.602,999.512
1742469379.802,-9.766,-652.344,176.270,-6.836
1742469379.806,-1000.000,-707.031,-147.949,-1000.000
1742469379.810,405.762,737.793,-380.371,461.914
1742469379.814,999.512,297.852,-479.492,999.512
1742469379.815,-790.039,-904.785,-523.926,-756.836
1742469379.819,-225.098,186.035,-591.309,-64.453
1742469379.823,999.512,582.520,-610.840,999.512
1742469379.827,-146.973,-612.793,-667.969,-112.305
1742469379.831,-1000.000,-423.340,-760.254,-980.957
1742469379.835,664.062,734.863,-362.793,693.848
1742469379.839,971.680,223.633,36.133,984.375
1742469379.842,-618.652,-786.621,-104.980,-604.004
1742469379.846,-1000.000,-394.043,-332.520,-1000.000
1742469379.850,-889.160,-57.129,-355.469,-943.359
1742469379.854,564.453,678.711,-10.742,499.512
1742469379.858,999.512,279.297,275.879,995.605
1742469379.815,-790.039,-904.785,-523.926,-756.836
1742469379.819,-225.098,186.035,-591.309,-64.453
1742469379.823,999.512,582.520,-610.840,999.512
1742469379.827,-146.973,-612.793,-667.969,-112.305
1742469379.831,-1000.000,-423.340,-760.254,-980.957
1742469379.835,664.062,734.863,-362.793,693.848
1742469379.839,971.680,223.633,36.133,984.375
1742469379.842,-618.652,-786.621,-104.980,-604.004
1742469379.846,-1000.000,-394.043,-332.520,-1000.000
1742469379.850,-889.160,-57.129,-355.469,-943.359
1742469379.854,564.453,678.711,-10.742,499.512
1742469379.858,999.512,279.297,275.879,995.605
1742469379.861,-786.621,-807.617,245.117,-809.082
1742469379.865,-678.711,69.824,175.293,-454.590
1742469379.869,935.059,407.715,189.453,988.770
1742469379.873,986.328,-99.121,428.223,972.656
1742469379.877,861.816,-25.879,531.738,855.957
1742469379.881,999.512,256.348,560.059,999.512
1742469379.885,-68.848,-331.055,603.516,208.984
1742469379.888,-1000.000,-370.605,360.840,-874.512
1742469379.892,466.797,474.121,220.215,489.746
1742469379.896,999.512,195.801,334.961,999.512
1742469379.900,737.793,-243.652,349.121,732.422
1742469379.904,-563.477,-606.934,162.109,-578.125
1742469379.861,-786.621,-807.617,245.117,-809.082
1742469379.865,-678.711,69.824,175.293,-454.590
1742469379.869,935.059,407.715,189.453,988.770
1742469379.873,986.328,-99.121,428.223,972.656
1742469379.877,861.816,-25.879,531.738,855.957
1742469379.881,999.512,256.348,560.059,999.512
1742469379.885,-68.848,-331.055,603.516,208.984
1742469379.888,-1000.000,-370.605,360.840,-874.512
1742469379.892,466.797,474.121,220.215,489.746
1742469379.896,999.512,195.801,334.961,999.512
1742469379.900,737.793,-243.652,349.121,732.422
1742469379.904,-563.477,-606.934,162.109,-578.125
1742469379.906,-1000.000,-333.008,-245.605,-1000.000
1742469379.910,-370.605,172.363,-354.980,-243.652
1742469379.914,985.352,610.352,-49.805,999.512
1742469379.918,865.723,200.684,23.438,730.469
1742469379.922,-741.211,-676.758,-335.449,-797.852
1742469379.926,-1000.000,-33.203,-552.734,-1000.000
1742469379.930,453.613,758.301,-316.895,410.156
1742469379.933,999.512,151.367,38.086,999.512
1742469379.937,500.488,-408.203,-50.781,414.062
1742469379.941,-931.152,-564.453,-474.609,-944.824
1742469379.945,-985.352,-50.293,-521.484,-953.613
1742469379.949,645.508,753.906,-377.441,659.668
1742469379.906,-1000.000,-333.008,-245.605,-1000.000
1742469379.910,-370.605,172.363,-354.980,-243.652
1742469379.914,985.352,610.352,-49.805,999.512
1742469379.918,865.723,200.684,23.438,730.469
1742469379.922,-741.211,-676.758,-335.449,-797.852
1742469379.926,-1000.000,-33.203,-552.734,-1000.000
1742469379.930,453.613,758.301,-316.895,410.156
1742469379.933,999.512,151.367,38.086,999.512
1742469379.937,500.488,-408.203,-50.781,414.062
1742469379.941,-931.152,-564.453,-474.609,-944.824
1742469379.945,-985.352,-50.293,-521.484,-953.613
1742469379.949,645.508,753.906,-377.441,659.668
1742469379.950,999.512,218.262,-121.094,999.512
1742469379.954,-561.523,-790.527,-12.695,-570.312
1742469379.958,-1000.000,-241.211,-55.176,-1000.000
1742469379.962,-1000.000,15.625,-30.762,-1000.000
1742469379.966,-705.078,51.758,-29.785,-750.977
1742469379.970,874.512,740.723,335.938,827.148
1742469379.974,902.832,177.246,626.953,889.648
1742469379.977,-592.285,-616.211,614.746,-626.465
1742469379.981,-1000.000,-493.164,208.496,-1000.000
1742469379.985,-709.961,-135.254,-182.617,-673.340
1742469379.989,588.867,530.762,243.164,614.258
1742469379.993,999.512,260.742,578.613,999.512
1742469379.995,549.316,-300.293,438.965,521.973
1742469379.999,-948.242,-684.570,123.047,-937.500
1742469380.003,-822.266,86.914,19.531,-733.887
1742469380.007,683.594,627.930,254.883,724.609
1742469380.011,999.512,168.945,373.535,999.512
1742469380.015,739.746,43.457,367.676,717.773
1742469380.019,-672.852,-444.824,238.281,-678.223
1742469380.022,-1000.000,-361.816,18.555,-1000.000
1742469380.026,272.949,477.539,179.199,230.957
1742469380.030,999.512,257.324,336.914,999.512
1742469380.034,851.562,-184.570,147.461,823.242
1742469380.038,-707.031,-679.199,-145.020,-735.840
1742469379.995,549.316,-300.293,438.965,521.973
1742469379.999,-948.242,-684.570,123.047,-937.500
1742469380.003,-822.266,86.914,19.531,-733.887
1742469380.007,683.594,627.930,254.883,724.609
1742469380.011,999.512,168.945,373.535,999.512
1742469380.015,739.746,43.457,367.676,717.773
1742469380.019,-672.852,-444.824,238.281,-678.223
1742469380.022,-1000.000,-361.816,18.555,-1000.000
1742469380.026,272.949,477.539,179.199,230.957
1742469380.030,999.512,257.324,336.914,999.512
1742469380.034,851.562,-184.570,147.461,823.242
1742469380.038,-707.031,-679.199,-145.020,-735.840
1742469379.995,549.316,-300.293,438.965,521.973
1742469379.999,-948.242,-684.570,123.047,-937.500
1742469380.003,-822.266,86.914,19.531,-733.887
1742469380.007,683.594,627.930,254.883,724.609
1742469380.011,999.512,168.945,373.535,999.512
1742469380.015,739.746,43.457,367.676,717.773
1742469380.019,-672.852,-444.824,238.281,-678.223
1742469380.022,-1000.000,-361.816,18.555,-1000.000
1742469380.026,272.949,477.539,179.199,230.957
1742469380.030,999.512,257.324,336.914,999.512
1742469380.034,851.562,-184.570,147.461,823.242
1742469380.038,-707.031,-679.199,-145.020,-735.840
1742469380.040,-801.758,-61.035,-270.508,-592.285
1742469380.044,776.367,522.461,-100.098,873.047
1742469380.048,999.512,136.719,83.496,999.512
1742469380.052,535.645,-233.887,74.219,580.566
1742469380.056,-965.332,-577.148,10.254,-884.766
1742469380.060,-335.938,414.551,88.379,-296.387
1742469380.064,999.512,731.445,462.891,999.512
1742469380.067,847.168,-86.426,586.426,894.043
1742469380.071,-570.801,-857.422,117.188,-494.141
1742469380.075,-1000.000,-592.773,-270.508,-1000.000
1742469380.079,-60.547,496.582,-137.695,-69.336
1742469380.083,948.242,357.910,55.176,930.664
1742469380.040,-801.758,-61.035,-270.508,-592.285
1742469380.044,776.367,522.461,-100.098,873.047
1742469380.048,999.512,136.719,83.496,999.512
1742469380.052,535.645,-233.887,74.219,580.566
1742469380.056,-965.332,-577.148,10.254,-884.766
1742469380.060,-335.938,414.551,88.379,-296.387
1742469380.064,999.512,731.445,462.891,999.512
1742469380.067,847.168,-86.426,586.426,894.043
1742469380.071,-570.801,-857.422,117.188,-494.141
1742469380.075,-1000.000,-592.773,-270.508,-1000.000
1742469380.079,-60.547,496.582,-137.695,-69.336
1742469380.083,948.242,357.910,55.176,930.664
1742469380.086,999.512,-74.219,127.441,999.512
1742469380.090,333.496,-358.887,182.129,399.902
1742469380.094,-951.660,-535.645,-133.789,-898.926
1742469380.098,-1000.000,-133.789,-630.371,-1000.000
1742469380.102,71.777,470.703,-705.078,86.914
1742469380.106,999.512,794.434,-267.578,999.512
1742469380.110,583.984,-114.258,-204.102,508.301
1742469380.113,-753.418,-727.051,-743.652,-783.691
1742469380.117,-1000.000,-334.961,-948.242,-1000.000
1742469380.121,-623.535,64.453,-819.336,-637.207
1742469380.125,853.516,576.660,-489.258,828.125
1742469380.129,953.613,7.324,-482.910,941.895
1742469380.086,999.512,-74.219,127.441,999.512
1742469380.090,333.496,-358.887,182.129,399.902
1742469380.094,-951.660,-535.645,-133.789,-898.926
1742469380.098,-1000.000,-133.789,-630.371,-1000.000
1742469380.102,71.777,470.703,-705.078,86.914
1742469380.106,999.512,794.434,-267.578,999.512
1742469380.110,583.984,-114.258,-204.102,508.301
1742469380.113,-753.418,-727.051,-743.652,-783.691
1742469380.117,-1000.000,-334.961,-948.242,-1000.000
1742469380.121,-623.535,64.453,-819.336,-637.207
1742469380.125,853.516,576.660,-489.258,828.125
1742469380.129,953.613,7.324,-482.910,941.895
1742469380.132,-656.738,-775.391,-900.391,-679.688
1742469380.136,-1000.000,-114.746,-1000.000,-1000.000
1742469380.140,292.969,602.539,-780.762,283.691
1742469380.144,999.512,342.773,-373.047,999.512
1742469380.148,758.301,-195.801,-102.051,631.348
1742469380.152,-553.711,-421.875,-41.016,-651.855
1742469380.156,-1000.000,-147.461,-587.891,-1000.000
1742469380.159,-879.395,160.156,-912.109,-874.023
1742469380.163,612.793,466.797,-514.648,642.090
1742469380.167,940.430,-155.762,-320.312,701.172
1742469380.171,-758.301,-647.949,-433.594,-879.395
1742469380.175,-1000.000,-120.605,-498.535,-1000.000
1742469380.132,-656.738,-775.391,-900.391,-679.688
1742469380.136,-1000.000,-114.746,-1000.000,-1000.000
1742469380.140,292.969,602.539,-780.762,283.691
1742469380.144,999.512,342.773,-373.047,999.512
1742469380.148,758.301,-195.801,-102.051,631.348
1742469380.152,-553.711,-421.875,-41.016,-651.855
1742469380.156,-1000.000,-147.461,-587.891,-1000.000
1742469380.159,-879.395,160.156,-912.109,-874.023
1742469380.163,612.793,466.797,-514.648,642.090
1742469380.167,940.430,-155.762,-320.312,701.172
1742469380.171,-758.301,-647.949,-433.594,-879.395
1742469380.175,-1000.000,-120.605,-498.535,-1000.000
1742469380.191,312.500,525.391,-281.250,168.945
1742469380.195,999.512,380.859,116.699,999.512
1742469380.199,878.906,-15.137,340.820,895.508
1742469380.203,-336.914,-451.660,246.582,-325.195
1742469380.207,-1000.000,-517.090,-295.410,-1000.000
1742469380.211,-821.289,57.129,-434.082,-782.715
1742469380.215,665.527,681.641,177.246,716.309
1742469380.218,999.512,-76.172,439.941,900.391
1742469380.222,-791.016,-874.023,427.246,-892.578
1742469380.226,-943.848,4.395,394.531,-782.715
1742469380.230,830.078,681.641,127.930,821.777
1742469380.234,-281.250,-433.594,164.062,-418.945
1742469380.191,312.500,525.391,-281.250,168.945
1742469380.195,999.512,380.859,116.699,999.512
1742469380.199,878.906,-15.137,340.820,895.508
1742469380.203,-336.914,-451.660,246.582,-325.195
1742469380.207,-1000.000,-517.090,-295.410,-1000.000
1742469380.211,-821.289,57.129,-434.082,-782.715
1742469380.215,665.527,681.641,177.246,716.309
1742469380.218,999.512,-76.172,439.941,900.391
1742469380.222,-791.016,-874.023,427.246,-892.578
1742469380.226,-943.848,4.395,394.531,-782.715
1742469380.230,830.078,681.641,127.930,821.777
1742469380.234,-281.250,-433.594,164.062,-418.945
1742469380.235,-1000.000,-373.047,174.316,-920.410
1742469380.239,878.906,565.430,56.152,926.758
1742469380.243,599.121,-100.098,86.914,410.645
1742469380.247,-1000.000,-548.828,-43.945,-1000.000
1742469380.251,-632.324,237.793,-184.082,-474.609
1742469380.255,999.512,752.930,-179.199,999.512
1742469380.259,595.703,-135.254,-222.168,476.562
1742469380.262,-985.840,-568.848,-315.430,-989.258
1742469380.266,-1000.000,-83.496,-232.910,-1000.000
1742469380.270,539.062,465.820,-229.004,522.949
1742469380.274,999.512,205.078,131.836,999.512
1742469380.278,-422.852,-711.914,428.711,-512.695
1742469380.235,-1000.000,-373.047,174.316,-920.410
1742469380.239,878.906,565.430,56.152,926.758
1742469380.243,599.121,-100.098,86.914,410.645
1742469380.247,-1000.000,-548.828,-43.945,-1000.000
1742469380.251,-632.324,237.793,-184.082,-474.609
1742469380.255,999.512,752.930,-179.199,999.512
1742469380.259,595.703,-135.254,-222.168,476.562
1742469380.262,-985.840,-568.848,-315.430,-989.258
1742469380.266,-1000.000,-83.496,-232.910,-1000.000
1742469380.270,539.062,465.820,-229.004,522.949
1742469380.274,999.512,205.078,131.836,999.512
1742469380.278,-422.852,-711.914,428.711,-512.695
1742469380.280,-1000.000,-473.633,165.527,-1000.000
1742469380.284,-1000.000,-172.363,-40.527,-1000.000
1742469380.288,191.895,505.371,257.324,-48.340
1742469380.292,980.957,370.117,641.113,877.930
1742469380.296,-659.668,-783.691,383.301,-667.480
1742469380.300,-1000.000,16.602,151.367,-1000.000
1742469380.304,-890.137,170.898,86.914,-859.375
1742469380.307,-1000.000,-401.855,-315.430,-1000.000
1742469380.311,123.047,412.598,-265.137,-162.109
1742469380.315,999.512,268.555,-37.598,968.750
1742469380.319,-405.762,-757.812,-87.891,-435.547
1742469380.323,-1000.000,-424.805,-222.168,-1000.000
1742469380.280,-1000.000,-473.633,165.527,-1000.000
1742469380.284,-1000.000,-172.363,-40.527,-1000.000
1742469380.288,191.895,505.371,257.324,-48.340
1742469380.292,980.957,370.117,641.113,877.930
1742469380.296,-659.668,-783.691,383.301,-667.480
1742469380.300,-1000.000,16.602,151.367,-1000.000
1742469380.304,-890.137,170.898,86.914,-859.375
1742469380.307,-1000.000,-401.855,-315.430,-1000.000
1742469380.311,123.047,412.598,-265.137,-162.109
1742469380.315,999.512,268.555,-37.598,968.750
1742469380.319,-405.762,-757.812,-87.891,-435.547
1742469380.323,-1000.000,-424.805,-222.168,-1000.000
1742469380.325,-88.867,339.844,-117.676,-176.758
1742469380.329,999.512,348.145,147.461,999.512
1742469380.333,732.422,-231.445,309.082,533.203
1742469380.337,-918.945,-597.168,289.551,-978.027
1742469380.341,-661.621,162.598,210.938,-473.145
1742469380.345,858.887,668.457,328.613,889.648
1742469380.349,999.512,291.504,583.008,999.512
1742469380.352,253.418,-256.348,729.980,247.559
1742469380.356,-1000.000,-872.559,385.742,-1000.000
1742469380.360,-878.906,-277.344,-72.266,-882.324
1742469380.364,525.879,734.863,41.016,541.504
1742469380.368,999.512,453.613,383.301,999.512
1742469380.371,490.234,-419.922,297.363,485.840
1742469380.375,-877.441,-605.957,161.133,-840.820
1742469380.379,-988.281,-14.648,173.828,-990.234
1742469380.383,-1000.000,-61.035,-45.410,-1000.000
1742469380.387,-865.723,24.414,-270.996,-845.703
1742469380.391,769.043,765.137,-52.246,688.477
1742469380.395,140.625,-217.773,2.441,-90.332
1742469380.398,-1000.000,-698.730,-378.906,-1000.000
1742469380.402,-1000.000,-162.109,-549.805,-1000.000
1742469380.406,-468.750,139.160,-377.441,-509.277
1742469380.410,972.656,525.391,-43.945,867.676
1742469380.414,-41.016,-397.461,17.578,-193.848
1742469380.371,490.234,-419.922,297.363,485.840
1742469380.375,-877.441,-605.957,161.133,-840.820
1742469380.379,-988.281,-14.648,173.828,-990.234
1742469380.383,-1000.000,-61.035,-45.410,-1000.000
1742469380.387,-865.723,24.414,-270.996,-845.703
1742469380.391,769.043,765.137,-52.246,688.477
1742469380.395,140.625,-217.773,2.441,-90.332
1742469380.398,-1000.000,-698.730,-378.906,-1000.000
1742469380.402,-1000.000,-162.109,-549.805,-1000.000
1742469380.406,-468.750,139.160,-377.441,-509.277
1742469380.410,972.656,525.391,-43.945,867.676
1742469380.414,-41.016,-397.461,17.578,-193.848
1742469380.417,-1000.000,-601.562,-225.098,-1000.000
1742469380.421,-865.723,86.914,-292.480,-821.777
1742469380.425,657.227,703.613,-9.766,593.750
1742469380.429,226.562,-243.652,13.184,-12.207
1742469380.433,-1000.000,-631.836,54.688,-1000.000
1742469380.437,-536.133,486.816,84.473,-594.727
1742469380.441,806.641,609.375,-245.117,633.789
1742469380.444,-653.809,-668.945,-437.500,-686.523
1742469380.448,-922.363,-356.445,-332.031,-800.293
1742469380.452,958.008,479.980,-169.434,968.262
1742469380.456,139.648,-402.344,-364.746,41.504
1742469380.460,-1000.000,-627.930,-819.824,-1000.000
1742469380.417,-1000.000,-601.562,-225.098,-1000.000
1742469380.421,-865.723,86.914,-292.480,-821.777
1742469380.425,657.227,703.613,-9.766,593.750
1742469380.429,226.562,-243.652,13.184,-12.207
1742469380.433,-1000.000,-631.836,54.688,-1000.000
1742469380.437,-536.133,486.816,84.473,-594.727
1742469380.441,806.641,609.375,-245.117,633.789
1742469380.444,-653.809,-668.945,-437.500,-686.523
1742469380.448,-922.363,-356.445,-332.031,-800.293
1742469380.452,958.008,479.980,-169.434,968.262
1742469380.456,139.648,-402.344,-364.746,41.504
1742469380.460,-1000.000,-627.930,-819.824,-1000.000
1742469380.461,-357.422,324.707,-664.551,-329.102
1742469380.465,999.512,587.891,-83.008,999.512
1742469380.469,734.375,-184.570,-174.805,629.395
1742469380.473,-805.176,-575.684,-352.051,-820.312
1742469380.477,-1000.000,-175.781,-200.195,-1000.000
1742469380.481,292.969,524.902,109.863,141.602
1742469380.485,999.512,530.273,767.090,999.512
1742469380.488,-162.598,-635.742,510.742,-122.559
1742469380.492,-1000.000,-568.848,-20.020,-1000.000
1742469380.496,-964.844,-19.531,-20.996,-975.586
1742469380.500,299.316,547.363,21.973,268.555
1742469380.504,999.512,376.953,271.484,999.512
1742469380.461,-357.422,324.707,-664.551,-329.102
1742469380.465,999.512,587.891,-83.008,999.512
1742469380.469,734.375,-184.570,-174.805,629.395
1742469380.473,-805.176,-575.684,-352.051,-820.312
1742469380.477,-1000.000,-175.781,-200.195,-1000.000
1742469380.481,292.969,524.902,109.863,141.602
1742469380.485,999.512,530.273,767.090,999.512
1742469380.488,-162.598,-635.742,510.742,-122.559
1742469380.492,-1000.000,-568.848,-20.020,-1000.000
1742469380.496,-964.844,-19.531,-20.996,-975.586
1742469380.500,299.316,547.363,21.973,268.555
1742469380.504,999.512,376.953,271.484,999.512
1742469380.521,981.934,-34.180,355.957,999.512
1742469380.525,-100.098,-494.629,303.711,65.430
1742469380.529,-1000.000,-559.570,127.930,-1000.000
1742469380.533,-78.125,402.344,38.574,29.785
1742469380.537,999.512,472.656,382.812,999.512
1742469380.541,924.316,167.480,709.961,926.270
1742469380.545,-355.957,-524.414,617.188,-349.609
1742469380.548,-1000.000,-476.562,210.449,-1000.000
1742469380.552,-399.414,283.691,-26.367,-172.363
1742469380.556,834.961,125.000,11.719,900.391
1742469380.560,999.512,-90.332,-42.969,999.512
1742469380.564,852.539,-81.543,-117.676,881.836
1742469380.521,981.934,-34.180,355.957,999.512
1742469380.525,-100.098,-494.629,303.711,65.430
1742469380.529,-1000.000,-559.570,127.930,-1000.000
1742469380.533,-78.125,402.344,38.574,29.785
1742469380.537,999.512,472.656,382.812,999.512
1742469380.541,924.316,167.480,709.961,926.270
1742469380.545,-355.957,-524.414,617.188,-349.609
1742469380.548,-1000.000,-476.562,210.449,-1000.000
1742469380.552,-399.414,283.691,-26.367,-172.363
1742469380.556,834.961,125.000,11.719,900.391
1742469380.560,999.512,-90.332,-42.969,999.512
1742469380.564,852.539,-81.543,-117.676,881.836
1742469380.566,-654.297,-804.688,-271.484,-661.621
1742469380.570,-992.676,-298.340,-571.777,-937.500
1742469380.574,566.895,732.910,-240.723,648.926
1742469380.578,999.512,253.418,200.684,999.512
1742469380.582,458.984,-319.336,242.188,369.141
1742469380.586,-802.246,-215.332,251.953,-808.594
1742469380.590,-1000.000,-129.395,57.129,-1000.000
1742469380.593,-804.199,-170.898,-21.973,-801.758
1742469380.597,766.602,594.238,344.238,751.465
1742469380.601,779.297,-109.375,437.012,681.641
1742469380.605,-800.781,-758.789,-54.199,-825.684
1742469380.609,-1000.000,-194.336,-284.668,-1000.000
1742469380.566,-654.297,-804.688,-271.484,-661.621
1742469380.570,-992.676,-298.340,-571.777,-937.500
1742469380.574,566.895,732.910,-240.723,648.926
1742469380.578,999.512,253.418,200.684,999.512
1742469380.582,458.984,-319.336,242.188,369.141
1742469380.586,-802.246,-215.332,251.953,-808.594
1742469380.590,-1000.000,-129.395,57.129,-1000.000
1742469380.593,-804.199,-170.898,-21.973,-801.758
1742469380.597,766.602,594.238,344.238,751.465
1742469380.601,779.297,-109.375,437.012,681.641
1742469380.605,-800.781,-758.789,-54.199,-825.684
1742469380.609,-1000.000,-194.336,-284.668,-1000.000
1742469380.611,-220.703,317.383,-95.215,-308.594
1742469380.615,999.512,422.852,187.500,915.527
1742469380.619,-166.016,-523.438,211.426,-307.617
1742469380.623,-1000.000,-482.910,-153.320,-1000.000
1742469380.627,-992.676,-1.465,-391.113,-999.023
1742469380.631,52.246,476.562,-400.879,-100.098
1742469380.635,999.512,503.906,-166.504,999.512
1742469380.638,635.254,-218.750,-14.160,505.859
1742469380.642,-704.102,-719.727,-226.074,-777.344
1742469380.646,-1000.000,-445.312,-489.746,-1000.000
1742469380.650,-751.953,164.551,-337.891,-807.129
1742469380.654,791.504,784.180,70.801,673.828
1742469380.611,-220.703,317.383,-95.215,-308.594
1742469380.615,999.512,422.852,187.500,915.527
1742469380.619,-166.016,-523.438,211.426,-307.617
1742469380.623,-1000.000,-482.910,-153.320,-1000.000
1742469380.627,-992.676,-1.465,-391.113,-999.023
1742469380.631,52.246,476.562,-400.879,-100.098
1742469380.635,999.512,503.906,-166.504,999.512
1742469380.638,635.254,-218.750,-14.160,505.859
1742469380.642,-704.102,-719.727,-226.074,-777.344
1742469380.646,-1000.000,-445.312,-489.746,-1000.000
1742469380.650,-751.953,164.551,-337.891,-807.129
1742469380.654,791.504,784.180,70.801,673.828
1742469380.655,160.156,-307.617,39.551,-6.348
1742469380.659,-1000.000,-704.102,-301.758,-1000.000
1742469380.663,-1000.000,-47.363,-264.648,-1000.000
1742469380.667,-767.578,92.773,-34.668,-872.070
1742469380.671,817.871,524.902,285.156,629.883
1742469380.675,117.188,-364.746,461.426,-95.703
1742469380.679,-1000.000,-260.254,422.363,-1000.000
1742469380.682,-958.984,-56.641,86.914,-916.992
1742469380.686,-1000.000,-312.012,-308.594,-1000.000
1742469380.690,448.730,617.676,-236.328,329.102
1742469380.694,974.121,331.055,-76.660,946.289
1742469380.698,-594.238,-755.859,-185.547,-612.305
1742469380.655,160.156,-307.617,39.551,-6.348
1742469380.659,-1000.000,-704.102,-301.758,-1000.000
1742469380.663,-1000.000,-47.363,-264.648,-1000.000
1742469380.667,-767.578,92.773,-34.668,-872.070
1742469380.671,817.871,524.902,285.156,629.883
1742469380.675,117.188,-364.746,461.426,-95.703
1742469380.679,-1000.000,-260.254,422.363,-1000.000
1742469380.682,-958.984,-56.641,86.914,-916.992
1742469380.686,-1000.000,-312.012,-308.594,-1000.000
1742469380.690,448.730,617.676,-236.328,329.102
1742469380.694,974.121,331.055,-76.660,946.289
1742469380.698,-594.238,-755.859,-185.547,-612.305
1742469380.702,-1000.000,-368.164,-411.133,-1000.000
1742469380.706,-666.016,298.828,-250.000,-717.773
1742469380.710,816.406,480.957,102.051,673.828
1742469380.714,52.246,-474.609,91.797,-88.379
1742469380.718,-1000.000,-527.344,5.371,-1000.000
1742469380.722,-751.465,361.328,33.203,-756.348
1742469380.726,833.008,757.812,58.105,714.844
1742469380.729,276.855,-254.883,103.516,70.801
1742469380.733,-1000.000,-943.359,-75.684,-1000.000
1742469380.737,-94.727,272.461,-205.566,-2.441
1742469380.741,995.605,446.777,-258.789,895.508
1742469380.745,-734.375,-745.605,-447.266,-808.105
1742469380.702,-1000.000,-368.164,-411.133,-1000.000
1742469380.706,-666.016,298.828,-250.000,-717.773
1742469380.710,816.406,480.957,102.051,673.828
1742469380.714,52.246,-474.609,91.797,-88.379
1742469380.718,-1000.000,-527.344,5.371,-1000.000
1742469380.722,-751.465,361.328,33.203,-756.348
1742469380.726,833.008,757.812,58.105,714.844
1742469380.729,276.855,-254.883,103.516,70.801
1742469380.733,-1000.000,-943.359,-75.684,-1000.000
1742469380.737,-94.727,272.461,-205.566,-2.441
1742469380.741,995.605,446.777,-258.789,895.508
1742469380.745,-734.375,-745.605,-447.266,-808.105
1742469380.746,-823.730,-25.391,-219.238,-742.676
1742469380.750,999.512,698.730,96.191,999.512
1742469380.754,526.855,-258.789,20.508,337.402
1742469380.758,-1000.000,-553.711,-125.977,-1000.000
1742469380.762,-539.551,324.707,-95.215,-471.680
1742469380.766,999.512,507.324,199.707,999.512
1742469380.770,875.977,-28.809,459.961,851.562
1742469380.773,-662.598,-721.191,318.359,-683.594
1742469380.777,-1000.000,-326.172,-3.906,-1000.000
1742469380.781,-1000.000,-144.531,-510.742,-1000.000
1742469380.785,-772.949,82.520,-788.086,-744.629
1742469380.789,891.113,703.125,-633.301,859.863
1742469380.746,-823.730,-25.391,-219.238,-742.676
1742469380.750,999.512,698.730,96.191,999.512
1742469380.754,526.855,-258.789,20.508,337.402
1742469380.758,-1000.000,-553.711,-125.977,-1000.000
1742469380.762,-539.551,324.707,-95.215,-471.680
1742469380.766,999.512,507.324,199.707,999.512
1742469380.770,875.977,-28.809,459.961,851.562
1742469380.773,-662.598,-721.191,318.359,-683.594
1742469380.777,-1000.000,-326.172,-3.906,-1000.000
1742469380.781,-1000.000,-144.531,-510.742,-1000.000
1742469380.785,-772.949,82.520,-788.086,-744.629
1742469380.789,891.113,703.125,-633.301,859.863
1742469380.791,672.363,-142.578,-618.652,471.680
1742469380.795,-915.039,-697.754,-902.344,-946.777
1742469380.799,-1000.000,1.953,-997.070,-1000.000
1742469380.803,129.883,564.941,-591.797,-52.734
1742469380.807,999.512,548.828,-3.418,999.512
1742469380.811,213.379,-223.145,315.430,-123.047
1742469380.815,-1000.000,-440.918,156.250,-1000.000
1742469380.818,-934.082,6.836,-282.715,-884.766
1742469380.822,-1000.000,-252.441,-625.000,-1000.000
1742469380.826,-341.797,56.152,-724.609,-424.805
1742469380.830,988.281,445.312,-519.043,867.188
1742469380.834,-221.680,-529.785,-479.004,-319.824
1742469380.791,672.363,-142.578,-618.652,471.680
1742469380.795,-915.039,-697.754,-902.344,-946.777
1742469380.799,-1000.000,1.953,-997.070,-1000.000
1742469380.803,129.883,564.941,-591.797,-52.734
1742469380.807,999.512,548.828,-3.418,999.512
1742469380.811,213.379,-223.145,315.430,-123.047
1742469380.815,-1000.000,-440.918,156.250,-1000.000
1742469380.818,-934.082,6.836,-282.715,-884.766
1742469380.822,-1000.000,-252.441,-625.000,-1000.000
1742469380.826,-341.797,56.152,-724.609,-424.805
1742469380.830,988.281,445.312,-519.043,867.188
1742469380.834,-221.680,-529.785,-479.004,-319.824
1742469380.836,-1000.000,-520.020,-742.188,-1000.000
1742469380.840,-639.160,112.305,-493.164,-670.898
1742469380.844,837.891,646.973,158.691,803.223
1742469380.848,997.559,115.234,367.676,943.359
1742469380.852,-762.695,-726.074,122.070,-818.848
1742469380.856,-781.738,229.980,308.594,-723.145
1742469380.860,999.512,793.945,762.207,999.512
1742469380.863,474.609,-486.816,752.441,394.531
1742469380.867,-943.359,-521.973,764.160,-825.195
1742469380.871,721.680,782.227,956.543,798.340
1742469380.875,742.676,-190.430,971.680,679.199
1742469380.879,-794.434,-686.035,961.426,-752.441
1742469380.836,-1000.000,-520.020,-742.188,-1000.000
1742469380.840,-639.160,112.305,-493.164,-670.898
1742469380.844,837.891,646.973,158.691,803.223
1742469380.848,997.559,115.234,367.676,943.359
1742469380.852,-762.695,-726.074,122.070,-818.848
1742469380.856,-781.738,229.980,308.594,-723.145
1742469380.860,999.512,793.945,762.207,999.512
1742469380.863,474.609,-486.816,752.441,394.531
1742469380.867,-943.359,-521.973,764.160,-825.195
1742469380.871,721.680,782.227,956.543,798.340
1742469380.875,742.676,-190.430,971.680,679.199
1742469380.879,-794.434,-686.035,961.426,-752.441
1742469380.896,454.102,590.332,968.750,475.586
1742469380.900,999.512,365.234,966.797,999.512
1742469380.904,823.730,79.102,966.797,875.488
1742469380.908,-599.121,-516.113,967.285,-515.137
1742469380.912,-1000.000,-151.367,967.285,-1000.000
1742469380.916,470.215,828.125,967.773,478.516
1742469380.920,999.512,566.406,964.355,999.512
1742469380.923,834.961,112.305,971.680,817.383
1742469380.927,-643.066,-734.863,958.984,-668.945
1742469380.931,-1000.000,-281.738,926.270,-993.652
1742469380.935,591.797,793.945,958.984,609.375
1742469380.939,999.512,535.156,969.727,999.512
1742469380.896,454.102,590.332,968.750,475.586
1742469380.900,999.512,365.234,966.797,999.512
1742469380.904,823.730,79.102,966.797,875.488
1742469380.908,-599.121,-516.113,967.285,-515.137
1742469380.912,-1000.000,-151.367,967.285,-1000.000
1742469380.916,470.215,828.125,967.773,478.516
1742469380.920,999.512,566.406,964.355,999.512
1742469380.923,834.961,112.305,971.680,817.383
1742469380.927,-643.066,-734.863,958.984,-668.945
1742469380.931,-1000.000,-281.738,926.270,-993.652
1742469380.935,591.797,793.945,958.984,609.375
1742469380.939,999.512,535.156,969.727,999.512
1742469380.940,2.930,-419.922,967.285,76.172
1742469380.944,-1000.000,-646.484,954.590,-1000.000
1742469380.948,-41.504,468.750,928.711,23.926
1742469380.952,999.512,568.848,958.984,999.512
1742469380.956,740.234,-187.500,968.750,665.039
1742469380.960,-874.512,-390.625,962.891,-814.453
1742469380.964,291.504,610.352,974.609,393.066
1742469380.967,773.926,-18.555,870.117,664.062
1742469380.971,-829.590,-694.336,792.969,-839.355
1742469380.975,461.426,613.770,912.109,498.047
1742469380.979,999.512,456.543,979.004,999.512
1742469380.983,-9.766,-405.273,963.379,25.391
1742469380.940,2.930,-419.922,967.285,76.172
1742469380.944,-1000.000,-646.484,954.590,-1000.000
1742469380.948,-41.504,468.750,928.711,23.926
1742469380.952,999.512,568.848,958.984,999.512
1742469380.956,740.234,-187.500,968.750,665.039
1742469380.960,-874.512,-390.625,962.891,-814.453
1742469380.964,291.504,610.352,974.609,393.066
1742469380.967,773.926,-18.555,870.117,664.062
1742469380.971,-829.590,-694.336,792.969,-839.355
1742469380.975,461.426,613.770,912.109,498.047
1742469380.979,999.512,456.543,979.004,999.512
1742469380.983,-9.766,-405.273,963.379,25.391
1742469380.987,-1000.000,-470.215,832.031,-1000.000
1742469380.991,-624.023,207.031,785.645,-500.488
1742469380.995,813.965,686.035,926.758,850.586
1742469380.999,999.512,98.633,987.793,999.512
1742469381.003,-215.820,-587.402,913.086,-113.281
1742469381.007,-1000.000,-393.066,658.691,-1000.000
1742469381.011,240.234,691.406,733.398,229.492
1742469381.014,999.512,504.883,977.051,999.512
1742469381.018,-167.969,-686.035,885.742,-153.809
1742469381.022,-1000.000,-623.535,595.215,-1000.000
1742469381.026,-232.422,420.410,454.590,-151.367
1742469381.030,999.512,568.848,563.477,999.512
1742469380.987,-1000.000,-470.215,832.031,-1000.000
1742469380.991,-624.023,207.031,785.645,-500.488
1742469380.995,813.965,686.035,926.758,850.586
1742469380.999,999.512,98.633,987.793,999.512
1742469381.003,-215.820,-587.402,913.086,-113.281
1742469381.007,-1000.000,-393.066,658.691,-1000.000
1742469381.011,240.234,691.406,733.398,229.492
1742469381.014,999.512,504.883,977.051,999.512
1742469381.018,-167.969,-686.035,885.742,-153.809
1742469381.022,-1000.000,-623.535,595.215,-1000.000
1742469381.026,-232.422,420.410,454.590,-151.367
1742469381.030,999.512,568.848,563.477,999.512
1742469381.031,47.852,-474.121,785.645,-127.930
1742469381.035,-996.094,-324.219,752.930,-936.035
1742469381.039,699.219,756.348,635.742,700.195
1742469381.043,-93.262,-327.637,555.176,-203.125
1742469381.047,-1000.000,-419.434,422.363,-1000.000
1742469381.051,576.172,839.355,548.828,531.250
1742469381.055,978.516,290.527,791.992,955.566
1742469381.058,-637.207,-774.902,556.641,-674.316
1742469381.062,-1000.000,-308.105,239.258,-1000.000
1742469381.066,-1000.000,-77.637,172.852,-1000.000
1742469381.070,315.430,544.922,274.902,124.512
1742469381.074,999.512,502.930,573.730,957.520
1742469381.031,47.852,-474.121,785.645,-127.930
1742469381.035,-996.094,-324.219,752.930,-936.035
1742469381.039,699.219,756.348,635.742,700.195
1742469381.043,-93.262,-327.637,555.176,-203.125
1742469381.047,-1000.000,-419.434,422.363,-1000.000
1742469381.051,576.172,839.355,548.828,531.250
1742469381.055,978.516,290.527,791.992,955.566
1742469381.058,-637.207,-774.902,556.641,-674.316
1742469381.062,-1000.000,-308.105,239.258,-1000.000
1742469381.066,-1000.000,-77.637,172.852,-1000.000
1742469381.070,315.430,544.922,274.902,124.512
1742469381.074,999.512,502.930,573.730,957.520
1742469381.075,-567.871,-744.629,500.488,-583.008
1742469381.079,-1000.000,-463.379,110.352,-1000.000
1742469381.083,-873.535,118.652,27.832,-941.895
1742469381.087,446.777,628.906,218.750,367.188
1742469381.091,999.512,376.953,446.289,999.512
1742469381.095,-49.805,-365.234,593.750,-253.418
1742469381.099,-1000.000,-422.363,377.441,-1000.000
1742469381.102,-860.352,67.383,123.535,-872.070
1742469381.106,476.074,499.512,147.461,428.711
1742469381.110,999.512,69.336,199.219,999.512
1742469381.114,700.684,-284.668,278.809,642.090
1742469381.118,-590.332,-516.602,173.828,-631.348
1742469381.075,-567.871,-744.629,500.488,-583.008
1742469381.079,-1000.000,-463.379,110.352,-1000.000
1742469381.083,-873.535,118.652,27.832,-941.895
1742469381.087,446.777,628.906,218.750,367.188
1742469381.091,999.512,376.953,446.289,999.512
1742469381.095,-49.805,-365.234,593.750,-253.418
1742469381.099,-1000.000,-422.363,377.441,-1000.000
1742469381.102,-860.352,67.383,123.535,-872.070
1742469381.106,476.074,499.512,147.461,428.711
1742469381.110,999.512,69.336,199.219,999.512
1742469381.114,700.684,-284.668,278.809,642.090
1742469381.118,-590.332,-516.602,173.828,-631.348
1742469381.121,-1000.000,-344.238,-83.008,-1000.000
1742469381.125,-672.852,41.016,-62.988,-664.062
1742469381.129,821.289,610.352,262.207,825.684
1742469381.133,936.035,6.836,373.047,850.098
1742469381.137,-632.324,-735.352,132.812,-707.031
1742469381.141,-1000.000,-109.375,5.371,-1000.000
1742469381.145,98.145,409.180,37.598,43.945
1742469381.148,999.512,11.230,52.246,987.305
1742469381.152,-446.289,-849.609,23.438,-479.492
1742469381.156,-1000.000,-459.473,-139.160,-1000.000
1742469381.160,-973.633,-90.820,-169.922,-944.336
1742469381.164,-953.125,-119.141,-171.875,-922.363
1742469381.121,-1000.000,-344.238,-83.008,-1000.000
1742469381.125,-672.852,41.016,-62.988,-664.062
1742469381.129,821.289,610.352,262.207,825.684
1742469381.133,936.035,6.836,373.047,850.098
1742469381.137,-632.324,-735.352,132.812,-707.031
1742469381.141,-1000.000,-109.375,5.371,-1000.000
1742469381.145,98.145,409.180,37.598,43.945
1742469381.148,999.512,11.230,52.246,987.305
1742469381.152,-446.289,-849.609,23.438,-479.492
1742469381.156,-1000.000,-459.473,-139.160,-1000.000
1742469381.160,-973.633,-90.820,-169.922,-944.336
1742469381.164,-953.125,-119.141,-171.875,-922.363
1742469381.121,-1000.000,-344.238,-83.008,-1000.000
1742469381.125,-672.852,41.016,-62.988,-664.062
1742469381.129,821.289,610.352,262.207,825.684
1742469381.133,936.035,6.836,373.047,850.098
1742469381.137,-632.324,-735.352,132.812,-707.031
1742469381.141,-1000.000,-109.375,5.371,-1000.000
1742469381.145,98.145,409.180,37.598,43.945
1742469381.148,999.512,11.230,52.246,987.305
1742469381.152,-446.289,-849.609,23.438,-479.492
1742469381.156,-1000.000,-459.473,-139.160,-1000.000
1742469381.160,-973.633,-90.820,-169.922,-944.336
1742469381.164,-953.125,-119.141,-171.875,-922.363
1742469381.166,692.383,615.723,45.898,653.809
1742469381.170,591.309,-198.242,220.215,251.465
1742469381.174,-1000.000,-581.543,92.285,-1000.000
1742469381.178,-1000.000,-0.488,-95.703,-979.980
1742469381.182,322.266,575.684,-103.027,236.816
1742469381.186,999.512,740.723,323.730,999.512
1742469381.190,668.457,-73.730,470.703,623.047
1742469381.193,-645.508,-615.723,179.199,-676.758
1742469381.197,-1000.000,-433.105,-175.781,-1000.000
1742469381.201,-439.453,171.387,-237.793,-397.949
1742469381.205,806.641,472.656,129.395,799.805
1742469381.209,999.512,214.844,404.297,999.512
1742469381.166,692.383,615.723,45.898,653.809
1742469381.170,591.309,-198.242,220.215,251.465
1742469381.174,-1000.000,-581.543,92.285,-1000.000
1742469381.178,-1000.000,-0.488,-95.703,-979.980
1742469381.182,322.266,575.684,-103.027,236.816
1742469381.186,999.512,740.723,323.730,999.512
1742469381.190,668.457,-73.730,470.703,623.047
1742469381.193,-645.508,-615.723,179.199,-676.758
1742469381.197,-1000.000,-433.105,-175.781,-1000.000
1742469381.201,-439.453,171.387,-237.793,-397.949
1742469381.205,806.641,472.656,129.395,799.805
1742469381.209,999.512,214.844,404.297,999.512
1742469381.212,859.375,-68.359,333.008,854.980
1742469381.216,-718.262,-771.484,-55.176,-703.125
1742469381.220,-743.164,18.555,-196.289,-483.398
1742469381.224,907.715,598.145,144.531,999.512
1742469381.228,933.105,5.859,332.031,887.695
1742469381.232,999.512,288.574,374.023,999.512
1742469381.236,317.383,-168.457,288.574,667.480
1742469381.239,-869.141,-678.711,-124.512,-629.395
1742469381.243,538.086,520.996,-53.223,506.348
1742469381.247,999.512,193.848,254.395,999.512
1742469381.251,999.512,-56.152,227.051,999.512
1742469381.255,376.953,-163.574,148.438,712.402
1742469381.212,859.375,-68.359,333.008,854.980
1742469381.216,-718.262,-771.484,-55.176,-703.125
1742469381.220,-743.164,18.555,-196.289,-483.398
1742469381.224,907.715,598.145,144.531,999.512
1742469381.228,933.105,5.859,332.031,887.695
1742469381.232,999.512,288.574,374.023,999.512
1742469381.236,317.383,-168.457,288.574,667.480
1742469381.239,-869.141,-678.711,-124.512,-629.395
1742469381.243,538.086,520.996,-53.223,506.348
1742469381.247,999.512,193.848,254.395,999.512
1742469381.251,999.512,-56.152,227.051,999.512
1742469381.255,376.953,-163.574,148.438,712.402
1742469381.271,-887.207,-603.516,-89.844,-610.352
1742469381.275,360.840,524.414,-42.480,381.836
1742469381.279,999.512,618.652,414.062,999.512
1742469381.283,788.086,-272.461,358.398,800.293
1742469381.287,-755.859,-782.227,-23.438,-724.121
1742469381.291,-769.043,65.918,-145.020,-632.324
1742469381.295,803.223,559.570,159.668,870.117
1742469381.298,999.512,83.496,338.379,999.512
1742469381.302,808.105,-161.621,226.562,854.980
1742469381.306,-692.871,-768.555,-126.465,-670.410
1742469381.310,-993.164,-87.891,-273.438,-847.168
1742469381.314,717.285,727.539,3.418,820.312
1742469381.271,-887.207,-603.516,-89.844,-610.352
1742469381.275,360.840,524.414,-42.480,381.836
1742469381.279,999.512,618.652,414.062,999.512
1742469381.283,788.086,-272.461,358.398,800.293
1742469381.287,-755.859,-782.227,-23.438,-724.121
1742469381.291,-769.043,65.918,-145.020,-632.324
1742469381.295,803.223,559.570,159.668,870.117
1742469381.298,999.512,83.496,338.379,999.512
1742469381.302,808.105,-161.621,226.562,854.980
1742469381.306,-692.871,-768.555,-126.465,-670.410
1742469381.310,-993.164,-87.891,-273.438,-847.168
1742469381.314,717.285,727.539,3.418,820.312
1742469381.316,999.512,89.355,201.172,999.512
1742469381.320,-434.082,-709.473,156.738,-405.273
1742469381.324,-1000.000,-463.867,-34.180,-1000.000
1742469381.328,-802.734,106.445,-210.449,-803.711
1742469381.332,496.094,682.617,-38.086,494.141
1742469381.336,999.512,403.809,331.055,999.512
1742469381.340,785.156,-98.145,398.438,795.898
1742469381.343,-529.297,-679.199,115.234,-528.320
1742469381.347,-1000.000,-478.516,-213.867,-1000.000
1742469381.351,-199.707,352.051,-146.973,-152.344
1742469381.355,999.512,479.492,164.062,999.512
1742469381.359,812.500,-113.770,324.219,693.848
1742469381.316,999.512,89.355,201.172,999.512
1742469381.320,-434.082,-709.473,156.738,-405.273
1742469381.324,-1000.000,-463.867,-34.180,-1000.000
1742469381.328,-802.734,106.445,-210.449,-803.711
1742469381.332,496.094,682.617,-38.086,494.141
1742469381.336,999.512,403.809,331.055,999.512
1742469381.340,785.156,-98.145,398.438,795.898
1742469381.343,-529.297,-679.199,115.234,-528.320
1742469381.347,-1000.000,-478.516,-213.867,-1000.000
1742469381.351,-199.707,352.051,-146.973,-152.344
1742469381.355,999.512,479.492,164.062,999.512
1742469381.359,812.500,-113.770,324.219,693.848
1742469381.361,-596.680,-599.609,163.574,-687.988
1742469381.365,-1000.000,-250.488,-106.934,-1000.000
1742469381.369,-900.391,31.738,-161.133,-964.355
1742469381.373,579.102,709.961,57.129,499.512
1742469381.377,936.523,182.617,244.141,775.879
1742469381.381,-666.504,-630.371,143.555,-808.105
1742469381.385,-1000.000,-53.711,0.000,-1000.000
1742469381.388,-158.691,428.223,-79.102,-145.508
1742469381.392,999.512,303.711,64.453,999.512
1742469381.396,-444.336,-812.988,74.707,-482.422
1742469381.400,-1000.000,-320.801,-53.223,-1000.000
1742469381.404,815.918,758.301,-164.551,834.961
1742469381.361,-596.680,-599.609,163.574,-687.988
1742469381.365,-1000.000,-250.488,-106.934,-1000.000
1742469381.369,-900.391,31.738,-161.133,-964.355
1742469381.373,579.102,709.961,57.129,499.512
1742469381.377,936.523,182.617,244.141,775.879
1742469381.381,-666.504,-630.371,143.555,-808.105
1742469381.385,-1000.000,-53.711,0.000,-1000.000
1742469381.388,-158.691,428.223,-79.102,-145.508
1742469381.392,999.512,303.711,64.453,999.512
1742469381.396,-444.336,-812.988,74.707,-482.422
1742469381.400,-1000.000,-320.801,-53.223,-1000.000
1742469381.404,815.918,758.301,-164.551,834.961
1742469381.405,285.156,-250.000,-91.309,63.965
1742469381.409,-1000.000,-440.918,69.336,-1000.000
1742469381.413,637.207,790.527,181.641,699.707
1742469381.417,999.512,137.695,262.207,875.000
1742469381.421,-789.062,-774.414,-18.555,-862.305
1742469381.425,-1000.000,109.375,-127.441,-1000.000
1742469381.429,673.340,825.684,103.027,665.527
1742469381.432,999.512,-17.090,164.062,981.934
1742469381.436,-732.422,-899.414,45.898,-784.180
1742469381.440,-968.750,-42.480,-58.594,-906.738
1742469381.444,647.461,570.801,-104.980,706.543
1742469381.448,999.512,-2.441,-32.227,845.703
1742469381.405,285.156,-250.000,-91.309,63.965
1742469381.409,-1000.000,-440.918,69.336,-1000.000
1742469381.413,637.207,790.527,181.641,699.707
1742469381.417,999.512,137.695,262.207,875.000
1742469381.421,-789.062,-774.414,-18.555,-862.305
1742469381.425,-1000.000,109.375,-127.441,-1000.000
1742469381.429,673.340,825.684,103.027,665.527
1742469381.432,999.512,-17.090,164.062,981.934
1742469381.436,-732.422,-899.414,45.898,-784.180
1742469381.440,-968.750,-42.480,-58.594,-906.738
1742469381.444,647.461,570.801,-104.980,706.543
1742469381.448,999.512,-2.441,-32.227,845.703
1742469381.450,999.512,62.988,151.855,993.164
1742469381.454,-66.895,-459.961,162.598,322.266
1742469381.458,-1000.000,-368.652,13.672,-898.438
1742469381.462,479.980,682.129,-177.734,499.512
1742469381.466,999.512,265.137,-76.172,999.512
1742469381.470,982.910,164.551,231.934,956.543
1742469381.474,659.668,28.320,329.102,718.750
1742469381.477,-914.062,-732.422,0.977,-850.098
1742469381.481,-936.035,-222.168,-391.113,-920.898
1742469381.485,564.453,597.656,-301.270,599.609
1742469381.489,999.512,233.398,25.391,999.512
1742469381.493,821.289,-156.738,145.996,804.688
1742469381.450,999.512,62.988,151.855,993.164
1742469381.454,-66.895,-459.961,162.598,322.266
1742469381.458,-1000.000,-368.652,13.672,-898.438
1742469381.462,479.980,682.129,-177.734,499.512
1742469381.466,999.512,265.137,-76.172,999.512
1742469381.470,982.910,164.551,231.934,956.543
1742469381.474,659.668,28.320,329.102,718.750
1742469381.477,-914.062,-732.422,0.977,-850.098
1742469381.481,-936.035,-222.168,-391.113,-920.898
1742469381.485,564.453,597.656,-301.270,599.609
1742469381.489,999.512,233.398,25.391,999.512
1742469381.493,821.289,-156.738,145.996,804.688
1742469381.496,-622.559,-627.930,40.527,-648.438
1742469381.500,-1000.000,-397.949,-313.477,-1000.000
1742469381.504,530.762,664.062,-295.410,540.527
1742469381.508,999.512,314.453,72.266,999.512
