timestamps,TP9,AF7,AF8,TP10
1742470198.554,-971.680,-944.336,-611.816,-993.164
1742470198.558,-988.281,-1000.000,-964.355,-949.707
1742470198.562,-1000.000,-811.035,-810.547,-1000.000
1742470198.566,203.125,584.473,-20.508,-94.238
1742470198.570,999.512,999.512,510.254,999.512
1742470198.574,830.566,832.520,429.199,862.793
1742470198.578,999.512,999.512,-160.156,999.512
1742470198.581,452.148,358.887,-832.031,364.746
1742470198.585,-959.961,-1000.000,-855.957,-1000.000
1742470198.589,-1000.000,-1000.000,-478.027,-1000.000
1742470198.593,-964.844,-959.961,-231.445,-965.332
1742470198.597,-940.430,-948.730,-566.406,-984.863
1742470198.645,-995.117,-1000.000,776.367,-958.496
1742470198.649,-1000.000,-752.930,839.844,-1000.000
1742470198.653,256.836,658.691,979.980,-13.184
1742470198.657,999.512,999.512,904.785,999.512
1742470198.661,902.832,904.785,822.754,923.828
1742470198.665,984.375,985.840,935.059,968.262
1742470198.669,898.926,898.926,991.699,911.133
1742470198.672,999.512,999.512,899.414,999.512
1742470198.676,665.527,296.875,752.930,770.508
1742470198.680,-775.879,-1000.000,768.555,-637.207
1742470198.684,-1000.000,-1000.000,825.195,-1000.000
1742470198.688,-950.684,-961.914,949.219,-949.219
1742470199.394,-955.566,-933.105,143.555,-1000.000
1742470199.398,-1000.000,-1000.000,-5.371,-933.594
1742470199.402,-890.137,-311.035,525.391,-1000.000
1742470199.406,389.648,937.988,895.996,-371.094
1742470199.410,999.512,999.512,736.328,999.512
1742470199.414,576.172,729.980,163.574,493.652
1742470199.418,-797.852,-648.438,-508.301,-947.754
1742470199.421,-1000.000,-1000.000,-529.297,-1000.000
1742470199.425,-938.965,-934.570,-490.234,-949.219
1742470199.429,-1000.000,-1000.000,-690.430,-1000.000
1742470199.433,-1000.000,-1000.000,-782.715,-1000.000
1742470199.437,-929.688,-938.965,-934.082,-1000.000
1742470199.814,-940.430,-946.289,757.812,-940.918
1742470199.818,-1000.000,-1000.000,646.484,-1000.000
1742470199.822,-478.516,-218.750,752.930,-616.211
1742470199.826,928.223,999.512,989.746,821.777
1742470199.830,996.094,951.172,598.145,999.512
1742470199.834,918.945,938.477,42.969,910.156
1742470199.838,916.992,914.551,-16.113,919.434
1742470199.841,999.512,999.512,-165.527,999.512
1742470199.845,186.523,148.926,-722.168,187.012
1742470199.849,-1000.000,-1000.000,-1000.000,-1000.000
1742470199.853,-909.668,-912.598,-966.797,-909.668
1742470199.857,-1000.000,-1000.000,-979.980,-1000.000
1742470199.904,891.602,581.543,532.715,999.512
1742470199.908,-469.238,-994.629,-277.344,56.152
1742470199.912,-1000.000,-1000.000,-575.684,-1000.000
1742470199.916,-868.164,-888.672,3.906,-901.367
1742470199.920,-1000.000,-1000.000,119.629,-1000.000
1742470199.924,-271.973,-207.520,46.875,-271.973
1742470199.928,999.512,999.512,361.816,999.512
1742470199.931,958.008,948.730,-3.906,958.496
1742470199.935,935.059,941.406,-338.867,936.035
1742470199.939,976.562,971.680,-89.355,988.281
1742470199.943,901.855,907.227,190.918,894.531
1742470199.947,999.512,999.512,166.992,999.512
1742470200.565,-936.523,-944.824,-371.582,-909.668
1742470200.569,-1000.000,-1000.000,-340.332,-1000.000
1742470200.573,-378.418,-192.383,-133.789,-343.262
1742470200.577,978.516,999.512,227.539,991.699
1742470200.581,980.469,957.031,379.395,973.145
1742470200.585,907.715,899.414,624.023,920.898
1742470200.589,944.824,995.605,981.934,929.199
1742470200.592,999.512,917.480,669.922,999.512
1742470200.596,-103.027,-418.945,-251.465,29.785
1742470200.600,-1000.000,-1000.000,-770.020,-1000.000
1742470200.604,-948.242,-936.035,-517.578,-962.891
1742470200.608,-1000.000,-1000.000,-21.484,-992.188
1742470200.700,-1000.000,-1000.000,277.832,-1000.000
1742470200.704,-356.934,-244.141,583.984,-457.031
1742470200.708,987.305,999.512,854.980,939.453
1742470200.712,973.145,955.078,555.176,992.188
1742470200.716,928.711,937.012,380.371,924.805
1742470200.720,914.062,913.574,605.469,913.086
1742470200.724,999.512,999.512,841.309,999.512
1742470200.727,186.523,164.062,213.867,253.906
1742470200.731,-1000.000,-1000.000,-495.605,-1000.000
1742470200.735,-983.887,-980.957,-168.945,-995.117
1742470200.739,-973.145,-974.609,466.797,-967.773
1742470200.743,-1000.000,-1000.000,704.590,-1000.000
1742470200.940,966.309,999.512,517.578,966.797
1742470200.944,966.309,949.707,5.859,966.797
1742470200.948,966.309,939.941,-82.520,966.797
1742470200.952,966.309,973.633,-43.945,966.797
1742470200.956,966.309,967.285,-3.906,966.797
1742470200.960,966.797,965.820,277.832,966.797
1742470200.964,903.320,906.738,465.820,966.797
1742470200.967,999.512,999.512,522.461,967.285
1742470200.971,187.012,160.156,46.875,967.285
1742470200.975,-1000.000,-1000.000,-590.820,966.797
1742470200.979,-997.559,-990.234,-403.809,967.285
1742470200.983,-917.480,-903.320,-150.879,966.797
1742470201.929,362.305,245.117,-789.551,410.156
1742470201.933,999.512,999.512,-886.230,999.512
1742470201.937,900.391,819.824,-1000.000,903.320
1742470201.941,973.145,999.512,-971.680,973.633
1742470201.945,966.797,224.609,-1000.000,967.285
1742470201.949,970.215,-530.762,-832.031,979.004
1742470201.953,899.902,823.730,-582.031,894.043
1742470201.956,999.512,999.512,-922.363,999.512
1742470201.960,248.047,63.965,-1000.000,431.641
1742470201.964,-1000.000,-1000.000,-1000.000,-966.309
1742470201.968,-994.141,-976.074,-705.078,-1000.000
1742470201.972,-969.238,-982.422,-165.527,-954.102
1742470202.154,-1000.000,-1000.000,-1000.000,-1000.000
1742470202.158,-991.699,-999.023,-611.328,-1000.000
1742470202.162,-983.887,-949.707,-23.438,-975.098
1742470202.166,-937.500,-978.027,-118.164,-962.891
1742470202.170,-1000.000,-1000.000,-455.078,-1000.000
1742470202.174,-608.887,67.871,-327.148,-909.180
1742470202.178,836.426,999.512,327.637,468.262
1742470202.181,948.730,999.512,555.176,999.512
1742470202.185,999.512,404.785,142.090,999.512
1742470202.189,452.637,-973.145,-505.371,424.805
1742470202.193,-966.797,-1000.000,-674.805,-971.680
1742470202.197,-1000.000,-954.590,37.598,-1000.000
1742470202.394,999.512,999.512,-284.180,999.512
1742470202.398,909.180,903.809,-1000.000,923.340
1742470202.402,975.098,988.770,-930.664,965.820
1742470202.406,893.555,894.043,-815.918,896.973
1742470202.410,999.512,999.512,-989.746,999.512
1742470202.414,416.016,572.266,-1000.000,413.086
1742470202.418,-977.539,-875.000,-993.164,-974.121
1742470202.421,-1000.000,-1000.000,-1000.000,-1000.000
1742470202.425,-954.590,-938.965,-1000.000,-954.590
1742470202.429,-1000.000,-960.449,-973.633,-1000.000
1742470202.433,-1000.000,-1000.000,-979.004,-1000.000
1742470202.437,-935.059,-149.414,-787.598,-976.074
1742470202.815,596.680,-980.469,-814.453,999.512
1742470202.819,-902.832,-965.332,-988.770,-423.340
1742470202.823,-993.652,-1000.000,-505.371,-880.859
1742470202.827,474.121,312.500,340.820,721.191
1742470202.831,999.512,999.512,380.371,999.512
1742470202.835,902.832,895.020,-378.906,904.297
1742470202.839,959.473,920.410,-460.938,981.934
1742470202.842,929.688,999.512,210.938,969.727
1742470202.846,999.512,76.172,135.254,914.062
1742470202.850,-57.617,-1000.000,-529.785,999.512
1742470202.854,-1000.000,-977.539,-908.691,299.805
1742470202.858,-887.207,-910.645,-932.617,-910.156
1742470205.740,-1000.000,-1000.000,-846.680,-1000.000
1742470205.744,-1000.000,-998.535,-333.008,-1000.000
1742470205.748,-937.500,-941.406,-291.016,-993.652
1742470205.752,-1000.000,-1000.000,-761.230,-949.219
1742470205.756,-698.242,-179.688,-1000.000,-1000.000
1742470205.760,712.891,999.512,-503.418,-102.051
1742470205.764,999.512,877.441,284.668,999.512
1742470205.767,856.934,999.512,287.598,889.160
1742470205.771,999.512,601.074,-234.375,999.512
1742470205.775,40.527,-823.242,-896.484,24.902
1742470205.779,-1000.000,-1000.000,-839.844,-1000.000
1742470205.783,-963.867,-943.359,-83.984,-962.402
1742470205.859,-985.840,-1000.000,-476.562,-985.840
1742470205.863,-973.145,-1000.000,204.102,-972.168
1742470205.867,-1000.000,-997.559,427.246,-1000.000
1742470205.871,-936.523,-942.383,-53.223,-927.246
1742470205.875,-1000.000,-1000.000,-635.254,-1000.000
1742470205.879,-225.098,-153.320,-101.074,-442.383
1742470205.883,963.867,978.516,726.074,873.047
1742470205.886,999.512,999.512,267.578,999.512
1742470205.890,641.602,416.016,-647.461,630.371
1742470205.894,-705.078,-887.207,-1000.000,-689.453
1742470205.898,-1000.000,-1000.000,-716.309,-1000.000
1742470205.902,-839.355,-704.102,295.898,-888.184
1742470209.145,984.375,225.098,-34.180,987.793
1742470209.149,893.555,-1000.000,529.297,897.949
1742470209.153,999.512,-1000.000,878.906,999.512
1742470209.157,435.059,-904.785,296.387,654.785
1742470209.161,-934.570,-1000.000,-355.469,-775.879
1742470209.165,-1000.000,-675.781,302.734,-1000.000
1742470209.169,55.664,729.980,999.512,138.184
1742470209.172,999.512,996.582,688.477,999.512
1742470209.176,999.512,999.512,-223.633,999.512
1742470209.180,-28.320,36.133,-1000.000,15.625
1742470209.184,-1000.000,-1000.000,-500.000,-1000.000
1742470209.188,-612.793,-726.562,709.961,-492.188
1742470209.894,999.512,999.512,450.195,999.512
1742470209.898,908.203,917.969,-572.754,906.738
1742470209.902,964.355,959.473,-669.434,968.262
1742470209.906,967.285,964.844,-433.594,968.262
1742470209.910,903.809,911.621,-576.172,904.297
1742470209.914,999.512,999.512,-912.109,999.512
1742470209.918,180.176,121.094,-999.023,184.082
1742470209.921,-1000.000,-1000.000,-1000.000,-1000.000
1742470209.925,-982.910,-976.562,-888.672,-983.398
1742470209.929,-973.633,-977.539,-715.332,-973.145
1742470209.933,-1000.000,-1000.000,-921.875,-1000.000
1742470209.937,-929.688,-931.152,-994.141,-926.270
1742470210.314,999.512,999.512,610.352,999.512
1742470210.318,950.195,954.102,-115.234,942.871
1742470210.322,944.824,871.582,367.188,956.543
1742470210.326,904.785,999.512,988.281,898.926
1742470210.330,999.512,362.305,875.488,999.512
1742470210.334,285.645,-1000.000,348.145,457.520
1742470210.338,-1000.000,-1000.000,-255.371,-953.613
1742470210.341,-1000.000,-958.984,57.129,-1000.000
1742470210.345,-965.332,-1000.000,594.727,-951.172
1742470210.349,-1000.000,-1000.000,683.105,-1000.000
1742470210.353,-1000.000,-997.559,270.508,-1000.000
1742470210.357,-937.500,-942.383,-198.730,-937.500
1742470210.779,-1000.000,-1000.000,-400.879,-1000.000
1742470210.783,-7.812,14.648,164.062,-59.570
1742470210.787,999.512,999.512,141.602,999.512
1742470210.791,921.875,920.898,-719.727,929.199
1742470210.795,960.449,970.703,-968.262,954.102
1742470210.799,943.848,909.180,-236.328,958.984
1742470210.803,945.801,999.512,437.500,921.875
1742470210.806,999.512,746.582,84.473,999.512
1742470210.810,-185.059,-666.992,-774.902,2.441
1742470210.814,-1000.000,-1000.000,-953.125,-1000.000
1742470210.818,-879.395,-874.023,-342.773,-907.715
1742470210.822,-1000.000,-1000.000,270.020,-1000.000
1742470211.439,-995.605,-492.676,-946.289,-1000.000
1742470211.443,333.984,895.508,-110.352,34.180
1742470211.447,999.512,938.477,466.309,999.512
1742470211.451,999.512,999.512,-28.320,999.512
1742470211.455,457.520,192.383,-808.594,463.867
1742470211.459,-908.203,-1000.000,-999.512,-876.465
1742470211.463,-1000.000,-977.539,-472.656,-1000.000
1742470211.466,-901.367,-1000.000,-141.602,-697.266
1742470211.470,389.648,231.445,-535.156,627.930
1742470211.474,999.512,999.512,-956.055,999.512
1742470211.478,900.391,831.543,-1000.000,906.738
1742470211.482,972.656,999.512,-957.520,980.957
1742470212.040,-1000.000,-1000.000,119.629,-1000.000
1742470212.044,-357.422,-191.895,-2.930,-365.723
1742470212.048,989.258,999.512,-577.148,983.887
1742470212.052,973.633,948.242,-695.801,975.586
1742470212.056,917.969,930.176,5.859,923.828
1742470212.060,930.664,929.688,575.684,922.363
1742470212.064,999.512,999.512,111.328,999.512
1742470212.067,9.766,-21.973,-889.160,97.168
1742470212.071,-1000.000,-1000.000,-1000.000,-1000.000
1742470212.075,-901.855,-993.164,-766.602,-917.969
1742470212.079,-1000.000,-880.859,-243.652,-1000.000
1742470212.083,-171.875,441.406,-176.270,-132.324
1742470212.940,957.520,964.355,-1000.000,926.270
1742470212.944,907.715,884.277,-1000.000,944.336
1742470212.948,970.703,999.512,-615.234,933.594
1742470212.952,985.840,795.898,-617.676,999.512
1742470212.956,-286.621,-615.234,-1000.000,-5.859
1742470212.960,-1000.000,-1000.000,-1000.000,-1000.000
1742470212.964,-1000.000,-1000.000,-816.895,-1000.000
1742470212.967,-750.977,-787.109,-41.016,-584.473
1742470212.971,590.332,558.594,129.883,726.074
1742470212.975,999.512,999.512,-720.703,999.512
1742470212.979,465.820,463.867,-1000.000,385.254
1742470212.983,-898.438,-899.414,-984.375,-942.871
1742470213.270,-678.711,-753.906,-315.430,-422.852
1742470213.274,732.910,639.160,21.484,920.410
1742470213.278,999.512,999.512,-377.930,993.652
1742470213.282,907.715,910.645,-1000.000,921.875
1742470213.286,962.891,945.801,-765.625,972.656
1742470213.290,934.082,971.191,-41.992,915.527
1742470213.294,999.512,971.680,-58.594,999.512
1742470213.297,-106.934,-322.266,-734.863,63.477
1742470213.301,-1000.000,-1000.000,-1000.000,-1000.000
1742470213.305,-947.754,-937.500,-830.078,-967.285
1742470213.309,-994.141,-1000.000,-273.926,-982.422
1742470213.313,-1000.000,-1000.000,-63.965,-1000.000
1742470213.735,-1000.000,-1000.000,-1000.000,-1000.000
1742470213.739,-1000.000,-1000.000,-985.840,-1000.000
1742470213.743,-1000.000,-1000.000,-995.605,-1000.000
1742470213.747,-1000.000,-929.199,-1000.000,-1000.000
1742470213.751,-996.582,-1000.000,-982.422,-1000.000
1742470213.755,-943.848,-393.066,-999.512,-1000.000
1742470213.759,-1000.000,968.750,-935.547,-1000.000
1742470213.762,-149.902,982.422,-173.340,-1000.000
1742470213.766,999.512,921.387,718.262,-1000.000
1742470213.770,877.441,924.805,894.043,-1000.000
1742470213.774,999.512,999.512,314.941,-1000.000
1742470213.778,253.906,165.039,-31.738,-932.129
1742470213.975,999.512,999.512,969.727,999.512
1742470213.979,950.195,950.684,184.570,950.195
1742470213.983,938.965,877.930,-767.090,939.941
1742470213.987,973.145,999.512,-606.934,973.633
1742470213.991,980.957,249.512,-248.535,981.934
1742470213.995,892.578,-1000.000,87.891,900.391
1742470213.999,999.512,-83.008,69.824,999.512
1742470214.002,539.551,751.465,-663.574,663.086
1742470214.006,-833.984,-750.977,-1000.000,-709.473
1742470214.010,-1000.000,-1000.000,-627.441,-1000.000
1742470214.014,-170.410,-221.191,258.301,-148.926
1742470214.018,999.512,999.512,94.238,999.512
1742470214.395,999.512,999.512,967.285,999.512
1742470214.399,949.707,963.867,637.207,947.266
1742470214.403,939.453,872.070,544.434,941.895
1742470214.407,973.145,999.512,961.426,976.074
1742470214.411,904.297,570.312,944.824,901.367
1742470214.415,999.512,-840.332,999.512,999.512
1742470214.419,175.781,-1000.000,421.875,229.980
1742470214.422,-1000.000,-881.836,-468.262,-995.117
1742470214.426,-1000.000,-1000.000,285.156,-1000.000
1742470214.430,-178.711,-226.074,999.512,-165.527
1742470214.434,960.938,959.961,993.652,971.680
1742470214.438,999.512,999.512,689.453,999.512
1742470214.815,-962.891,-934.082,-493.164,-997.070
1742470214.819,-1000.000,-1000.000,-1000.000,-943.359
1742470214.823,-987.793,-281.250,-924.316,-1000.000
1742470214.827,311.035,999.512,43.457,-177.246
1742470214.831,999.512,904.785,781.738,999.512
1742470214.835,999.512,999.512,-143.555,999.512
1742470214.839,30.762,120.117,-975.098,-139.160
1742470214.842,-1000.000,-1000.000,-991.699,-1000.000
1742470214.846,-961.914,-973.145,-881.348,-949.707
1742470214.850,-984.863,-979.004,-600.098,-993.652
1742470214.854,-1000.000,-1000.000,-714.355,-1000.000
1742470214.858,-925.781,-932.129,-1000.000,-977.051
1742470215.474,999.512,999.512,947.754,999.512
1742470215.478,949.707,950.684,943.848,944.336
1742470215.482,938.965,939.941,973.633,943.359
1742470215.486,973.145,974.609,966.797,972.656
1742470215.490,966.797,962.891,966.797,969.727
1742470215.494,903.320,911.621,967.285,901.855
1742470215.498,999.512,999.512,966.797,999.512
1742470215.501,187.012,113.770,967.285,224.609
1742470215.505,-1000.000,-1000.000,968.750,-1000.000
1742470215.509,-983.887,-974.609,960.449,-990.234
1742470215.513,-973.145,-978.516,968.262,-970.215
1742470215.517,-1000.000,-1000.000,979.492,-1000.000
1742470215.565,-1000.000,-1000.000,763.672,-1000.000
1742470215.569,-847.168,-903.809,992.676,-637.695
1742470215.573,534.668,476.074,990.234,743.164
1742470215.577,999.512,999.512,638.672,999.512
1742470215.581,899.902,903.809,-42.969,908.691
1742470215.585,977.539,960.449,458.496,981.445
1742470215.589,905.762,932.129,999.512,904.297
1742470215.592,999.512,999.512,892.090,999.512
1742470215.596,164.062,-71.777,-179.199,204.102
1742470215.600,-1000.000,-1000.000,-1000.000,-1000.000
1742470215.604,-1000.000,-1000.000,-536.133,-1000.000
1742470215.608,-144.531,-191.895,553.223,22.461
1742470216.030,999.512,999.512,323.242,939.453
1742470216.034,958.496,964.844,-524.902,992.676
1742470216.038,934.570,933.105,-566.895,920.410
1742470216.042,974.609,976.074,255.859,979.980
1742470216.046,972.656,981.445,680.664,969.727
1742470216.050,939.453,900.879,507.812,952.637
1742470216.054,948.242,999.512,-208.008,920.410
1742470216.057,999.512,664.062,-504.883,999.512
1742470216.061,-167.480,-719.727,-464.355,-32.715
1742470216.065,-1000.000,-1000.000,-159.668,-1000.000
1742470216.069,36.621,-58.594,604.492,256.348
1742470216.073,999.512,999.512,39.062,999.512
1742470216.270,794.922,642.090,947.266,955.566
1742470216.274,999.512,999.512,959.473,999.512
1742470216.278,903.320,900.879,236.816,915.039
1742470216.282,981.934,980.957,-588.379,981.445
1742470216.286,966.797,964.844,-312.012,967.773
1742470216.290,903.320,908.203,630.371,963.867
1742470216.294,999.512,999.512,899.902,903.809
1742470216.297,192.871,145.020,-63.965,999.512
1742470216.301,-1000.000,-1000.000,-985.840,147.461
1742470216.305,-1000.000,-1000.000,-727.051,-1000.000
1742470216.309,-81.543,-152.832,426.270,184.082
1742470216.313,999.512,999.512,999.512,999.512
1742470217.531,974.121,980.469,-4.883,-1000.000
1742470217.535,867.676,919.922,-644.531,-1000.000
1742470217.539,999.512,956.055,-496.094,-1000.000
1742470217.543,148.438,-275.391,-53.223,-1000.000
1742470217.547,-1000.000,-1000.000,123.535,-1000.000
1742470217.551,-978.516,-688.477,105.469,-1000.000
1742470217.555,-976.074,664.062,-315.430,-1000.000
1742470217.558,-1000.000,999.512,-645.020,-1000.000
1742470217.562,-1000.000,-279.297,-585.449,-1000.000
1742470217.566,-1000.000,-1000.000,-355.469,-1000.000
1742470217.570,-1000.000,-953.125,-302.246,-1000.000
1742470217.574,-925.781,-926.758,-804.199,-1000.000
1742470217.620,967.773,999.512,579.102,-500.000
1742470217.624,999.512,999.512,530.762,999.512
1742470217.628,604.492,702.637,-258.789,500.977
1742470217.632,-729.980,-658.203,-1000.000,-896.484
1742470217.636,-1000.000,-1000.000,-753.906,-1000.000
1742470217.640,-328.125,-181.152,358.398,-486.328
1742470217.644,918.457,965.332,999.512,861.816
1742470217.647,999.512,999.512,296.387,999.512
1742470217.651,-49.316,36.133,-841.309,-164.551
1742470217.655,-1000.000,-1000.000,-909.180,-1000.000
1742470217.659,-958.008,-966.797,-67.871,-949.219
1742470217.663,-989.746,-990.234,479.492,-994.141
1742470218.430,-750.977,-830.566,58.105,-594.238
1742470218.434,698.242,593.750,884.766,831.543
1742470218.438,999.512,999.512,958.008,999.512
1742470218.442,902.832,900.879,235.840,909.668
1742470218.446,981.445,980.469,-650.391,981.934
1742470218.450,903.320,904.785,-185.059,966.797
1742470218.454,999.512,999.512,157.715,966.797
1742470218.457,186.035,179.688,-666.504,966.797
1742470218.461,-1000.000,-1000.000,-1000.000,967.285
1742470218.465,-927.734,-933.105,-994.141,966.797
1742470218.469,-1000.000,-1000.000,-843.750,966.797
1742470218.473,-154.785,-96.191,-91.797,966.797
1742470218.520,858.398,486.816,-742.676,999.512
1742470218.524,-595.215,-955.566,-935.059,2.930
1742470218.528,-857.422,-897.461,-364.258,-577.148
1742470218.532,755.859,599.121,222.656,942.383
1742470218.536,999.512,999.512,-241.699,999.512
1742470218.540,839.844,860.352,-906.250,912.109
1742470218.544,999.512,999.512,-990.723,980.957
1742470218.547,187.012,-22.461,-990.234,966.797
1742470218.551,-1000.000,-1000.000,-997.559,966.797
1742470218.555,-991.699,-973.145,-1000.000,966.797
1742470218.559,-902.832,-913.086,-974.609,967.285
1742470218.563,-1000.000,-1000.000,-1000.000,966.797
1742470219.839,999.512,999.512,-721.191,999.512
1742470219.843,891.602,892.578,-487.305,898.438
1742470219.847,981.934,982.910,-127.441,982.422
1742470219.851,971.191,982.910,42.969,966.797
1742470219.855,948.730,911.133,-50.781,966.797
1742470219.859,935.547,999.512,-481.445,966.797
1742470219.863,999.512,872.559,-211.426,975.586
1742470219.866,-56.152,-574.219,39.062,935.059
1742470219.870,-1000.000,-1000.000,6.348,957.520
1742470219.874,-955.078,-924.316,95.215,999.512
1742470219.878,-938.965,-960.449,-54.199,-236.816
1742470219.882,-1000.000,-1000.000,304.688,-1000.000
1742470221.295,920.410,894.531,462.891,905.273
1742470221.299,994.141,999.512,351.562,999.512
1742470221.303,919.922,922.852,600.098,918.457
1742470221.307,993.164,956.055,999.512,993.652
1742470221.311,916.504,949.707,944.336,919.434
1742470221.315,999.512,999.512,965.820,994.629
1742470221.319,916.992,-183.105,967.773,932.129
1742470221.322,-498.535,-1000.000,967.285,-467.285
1742470221.326,-1000.000,-945.312,969.727,-1000.000
1742470221.330,-926.270,-997.559,949.219,-927.246
1742470221.334,-1000.000,-1000.000,999.512,-1000.000
1742470221.338,-942.383,-937.988,874.023,-942.383
1742470222.690,917.969,872.559,-477.051,930.176
1742470222.694,934.082,999.512,69.336,988.281
1742470222.698,998.535,-44.922,742.676,898.926
1742470222.702,920.410,-1000.000,750.000,999.512
1742470222.706,-508.789,-985.352,-294.922,479.004
1742470222.710,-1000.000,-926.270,-873.535,-835.449
1742470222.714,-991.211,-1000.000,-134.277,-1000.000
1742470222.717,-866.699,-907.715,395.996,-647.949
1742470222.721,640.625,604.004,712.891,737.793
1742470222.725,999.512,999.512,227.051,999.512
1742470222.729,-287.109,-400.391,-864.258,-163.574
1742470222.733,-1000.000,-1000.000,-835.938,-1000.000
1742470222.795,603.027,626.465,409.668,611.328
1742470222.799,976.074,968.262,-628.906,958.984
1742470222.803,-689.941,-660.156,-1000.000,-710.938
1742470222.807,-1000.000,-1000.000,-212.402,-1000.000
1742470222.811,-1000.000,-1000.000,202.637,-1000.000
1742470222.815,-723.633,-99.609,126.953,-787.598
1742470222.819,767.090,999.512,-231.934,701.660
1742470222.822,999.512,904.297,-631.836,999.512
1742470222.826,837.891,956.055,-131.348,836.914
1742470222.830,999.512,984.863,362.305,999.512
1742470222.834,792.480,-375.977,-175.293,814.941
1742470222.838,-636.230,-1000.000,-944.824,-615.234
1742470224.761,-1000.000,-1000.000,-705.078,-1000.000
1742470224.765,-813.477,-704.590,149.902,-814.941
1742470224.769,594.238,684.082,826.660,589.355
1742470224.773,999.512,999.512,-74.707,999.512
1742470224.777,725.586,719.238,-1000.000,654.785
1742470224.781,-774.902,-785.645,-526.855,-825.195
1742470224.785,-984.375,-981.445,488.281,-963.379
1742470224.788,633.301,632.812,993.652,637.207
1742470224.792,999.512,999.512,854.980,999.512
1742470224.796,891.602,865.723,226.562,892.578
1742470224.800,998.535,969.727,397.461,998.535
1742470224.804,908.691,999.512,925.293,912.598
1742470225.135,-1000.000,-1000.000,-159.180,-944.336
1742470225.139,-888.672,-846.680,-47.852,-1000.000
1742470225.143,558.594,617.676,749.023,-303.711
1742470225.147,999.512,999.512,989.258,947.754
1742470225.151,999.512,999.512,621.094,999.512
1742470225.155,154.297,299.805,-208.984,-121.582
1742470225.159,-1000.000,-1000.000,-442.383,-1000.000
1742470225.162,-984.375,-1000.000,520.508,-957.520
1742470225.166,-975.586,-969.238,873.535,-990.723
1742470225.170,-1000.000,-995.605,325.195,-1000.000
1742470225.174,-928.711,-966.797,-421.387,-962.402
1742470225.178,-1000.000,-1000.000,-290.039,-993.164
1742470225.465,977.051,999.512,493.652,914.551
1742470225.469,975.586,869.141,632.324,999.512
1742470225.473,-399.414,-594.727,-84.961,182.617
1742470225.477,-1000.000,-1000.000,-737.305,-959.961
1742470225.481,-1000.000,-1000.000,-220.215,-1000.000
1742470225.485,-798.828,-625.000,785.645,-747.559
1742470225.489,598.145,749.023,999.512,603.516
1742470225.492,999.512,999.512,558.594,999.512
1742470225.496,616.211,621.582,-443.848,631.348
1742470225.500,-697.754,-701.172,-737.793,-672.852
1742470225.504,-1000.000,-1000.000,234.375,-1000.000
1742470225.508,-850.098,-851.562,942.871,-741.699
1742470227.100,-817.871,-817.871,791.992,-770.996
1742470227.104,553.223,553.223,973.633,611.328
1742470227.108,999.512,999.512,594.238,999.512
1742470227.112,902.832,906.250,137.207,900.879
1742470227.116,941.895,933.594,145.508,958.984
1742470227.120,977.539,999.023,782.227,946.777
1742470227.124,975.098,921.387,617.676,999.512
1742470227.127,-383.301,-490.723,-621.094,-169.434
1742470227.131,-1000.000,-1000.000,-1000.000,-1000.000
1742470227.135,-929.199,-926.270,-946.289,-945.312
1742470227.139,-1000.000,-1000.000,-703.125,-997.070
1742470227.143,-1000.000,-1000.000,-480.957,-1000.000
1742470227.295,-948.730,-944.336,-537.109,-952.148
1742470227.299,-1000.000,-1000.000,-993.652,-1000.000
1742470227.303,-755.859,-597.656,-500.000,-831.543
1742470227.307,735.840,838.379,785.645,651.855
1742470227.311,982.910,975.098,829.102,999.512
1742470227.315,999.512,999.512,75.684,998.047
1742470227.319,558.594,176.270,-762.695,595.703
1742470227.322,-908.691,-1000.000,-958.984,-906.250
1742470227.326,-1000.000,-1000.000,-109.863,-1000.000
1742470227.330,300.781,181.641,548.340,413.086
1742470227.334,999.512,999.512,107.422,999.512
1742470227.338,899.902,896.484,-779.785,896.484
1742470228.795,-614.258,-869.629,-764.648,-307.617
1742470228.799,-1000.000,-1000.000,-1000.000,-1000.000
1742470228.803,-845.215,-881.836,-454.590,-869.629
1742470228.807,519.531,589.844,768.555,492.676
1742470228.811,999.512,999.512,999.512,999.512
1742470228.815,912.598,923.340,826.660,919.434
1742470228.819,965.332,940.918,343.750,947.754
1742470228.822,-437.988,-484.375,-69.824,-463.867
1742470228.826,-1000.000,-1000.000,275.879,-1000.000
1742470228.830,-929.199,-935.059,693.848,-927.734
1742470228.834,-1000.000,-981.445,348.145,-1000.000
1742470228.838,-950.684,-995.117,-138.672,-930.664
1742470229.215,667.969,688.477,-540.039,462.402
1742470229.219,-724.121,-709.473,-885.742,-816.406
1742470229.223,-1000.000,-1000.000,-212.891,-1000.000
1742470229.227,-881.836,-836.426,556.152,-899.414
1742470229.231,600.098,642.090,750.977,597.656
1742470229.235,976.074,994.141,61.035,971.680
1742470229.239,-672.363,-628.906,-598.633,-680.176
1742470229.242,-1000.000,-1000.000,-127.930,-1000.000
1742470229.246,-935.059,-940.918,618.164,-926.758
1742470229.250,-981.934,-960.938,533.203,-1000.000
1742470229.254,-999.023,-1000.000,-231.445,-933.105
1742470229.258,-1000.000,-918.457,-412.598,-1000.000
1742470229.545,-1000.000,-1000.000,887.207,-1000.000
1742470229.549,28.809,28.809,981.445,184.082
1742470229.553,999.512,999.512,979.004,999.512
1742470229.557,924.316,923.828,818.359,911.133
1742470229.561,971.191,973.145,544.434,976.074
1742470229.565,911.621,902.344,843.262,927.246
1742470229.569,999.512,999.512,999.512,980.469
1742470229.572,850.586,712.891,920.410,958.496
1742470229.576,-572.754,-729.004,-64.941,-354.492
1742470229.580,-1000.000,-1000.000,-356.934,-1000.000
1742470229.584,-1000.000,-1000.000,502.441,-953.613
1742470229.588,132.812,82.031,959.961,294.434
1742470229.680,722.656,887.695,840.820,623.535
1742470229.684,999.512,999.512,811.035,999.512
1742470229.688,897.461,851.074,63.477,894.043
1742470229.692,983.887,999.512,-537.598,983.398
1742470229.696,975.586,598.145,-635.254,973.633
1742470229.700,931.152,-933.594,128.906,941.895
1742470229.704,966.309,8.301,701.172,947.754
1742470229.707,999.023,999.512,198.730,999.512
1742470229.711,-312.012,-444.336,-807.129,-164.062
1742470229.715,-1000.000,-1000.000,-916.016,-1000.000
1742470229.719,-1000.000,-1000.000,83.496,-1000.000
1742470229.723,-131.348,-176.758,886.230,39.062
1742470230.190,903.320,922.852,-457.520,900.879
1742470230.194,944.824,910.645,286.621,954.590
1742470230.198,972.656,905.273,662.598,954.590
1742470230.202,985.840,870.117,517.090,999.512
1742470230.206,-361.328,-544.434,-590.820,-223.633
1742470230.210,-1000.000,-1000.000,-814.453,-1000.000
1742470230.214,-1000.000,-1000.000,33.203,-1000.000
1742470230.217,-323.242,-483.398,577.148,-94.238
1742470230.221,891.602,872.559,704.102,950.684
1742470230.225,999.512,999.512,-104.980,999.512
1742470230.229,681.641,89.844,-681.152,708.496
1742470230.233,-877.441,-1000.000,-209.473,-815.918
1742470230.805,999.512,999.512,956.543,999.512
1742470230.809,999.512,968.262,142.090,989.746
1742470230.813,326.172,21.973,-835.938,217.773
1742470230.817,-1000.000,-1000.000,-811.035,-1000.000
1742470230.821,-817.383,-785.156,20.020,-799.316
1742470230.825,595.703,563.477,659.668,594.238
1742470230.829,999.512,999.512,92.773,999.512
1742470230.832,899.414,870.117,-846.680,900.391
1742470230.836,994.629,971.191,-678.711,995.605
1742470230.840,908.203,999.512,99.121,910.156
1742470230.844,999.512,-246.094,335.449,999.512
1742470230.848,836.914,-1000.000,-100.586,851.074
1742470232.021,999.512,999.512,780.762,999.512
1742470232.025,974.121,967.285,-54.688,948.730
1742470232.029,-140.137,-142.578,-926.270,-270.996
1742470232.033,-1000.000,-1000.000,-834.473,-1000.000
1742470232.037,-1000.000,-1000.000,-22.949,-1000.000
1742470232.041,-686.035,-416.016,553.223,-740.723
1742470232.045,854.492,994.141,596.191,831.543
1742470232.048,863.770,852.051,-392.578,772.461
1742470232.052,-733.398,-666.016,-1000.000,-832.031
1742470232.056,-1000.000,-1000.000,-561.523,-1000.000
1742470232.060,-934.570,-938.965,-34.180,-934.570
1742470232.064,-991.699,-971.680,-135.254,-1000.000
1742470232.395,-802.734,-892.578,396.973,-726.562
1742470232.399,566.895,570.312,949.707,658.203
1742470232.403,999.512,999.512,598.633,999.512
1742470232.407,901.367,908.203,-291.016,896.484
1742470232.411,948.242,927.734,-508.789,999.512
1742470232.415,963.867,999.512,359.863,899.902
1742470232.419,999.512,877.441,777.344,999.512
1742470232.422,-305.664,-566.895,-115.234,682.617
1742470232.426,-1000.000,-1000.000,-969.238,-776.855
1742470232.430,-859.863,-854.980,-959.473,-1000.000
1742470232.434,-1000.000,-1000.000,-546.875,-1000.000
1742470232.438,-603.027,-564.941,223.145,-428.223
1742470232.441,890.625,929.199,607.910,956.543
1742470232.445,994.629,933.105,-355.957,970.703
1742470232.449,-416.504,-511.230,-1000.000,-380.371
1742470232.453,-1000.000,-1000.000,-480.469,-1000.000
1742470232.457,-852.051,-844.727,149.902,-839.355
1742470232.461,417.480,422.363,564.453,466.797
1742470232.465,999.512,999.512,-79.102,999.512
1742470232.468,396.484,406.250,-1000.000,248.047
1742470232.472,-953.613,-934.082,-664.062,-1000.000
1742470232.476,-1000.000,-1000.000,260.254,-961.426
1742470232.480,369.629,299.316,738.281,437.500
1742470232.484,999.512,999.512,182.129,999.512
1742470232.772,-728.027,-928.223,-863.281,-630.371
1742470232.776,-1000.000,-1000.000,-161.621,-1000.000
1742470232.780,-635.742,-685.059,636.230,-533.203
1742470232.784,757.812,788.086,814.941,814.941
1742470232.788,999.512,999.512,-93.262,999.512
1742470232.792,907.227,838.867,-617.188,925.293
1742470232.796,920.410,999.512,-21.484,923.340
1742470232.799,999.512,701.660,233.887,999.512
1742470232.803,372.070,-744.629,-180.664,841.309
1742470232.807,-978.516,-1000.000,-853.027,-634.277
1742470232.811,-965.332,-876.465,-1000.000,-1000.000
1742470232.815,-1000.000,-1000.000,-545.898,-982.910
1742470233.100,999.023,999.512,885.254,918.945
1742470233.104,959.473,904.297,295.410,995.117
1742470233.108,937.012,976.074,-536.133,920.410
1742470233.112,991.211,944.824,-511.230,994.629
1742470233.116,905.273,946.777,-64.453,916.016
1742470233.120,999.512,999.512,517.578,999.512
1742470233.124,817.383,-136.719,357.422,905.762
1742470233.127,-661.133,-1000.000,-604.492,-532.715
1742470233.131,-1000.000,-883.301,-1000.000,-1000.000
1742470233.135,-1000.000,-1000.000,-346.680,-1000.000
1742470233.139,-754.883,-741.699,641.113,-688.965
1742470233.143,678.711,670.410,929.199,735.352
1742470233.715,725.586,786.621,-531.250,714.844
1742470233.719,-682.129,-602.051,-882.812,-714.844
1742470233.723,-1000.000,-1000.000,-56.641,-1000.000
1742470233.727,305.664,248.535,708.984,421.387
1742470233.731,999.512,999.512,310.547,999.512
1742470233.735,999.512,998.047,-594.727,964.355
1742470233.739,595.215,699.707,-816.895,358.398
1742470233.742,-943.848,-876.465,-507.324,-1000.000
1742470233.746,-968.262,-981.934,124.512,-828.125
1742470233.750,604.004,598.633,60.547,720.215
1742470233.754,999.512,999.512,-800.293,999.512
1742470233.758,-221.680,-102.051,-1000.000,-301.270
1742470234.045,-925.781,-844.727,471.680,-925.781
1742470234.049,-1000.000,-1000.000,569.336,-1000.000
1742470234.053,-963.867,-812.500,37.109,-982.910
1742470234.057,-1000.000,655.762,-441.895,-968.750
1742470234.061,-1000.000,999.512,-462.402,-1000.000
1742470234.065,302.246,892.090,560.059,20.508
1742470234.069,999.512,933.105,999.512,999.512
1742470234.072,999.512,999.512,267.090,999.512
1742470234.076,260.254,196.777,-813.965,159.668
1742470234.080,-1000.000,-1000.000,-871.582,-1000.000
1742470234.084,-1000.000,-1000.000,280.762,-1000.000
1742470234.088,237.305,246.582,999.023,248.047
1742470235.203,898.438,879.395,-574.707,910.156
1742470235.207,999.512,999.512,-358.398,998.535
1742470235.211,897.461,-120.605,325.195,910.156
1742470235.215,999.512,-1000.000,523.926,999.512
1742470235.219,699.707,-969.238,-49.805,850.586
1742470235.223,-726.074,-956.543,-614.746,-540.039
1742470235.227,-1000.000,-1000.000,-315.918,-1000.000
1742470235.230,-957.031,-1000.000,192.383,-887.207
1742470235.234,299.316,279.297,569.336,424.316
1742470235.238,999.512,999.512,337.891,999.512
1742470235.242,907.227,915.039,-511.230,896.973
1742470235.246,933.594,915.527,-477.051,969.727
1742470235.680,-889.160,-874.512,831.543,-875.488
1742470235.684,492.188,490.723,913.574,509.277
1742470235.688,999.512,999.512,136.719,999.512
1742470235.692,474.609,586.914,-725.098,312.988
1742470235.696,-956.543,-895.020,-677.246,-1000.000
1742470235.700,-929.688,-949.219,238.770,-911.133
1742470235.704,529.297,537.109,928.711,533.203
1742470235.707,999.512,999.512,221.191,999.512
1742470235.711,468.262,520.508,-832.031,306.641
1742470235.715,-956.543,-925.293,-782.227,-1000.000
1742470235.719,-934.082,-954.590,130.859,-908.203
1742470235.723,513.672,503.906,859.863,511.230
1742470236.190,-962.402,-945.312,-556.641,-991.699
1742470236.194,-1000.000,-1000.000,242.188,-1000.000
1742470236.198,-818.848,-748.047,609.375,-777.832
1742470236.202,730.469,794.922,542.969,789.062
1742470236.206,946.777,925.293,-541.504,892.578
1742470236.210,-603.027,-591.309,-725.098,-693.848
1742470236.214,-1000.000,-1000.000,284.668,-1000.000
1742470236.217,-387.207,-567.871,534.668,-100.098
1742470236.221,961.426,885.254,290.527,999.512
1742470236.225,901.855,920.410,-388.184,851.562
1742470236.229,-514.160,-553.711,-789.551,-516.602
1742470236.233,-1000.000,-1000.000,-63.965,-1000.000
1742470236.385,236.816,128.418,796.875,338.867
1742470236.389,999.512,999.512,315.918,999.512
1742470236.393,910.156,928.223,-403.809,902.344
1742470236.397,953.613,926.758,-3.418,975.586
1742470236.401,926.758,964.355,465.332,905.762
1742470236.405,999.512,999.512,518.066,999.512
1742470236.409,23.926,-280.273,-223.633,313.965
1742470236.412,-1000.000,-1000.000,-1000.000,-986.816
1742470236.416,-903.809,-865.723,-642.578,-962.891
1742470236.420,-1000.000,-1000.000,298.340,-1000.000
1742470236.424,-461.914,-554.688,862.305,-291.016
1742470236.428,994.629,955.078,709.961,999.512
1742470237.315,-589.844,-615.234,298.828,-342.285
1742470237.319,800.293,774.902,176.270,913.574
1742470237.323,999.512,999.512,-525.391,991.699
1742470237.327,921.387,913.574,-861.328,939.941
1742470237.331,916.504,916.504,-416.504,921.387
1742470237.335,999.512,999.512,298.828,999.512
1742470237.339,734.375,461.914,-56.152,842.285
1742470237.342,-672.363,-856.445,-928.711,-542.480
1742470237.346,-1000.000,-1000.000,-960.938,-1000.000
1742470237.350,-846.191,-837.891,-99.121,-835.449
1742470237.354,521.973,569.336,855.469,532.227
1742470237.358,999.512,999.512,633.301,999.512
1742470237.466,998.535,854.004,482.422,999.512
1742470237.470,-338.379,-618.652,-400.879,400.391
1742470237.474,-1000.000,-1000.000,-1000.000,-888.184
1742470237.478,-978.516,-979.492,-947.266,-1000.000
1742470237.482,-914.062,-899.414,-152.832,-862.305
1742470237.486,504.883,536.133,749.512,487.793
1742470237.490,999.512,999.512,144.043,999.512
1742470237.493,954.590,934.082,-896.484,938.965
1742470237.497,-71.777,-149.414,-1000.000,-102.539
1742470237.501,-1000.000,-1000.000,-570.801,-1000.000
1742470237.505,-787.598,-813.477,251.465,-685.059
1742470237.509,632.324,576.660,488.281,727.539
1742470238.965,-530.762,-622.070,745.117,-339.355
1742470238.969,956.543,912.109,422.852,999.512
1742470238.973,908.691,952.148,-548.828,875.000
1742470238.977,-615.723,-588.867,-792.480,-623.047
1742470238.981,-1000.000,-1000.000,5.371,-1000.000
1742470238.985,67.871,110.840,852.539,123.535
1742470238.989,999.512,999.512,892.090,999.512
1742470238.992,804.688,799.805,-340.820,764.160
1742470238.996,-614.746,-613.770,-987.793,-652.832
1742470239.000,-1000.000,-1000.000,-56.152,-1000.000
1742470239.004,-925.781,-926.758,499.023,-927.246
1742470239.008,-1000.000,-1000.000,121.094,-1000.000
1742470240.271,-744.141,-287.109,-193.359,-857.422
1742470240.275,749.023,989.746,716.797,618.164
1742470240.279,980.469,899.902,499.023,999.512
1742470240.283,985.352,999.512,-242.188,983.887
1742470240.287,729.492,747.559,-849.609,625.488
1742470240.291,-873.047,-850.586,-801.758,-921.875
1742470240.295,-948.242,-954.102,266.602,-934.570
1742470240.298,554.199,558.594,862.305,552.246
1742470240.302,999.512,999.512,-7.812,999.512
1742470240.306,581.055,562.012,-981.445,474.609
1742470240.310,-860.840,-853.516,-828.125,-916.016
1742470240.314,-1000.000,-1000.000,276.367,-1000.000
1742470240.555,-54.199,223.633,155.762,-343.262
1742470240.559,999.512,999.512,927.734,960.938
1742470240.563,861.816,833.984,548.828,922.363
1742470240.567,999.512,999.512,-247.559,999.512
1742470240.571,554.199,573.242,-739.746,345.703
1742470240.575,-916.016,-909.668,-439.941,-1000.000
1742470240.579,-1000.000,-1000.000,183.594,-1000.000
1742470240.582,286.621,329.590,455.566,362.793
1742470240.586,999.512,999.512,-167.480,999.512
1742470240.590,390.625,431.641,-991.699,208.008
1742470240.594,-860.352,-838.379,-880.371,-942.871
1742470240.598,-1000.000,-1000.000,-155.762,-1000.000
1742470241.215,-397.949,-369.141,-924.805,-453.125
1742470241.219,-1000.000,-1000.000,-392.578,-1000.000
1742470241.223,-1000.000,-1000.000,163.574,-1000.000
1742470241.227,-372.070,-403.809,195.312,-91.797
1742470241.231,956.055,941.406,-44.922,999.512
1742470241.235,996.094,999.512,-312.012,959.961
1742470241.239,869.141,862.793,-63.965,896.484
1742470241.242,999.512,999.512,377.930,999.512
1742470241.246,840.820,784.180,92.773,896.973
1742470241.250,-540.039,-596.191,-792.969,-447.754
1742470241.254,-1000.000,-1000.000,-1000.000,-1000.000
1742470241.258,-816.406,-723.145,-185.547,-816.895
1742470241.487,-635.254,-567.383,-866.699,-703.125
1742470241.491,-1000.000,-1000.000,21.484,-1000.000
1742470241.495,-752.930,-781.250,664.551,-671.387
1742470241.499,630.859,594.238,591.309,701.172
1742470241.503,999.512,999.512,-260.742,999.512
1742470241.507,856.934,825.684,-251.465,898.926
1742470241.511,988.281,999.512,495.605,929.688
1742470241.514,987.305,668.457,477.051,999.512
1742470241.518,-361.328,-798.340,-199.707,192.383
1742470241.522,-1000.000,-1000.000,-882.324,-963.867
1742470241.526,-999.023,-1000.000,-855.957,-1000.000
1742470241.530,-842.773,-524.902,171.875,-826.660
1742470241.635,922.363,921.387,-355.957,939.453
1742470241.639,919.922,915.527,242.676,919.434
1742470241.643,999.512,999.512,440.918,999.512
1742470241.647,799.316,703.125,-105.957,832.520
1742470241.651,-671.387,-766.602,-922.363,-629.883
1742470241.655,-1000.000,-1000.000,-536.621,-1000.000
1742470241.659,-927.734,-933.105,200.195,-926.758
1742470241.662,-1000.000,-1000.000,375.000,-1000.000
1742470241.666,-951.660,-944.336,-37.598,-961.426
1742470241.670,-1000.000,-1000.000,-757.324,-1000.000
1742470241.674,-958.984,-906.738,-559.570,-1000.000
1742470241.678,467.773,556.641,643.555,348.145
1742470241.952,999.512,999.512,839.844,999.512
1742470241.956,941.895,949.707,-24.902,956.543
1742470241.960,884.277,859.375,-652.344,809.082
1742470241.964,-690.430,-719.727,-514.160,-764.648
1742470241.968,-1000.000,-1000.000,327.148,-995.117
1742470241.972,512.207,516.602,946.289,530.273
1742470241.976,999.512,999.512,544.434,999.512
1742470241.979,782.227,783.203,-517.090,746.094
1742470241.983,-583.984,-583.496,-873.047,-625.488
1742470241.987,-1000.000,-1000.000,-60.547,-1000.000
1742470241.991,-925.781,-926.270,420.898,-927.246
1742470241.995,-1000.000,-1000.000,37.598,-1000.000
1742470242.010,-926.758,-931.152,-587.402,-927.246
1742470242.014,-1000.000,-1000.000,-574.707,-1000.000
1742470242.018,-598.145,-492.188,247.559,-651.367
1742470242.022,867.188,914.551,899.902,830.566
1742470242.026,963.379,935.547,334.961,974.609
1742470242.030,962.402,999.512,-336.426,960.449
1742470242.034,873.047,604.492,-419.434,870.117
1742470242.037,-597.656,-838.867,-134.277,-604.004
1742470242.041,-1000.000,-1000.000,343.262,-1000.000
1742470242.045,-941.895,-945.312,367.188,-942.871
1742470242.049,-942.871,-956.055,-198.242,-944.336
1742470242.053,-1000.000,-1000.000,-457.031,-1000.000
1742470242.147,-1000.000,-1000.000,-808.594,-1000.000
1742470242.151,-718.750,-516.602,-261.230,-683.105
1742470242.155,689.453,856.445,822.754,655.762
1742470242.159,999.512,993.164,761.230,999.512
1742470242.163,833.496,890.137,-108.887,842.285
1742470242.167,999.512,999.512,-587.891,999.512
1742470242.171,714.355,-71.777,-324.219,653.809
1742470242.174,-762.207,-1000.000,120.117,-789.062
1742470242.178,-1000.000,-976.074,513.184,-1000.000
1742470242.182,-898.926,-937.012,299.316,-914.062
1742470242.186,-1000.000,-1000.000,-472.656,-993.652
1742470242.190,-1000.000,-934.082,-375.977,-1000.000
1742470242.327,-1000.000,-1000.000,-29.785,-1000.000
1742470242.331,-130.859,-242.188,727.051,32.715
1742470242.335,999.512,999.512,387.207,999.512
1742470242.339,835.938,854.980,-622.070,798.340
1742470242.343,-561.523,-572.266,-925.781,-607.910
1742470242.347,-1000.000,-1000.000,63.477,-1000.000
1742470242.351,-282.715,-256.348,601.074,-76.172
1742470242.354,999.512,999.512,-135.254,999.512
1742470242.358,843.750,840.820,-940.918,798.340
1742470242.362,-559.082,-559.082,-987.305,-582.031
1742470242.366,-1000.000,-1000.000,-351.562,-1000.000
1742470242.370,-607.910,-666.016,474.609,-465.332
1742470242.895,999.512,791.016,586.426,999.512
1742470242.899,173.828,-681.152,64.453,648.926
1742470242.903,-1000.000,-1000.000,-874.512,-780.273
1742470242.907,-982.422,-954.590,-815.430,-1000.000
1742470242.911,-1000.000,-971.191,125.000,-978.516
1742470242.915,156.738,363.770,845.703,124.512
1742470242.919,999.512,999.512,573.242,999.512
1742470242.922,747.070,747.559,-651.367,708.496
1742470242.926,-575.195,-555.664,-1000.000,-618.164
1742470242.930,-1000.000,-1000.000,-234.375,-1000.000
1742470242.934,-801.270,-800.781,650.391,-780.273
1742470242.938,489.258,490.234,882.324,513.672
1742470244.066,981.934,994.141,-138.672,982.910
1742470244.070,966.309,926.270,585.938,966.797
1742470244.074,966.309,964.355,987.305,967.285
1742470244.078,966.309,999.512,887.695,966.797
1742470244.082,966.309,-445.312,189.941,966.797
1742470244.086,966.309,-1000.000,218.262,966.797
1742470244.090,982.910,646.484,900.879,966.797
1742470244.093,906.738,999.512,944.824,966.797
1742470244.097,999.512,986.328,754.883,966.797
1742470244.101,902.344,533.691,178.223,966.797
1742470244.105,-708.496,-971.680,-440.430,966.797
1742470244.109,-873.047,-908.691,288.086,966.797
1742470244.487,929.199,987.305,-134.277,983.887
1742470244.491,972.168,956.543,350.098,905.273
1742470244.495,969.238,-430.664,126.465,999.512
1742470244.499,-291.016,-1000.000,-515.137,867.188
1742470244.503,-1000.000,-982.910,-952.637,-707.031
1742470244.507,-822.266,-899.902,-184.082,-999.512
1742470244.511,557.129,565.430,830.078,636.719
1742470244.514,999.512,999.512,735.352,999.512
1742470244.518,891.602,899.414,44.922,892.578
1742470244.522,981.934,957.031,-480.469,982.422
1742470244.526,979.004,952.637,-199.707,966.797
1742470244.530,921.387,999.512,277.344,965.820
1742470244.815,-1000.000,-954.590,809.082,-1000.000
1742470244.819,-951.172,-1000.000,10.742,-967.773
1742470244.823,-1000.000,-846.191,-466.309,-997.559
1742470244.827,-162.109,635.742,427.734,-1000.000
1742470244.831,941.406,999.512,806.641,170.898
1742470244.835,999.512,964.844,383.301,999.512
1742470244.839,696.777,813.965,-289.551,556.641
1742470244.842,-749.023,-674.316,-961.426,-830.566
1742470244.846,-1000.000,-1000.000,-895.996,-1000.000
1742470244.850,-931.641,-940.918,-189.941,-938.965
1742470244.854,-1000.000,-938.965,-27.832,-1000.000
1742470244.858,-1000.000,-1000.000,-665.039,-1000.000
1742470245.895,-1000.000,-817.383,318.359,966.797
1742470245.899,-1000.000,731.934,-167.969,966.797
1742470245.903,-942.871,820.801,-659.668,967.285
1742470245.907,-1000.000,-844.727,-338.379,967.285
1742470245.911,-891.113,-958.008,390.137,966.797
1742470245.915,563.477,629.883,739.258,967.285
1742470245.919,999.512,999.512,388.184,966.797
1742470245.922,908.203,857.910,-43.457,966.797
1742470245.926,920.898,982.910,168.457,966.797
1742470245.930,999.512,995.117,781.250,966.797
1742470245.934,801.758,-309.082,999.512,966.797
1742470245.938,-634.766,-1000.000,770.020,966.797
1742470248.896,999.512,999.512,800.781,999.512
1742470248.900,456.055,492.676,-196.289,97.168
1742470248.904,-886.719,-822.754,-915.039,-1000.000
1742470248.908,-979.004,-1000.000,-197.266,-987.793
1742470248.912,-1000.000,-1000.000,489.258,-973.633
1742470248.916,-194.824,321.289,423.828,-1000.000
1742470248.920,870.117,999.512,-228.027,-1000.000
1742470248.923,-533.203,-535.156,-974.609,-1000.000
1742470248.927,-1000.000,-1000.000,-775.879,-1000.000
1742470248.931,-709.961,-421.387,27.344,-1000.000
1742470248.935,839.844,979.980,73.730,-1000.000
1742470248.939,712.891,779.297,-616.699,-1000.000
1742470249.136,-1000.000,-1000.000,634.766,966.797
1742470249.140,274.414,-44.922,756.836,966.797
1742470249.144,999.512,999.512,316.895,966.797
1742470249.148,901.367,969.238,-136.719,967.285
1742470249.152,-440.918,-350.098,-365.723,966.797
1742470249.156,-1000.000,-1000.000,285.156,966.797
1742470249.160,229.492,6.348,743.652,967.285
1742470249.163,999.512,999.512,332.031,966.797
1742470249.167,-106.445,62.988,-655.762,966.797
1742470249.171,-1000.000,-1000.000,-781.738,966.797
1742470249.175,-970.703,-1000.000,142.090,966.797
1742470249.179,235.352,90.332,743.652,966.797
1742470249.510,904.297,900.879,-60.059,-1000.000
1742470249.514,982.910,995.605,795.898,-97.656
1742470249.518,966.309,891.113,999.512,999.512
1742470249.522,966.309,999.512,934.570,942.871
1742470249.526,966.309,501.953,231.934,947.266
1742470249.530,982.422,-919.922,-28.320,979.492
1742470249.534,908.691,148.438,625.977,943.359
1742470249.537,999.512,999.512,680.176,947.266
1742470249.541,854.980,747.559,105.957,999.512
1742470249.545,-595.215,-599.609,-746.094,-145.996
1742470249.549,-1000.000,-1000.000,-1000.000,-1000.000
1742470249.553,-1000.000,-986.328,-435.547,-1000.000
1742470250.396,999.512,999.512,507.812,-1000.000
1742470250.400,799.805,824.219,94.238,-1000.000
1742470250.404,-536.621,-483.887,-177.246,-1000.000
1742470250.408,-1000.000,-1000.000,535.156,-1000.000
1742470250.412,-402.832,-89.355,999.512,-1000.000
1742470250.416,892.090,997.559,952.148,-1000.000
1742470250.420,999.512,953.125,827.637,-1000.000
1742470250.423,917.969,942.383,668.457,-1000.000
1742470250.427,979.980,974.121,907.715,-1000.000
1742470250.431,966.309,966.797,979.004,-1000.000
1742470250.435,966.309,967.285,974.121,-1000.000
1742470250.439,966.309,967.285,929.688,-1000.000
1742470250.725,-1000.000,-1000.000,-945.801,-1000.000
1742470250.729,-688.477,23.926,-433.594,-1000.000
1742470250.733,701.172,975.098,-8.789,-1000.000
1742470250.737,999.512,999.512,53.711,-1000.000
1742470250.741,401.367,549.316,-566.406,-1000.000
1742470250.745,-913.574,-876.953,-911.621,-1000.000
1742470250.749,-1000.000,-1000.000,-102.051,-1000.000
1742470250.752,-950.195,-945.801,241.211,-1000.000
1742470250.756,-1000.000,-1000.000,-63.965,-1000.000
1742470250.760,-928.223,-954.590,-526.367,-1000.000
1742470250.764,-1000.000,-1000.000,-901.855,-1000.000
1742470250.768,-576.660,-134.766,-162.598,-1000.000
1742470251.851,570.801,622.559,526.367,570.801
1742470251.855,999.512,999.512,604.980,999.512
1742470251.859,875.488,921.387,-75.195,873.535
1742470251.863,999.512,931.152,-601.074,999.512
1742470251.867,-155.273,-408.691,-845.215,-114.746
1742470251.871,-1000.000,-1000.000,-360.840,-1000.000
1742470251.875,-830.566,-818.359,246.582,-812.012
1742470251.878,563.965,552.734,353.027,596.680
1742470251.882,999.512,999.512,-324.219,999.512
1742470251.886,907.715,908.691,-550.293,908.203
1742470251.890,924.316,921.387,62.988,931.641
1742470251.894,999.512,999.512,506.348,999.512
1742470252.180,611.816,584.473,484.863,717.773
1742470252.184,999.512,999.512,-161.621,999.512
1742470252.188,-122.070,-264.648,-454.102,-253.418
1742470252.192,-1000.000,-1000.000,122.559,-1000.000
1742470252.196,-1000.000,-926.758,567.871,-1000.000
1742470252.200,-171.875,286.133,544.922,-173.828
1742470252.204,999.512,999.512,38.086,999.512
1742470252.207,434.082,481.934,-584.473,84.473
1742470252.211,-957.031,-879.883,-325.684,-1000.000
1742470252.215,-1000.000,-1000.000,184.570,-979.980
1742470252.219,-947.754,-917.969,49.805,-987.305
1742470252.223,-961.426,-999.512,-489.258,-938.477
1742470252.362,-907.715,-877.930,-457.031,-982.910
1742470252.366,554.688,597.656,442.383,418.945
1742470252.370,999.512,999.512,757.324,999.512
1742470252.374,949.219,960.938,344.727,960.938
1742470252.378,858.887,818.848,-538.574,818.848
1742470252.382,-615.723,-662.598,-975.098,-656.250
1742470252.386,-1000.000,-1000.000,-357.422,-1000.000
1742470252.389,-932.617,-939.453,65.430,-931.152
1742470252.393,-991.211,-975.586,-121.582,-1000.000
1742470252.397,-981.934,-1000.000,-645.020,-956.055
1742470252.401,-1000.000,-1000.000,-827.148,-1000.000
1742470252.405,154.297,359.375,163.574,-106.934
1742470252.601,999.512,999.512,-205.566,999.512
1742470252.605,908.691,869.141,-761.719,908.203
1742470252.609,919.922,729.492,-463.379,925.293
1742470252.613,999.512,999.512,244.141,999.512
1742470252.617,841.797,237.793,34.180,875.977
1742470252.621,-617.188,-1000.000,-770.996,-568.848
1742470252.625,-1000.000,-996.094,-1000.000,-1000.000
1742470252.628,-926.270,-981.934,-681.641,-925.781
1742470252.632,-1000.000,-963.379,-196.289,-1000.000
1742470252.636,-975.098,-1000.000,-80.566,-1000.000
1742470252.640,-982.422,-974.121,-603.516,-932.617
1742470252.644,-1000.000,415.527,-789.551,-1000.000
1742470253.305,-1000.000,581.543,-186.523,-1000.000
1742470253.309,-598.633,999.512,80.566,-870.605
1742470253.313,772.461,841.309,684.570,514.648
1742470253.317,999.512,999.512,562.988,999.512
1742470253.321,828.125,905.273,-373.047,797.363
1742470253.325,-535.645,-535.645,-987.793,-560.059
1742470253.329,-1000.000,-1000.000,-662.598,-1000.000
1742470253.332,-925.781,-1000.000,-215.332,-925.781
1742470253.336,-1000.000,-948.242,-220.215,-1000.000
1742470253.340,-1000.000,412.598,-532.715,-1000.000
1742470253.344,-999.512,-292.969,-979.004,-1000.000
1742470253.348,-943.848,-1000.000,-934.082,-942.871
1742470254.145,-737.793,-752.930,119.629,-651.367
1742470254.149,802.246,742.676,916.504,949.219
1742470254.153,999.512,999.512,713.379,999.512
1742470254.157,899.902,900.391,63.965,915.039
1742470254.161,983.887,990.723,-392.578,981.445
1742470254.165,983.398,904.785,276.855,967.285
1742470254.169,898.926,999.512,968.262,966.797
1742470254.172,999.512,362.305,743.652,966.797
1742470254.176,783.691,-899.902,-6.836,967.285
1742470254.180,-797.363,-1000.000,-565.918,967.285
1742470254.184,-981.445,-867.188,-21.484,967.285
1742470254.188,632.324,521.484,808.594,966.797
1742470255.000,960.449,979.492,-221.191,952.148
1742470255.004,926.270,858.398,-270.020,942.383
1742470255.008,926.270,999.512,358.398,908.691
1742470255.012,999.512,438.477,469.238,999.512
1742470255.016,42.480,-967.773,-187.988,231.934
1742470255.020,-1000.000,-1000.000,-675.293,-1000.000
1742470255.024,-926.758,-934.570,-492.676,-953.613
1742470255.027,-1000.000,-1000.000,24.902,-1000.000
1742470255.031,11.719,175.781,708.984,18.066
1742470255.035,999.512,999.512,576.172,999.512
1742470255.039,919.434,999.512,-405.273,947.754
1742470255.043,956.543,415.527,-643.066,885.742
1742470255.137,942.383,913.574,-405.762,932.129
1742470255.141,957.031,947.266,-28.809,957.520
1742470255.145,912.598,961.914,465.820,941.406
1742470255.149,999.512,-322.266,488.770,958.008
1742470255.153,749.512,-1000.000,170.898,999.512
1742470255.157,-662.598,-941.406,-372.559,-246.094
1742470255.161,-1000.000,-939.453,-257.812,-1000.000
1742470255.164,-1000.000,-1000.000,65.918,-1000.000
1742470255.168,-233.887,-220.703,618.652,-182.617
1742470255.172,999.512,999.512,804.688,999.512
1742470255.176,949.707,950.684,-165.527,945.312
1742470255.180,938.965,940.918,-437.988,942.383
1742470255.375,999.512,999.512,570.312,999.512
1742470255.379,130.859,124.023,-534.668,-67.383
1742470255.383,-1000.000,-1000.000,-923.828,-1000.000
1742470255.387,-927.246,-944.336,-208.496,-867.188
1742470255.391,-1000.000,-1000.000,291.992,-1000.000
1742470255.395,44.922,75.195,780.273,-171.875
1742470255.399,999.512,999.512,571.777,589.844
1742470255.402,-439.941,-290.527,-692.383,-890.137
1742470255.406,-1000.000,-1000.000,-742.676,-1000.000
1742470255.410,-933.594,-931.152,86.914,-937.012
1742470255.414,-943.848,-949.219,180.664,-1000.000
1742470255.418,-1000.000,-1000.000,-463.379,-1000.000
1742470256.125,-823.242,-461.426,-765.625,-1000.000
1742470256.129,508.301,860.840,-10.254,-1000.000
1742470256.133,999.512,999.512,56.641,-1000.000
1742470256.137,234.863,234.863,-658.691,-1000.000
1742470256.141,-954.102,-984.375,-1000.000,-1000.000
1742470256.145,-1000.000,-1000.000,-625.488,-1000.000
1742470256.149,-253.418,-84.473,187.500,-1000.000
1742470256.152,999.512,999.512,35.156,-1000.000
1742470256.156,279.297,369.629,-743.652,-1000.000
1742470256.160,-1000.000,-971.191,-1000.000,-1000.000
1742470256.164,-932.617,-989.746,-833.984,-1000.000
1742470256.168,-1000.000,-1000.000,-346.680,-1000.000
1742470256.410,-1000.000,-1000.000,-121.094,966.797
1742470256.414,-113.281,-217.285,608.398,966.797
1742470256.418,999.512,999.512,580.566,967.285
1742470256.422,618.164,472.168,-266.113,966.797
1742470256.426,-1000.000,-1000.000,-604.004,966.797
1742470256.430,-322.754,-313.477,424.316,966.797
1742470256.434,999.512,999.512,999.512,966.797
1742470256.437,838.867,442.871,368.164,966.797
1742470256.441,-458.496,-921.387,-578.125,967.285
1742470256.445,-1000.000,-1000.000,-636.230,967.285
1742470256.449,-799.805,-942.383,68.848,966.797
1742470256.453,471.680,265.625,671.387,966.797
1742470256.830,903.320,965.820,823.730,894.531
1742470256.834,999.512,985.840,955.078,999.512
1742470256.838,213.379,-273.926,416.016,447.266
1742470256.842,-996.094,-1000.000,-463.379,-891.113
1742470256.846,-1000.000,-1000.000,-167.480,-1000.000
1742470256.850,-218.750,-187.012,826.172,-207.031
1742470256.854,941.895,970.215,999.512,936.035
1742470256.857,999.512,999.512,483.887,999.512
1742470256.861,418.457,410.645,-497.559,409.180
1742470256.865,-910.645,-921.875,-634.277,-927.734
1742470256.869,-1000.000,-1000.000,378.906,-1000.000
1742470256.873,-11.719,17.090,999.512,89.844
1742470258.840,-486.816,-429.688,-533.691,-729.004
1742470258.844,925.293,952.637,744.629,702.637
1742470258.848,934.082,924.316,872.070,988.770
1742470258.852,999.512,999.512,22.949,999.512
1742470258.856,200.195,199.219,-878.906,162.598
1742470258.860,-1000.000,-1000.000,-512.207,-1000.000
1742470258.864,-1000.000,-1000.000,691.406,-1000.000
1742470258.867,-256.348,-255.859,981.934,-223.633
1742470258.871,999.512,999.512,320.801,999.512
1742470258.875,183.594,189.941,-787.598,145.020
1742470258.879,-1000.000,-1000.000,-727.051,-1000.000
1742470258.883,-1000.000,-1000.000,467.285,-1000.000
1742470261.750,-507.812,-294.434,290.039,-646.973
1742470261.754,999.512,999.512,193.359,984.863
1742470261.758,207.031,174.805,-795.410,147.949
1742470261.762,-1000.000,-1000.000,-1000.000,-1000.000
1742470261.766,-1000.000,-1000.000,-631.348,-1000.000
1742470261.770,-256.348,-186.035,200.684,-369.141
1742470261.774,999.512,999.512,225.098,999.512
1742470261.777,170.410,161.621,-750.000,147.461
1742470261.781,-1000.000,-1000.000,-1000.000,-1000.000
1742470261.785,-977.051,-962.891,-622.070,-968.262
1742470261.789,-975.098,-937.988,-134.766,-976.074
1742470261.793,-1000.000,-1000.000,-510.254,-1000.000
1742470262.080,-943.848,-159.668,-1000.000,-991.699
1742470262.084,-1000.000,999.512,-940.918,-939.941
1742470262.088,-843.262,927.246,-445.801,-1000.000
1742470262.092,559.082,906.250,348.145,-33.203
1742470262.096,999.512,999.512,107.910,945.801
1742470262.100,-236.328,-61.035,-832.031,-560.547
1742470262.104,-1000.000,-1000.000,-794.434,-1000.000
1742470262.107,-941.895,-952.148,-112.793,-932.129
1742470262.111,-998.535,-992.676,185.059,-1000.000
1742470262.115,-1000.000,-994.629,-95.703,-1000.000
1742470262.119,-938.477,-949.219,-681.152,-927.734
1742470262.123,-1000.000,-1000.000,-782.715,-1000.000
1742470262.260,-562.012,-242.188,-188.965,-477.051
1742470262.264,816.895,967.773,610.352,820.801
1742470262.268,999.512,999.512,-7.812,999.512
1742470262.272,131.348,185.059,-841.309,129.883
1742470262.276,-992.188,-1000.000,-920.410,-993.164
1742470262.280,-1000.000,-1000.000,-116.211,-1000.000
1742470262.284,-245.605,149.902,571.289,-231.934
1742470262.287,999.512,999.512,-68.848,999.512
1742470262.291,45.898,91.797,-997.070,-19.043
1742470262.295,-1000.000,-1000.000,-908.203,-1000.000
1742470262.299,-959.961,-974.121,-192.383,-953.613
1742470262.303,-982.422,-918.945,384.766,-986.328
1742470262.636,907.227,917.969,-659.180,906.738
1742470262.640,981.934,909.668,-259.766,981.445
1742470262.644,966.309,999.512,-59.082,967.285
1742470262.648,966.309,567.383,-184.082,967.285
1742470262.652,966.309,-1000.000,-812.988,966.797
1742470262.656,966.797,-626.953,-676.758,966.797
1742470262.660,963.867,999.512,307.617,975.098
1742470262.663,907.715,392.090,354.492,896.973
1742470262.667,999.512,-1000.000,-118.164,999.512
1742470262.671,142.578,-999.512,-557.617,351.562
1742470262.675,-1000.000,-899.414,-919.434,-965.332
1742470262.679,-1000.000,-1000.000,-430.664,-1000.000
1742470263.295,-936.523,-23.926,-812.988,-977.051
1742470263.299,-1000.000,999.512,-701.660,-978.516
1742470263.303,-729.492,929.688,-217.285,-1000.000
1742470263.307,631.836,888.184,211.426,73.730
1742470263.311,999.512,999.512,-238.281,999.512
1742470263.315,124.512,235.352,-890.137,129.395
1742470263.319,-1000.000,-1000.000,-1000.000,-1000.000
1742470263.322,-910.645,-925.293,-744.141,-982.910
1742470263.326,-1000.000,-1000.000,-262.207,-973.145
1742470263.330,-660.156,-351.074,-45.410,-1000.000
1742470263.334,961.914,999.512,-430.664,-1000.000
1742470263.338,144.043,198.730,-1000.000,-1000.000
1742470263.535,-1000.000,-980.469,152.832,-1000.000
1742470263.539,-939.941,-979.980,-464.355,-937.500
1742470263.543,-1000.000,-1000.000,-819.824,-1000.000
1742470263.547,-193.848,131.836,-125.000,-216.309
1742470263.551,999.512,999.512,708.496,999.512
1742470263.555,906.738,890.625,584.473,923.340
1742470263.559,999.512,999.512,-338.379,999.512
1742470263.562,-42.969,-141.602,-1000.000,-117.188
1742470263.566,-1000.000,-1000.000,-759.766,-1000.000
1742470263.570,-1000.000,-1000.000,91.309,-1000.000
1742470263.574,-210.938,-215.332,610.352,-148.926
1742470263.578,999.512,999.512,121.094,999.512
1742470264.556,-992.676,-643.066,-189.941,-1000.000
1742470264.560,283.203,725.586,721.191,111.328
1742470264.564,999.512,999.512,570.312,999.512
1742470264.568,946.289,880.859,-382.324,911.133
1742470264.572,-264.648,-375.488,-1000.000,-340.332
1742470264.576,-1000.000,-1000.000,-545.898,-1000.000
1742470264.580,-936.523,-935.547,273.926,-936.035
1742470264.583,-1000.000,-1000.000,200.195,-1000.000
1742470264.587,-979.004,-967.285,-359.863,-989.746
1742470264.591,-973.145,-1000.000,-866.211,-954.590
1742470264.595,-1000.000,-1000.000,-519.531,-1000.000
1742470264.599,109.863,264.160,349.121,-37.109
1742470264.706,-1000.000,-1000.000,-1.953,-1000.000
1742470264.710,-985.352,-995.117,667.480,-981.445
1742470264.714,-965.820,-928.223,399.902,-973.633
1742470264.718,-956.055,-1000.000,-406.250,-946.289
1742470264.722,-1000.000,-924.316,-818.359,-1000.000
1742470264.726,-83.496,378.418,142.578,-187.012
1742470264.730,999.512,999.512,812.988,999.512
1742470264.733,929.688,807.617,271.973,945.801
1742470264.737,978.516,-419.434,-388.672,960.449
1742470264.741,-229.004,-1000.000,-775.879,-222.656
1742470264.745,-1000.000,-1000.000,-344.727,-1000.000
1742470264.749,-156.738,-224.609,605.469,-159.180
1742470264.931,904.297,915.527,-750.977,904.297
1742470264.935,952.148,897.949,-508.301,984.375
1742470264.939,942.871,999.512,46.387,899.902
1742470264.943,999.512,484.375,109.375,999.512
1742470264.947,-161.133,-933.105,-534.668,259.766
1742470264.951,-1000.000,-1000.000,-934.570,-1000.000
1742470264.955,-917.480,-914.551,-291.504,-1000.000
1742470264.958,-1000.000,-1000.000,72.266,-972.656
1742470264.962,101.074,63.477,365.234,269.531
1742470264.966,999.512,999.512,297.852,999.512
1742470264.970,910.645,999.512,-595.215,905.762
1742470264.974,976.562,402.832,-645.020,978.027
1742470265.215,-255.859,-900.879,-990.234,-271.484
1742470265.219,-1000.000,-1000.000,-357.910,-1000.000
1742470265.223,-323.242,-385.742,463.867,-265.137
1742470265.227,970.703,944.336,595.703,995.117
1742470265.231,990.723,964.844,-374.512,977.051
1742470265.235,853.516,900.391,-993.652,895.996
1742470265.239,999.512,999.512,-499.512,981.934
1742470265.242,478.027,-161.133,-412.598,963.867
1742470265.246,-931.641,-1000.000,-500.000,-321.777
1742470265.250,-1000.000,-927.246,-497.070,-1000.000
1742470265.254,-895.996,-964.844,-847.168,-881.348
1742470265.258,-1000.000,-1000.000,-455.078,-1000.000
1742470266.100,37.598,42.480,750.488,146.973
1742470266.104,999.512,999.512,232.910,999.512
1742470266.108,365.723,320.312,-936.523,307.129
1742470266.112,-914.551,-941.406,-898.926,-937.012
1742470266.116,-1000.000,-1000.000,-316.895,-1000.000
1742470266.120,-246.582,-190.430,425.781,-223.145
1742470266.124,999.512,999.512,185.059,999.512
1742470266.127,337.891,217.773,-912.109,322.266
1742470266.131,-965.820,-1000.000,-860.840,-963.867
1742470266.135,-1000.000,-1000.000,-88.379,-1000.000
1742470266.139,-717.773,-701.172,237.305,-570.312
1742470266.143,661.621,692.871,-60.547,783.203
1742470267.465,-969.727,-1000.000,570.312,-917.969
1742470267.469,-950.684,-212.891,272.461,-844.727
1742470267.473,-1000.000,999.512,140.137,-1000.000
1742470267.477,-149.414,958.008,637.695,-219.238
1742470267.481,999.512,907.227,985.840,999.512
1742470267.485,910.645,974.121,909.180,916.504
1742470267.489,999.512,982.910,146.484,999.512
1742470267.492,-119.141,-299.805,-900.391,-83.496
1742470267.496,-1000.000,-1000.000,-775.391,-1000.000
1742470267.500,-1000.000,-1000.000,196.289,-1000.000
1742470267.504,-215.820,-221.191,914.551,-148.926
1742470267.508,999.512,999.512,768.555,999.512
1742470269.055,-1000.000,-1000.000,569.336,970.215
1742470269.059,125.488,-67.383,965.332,954.102
1742470269.063,999.512,999.512,973.145,934.570
1742470269.067,297.852,245.117,93.262,999.512
1742470269.071,-1000.000,-1000.000,-475.098,-123.535
1742470269.075,-207.520,-196.289,582.031,-201.172
1742470269.079,998.535,995.605,941.406,999.512
1742470269.082,999.512,999.512,232.910,982.422
1742470269.086,488.770,432.617,-435.059,890.625
1742470269.090,-927.246,-953.125,-970.703,-559.570
1742470269.094,-1000.000,-1000.000,-394.043,-957.031
1742470269.098,240.234,215.332,765.625,605.957
1742470269.806,902.832,899.902,85.938,966.797
1742470269.810,981.934,989.746,130.371,966.797
1742470269.814,960.938,917.480,756.836,966.797
1742470269.818,912.109,999.512,993.164,966.797
1742470269.822,999.512,833.984,919.434,966.797
1742470269.826,87.402,-538.086,477.539,966.797
1742470269.830,-1000.000,-1000.000,75.684,966.797
1742470269.833,-1000.000,-1000.000,338.867,966.797
1742470269.837,-255.371,-373.047,812.500,966.797
1742470269.841,935.547,914.551,999.512,966.797
1742470269.845,999.512,999.512,817.383,966.797
1742470269.849,397.949,228.516,255.371,966.797
1742470270.047,999.512,999.512,251.465,966.797
1742470270.051,130.859,111.328,-957.031,966.797
1742470270.055,-1000.000,-1000.000,-1000.000,967.285
1742470270.059,-920.898,-979.980,-965.332,966.797
1742470270.063,-1000.000,-994.629,-1000.000,966.797
1742470270.067,-274.902,188.477,-1000.000,966.797
1742470270.071,999.512,999.512,-1000.000,966.797
1742470270.074,314.941,155.273,-1000.000,966.797
1742470270.078,-1000.000,-1000.000,-1000.000,966.797
1742470270.082,-1000.000,-990.234,-1000.000,967.285
1742470270.086,-969.238,-964.844,-1000.000,967.285
1742470270.090,-940.430,-955.566,-1000.000,966.797
1742470270.886,-1000.000,-264.648,-724.609,-1000.000
1742470270.890,-1000.000,999.512,-937.012,-1000.000
1742470270.894,-1000.000,269.531,-988.281,-1000.000
1742470270.898,-1000.000,-987.305,-835.938,-1000.000
1742470270.902,-1000.000,-1000.000,-690.430,-1000.000
1742470270.906,-1000.000,-312.988,-667.969,-1000.000
1742470270.910,-1000.000,999.512,-861.328,-1000.000
1742470270.913,-1000.000,540.039,-777.832,-1000.000
1742470270.917,-1000.000,-881.836,-207.031,-1000.000
1742470270.921,-1000.000,-1000.000,62.500,-1000.000
1742470270.925,-929.199,-885.742,-229.980,-1000.000
1742470270.929,-1000.000,-1000.000,-633.301,-1000.000
1742470271.636,962.402,894.531,930.664,966.797
1742470271.640,909.668,989.258,978.516,966.797
1742470271.644,999.512,831.055,815.430,966.797
1742470271.648,176.758,-483.398,89.355,966.797
1742470271.652,-1000.000,-1000.000,-42.969,967.285
1742470271.656,-177.734,-133.789,715.820,966.797
1742470271.660,999.512,979.004,995.117,966.797
1742470271.663,999.512,999.512,574.707,966.797
1742470271.667,219.727,139.160,-268.555,966.797
1742470271.671,-1000.000,-1000.000,-480.957,967.285
1742470271.675,-776.367,-963.379,280.762,966.797
1742470271.679,660.645,363.281,735.840,966.797
1742470272.010,-1000.000,27.344,-815.918,967.285
1742470272.014,-439.941,999.512,-400.391,966.797
1742470272.018,878.906,856.445,-152.832,966.797
1742470272.022,999.512,999.512,-139.648,966.797
1742470272.026,141.602,199.219,-749.512,966.797
1742470272.030,-1000.000,-1000.000,-884.277,966.797
1742470272.034,-969.727,-924.316,-229.492,966.797
1742470272.037,-933.594,-1000.000,-214.844,966.797
1742470272.041,-1000.000,-719.727,-347.656,966.797
1742470272.045,6.348,679.688,-415.039,966.797
1742470272.049,999.512,999.512,-632.324,966.797
1742470272.053,905.762,794.434,-341.797,967.285
1742470273.976,-84.961,-14.160,878.906,-76.660
1742470273.980,999.512,999.512,493.164,999.512
1742470273.984,374.512,327.637,-678.711,320.312
1742470273.988,-960.938,-991.211,-918.945,-980.469
1742470273.992,-1000.000,-1000.000,-45.410,-1000.000
1742470273.996,-136.230,-3.906,885.254,-156.250
1742470274.000,999.512,999.512,622.559,999.512
1742470274.003,232.910,168.457,-627.441,233.887
1742470274.007,-1000.000,-1000.000,-931.152,-1000.000
1742470274.011,-992.676,-920.410,-150.879,-991.699
1742470274.015,-966.797,-1000.000,48.340,-966.797
1742470274.019,-1000.000,-289.551,-371.094,-1000.000
1742470274.171,893.555,997.559,36.133,898.926
1742470274.175,999.512,795.410,137.207,999.512
1742470274.179,120.605,-542.969,338.379,81.543
1742470274.183,-1000.000,-1000.000,506.348,-1000.000
1742470274.187,-973.633,-1000.000,488.281,-969.727
1742470274.191,-978.516,-357.422,203.613,-981.445
1742470274.195,-1000.000,999.512,422.363,-1000.000
1742470274.198,-1000.000,230.469,610.352,-1000.000
1742470274.202,-1000.000,-1000.000,769.043,-1000.000
1742470274.206,-1000.000,-937.988,884.766,-1000.000
1742470274.210,-1000.000,488.770,176.758,-1000.000
1742470274.214,-937.500,570.801,-357.910,-937.012
1742470275.055,-156.738,-175.293,631.836,-79.590
1742470275.059,959.473,984.375,582.520,980.469
1742470275.063,999.512,999.512,-357.910,999.512
1742470275.067,220.703,58.105,-926.758,211.914
1742470275.071,-1000.000,-1000.000,-374.023,-1000.000
1742470275.075,-252.930,-53.223,693.848,-206.543
1742470275.079,999.512,999.512,505.371,999.512
1742470275.082,252.441,125.000,-654.297,311.523
1742470275.086,-1000.000,-1000.000,-941.406,-970.215
1742470275.090,-1000.000,-1000.000,-87.402,-1000.000
1742470275.094,-179.199,-192.383,791.504,-172.363
1742470275.098,958.008,966.797,725.098,958.496
1742470276.555,998.047,999.512,367.676,896.484
1742470276.559,999.512,999.512,-211.914,999.512
1742470276.563,-8.301,-23.926,-881.348,531.250
1742470276.567,-1000.000,-1000.000,-923.340,-1000.000
1742470276.571,-694.336,-670.410,-231.934,-555.664
1742470276.575,670.410,724.121,509.277,882.812
1742470276.579,999.512,999.512,112.305,999.512
1742470276.582,71.289,-90.332,-837.891,134.766
1742470276.586,-1000.000,-1000.000,-952.148,-994.141
1742470276.590,-1000.000,-1000.000,-388.184,-1000.000
1742470276.594,-213.867,-225.098,291.992,-213.867
1742470276.598,996.094,999.512,44.922,999.512
1742470276.796,-1000.000,-1000.000,109.375,-1000.000
1742470276.800,-955.566,-972.656,423.828,-941.895
1742470276.804,-1000.000,-949.707,44.434,-1000.000
1742470276.808,-935.059,-1000.000,-497.070,-929.199
1742470276.812,-1000.000,-725.586,-644.531,-1000.000
1742470276.816,-261.230,606.934,272.461,-389.648
1742470276.820,960.449,999.512,787.109,908.691
1742470276.823,999.512,357.422,287.109,999.512
1742470276.827,156.250,-968.262,-512.695,140.625
1742470276.831,-1000.000,-972.168,-839.844,-1000.000
1742470276.835,-983.887,-1000.000,-380.859,-983.398
1742470276.839,-973.145,-834.473,208.984,-973.633
1742470277.170,999.512,999.512,969.238,966.797
1742470277.174,384.277,96.191,955.566,966.797
1742470277.178,-975.586,-1000.000,960.938,966.797
1742470277.182,-1000.000,-929.199,941.406,966.797
1742470277.186,-884.277,-1000.000,333.984,966.797
1742470277.190,-1000.000,-33.691,-160.156,967.285
1742470277.194,-552.734,999.512,209.473,967.285
1742470277.197,805.664,893.066,687.988,966.797
1742470277.201,999.512,999.512,777.344,966.797
1742470277.205,106.934,-61.035,-24.902,966.797
1742470277.209,-991.699,-1000.000,-927.246,966.797
1742470277.213,-1000.000,-1000.000,-850.586,966.797
1742470278.715,-284.668,-140.625,-52.734,-347.168
1742470278.719,999.512,999.512,626.465,999.512
1742470278.723,779.297,752.930,-410.156,616.211
1742470278.727,-582.031,-626.465,-1000.000,-756.348
1742470278.731,-1000.000,-1000.000,-1000.000,-1000.000
1742470278.735,-227.539,16.113,-154.785,-399.414
1742470278.739,999.512,999.512,604.492,999.512
1742470278.742,357.422,205.566,-419.922,317.383
1742470278.746,-985.352,-993.164,-1000.000,-1000.000
1742470278.750,-1000.000,-1000.000,-991.211,-932.129
1742470278.754,-967.285,-713.379,-608.398,-1000.000
1742470278.758,252.441,613.281,98.145,-164.062
1742470279.241,-1000.000,999.512,-827.148,-1000.000
1742470279.245,-295.410,897.949,-231.934,-293.457
1742470279.249,999.512,999.512,-369.629,999.512
1742470279.253,479.004,288.086,-952.148,459.473
1742470279.257,-960.938,-1000.000,-1000.000,-969.727
1742470279.261,-1000.000,-349.121,-854.004,-1000.000
1742470279.265,-948.242,999.512,-261.230,-949.707
1742470279.268,-1000.000,176.270,-408.203,-1000.000
1742470279.272,-929.688,-1000.000,-980.469,-932.617
1742470279.276,-1000.000,-1000.000,-1000.000,-1000.000
1742470279.280,-368.652,-180.176,-618.652,-674.316
1742470279.284,995.117,999.512,470.703,772.949
1742470279.841,999.512,999.512,-806.152,999.512
1742470279.845,167.480,132.324,-1000.000,-26.855
1742470279.849,-1000.000,-1000.000,-972.656,-1000.000
1742470279.853,-923.340,-1000.000,-1000.000,-962.891
1742470279.857,-1000.000,-141.113,-1000.000,-985.352
1742470279.861,-241.211,994.141,-1000.000,-1000.000
1742470279.865,999.512,999.512,-1000.000,-1000.000
1742470279.868,226.562,97.168,-1000.000,-929.199
1742470279.872,-1000.000,-1000.000,-1000.000,-1000.000
1742470279.876,-264.160,-85.938,-1000.000,-556.641
1742470279.880,999.512,999.512,-1000.000,999.512
1742470279.884,676.758,517.090,-1000.000,453.613
1742470280.126,980.469,999.512,-630.371,948.242
1742470280.130,999.512,919.922,-1000.000,999.512
1742470280.134,201.172,-160.645,-925.293,265.625
1742470280.138,-1000.000,-1000.000,-520.996,-989.746
1742470280.142,-1000.000,-993.164,-231.445,-1000.000
1742470280.146,-256.348,145.508,-306.641,-213.379
1742470280.150,999.512,999.512,-670.898,999.512
1742470280.153,247.070,169.922,-1000.000,259.766
1742470280.157,-1000.000,-1000.000,-781.250,-1000.000
1742470280.161,-572.266,-283.691,50.781,-540.039
1742470280.165,996.094,999.512,-26.367,999.512
1742470280.169,136.230,77.148,-913.086,128.906
1742470281.476,917.480,827.637,-664.551,966.797
1742470281.480,-355.957,-157.227,-1000.000,966.797
1742470281.484,-1000.000,-1000.000,-802.734,966.797
1742470281.488,-168.945,-173.828,181.152,966.797
1742470281.492,989.746,977.539,594.238,967.285
1742470281.496,999.512,999.512,-201.172,966.797
1742470281.500,19.043,167.480,-928.223,966.797
1742470281.503,-1000.000,-1000.000,-865.234,967.285
1742470281.507,-493.652,-428.711,168.945,967.285
1742470281.511,999.512,999.512,555.664,966.797
1742470281.515,427.246,387.207,-518.066,966.797
1742470281.519,-967.773,-996.094,-1000.000,967.285
1742470281.851,999.512,999.512,957.520,999.512
1742470281.855,476.562,196.777,-127.441,460.449
1742470281.859,-854.980,-969.238,-1000.000,-896.973
1742470281.863,-1000.000,-1000.000,-747.070,-1000.000
1742470281.867,-485.352,-376.953,327.148,-708.008
1742470281.871,861.328,969.727,999.512,672.363
1742470281.875,999.512,976.074,307.617,999.512
1742470281.878,-152.832,-313.965,-896.973,-267.090
1742470281.882,-1000.000,-1000.000,-824.707,-1000.000
1742470281.886,-961.426,-892.578,264.648,-1000.000
1742470281.890,242.188,333.008,999.512,27.344
1742470281.894,999.512,999.512,335.449,999.512
1742470282.091,-989.746,-973.145,130.859,-932.129
1742470282.095,263.184,261.230,999.512,346.680
1742470282.099,999.512,999.512,395.996,999.512
1742470282.103,253.418,178.223,-780.762,297.852
1742470282.107,-1000.000,-1000.000,-1000.000,-1000.000
1742470282.111,-503.906,-228.516,52.734,-533.691
1742470282.115,879.395,999.512,999.512,864.746
1742470282.118,999.512,568.359,493.164,999.512
1742470282.122,150.879,-804.688,-694.336,181.152
1742470282.126,-1000.000,-1000.000,-986.328,-1000.000
1742470282.130,-1000.000,-996.582,-47.852,-1000.000
1742470282.134,-23.438,92.285,907.715,-13.672
1742470282.601,-1000.000,-1000.000,-927.734,-1000.000
1742470282.605,-1000.000,-1000.000,-226.074,-1000.000
1742470282.609,-241.699,-153.320,739.746,-225.586
1742470282.613,999.512,999.512,427.734,999.512
1742470282.617,513.672,531.250,-771.973,434.082
1742470282.621,-856.934,-814.941,-949.707,-902.344
1742470282.625,-1000.000,-1000.000,-198.730,-1000.000
1742470282.628,-409.180,-503.906,525.391,-374.023
1742470282.632,947.754,886.230,461.426,999.512
1742470282.636,983.887,999.512,-433.594,853.516
1742470282.640,-335.449,-297.852,-1000.000,-509.277
1742470282.644,-1000.000,-1000.000,-395.508,-1000.000
1742470282.901,-1000.000,-1000.000,-665.039,-1000.000
1742470282.905,-825.195,-807.129,149.902,-725.586
1742470282.909,465.820,478.516,613.770,599.121
1742470282.913,999.512,999.512,38.574,999.512
1742470282.917,192.383,93.750,-959.961,195.312
1742470282.921,-1000.000,-1000.000,-671.875,-1000.000
1742470282.925,-397.461,-284.180,535.645,-389.648
1742470282.928,948.730,999.512,860.840,950.195
1742470282.932,999.512,999.512,15.625,999.512
1742470282.936,87.402,-49.805,-876.953,97.656
1742470282.940,-1000.000,-1000.000,-790.527,-1000.000
1742470282.944,-1000.000,-1000.000,133.789,-945.312
1742470282.977,999.512,999.512,-101.074,999.512
1742470282.981,491.699,460.938,-551.270,441.895
1742470282.985,-1000.000,-1000.000,-145.996,-1000.000
1742470282.989,-248.047,-314.453,741.211,-238.281
1742470282.993,999.512,992.188,860.352,999.512
1742470282.997,999.512,999.512,-16.113,999.512
1742470283.001,204.102,216.797,-880.859,183.105
1742470283.004,-1000.000,-1000.000,-452.637,-1000.000
1742470283.008,-201.172,-204.590,703.613,-198.242
1742470283.012,999.512,999.512,999.512,999.512
1742470283.016,999.512,999.512,524.902,999.512
1742470283.020,230.469,210.938,-641.113,226.562
1742470283.875,-1000.000,-968.262,854.004,-883.301
1742470283.879,212.402,300.781,999.512,443.359
1742470283.883,999.512,999.512,462.402,999.512
1742470283.887,185.547,162.598,-527.832,135.254
1742470283.891,-1000.000,-1000.000,160.156,-1000.000
1742470283.895,-242.188,-105.957,999.512,-232.910
1742470283.899,999.512,999.512,999.512,999.512
1742470283.902,922.852,121.094,635.254,935.059
1742470283.906,-311.523,-1000.000,51.270,-282.715
1742470283.910,-1000.000,-1000.000,650.879,-1000.000
1742470283.914,-497.070,-272.949,999.512,-460.938
1742470283.918,813.477,965.820,953.613,837.402
1742470284.431,899.902,998.535,13.184,893.555
1742470284.435,999.512,999.512,-892.578,999.512
1742470284.439,221.191,149.414,-1000.000,211.914
1742470284.443,-1000.000,-1000.000,-1000.000,-1000.000
1742470284.447,-574.707,-197.266,-480.469,-578.613
1742470284.451,830.566,999.512,67.383,812.500
1742470284.455,999.512,832.031,-700.684,999.512
1742470284.458,91.309,-445.312,-1000.000,79.590
1742470284.462,-1000.000,-1000.000,-1000.000,-1000.000
1742470284.466,-997.559,-659.180,-654.297,-984.375
1742470284.470,221.680,607.422,327.148,222.656
1742470284.474,999.512,999.512,-123.535,999.512
1742470285.886,-1000.000,-835.449,-52.246,-1000.000
1742470285.890,156.250,639.648,977.539,240.723
1742470285.894,999.512,999.512,589.844,999.512
1742470285.898,324.707,217.285,-526.855,416.992
1742470285.902,-1000.000,-1000.000,-982.422,-1000.000
1742470285.906,-653.320,-313.477,112.793,-642.578
1742470285.910,749.023,999.512,999.512,792.969
1742470285.913,999.512,243.164,526.367,999.512
1742470285.917,485.840,-1000.000,-332.031,724.609
1742470285.921,-808.594,-926.270,-798.340,-548.340
1742470285.925,-1000.000,-1000.000,-321.777,-1000.000
1742470285.929,-166.992,-227.539,680.176,-155.762
1742470286.681,-1000.000,-1000.000,-775.391,-1000.000
1742470286.685,-796.875,-770.508,312.988,-749.023
1742470286.689,571.289,836.914,993.164,625.977
1742470286.693,999.512,638.672,330.566,999.512
1742470286.697,179.688,-842.285,-803.223,179.199
1742470286.701,-1000.000,-1000.000,-730.957,-1000.000
1742470286.705,-380.371,-196.777,448.730,-406.250
1742470286.708,935.059,999.512,828.125,918.945
1742470286.712,999.512,666.504,-2.441,999.512
1742470286.716,139.648,-689.941,-814.941,151.855
1742470286.720,-1000.000,-1000.000,-816.406,-1000.000
1742470286.724,-1000.000,-970.215,-59.082,-1000.000
1742470286.966,-1000.000,-1000.000,-602.051,-1000.000
1742470286.970,-329.102,-323.730,470.215,-283.203
1742470286.974,999.512,999.512,705.078,999.512
1742470286.978,756.836,374.023,-342.285,907.227
1742470286.982,-668.457,-1000.000,-1000.000,-455.566
1742470286.986,-1000.000,-437.012,-423.340,-1000.000
1742470286.990,91.309,999.512,685.059,163.086
1742470286.993,999.512,437.012,511.230,999.512
1742470286.997,975.098,-1000.000,-503.906,999.512
1742470287.001,-133.301,-955.078,-954.102,47.363
1742470287.005,-1000.000,-1000.000,-640.625,-1000.000
1742470287.009,-311.523,-315.918,420.898,-291.992
1742470287.251,-1000.000,-1000.000,251.465,-1000.000
1742470287.255,-116.699,37.598,948.242,-250.977
1742470287.259,999.512,999.512,893.066,999.512
1742470287.263,262.207,190.918,-220.215,214.844
1742470287.267,-1000.000,-1000.000,-804.199,-1000.000
1742470287.271,-215.332,-157.715,416.992,-957.520
1742470287.275,999.512,999.512,999.512,288.574
1742470287.278,999.512,487.305,742.188,999.512
1742470287.282,183.105,-861.816,-374.512,140.137
1742470287.286,-1000.000,-1000.000,-868.164,-1000.000
1742470287.290,-1000.000,-885.742,182.617,-1000.000
1742470287.294,123.047,289.062,948.730,30.762
1742470287.476,-679.199,-635.254,-961.914,-766.602
1742470287.480,-1000.000,-1000.000,-514.160,-1000.000
1742470287.484,-775.879,-515.137,532.227,-802.734
1742470287.488,560.059,810.059,937.988,552.734
1742470287.492,999.512,999.512,156.250,999.512
1742470287.496,-221.680,-186.523,-877.930,-333.008
1742470287.500,-1000.000,-1000.000,-360.352,-1000.000
1742470287.503,-942.871,-957.520,616.211,-939.453
1742470287.507,-997.070,-1000.000,668.945,-1000.000
1742470287.511,-1000.000,400.879,64.453,-1000.000
1742470287.515,-931.641,280.762,-819.336,-926.758
1742470287.519,-1000.000,-1000.000,-676.270,-1000.000
1742470287.717,999.512,999.512,350.586,999.512
1742470287.721,487.793,312.012,-635.254,580.078
1742470287.725,-923.828,-1000.000,-833.984,-902.832
1742470287.729,-1000.000,-1000.000,2.930,-960.938
1742470287.733,207.520,168.457,637.207,426.270
1742470287.737,999.512,999.512,376.953,999.512
1742470287.741,608.398,491.211,-615.234,662.109
1742470287.744,-733.887,-827.637,-989.746,-680.176
1742470287.748,-1000.000,-1000.000,-145.996,-1000.000
1742470287.752,-66.406,-81.543,842.773,48.828
1742470287.756,999.512,999.512,729.980,999.512
1742470287.760,318.359,196.777,-459.961,344.727
1742470290.341,-761.719,-269.043,579.590,966.797
1742470290.345,590.820,924.805,835.449,966.797
1742470290.349,999.512,999.512,448.730,966.797
1742470290.353,178.223,261.230,-340.332,966.797
1742470290.357,-963.867,-1000.000,-976.074,967.285
1742470290.361,-1000.000,-258.789,-699.707,967.285
1742470290.365,-88.867,999.512,50.293,966.797
1742470290.368,787.109,451.660,-406.250,966.797
1742470290.372,-647.461,-904.785,-1000.000,966.797
1742470290.376,-1000.000,-1000.000,-988.281,966.797
1742470290.380,-364.258,-44.434,-987.793,966.797
1742470290.384,931.641,986.816,-1000.000,967.285
1742470291.316,-157.715,-30.273,31.250,-191.895
1742470291.320,970.703,999.512,516.602,999.512
1742470291.324,999.512,805.664,-173.340,999.512
1742470291.328,182.129,-467.285,-894.043,305.664
1742470291.332,-1000.000,-1000.000,-543.457,-1000.000
1742470291.336,-114.258,-33.203,692.871,-55.664
1742470291.340,999.512,999.512,998.535,999.512
1742470291.343,931.641,188.477,329.102,919.434
1742470291.347,945.801,-1000.000,-344.727,951.660
1742470291.351,970.703,-746.582,-180.664,970.215
1742470291.355,979.004,869.141,476.562,966.797
1742470291.359,893.555,401.855,516.113,966.797
1742470292.592,999.512,-1000.000,317.383,903.809
1742470292.596,760.254,-969.727,-67.383,999.512
1742470292.600,-622.559,-931.152,-321.777,126.953
1742470292.604,-1000.000,-1000.000,55.176,-1000.000
1742470292.608,60.059,5.371,719.727,237.305
1742470292.612,999.512,999.512,734.863,999.512
1742470292.616,999.512,814.453,-116.699,999.512
1742470292.619,-93.750,-504.883,-807.617,116.699
1742470292.623,-1000.000,-1000.000,-214.844,-1000.000
1742470292.627,120.605,96.191,861.328,309.082
1742470292.631,999.512,999.512,894.531,999.512
1742470292.635,978.516,265.625,136.719,899.902
1742470293.011,999.512,999.512,831.055,-1000.000
1742470293.015,256.348,236.328,127.930,-1000.000
1742470293.019,-1000.000,-1000.000,176.270,-1000.000
1742470293.023,-204.590,-202.637,879.883,-1000.000
1742470293.027,999.512,999.512,988.281,-1000.000
1742470293.031,943.359,869.629,687.500,-1000.000
1742470293.035,939.453,999.512,189.453,-974.609
1742470293.038,973.145,444.824,137.207,-984.863
1742470293.042,966.309,-1000.000,483.398,-1000.000
1742470293.046,966.309,-79.590,878.418,153.809
1742470293.050,966.309,999.512,534.180,999.512
1742470293.054,966.309,269.043,-400.391,869.629
1742470293.192,-1000.000,-549.316,-321.289,-1000.000
1742470293.196,-159.180,852.051,616.699,-772.949
1742470293.200,999.512,999.512,668.457,838.867
1742470293.204,323.730,283.691,-195.312,357.422
1742470293.208,-1000.000,-1000.000,-994.141,-1000.000
1742470293.212,-1000.000,-634.766,-369.141,-987.305
1742470293.216,-959.473,998.535,537.109,-965.332
1742470293.219,-1000.000,152.832,361.816,-1000.000
1742470293.223,-1000.000,-1000.000,-233.887,-1000.000
1742470293.227,-985.352,-1000.000,-729.980,-1000.000
1742470293.231,-962.402,-513.672,-533.691,-1000.000
1742470293.235,-1000.000,860.840,85.449,-1000.000
1742470293.431,966.309,21.484,272.949,966.797
1742470293.435,966.309,-1000.000,300.293,966.797
1742470293.439,966.309,245.117,950.195,966.797
1742470293.443,966.309,955.566,976.562,966.797
1742470293.447,966.309,594.727,947.754,966.797
1742470293.451,966.309,952.637,975.098,966.797
1742470293.455,966.309,999.512,889.648,966.797
1742470293.458,966.309,-286.621,884.766,967.285
1742470293.462,966.309,-1000.000,942.383,966.797
1742470293.466,966.309,441.406,999.512,966.797
1742470293.470,966.309,999.512,633.301,967.285
1742470293.474,975.098,-179.199,23.438,966.797
1742470294.091,999.512,999.512,682.129,999.512
1742470294.095,201.660,21.973,-184.082,147.461
1742470294.099,-1000.000,-1000.000,-195.312,-1000.000
1742470294.103,-1000.000,-1000.000,760.742,-1000.000
1742470294.107,-216.309,-148.926,979.492,-211.426
1742470294.111,999.512,999.512,948.242,999.512
1742470294.115,999.512,729.004,384.277,999.512
1742470294.118,-127.441,-603.516,-456.543,-187.988
1742470294.122,-1000.000,-1000.000,55.664,-1000.000
1742470294.126,-237.305,-208.984,944.336,-180.176
1742470294.130,999.512,999.512,786.133,999.512
1742470294.134,445.312,205.566,-326.172,497.559
1742470294.602,-273.438,35.156,560.059,-286.621
1742470294.606,999.512,999.512,562.012,999.512
1742470294.610,648.926,706.055,-313.477,455.566
1742470294.614,-740.234,-651.855,-514.648,-890.625
1742470294.618,-1000.000,-1000.000,137.695,-1000.000
1742470294.622,-221.191,23.926,899.902,-232.910
1742470294.626,999.512,999.512,764.648,999.512
1742470294.629,170.410,106.934,-429.688,161.133
1742470294.633,-1000.000,-1000.000,-902.832,-1000.000
1742470294.637,-977.051,-1000.000,-27.344,-976.074
1742470294.641,-973.145,83.984,551.270,-973.633
1742470294.645,-1000.000,733.398,276.855,-1000.000
1742470295.171,713.867,999.512,947.754,790.527
1742470295.175,999.512,999.512,989.258,999.512
1742470295.179,110.840,-117.188,793.457,99.121
1742470295.183,-985.352,-1000.000,828.125,-995.117
1742470295.187,-1000.000,-1000.000,984.863,-1000.000
1742470295.191,-696.289,-134.277,964.844,-626.953
1742470295.195,924.805,999.512,952.148,956.543
1742470295.198,397.461,175.293,479.980,321.777
1742470295.202,-1000.000,-1000.000,543.457,-1000.000
1742470295.206,-992.676,-1000.000,979.980,-983.887
1742470295.210,-961.426,-850.586,999.512,-966.797
1742470295.214,-1000.000,679.199,757.812,-1000.000
1742470296.761,976.074,999.512,412.109,889.648
1742470296.765,911.621,901.367,357.910,944.824
1742470296.769,999.512,-267.090,-234.863,999.512
1742470296.773,236.328,-1000.000,-833.984,223.145
1742470296.777,-1000.000,-991.699,-278.809,-1000.000
1742470296.781,40.039,152.832,998.047,35.645
1742470296.785,999.512,999.512,971.191,999.512
1742470296.788,911.621,144.531,909.668,914.062
1742470296.792,956.543,-1000.000,942.871,957.031
1742470296.796,976.074,-545.898,970.703,972.656
1742470296.800,932.129,999.512,966.797,950.195
1742470296.804,968.750,628.418,966.309,931.641
1742470297.317,-262.207,53.223,932.129,-255.859
1742470297.321,999.512,999.512,999.512,999.512
1742470297.325,264.648,155.273,318.848,231.445
1742470297.329,-1000.000,-1000.000,-125.977,-1000.000
1742470297.333,-1000.000,-1000.000,788.574,-1000.000
1742470297.337,-249.023,-141.602,978.516,-250.977
1742470297.341,999.512,999.512,999.512,999.512
1742470297.344,169.922,134.277,405.273,171.875
1742470297.348,-1000.000,-1000.000,42.969,-1000.000
1742470297.352,-1000.000,-883.789,924.316,-1000.000
1742470297.356,-189.453,403.320,998.047,-169.922
1742470297.360,968.750,999.512,936.035,977.051
1742470297.646,999.512,999.512,665.527,999.512
1742470297.650,916.504,845.215,787.109,917.969
1742470297.654,898.438,999.512,965.332,911.621
1742470297.658,999.512,346.680,999.512,999.512
1742470297.662,582.031,-1000.000,785.156,757.324
1742470297.666,-861.816,-1000.000,-50.781,-668.945
1742470297.670,-1000.000,-894.531,262.207,-1000.000
1742470297.673,-925.781,-1000.000,999.512,-932.617
1742470297.677,-1000.000,-611.816,952.148,-1000.000
1742470297.681,174.805,699.219,958.008,238.281
1742470297.685,999.512,999.512,603.027,999.512
1742470297.689,913.574,296.387,294.434,871.094
1742470298.171,962.891,990.723,861.816,967.773
1742470298.175,999.512,881.836,337.891,999.512
1742470298.179,-50.781,-325.195,-174.316,-73.730
1742470298.183,-1000.000,-1000.000,187.500,-1000.000
1742470298.187,-1000.000,-826.172,793.945,-960.449
1742470298.191,137.207,431.152,951.660,215.332
1742470298.195,999.512,999.512,443.848,999.512
1742470298.198,193.359,101.074,-196.289,195.312
1742470298.202,-1000.000,-1000.000,215.332,-1000.000
1742470298.206,-745.117,-691.406,890.137,-609.863
1742470298.210,908.691,949.219,976.562,999.512
1742470298.214,605.469,437.988,83.008,565.430
1742470298.636,-999.023,-1000.000,-70.312,-1000.000
1742470298.640,-1000.000,-1000.000,885.254,-1000.000
1742470298.644,-957.520,-891.602,999.512,-921.875
1742470298.648,-951.660,-1000.000,318.848,-918.457
1742470298.652,-1000.000,-454.590,-288.086,-1000.000
1742470298.656,-186.523,859.375,519.531,-212.891
1742470298.660,999.512,999.512,999.512,999.512
1742470298.663,919.922,308.105,892.090,929.199
1742470298.667,999.512,-984.375,468.750,999.512
1742470298.671,-86.914,-959.961,-470.703,-100.098
1742470298.675,-1000.000,-1000.000,-424.805,-1000.000
1742470298.679,-179.199,-182.129,594.238,-179.688
1742470298.966,879.395,999.512,608.398,883.789
1742470298.970,999.512,36.621,999.512,999.512
1742470298.974,632.812,-1000.000,364.746,593.750
1742470298.978,-820.801,-967.773,-937.012,-846.191
1742470298.982,-1000.000,-1000.000,-1000.000,-1000.000
1742470298.986,-939.941,444.336,-958.984,-943.359
1742470298.990,-1000.000,736.816,-1000.000,-1000.000
1742470298.993,-937.500,-915.527,-1000.000,-936.035
1742470298.997,-1000.000,-1000.000,-1000.000,-1000.000
1742470299.001,-220.703,353.027,-1000.000,-244.629
1742470299.005,999.512,999.512,-1000.000,999.512
1742470299.009,950.195,854.492,-1000.000,953.125
1742470299.297,-934.570,999.512,967.285,-926.270
1742470299.301,-1000.000,-80.566,967.285,-1000.000
1742470299.305,-269.043,-347.656,966.797,-251.953
1742470299.309,999.512,999.512,966.797,999.512
1742470299.313,958.008,909.668,967.285,956.055
1742470299.317,935.059,999.512,967.285,937.012
1742470299.321,988.770,496.094,966.797,987.305
1742470299.324,908.203,-920.410,966.797,913.086
1742470299.328,999.512,-1000.000,966.797,999.512
1742470299.332,775.391,-949.707,966.797,802.246
1742470299.336,-613.281,-952.148,967.285,-540.527
1742470299.340,-1000.000,-1000.000,967.285,-1000.000
1742470300.181,999.512,999.512,454.590,999.512
1742470300.185,344.727,372.559,-546.875,302.734
1742470300.189,-969.727,-941.406,-1000.000,-980.469
1742470300.193,-1000.000,-1000.000,-596.680,-1000.000
1742470300.197,-232.910,-185.547,604.004,-305.176
1742470300.201,999.512,999.512,581.055,999.512
1742470300.205,815.918,847.168,-600.586,699.219
1742470300.208,-593.262,-459.473,-1000.000,-743.164
1742470300.212,-1000.000,-1000.000,-979.492,-1000.000
1742470300.216,-933.594,-724.609,-970.215,-938.477
1742470300.220,-1000.000,583.008,-919.434,-1000.000
1742470300.224,-1000.000,999.512,-984.375,-1000.000
1742470300.421,-260.254,-144.043,771.484,-292.480
1742470300.425,999.512,999.512,720.215,999.512
1742470300.429,781.738,666.016,-441.406,794.922
1742470300.433,-633.789,-667.969,-1000.000,-616.699
1742470300.437,-1000.000,-1000.000,-1000.000,-1000.000
1742470300.441,-933.594,-178.711,-871.582,-934.570
1742470300.445,-1000.000,999.512,-854.492,-1000.000
1742470300.448,-1000.000,-41.992,-1000.000,-1000.000
1742470300.452,-1000.000,-1000.000,-1000.000,-1000.000
1742470300.456,-1000.000,-633.301,-996.094,-1000.000
1742470300.460,-1000.000,903.320,-993.164,-1000.000
1742470300.464,-1000.000,633.789,-999.023,-1000.000
1742470300.932,-772.461,-168.945,369.629,-1000.000
1742470300.936,576.172,983.398,961.426,206.543
1742470300.940,999.512,999.512,999.512,999.512
1742470300.944,756.348,287.109,511.719,763.672
1742470300.948,-504.883,-1000.000,-779.297,-497.559
1742470300.952,-1000.000,-363.281,-72.266,-1000.000
1742470300.956,-157.715,936.523,999.512,-156.738
1742470300.959,968.750,999.512,940.918,972.168
1742470300.963,999.512,295.898,885.742,999.512
1742470300.967,104.004,-959.473,-269.043,95.703
1742470300.971,-1000.000,-1000.000,-947.266,-1000.000
1742470300.975,-1000.000,-971.680,-136.719,-1000.000
1742470301.171,999.512,999.512,377.441,999.512
1742470301.175,177.246,125.977,-325.684,202.148
1742470301.179,-1000.000,-1000.000,-264.648,-1000.000
1742470301.183,-983.887,-1000.000,410.156,-987.793
1742470301.187,-973.633,-782.715,407.227,-972.168
1742470301.191,-1000.000,613.770,-126.953,-1000.000
1742470301.195,-939.453,999.512,-138.672,-943.848
1742470301.198,-1000.000,-527.344,267.090,-1000.000
1742470301.202,-231.934,-382.324,663.086,-194.824
1742470301.206,999.512,999.512,378.906,999.512
1742470301.210,968.262,623.047,-680.176,920.410
1742470301.214,-275.391,-723.145,-1000.000,-333.496
1742470301.396,984.863,999.512,905.762,986.328
1742470301.400,999.512,745.117,338.867,999.512
1742470301.404,-3.418,-551.270,-440.918,25.391
1742470301.408,-1000.000,-1000.000,-21.484,-1000.000
1742470301.412,-556.641,-431.641,710.449,-490.723
1742470301.416,877.930,999.512,849.121,911.133
1742470301.420,999.512,794.434,37.109,999.512
1742470301.423,-268.555,-604.980,-1000.000,-225.098
1742470301.427,-1000.000,-1000.000,-508.301,-1000.000
1742470301.431,-222.656,-252.441,688.965,-220.703
1742470301.435,999.512,999.512,999.512,999.512
1742470301.439,979.004,285.645,302.734,989.258
1742470301.726,903.320,953.613,966.797,906.738
1742470301.730,958.984,950.195,968.262,978.027
1742470301.734,933.594,-353.516,945.801,907.227
1742470301.738,999.512,-1000.000,999.512,999.512
1742470301.742,-74.707,-868.164,724.121,155.273
1742470301.746,-1000.000,-1000.000,585.449,-1000.000
1742470301.750,-955.078,-63.477,980.957,-979.492
1742470301.753,-990.234,492.676,961.914,-975.586
1742470301.757,-1000.000,-955.078,984.375,-1000.000
1742470301.761,-999.023,-1000.000,878.418,-1000.000
1742470301.765,-940.430,-958.984,659.668,-937.500
1742470301.769,-1000.000,227.051,882.324,-1000.000
1742470301.966,999.512,-622.070,266.602,999.512
1742470301.970,-0.488,-1000.000,-487.305,28.320
1742470301.974,-1000.000,-1000.000,-41.504,-1000.000
1742470301.978,-313.965,-221.191,852.539,-291.504
1742470301.982,913.574,968.262,979.004,926.758
1742470301.986,999.512,999.512,868.164,999.512
1742470301.990,442.383,282.715,190.918,450.195
1742470301.993,-870.117,-997.070,-335.449,-873.047
1742470301.997,-1000.000,-1000.000,368.164,-1000.000
1742470302.001,-216.309,35.156,999.512,-155.762
1742470302.005,999.512,999.512,608.887,999.512
1742470302.009,262.695,271.973,-584.961,258.789
1742470302.386,743.164,711.914,389.648,607.422
1742470302.390,-645.996,-634.277,-382.812,-807.129
1742470302.394,-1000.000,-1000.000,188.477,-1000.000
1742470302.398,-934.082,-1000.000,807.617,-940.918
1742470302.402,-1000.000,-207.031,516.602,-1000.000
1742470302.406,-1000.000,987.793,-83.496,-1000.000
1742470302.410,-1000.000,999.512,-530.762,-1000.000
1742470302.413,-1000.000,204.590,-297.363,-1000.000
1742470302.417,-1000.000,-1000.000,87.891,-1000.000
1742470302.421,-966.797,-957.031,96.680,-999.023
1742470302.425,-1000.000,-1000.000,-545.898,-940.430
1742470302.429,-1000.000,-49.316,-750.488,-1000.000
1742470302.567,-983.887,-139.648,174.316,-934.082
1742470302.571,280.273,999.512,999.512,349.609
1742470302.575,999.512,892.090,653.809,999.512
1742470302.579,187.500,-356.934,-334.473,186.035
1742470302.583,-1000.000,-1000.000,-641.113,-1000.000
1742470302.587,-700.195,-229.980,407.715,-713.867
1742470302.591,681.152,999.512,999.512,648.438
1742470302.594,999.512,234.863,653.809,999.512
1742470302.598,193.359,-1000.000,-335.938,240.234
1742470302.602,-999.023,-1000.000,-870.117,-980.469
1742470302.606,-1000.000,-572.266,-75.684,-1000.000
1742470302.610,19.043,727.539,878.906,8.789
1742470303.271,-304.688,981.445,362.305,-279.297
1742470303.275,999.512,999.512,348.145,999.512
1742470303.279,640.625,490.234,-606.445,602.051
1742470303.283,-771.973,-979.492,-1000.000,-795.898
1742470303.287,-1000.000,-906.738,-776.367,-1000.000
1742470303.291,-101.562,500.977,338.379,-122.070
1742470303.295,999.512,999.512,458.984,999.512
1742470303.298,170.410,94.238,-687.012,208.496
1742470303.302,-1000.000,-1000.000,-1000.000,-1000.000
1742470303.306,-1000.000,-297.852,-448.242,-1000.000
1742470303.310,-171.387,985.840,445.312,-148.438
1742470303.314,990.234,954.102,382.324,996.582
1742470304.171,78.125,-1000.000,-1000.000,-123.535
1742470304.175,-1000.000,-947.266,-1000.000,-1000.000
1742470304.179,-956.543,-1000.000,-1000.000,-931.641
1742470304.183,-1000.000,-572.266,-1000.000,-1000.000
1742470304.187,143.066,817.383,-1000.000,97.656
1742470304.191,999.512,988.770,-1000.000,999.512
1742470304.195,912.109,986.328,-1000.000,921.387
1742470304.198,944.824,-93.750,-1000.000,933.594
1742470304.202,936.523,-1000.000,-988.770,957.520
1742470304.206,999.512,-946.777,-992.676,999.512
1742470304.210,-57.129,-941.406,-862.305,-167.969
1742470304.214,-1000.000,-1000.000,-334.473,-1000.000
1742470304.217,-197.266,-148.438,496.582,-194.824
1742470304.221,999.512,999.512,529.785,999.512
1742470304.225,998.047,698.242,-351.562,980.469
1742470304.229,-269.531,-673.828,-946.777,-280.762
1742470304.233,-1000.000,-1000.000,-941.895,-1000.000
1742470304.237,-1000.000,73.242,-242.188,-1000.000
1742470304.241,62.012,999.512,-71.777,110.840
1742470304.244,973.145,288.574,-789.062,913.574
1742470304.248,-542.480,-940.430,-1000.000,-614.258
1742470304.252,-1000.000,-1000.000,-926.758,-1000.000
1742470304.256,-973.633,-425.293,-443.359,-996.094
1742470304.260,160.645,857.910,-110.352,88.867
1742470304.636,444.336,385.254,248.535,647.949
1742470304.640,999.512,999.512,11.230,999.512
1742470304.644,899.414,151.855,-862.305,902.344
1742470304.648,975.586,-1000.000,-977.051,979.004
1742470304.652,963.379,-252.930,-356.445,974.609
1742470304.656,908.691,999.512,464.844,896.973
1742470304.660,999.512,844.727,449.707,999.512
1742470304.663,177.734,-446.289,-542.969,397.461
1742470304.667,-1000.000,-1000.000,-914.062,-1000.000
1742470304.671,-860.840,-828.125,-111.328,-728.516
1742470304.675,438.965,676.270,677.734,712.891
1742470304.679,999.512,666.504,254.883,999.512
1742470304.967,999.512,999.512,-536.621,999.512
1742470304.971,959.473,835.938,-214.355,953.613
1742470304.975,900.391,999.512,618.652,907.715
1742470304.979,985.352,412.598,999.023,977.051
1742470304.983,953.613,-974.121,834.961,972.168
1742470304.987,-371.094,-1000.000,200.684,-323.242
1742470304.991,-1000.000,-963.867,120.605,-1000.000
1742470304.994,-934.570,-947.754,643.555,-937.500
1742470304.998,-1000.000,-1000.000,809.570,-1000.000
1742470305.002,-1000.000,-547.852,470.703,-1000.000
1742470305.006,-1000.000,999.512,134.766,-1000.000
1742470305.010,-1000.000,143.066,87.891,-1000.000
1742470305.296,966.797,-414.551,975.586,968.262
1742470305.300,966.309,999.512,966.309,966.797
1742470305.304,966.309,400.879,645.508,966.797
1742470305.308,966.309,-1000.000,-101.074,966.797
1742470305.312,976.562,-458.984,-24.902,966.797
1742470305.316,894.043,971.191,806.152,973.633
1742470305.320,999.512,999.512,935.547,937.500
1742470305.323,384.277,-303.711,162.598,955.566
1742470305.327,-908.203,-1000.000,-734.863,999.512
1742470305.331,-1000.000,-1000.000,-997.559,-390.625
1742470305.335,-458.984,-449.219,-187.500,-479.492
1742470305.339,875.000,877.930,868.652,999.512
1742470305.761,949.707,999.512,-497.559,946.777
1742470305.765,938.965,-87.891,-790.039,941.895
1742470305.769,973.145,-1000.000,183.594,973.145
1742470305.773,980.469,16.602,999.512,978.027
1742470305.777,906.738,999.512,941.895,921.387
1742470305.781,999.512,999.512,966.309,997.070
1742470305.785,758.789,107.422,820.801,894.043
1742470305.788,-595.215,-1000.000,813.477,-407.715
1742470305.792,-1000.000,-1000.000,982.422,-1000.000
1742470305.796,-219.238,136.230,965.332,-138.184
1742470305.800,999.512,999.512,963.867,999.512
1742470305.804,708.984,311.035,967.773,676.758
1742470306.886,-1000.000,-1000.000,-966.309,-950.195
1742470306.890,-955.566,-960.938,-370.605,-973.145
1742470306.894,-1000.000,-1000.000,154.297,-1000.000
1742470306.898,-297.852,-97.168,390.137,-278.320
1742470306.902,999.512,999.512,27.344,999.512
1742470306.906,170.898,153.809,-654.297,99.121
1742470306.910,-1000.000,-1000.000,-212.402,-1000.000
1742470306.913,-977.051,-973.633,226.562,-968.750
1742470306.917,-973.145,-908.691,-150.391,-978.027
1742470306.921,-1000.000,-1000.000,-698.242,-1000.000
1742470306.925,-1000.000,-5.859,-901.367,-1000.000
1742470306.929,-1000.000,636.230,-449.707,-1000.000
1742470307.306,-1000.000,-1000.000,-811.035,-1000.000
1742470307.310,-983.398,-922.363,-22.461,-982.910
1742470307.314,-973.145,-1000.000,168.457,-973.633
1742470307.318,-1000.000,-100.586,-548.828,-1000.000
1742470307.322,-934.082,931.641,-1000.000,-928.711
1742470307.326,-1000.000,-606.445,-702.148,-1000.000
1742470307.330,-333.496,-353.027,350.098,-456.055
1742470307.333,999.512,999.512,676.270,999.512
1742470307.337,798.340,617.676,-173.340,741.211
1742470307.341,-622.070,-726.562,-933.105,-746.094
1742470307.345,-1000.000,-1000.000,-822.266,-1000.000
1742470307.349,-1000.000,-614.258,69.824,-1000.000
1742470308.521,-1000.000,-1000.000,-60.547,-890.137
1742470308.525,330.566,258.789,979.980,583.008
1742470308.529,999.512,999.512,992.676,999.512
1742470308.533,899.414,190.918,820.312,894.531
1742470308.537,982.422,-1000.000,779.785,978.516
1742470308.541,915.527,69.336,970.703,969.727
1742470308.545,999.512,999.512,967.285,955.078
1742470308.548,832.031,-37.109,956.055,924.316
1742470308.552,-541.992,-1000.000,802.734,999.512
1742470308.556,-1000.000,-918.457,490.723,15.137
1742470308.560,-884.766,-1000.000,642.578,-1000.000
1742470308.564,-1000.000,-958.984,962.402,-1000.000
1742470309.601,-1000.000,970.703,-892.090,-1000.000
1742470309.605,-188.965,856.445,-375.000,-229.492
1742470309.609,981.934,999.512,-45.898,973.633
1742470309.613,999.512,457.031,-492.676,999.512
1742470309.617,233.398,-916.992,-1000.000,220.215
1742470309.621,-1000.000,-1000.000,-825.684,-1000.000
1742470309.625,-367.188,-10.742,-44.922,-478.027
1742470309.628,938.477,999.512,425.293,882.324
1742470309.632,999.512,840.332,171.387,999.512
1742470309.636,145.508,-481.445,-671.875,120.605
1742470309.640,-997.559,-1000.000,-838.379,-998.535
1742470309.644,-1000.000,-1000.000,6.836,-1000.000
1742470310.307,-94.727,982.422,958.984,-1000.000
1742470310.311,999.512,999.512,999.512,-1000.000
1742470310.315,304.688,282.227,664.062,-1000.000
1742470310.319,-969.238,-1000.000,-433.105,-1000.000
1742470310.323,-1000.000,-931.641,-450.195,-1000.000
1742470310.327,-187.012,390.137,682.129,-1000.000
1742470310.331,999.512,999.512,776.367,-1000.000
1742470310.334,168.945,91.797,-336.914,-1000.000
1742470310.338,-1000.000,-1000.000,-1000.000,-937.988
1742470310.342,-1000.000,-1000.000,-722.656,-1000.000
1742470310.346,-29.785,225.586,466.309,-216.797
1742470310.350,999.512,999.512,999.512,999.512
1742470310.396,983.398,-956.543,895.508,980.957
1742470310.400,954.102,-682.129,961.914,967.285
1742470310.404,926.270,999.512,950.684,977.539
1742470310.408,999.512,327.148,999.512,912.109
1742470310.412,-10.742,-1000.000,788.086,999.512
1742470310.416,-1000.000,-962.891,312.500,782.227
1742470310.420,-1000.000,-1000.000,623.535,-774.902
1742470310.423,-270.020,-23.926,993.652,-276.855
1742470310.427,999.512,999.512,964.844,999.512
1742470310.431,690.918,279.297,953.613,999.512
1742470310.435,-667.969,-986.816,716.797,150.879
1742470310.439,-1000.000,-1000.000,799.316,-1000.000
1742470310.816,-1000.000,-1000.000,-910.645,-1000.000
1742470310.820,-1000.000,-984.863,-488.281,-812.500
1742470310.824,263.672,278.320,-28.809,621.582
1742470310.828,999.512,999.512,145.508,999.512
1742470310.832,902.344,830.566,-55.176,903.320
1742470310.836,968.750,931.641,359.375,978.516
1742470310.840,974.121,902.344,999.512,967.285
1742470310.843,933.594,-424.805,959.961,966.797
1742470310.847,966.309,-1000.000,953.125,966.797
1742470310.851,968.262,-888.184,970.215,966.797
1742470310.855,-222.656,-1000.000,966.797,966.797
1742470310.859,-1000.000,-84.961,966.797,966.797
1742470311.056,-954.102,-1000.000,550.781,-1000.000
1742470311.060,-1000.000,-734.863,263.184,-934.082
1742470311.064,-36.621,655.762,823.730,-1000.000
1742470311.068,999.512,973.633,782.227,-353.516
1742470311.072,999.512,999.512,-148.438,999.512
1742470311.076,413.574,455.078,-877.930,284.180
1742470311.080,-901.367,-898.926,-898.926,-990.234
1742470311.083,-1000.000,-1000.000,-278.320,-1000.000
1742470311.087,-226.074,-201.660,558.105,-350.098
1742470311.091,939.453,970.703,999.512,900.879
1742470311.095,999.512,999.512,583.496,999.512
1742470311.099,190.918,-129.395,-387.207,179.688
1742470311.566,999.512,999.512,-345.215,999.512
1742470311.570,968.750,552.246,-885.254,922.852
1742470311.574,-270.020,-751.465,-983.398,-337.891
1742470311.578,-1000.000,-1000.000,-1000.000,-1000.000
1742470311.582,-242.188,-187.988,-457.031,-270.020
1742470311.586,957.031,999.512,161.621,951.172
1742470311.590,999.512,915.039,-576.660,999.512
1742470311.593,54.199,-378.906,-1000.000,-4.883
1742470311.597,-1000.000,-1000.000,-955.078,-1000.000
1742470311.601,-830.078,-183.594,-655.273,-812.988
1742470311.605,446.777,865.234,-494.141,441.895
1742470311.609,999.512,999.512,-914.551,999.512
1742470312.181,-886.719,-1000.000,-701.660,-831.543
1742470312.185,-1000.000,-1000.000,125.977,-1000.000
1742470312.189,-82.520,-77.637,753.906,38.086
1742470312.193,999.512,999.512,583.008,999.512
1742470312.197,937.988,725.098,-107.910,925.781
1742470312.201,945.801,880.371,119.629,954.102
1742470312.205,970.215,660.645,620.117,970.703
1742470312.208,905.762,-794.434,518.555,904.297
1742470312.212,999.512,-1000.000,486.328,999.512
1742470312.216,167.480,-905.273,104.492,193.848
1742470312.220,-1000.000,-1000.000,-111.328,-1000.000
1742470312.224,-1000.000,-990.234,497.070,-1000.000
1742470313.442,-287.109,77.637,-41.992,-278.320
1742470313.446,999.512,999.512,-62.012,999.512
1742470313.450,685.547,409.668,-841.797,659.668
1742470313.454,-729.492,-974.121,-1000.000,-743.652
1742470313.458,-1000.000,-1000.000,-435.059,-1000.000
1742470313.462,-61.523,294.922,465.820,-80.078
1742470313.466,999.512,999.512,237.305,999.512
1742470313.469,485.352,217.773,-678.711,532.227
1742470313.473,-849.121,-962.402,-1000.000,-803.223
1742470313.477,-1000.000,-1000.000,-497.559,-1000.000
1742470313.481,-399.902,-289.062,283.203,-362.305
1742470313.485,847.168,928.711,418.945,865.723
1742470313.906,329.102,-931.641,-441.406,343.262
1742470313.910,-1000.000,-1000.000,-440.918,-1000.000
1742470313.914,-576.172,-250.977,403.809,-583.496
1742470313.918,918.457,999.512,858.887,906.738
1742470313.922,979.980,896.973,198.242,982.910
1742470313.926,888.672,999.512,-235.840,889.160
1742470313.930,999.512,636.719,-169.434,999.512
1742470313.933,-175.293,-795.410,-22.949,-155.762
1742470313.937,-1000.000,-1000.000,241.211,-1000.000
1742470313.941,-942.871,-925.781,164.551,-947.266
1742470313.945,-935.059,-979.004,-419.922,-933.105
1742470313.949,-1000.000,-1000.000,-661.621,-1000.000
1742470314.146,999.512,999.512,836.914,999.512
1742470314.150,779.785,420.898,119.141,749.512
1742470314.154,-547.363,-853.027,-412.598,-583.496
1742470314.158,-1000.000,-1000.000,235.840,-1000.000
1742470314.162,-553.223,-357.910,896.484,-570.801
1742470314.166,773.926,950.684,999.512,754.395
1742470314.170,999.512,999.512,569.336,999.512
1742470314.173,63.965,-212.891,-425.781,28.320
1742470314.177,-1000.000,-1000.000,-50.781,-1000.000
1742470314.181,-517.578,-354.492,917.969,-496.094
1742470314.185,884.766,999.512,944.824,905.273
1742470314.189,999.512,355.957,255.371,999.512
1742470314.851,999.512,999.512,966.797,999.512
1742470314.855,991.211,125.488,966.797,871.094
1742470314.859,-59.570,-990.234,967.773,-247.070
1742470314.863,-1000.000,-1000.000,964.844,-1000.000
1742470314.867,-574.707,-277.344,960.449,-509.277
1742470314.871,823.242,922.363,987.793,858.887
1742470314.875,999.512,999.512,774.414,999.512
1742470314.878,880.859,9.277,595.703,901.367
1742470314.882,966.309,-576.660,599.121,937.012
1742470314.886,999.512,789.551,90.820,999.512
1742470314.890,-217.773,-320.312,-749.512,-6.836
1742470314.894,-1000.000,-1000.000,-1000.000,-1000.000
1742470315.182,-1000.000,-1000.000,356.445,-1000.000
1742470315.186,-985.840,-1000.000,999.512,-961.426
1742470315.190,-990.723,-645.508,933.594,-1000.000
1742470315.194,277.344,734.375,960.449,161.133
1742470315.198,999.512,999.512,969.238,999.512
1742470315.202,914.551,886.719,966.797,920.410
1742470315.206,895.996,999.512,967.285,892.578
1742470315.209,999.512,-150.391,966.797,999.512
1742470315.213,465.332,-1000.000,966.797,437.500
1742470315.217,-951.660,-916.016,967.285,-960.938
1742470315.221,-1000.000,-1000.000,967.285,-1000.000
1742470315.225,-950.684,46.387,965.332,-952.637
1742470315.272,143.555,-163.086,688.477,111.328
1742470315.276,-1000.000,-1000.000,537.598,-1000.000
1742470315.280,-983.887,-61.523,967.285,-981.445
1742470315.284,-974.121,999.512,988.281,-974.121
1742470315.288,-1000.000,120.117,892.578,-1000.000
1742470315.292,-944.824,-1000.000,368.652,-931.641
1742470315.296,-1000.000,158.691,339.844,-1000.000
1742470315.299,-140.625,999.512,904.297,-333.984
1742470315.303,989.746,882.324,958.496,927.734
1742470315.307,999.512,999.512,999.512,999.512
1742470315.311,215.820,10.254,359.375,194.824
1742470315.315,-1000.000,-1000.000,-251.953,-1000.000
1742470315.797,887.695,958.496,-1000.000,999.512
1742470315.801,999.512,845.215,-1000.000,958.984
1742470315.805,-87.891,-458.984,-1000.000,-316.895
1742470315.809,-1000.000,-1000.000,-1000.000,-1000.000
1742470315.813,-1000.000,-542.480,-1000.000,-1000.000
1742470315.817,-13.672,744.629,-1000.000,-100.586
1742470315.821,999.512,999.512,-1000.000,999.512
1742470315.824,739.258,-33.691,-1000.000,471.191
1742470315.828,-540.527,-1000.000,-1000.000,-808.105
1742470315.832,-1000.000,-1000.000,-1000.000,-1000.000
1742470315.836,-504.395,-486.816,-992.676,-428.711
1742470315.840,862.305,910.156,-989.258,906.738
1742470317.101,-172.363,-6.348,167.480,-168.945
1742470317.105,994.141,999.512,712.402,991.211
1742470317.109,999.512,645.996,-192.871,999.512
1742470317.113,-65.430,-689.941,-930.176,8.301
1742470317.117,-1000.000,-1000.000,-896.484,-1000.000
1742470317.121,-192.871,-41.504,-25.391,-207.520
1742470317.125,999.512,999.512,214.355,999.512
1742470317.128,999.512,139.648,-654.785,999.512
1742470317.132,-127.441,-1000.000,-1000.000,-25.391
1742470317.136,-1000.000,-1000.000,-760.742,-1000.000
1742470317.140,-437.500,-278.809,147.949,-450.684
1742470317.144,852.051,941.895,394.531,852.539
1742470317.341,963.379,881.348,-775.391,954.102
1742470317.345,884.766,963.867,-49.805,910.156
1742470317.349,999.512,974.121,372.070,969.727
1742470317.353,809.570,-171.875,-48.828,996.094
1742470317.357,-585.449,-1000.000,-904.297,-282.227
1742470317.361,-1000.000,-411.621,-685.059,-1000.000
1742470317.365,-935.059,999.512,155.273,-937.988
1742470317.368,-1000.000,-84.961,-45.898,-1000.000
1742470317.372,-1000.000,-818.848,-303.711,-1000.000
1742470317.376,-981.445,979.980,-537.598,-983.887
1742470317.380,-968.262,110.840,-1000.000,-963.867
1742470317.384,-1000.000,-1000.000,-792.480,-1000.000
1742470317.851,999.512,999.512,-55.176,999.512
1742470317.855,22.461,-134.766,-525.879,-12.207
1742470317.859,-1000.000,-1000.000,-60.059,-1000.000
1742470317.863,-1000.000,-1000.000,575.684,-1000.000
1742470317.867,-325.195,-185.547,668.945,-309.082
1742470317.871,989.746,970.703,373.047,996.094
1742470317.875,970.703,999.512,38.086,968.262
1742470317.878,930.176,325.684,273.438,932.617
1742470317.882,913.574,-999.023,417.480,913.086
1742470317.886,999.512,-1000.000,424.805,999.512
1742470317.890,186.035,-889.648,-107.422,201.172
1742470317.894,-1000.000,-1000.000,-578.125,-1000.000
1742470318.091,959.473,999.512,570.801,967.285
1742470318.095,999.512,984.863,-39.551,999.512
1742470318.099,221.680,-111.328,-606.445,208.984
1742470318.103,-1000.000,-1000.000,-375.488,-1000.000
1742470318.107,-320.312,-247.559,525.879,-290.527
1742470318.111,999.512,999.512,936.523,999.512
1742470318.115,999.512,818.359,156.250,999.512
1742470318.118,-102.539,-499.023,-895.020,-45.898
1742470318.122,-1000.000,-1000.000,-580.078,-1000.000
1742470318.126,-391.113,-274.414,565.430,-341.309
1742470318.130,950.195,958.496,882.324,977.539
1742470318.134,925.781,950.195,203.613,916.504
1742470318.181,-1000.000,-1000.000,289.062,-1000.000
1742470318.185,-231.445,-177.734,949.219,-233.398
1742470318.189,999.512,999.512,690.430,999.512
1742470318.193,462.891,327.148,-411.133,475.586
1742470318.197,-1000.000,-1000.000,-603.027,-1000.000
1742470318.201,-480.957,-159.668,544.434,-432.617
1742470318.205,917.969,999.512,999.512,940.918
1742470318.208,999.512,715.332,623.047,999.512
1742470318.212,128.418,-656.738,-271.973,146.973
1742470318.216,-984.863,-1000.000,-246.582,-988.281
1742470318.220,-1000.000,-1000.000,624.512,-1000.000
1742470318.224,-447.754,-507.324,836.914,-333.008
1742470318.887,-67.383,999.512,687.012,-45.410
1742470318.891,999.512,991.699,602.051,999.512
1742470318.895,201.660,-37.598,-272.949,207.031
1742470318.899,-1000.000,-1000.000,-461.426,-1000.000
1742470318.903,-1000.000,-937.988,460.449,-1000.000
1742470318.907,-15.137,311.523,994.629,-12.695
1742470318.911,999.512,999.512,999.512,999.512
1742470318.914,401.855,-21.973,338.867,397.949
1742470318.918,-906.738,-1000.000,-94.238,-904.297
1742470318.922,-1000.000,-1000.000,738.770,-1000.000
1742470318.926,-156.738,-42.969,999.512,-160.156
1742470318.930,952.637,999.512,936.523,954.590
1742470319.486,-45.898,-755.371,-535.156,-96.680
1742470319.490,-1000.000,-1000.000,-247.559,-1000.000
1742470319.494,-315.430,-113.281,685.059,-351.562
1742470319.498,931.641,982.422,842.285,910.645
1742470319.502,999.512,994.141,142.090,999.512
1742470319.506,758.301,792.480,-305.176,551.270
1742470319.510,-604.004,-566.406,-142.578,-762.695
1742470319.513,-1000.000,-1000.000,424.316,-1000.000
1742470319.517,-941.895,-932.617,560.059,-945.312
1742470319.521,-981.445,-953.125,121.094,-1000.000
1742470319.525,-996.582,-1000.000,-367.188,-955.078
1742470319.529,-1000.000,-170.410,-187.012,-1000.000
1742470320.191,-435.059,-777.832,-354.004,-547.363
1742470320.195,-1000.000,-1000.000,425.293,-1000.000
1742470320.199,-320.312,-312.012,629.883,-253.906
1742470320.203,965.332,981.445,356.445,990.234
1742470320.207,978.027,908.691,-340.332,967.285
1742470320.211,936.035,999.512,-19.531,939.453
1742470320.215,935.547,601.562,710.449,945.312
1742470320.218,987.793,-825.195,479.980,960.938
1742470320.222,924.805,-1000.000,103.027,999.512
1742470320.226,-417.969,-882.812,-511.230,-269.043
1742470320.230,-1000.000,-1000.000,-572.754,-1000.000
1742470320.234,-1000.000,-603.516,286.133,-1000.000
1742470320.476,8.789,912.598,333.984,-130.859
1742470320.480,999.512,999.512,550.781,999.512
1742470320.484,850.098,221.680,-17.090,868.164
1742470320.488,999.512,-1000.000,-396.484,999.512
1742470320.492,385.742,-939.453,-686.035,400.391
1742470320.496,-1000.000,-1000.000,-307.129,-1000.000
1742470320.500,-226.562,-212.402,577.637,-229.004
1742470320.503,999.512,999.512,488.770,999.512
1742470320.507,999.512,194.336,-268.555,999.512
1742470320.511,209.961,-970.215,-691.406,224.609
1742470320.515,-1000.000,-1000.000,-361.328,-1000.000
1742470320.519,-846.191,-832.031,284.668,-687.012
1742470320.717,-193.848,-984.375,-648.438,-231.934
1742470320.721,-1000.000,-1000.000,-403.809,-1000.000
1742470320.725,-666.504,-219.727,410.156,-682.617
1742470320.729,679.199,984.863,643.066,634.766
1742470320.733,999.512,943.359,102.539,999.512
1742470320.737,977.051,996.582,-419.922,866.699
1742470320.741,-182.617,-208.008,-531.738,-367.676
1742470320.744,-1000.000,-1000.000,-131.348,-1000.000
1742470320.748,-942.383,-948.730,241.699,-938.477
1742470320.752,-987.793,-955.078,-92.285,-1000.000
1742470320.756,-956.543,-1000.000,-598.633,-940.918
1742470320.760,-1000.000,-805.176,-604.004,-1000.000
1742470320.986,-667.480,-1000.000,-766.602,-640.137
1742470320.990,-1000.000,-1000.000,-185.059,-1000.000
1742470320.994,-272.461,-225.098,722.656,-255.859
1742470320.998,981.934,999.512,678.223,988.770
1742470321.002,969.238,908.691,-170.898,967.285
1742470321.006,929.688,976.562,-393.066,931.641
1742470321.010,978.027,862.305,50.293,988.281
1742470321.013,901.855,-506.348,301.758,893.555
1742470321.017,999.512,-1000.000,243.164,999.512
1742470321.021,210.938,-907.227,-310.547,439.453
1742470321.025,-1000.000,-999.512,-847.168,-900.391
1742470321.029,-1000.000,-1000.000,-467.285,-1000.000
1742470321.511,950.195,999.512,951.660,947.754
1742470321.515,938.965,76.660,969.727,941.406
1742470321.519,973.145,-1000.000,967.285,973.145
1742470321.523,966.797,-411.133,966.797,974.609
1742470321.527,903.320,874.023,966.797,896.973
1742470321.531,999.512,999.512,966.797,999.512
1742470321.535,186.035,13.672,966.797,336.914
1742470321.538,-1000.000,-1000.000,967.285,-966.797
1742470321.542,-1000.000,-1000.000,967.285,-1000.000
1742470321.546,-207.520,-204.590,967.285,-36.621
1742470321.550,991.211,999.512,966.797,987.305
1742470321.554,999.512,445.801,967.285,999.512
1742470321.692,-1000.000,-752.930,967.285,-1000.000
1742470321.696,-820.801,570.312,967.285,-610.840
1742470321.700,395.020,999.512,966.797,664.551
1742470321.704,999.512,906.250,967.285,999.512
1742470321.708,509.766,-224.609,966.797,508.301
1742470321.712,-956.055,-1000.000,966.797,-979.492
1742470321.716,-899.902,-226.074,967.285,-751.953
1742470321.719,509.277,979.004,966.797,682.129
1742470321.723,999.512,999.512,966.797,999.512
1742470321.727,401.367,-47.852,967.285,354.004
1742470321.731,-872.559,-1000.000,967.285,-888.672
1742470321.735,-1000.000,-1000.000,967.285,-1000.000
1742470322.261,-1000.000,-218.262,978.516,-1000.000
1742470322.265,-948.242,969.727,972.168,-941.895
1742470322.269,-949.707,-458.008,958.008,-1000.000
1742470322.273,-1000.000,-1000.000,969.238,-937.988
1742470322.277,-726.562,-104.492,967.285,-1000.000
1742470322.281,701.172,974.121,966.797,-218.750
1742470322.285,979.004,999.512,966.797,973.145
1742470322.288,999.512,587.891,967.285,999.512
1742470322.292,273.926,-774.414,967.285,179.199
1742470322.296,-1000.000,-1000.000,967.285,-1000.000
1742470322.300,-996.094,-1000.000,967.285,-987.305
1742470322.304,-967.285,-63.965,967.285,-971.680
1742470322.681,910.156,236.328,230.469,902.832
1742470322.685,999.512,-1000.000,0.977,999.512
1742470322.689,198.242,-939.453,-565.918,341.309
1742470322.693,-1000.000,-1000.000,-1000.000,-969.238
1742470322.697,-1000.000,-883.301,-588.867,-1000.000
1742470322.701,-119.141,482.910,604.492,-85.449
1742470322.705,999.512,999.512,966.797,999.512
1742470322.708,275.391,-75.684,-176.758,377.930
1742470322.712,-978.516,-1000.000,-1000.000,-929.199
1742470322.716,-1000.000,-876.953,-681.641,-1000.000
1742470322.720,-198.242,357.422,433.105,-180.664
1742470322.724,987.793,999.512,928.711,982.422
1742470323.147,619.629,-281.250,202.148,592.773
1742470323.151,-825.684,-1000.000,-305.176,-837.402
1742470323.155,-1000.000,-663.574,472.168,-1000.000
1742470323.159,140.625,672.363,999.512,155.762
1742470323.163,999.512,996.582,971.680,999.512
1742470323.167,999.512,999.512,737.793,999.512
1742470323.171,226.074,109.863,-184.082,223.145
1742470323.174,-1000.000,-1000.000,-269.043,-1000.000
1742470323.178,-929.199,-837.891,613.281,-812.500
