timestamps,TP9,AF7,AF8,TP10
1742470964.348,207.520,144.043,509.277,286.621
1742470964.352,999.512,150.391,506.348,999.512
1742470964.356,989.258,111.816,-25.391,941.406
1742470964.360,-52.246,7.324,-404.297,-233.398
1742470964.364,-1000.000,-60.547,-315.430,-1000.000
1742470964.368,-344.727,104.492,477.051,-136.719
1742470964.372,999.512,129.883,644.531,999.512
1742470964.375,852.539,8.789,-244.141,826.660
1742470964.379,-564.941,-76.172,-786.621,-582.520
1742470964.383,-1000.000,-55.176,-308.594,-1000.000
1742470964.387,-462.402,37.109,462.891,-232.910
1742470964.391,881.836,95.703,797.852,971.191
1742470964.394,999.512,14.648,207.031,967.285
1742470964.398,-291.992,-115.234,-539.551,-341.309
1742470964.402,-1000.000,-94.727,-235.352,-1000.000
1742470964.406,-608.887,21.973,512.207,-414.062
1742470964.410,792.480,99.121,815.918,884.766
1742470964.414,999.512,46.875,410.156,999.512
1742470964.418,-198.730,-107.910,-487.305,-215.820
1742470964.421,-1000.000,-122.559,-538.574,-1000.000
1742470964.425,-818.359,-21.973,181.152,-821.289
1742470964.429,492.676,74.707,577.637,512.695
1742470964.433,999.512,53.223,214.844,999.512
1742470964.437,511.230,-34.180,-413.086,328.613
1742470964.394,999.512,14.648,207.031,967.285
1742470964.398,-291.992,-115.234,-539.551,-341.309
1742470964.402,-1000.000,-94.727,-235.352,-1000.000
1742470964.406,-608.887,21.973,512.207,-414.062
1742470964.410,792.480,99.121,815.918,884.766
1742470964.414,999.512,46.875,410.156,999.512
1742470964.418,-198.730,-107.910,-487.305,-215.820
1742470964.421,-1000.000,-122.559,-538.574,-1000.000
1742470964.425,-818.359,-21.973,181.152,-821.289
1742470964.429,492.676,74.707,577.637,512.695
1742470964.433,999.512,53.223,214.844,999.512
1742470964.437,511.230,-34.180,-413.086,328.613
1742470964.394,999.512,14.648,207.031,967.285
1742470964.398,-291.992,-115.234,-539.551,-341.309
1742470964.402,-1000.000,-94.727,-235.352,-1000.000
1742470964.406,-608.887,21.973,512.207,-414.062
1742470964.410,792.480,99.121,815.918,884.766
1742470964.414,999.512,46.875,410.156,999.512
1742470964.418,-198.730,-107.910,-487.305,-215.820
1742470964.421,-1000.000,-122.559,-538.574,-1000.000
1742470964.425,-818.359,-21.973,181.152,-821.289
1742470964.429,492.676,74.707,577.637,512.695
1742470964.433,999.512,53.223,214.844,999.512
1742470964.437,511.230,-34.180,-413.086,328.613
1742470964.921,385.742,97.656,525.879,441.895
1742470964.925,999.512,55.664,163.574,999.512
1742470964.929,-271.973,-109.375,-718.262,-367.676
1742470964.933,-1000.000,-84.473,-496.094,-1000.000
1742470964.937,-925.293,-24.414,254.883,-912.598
1742470964.941,362.305,80.566,558.594,414.551
1742470964.945,999.512,41.992,210.449,999.512
1742470964.948,50.781,-136.719,-699.219,-143.066
1742470964.952,-1000.000,-145.020,-889.648,-1000.000
1742470964.956,-981.445,-58.594,-133.301,-929.688
1742470964.960,275.879,42.969,503.418,346.680
1742470964.964,999.512,23.438,350.586,999.512
1742470964.453,-941.406,-88.379,-407.227,-1000.000
1742470964.457,-934.570,-15.137,206.055,-887.207
1742470964.461,556.152,109.375,765.625,583.496
1742470964.465,999.512,66.895,515.625,999.512
1742470964.469,299.316,-75.684,-454.590,197.754
1742470964.473,-1000.000,-84.961,-533.203,-1000.000
1742470964.477,-896.973,6.836,297.363,-855.957
1742470964.480,538.086,86.426,759.766,579.590
1742470964.484,999.512,37.109,298.340,999.512
1742470964.488,320.312,-76.660,-617.676,227.539
1742470964.492,-1000.000,-108.887,-788.086,-1000.000
1742470964.496,-912.598,-10.742,-49.805,-896.484
1742470964.453,-941.406,-88.379,-407.227,-1000.000
1742470964.457,-934.570,-15.137,206.055,-887.207
1742470964.461,556.152,109.375,765.625,583.496
1742470964.465,999.512,66.895,515.625,999.512
1742470964.469,299.316,-75.684,-454.590,197.754
1742470964.473,-1000.000,-84.961,-533.203,-1000.000
1742470964.477,-896.973,6.836,297.363,-855.957
1742470964.480,538.086,86.426,759.766,579.590
1742470964.484,999.512,37.109,298.340,999.512
1742470964.488,320.312,-76.660,-617.676,227.539
1742470964.492,-1000.000,-108.887,-788.086,-1000.000
1742470964.496,-912.598,-10.742,-49.805,-896.484
1742470964.497,496.582,111.328,668.457,511.719
1742470964.501,999.512,75.684,532.715,999.512
1742470964.505,564.453,-53.223,-447.754,432.129
1742470964.509,-872.070,-94.238,-831.543,-936.035
1742470964.513,-1000.000,-11.719,-66.406,-980.469
1742470964.517,403.809,134.766,820.801,430.176
1742470964.521,999.512,101.074,788.086,999.512
1742470964.524,698.242,-59.082,-275.879,622.070
1742470964.528,-721.680,-108.887,-851.562,-792.480
1742470964.532,-1000.000,-12.695,-189.941,-1000.000
1742470964.536,264.648,98.145,688.477,319.824
1742470964.540,999.512,52.246,596.191,999.512
1742470964.497,496.582,111.328,668.457,511.719
1742470964.501,999.512,75.684,532.715,999.512
1742470964.505,564.453,-53.223,-447.754,432.129
1742470964.509,-872.070,-94.238,-831.543,-936.035
1742470964.513,-1000.000,-11.719,-66.406,-980.469
1742470964.517,403.809,134.766,820.801,430.176
1742470964.521,999.512,101.074,788.086,999.512
1742470964.524,698.242,-59.082,-275.879,622.070
1742470964.528,-721.680,-108.887,-851.562,-792.480
1742470964.532,-1000.000,-12.695,-189.941,-1000.000
1742470964.536,264.648,98.145,688.477,319.824
1742470964.540,999.512,52.246,596.191,999.512
1742470964.542,811.035,-35.645,-203.125,792.480
1742470964.546,-566.895,-120.117,-821.289,-601.562
1742470964.550,-1000.000,-56.152,-317.871,-1000.000
1742470964.554,102.051,87.402,723.145,168.457
1742470964.558,999.512,65.430,654.785,999.512
1742470964.562,829.102,1.465,-58.594,806.152
1742470964.566,-499.512,-109.863,-600.098,-518.555
1742470964.569,-1000.000,-119.629,-562.500,-1000.000
1742470964.573,-911.133,-24.902,52.734,-893.555
1742470964.577,442.383,83.008,462.891,505.371
1742470964.581,999.512,34.668,-39.551,999.512
1742470964.585,-304.688,-111.816,-786.133,-412.109
1742470964.542,811.035,-35.645,-203.125,792.480
1742470964.546,-566.895,-120.117,-821.289,-601.562
1742470964.550,-1000.000,-56.152,-317.871,-1000.000
1742470964.554,102.051,87.402,723.145,168.457
1742470964.558,999.512,65.430,654.785,999.512
1742470964.562,829.102,1.465,-58.594,806.152
1742470964.566,-499.512,-109.863,-600.098,-518.555
1742470964.569,-1000.000,-119.629,-562.500,-1000.000
1742470964.573,-911.133,-24.902,52.734,-893.555
1742470964.577,442.383,83.008,462.891,505.371
1742470964.581,999.512,34.668,-39.551,999.512
1742470964.585,-304.688,-111.816,-786.133,-412.109
1742470964.590,-1000.000,-78.125,-468.750,-1000.000
1742470964.594,-838.379,-21.484,196.289,-831.055
1742470964.598,522.461,56.152,420.410,555.176
1742470964.602,999.512,40.039,106.934,999.512
1742470964.606,-28.809,-100.586,-657.715,-181.641
1742470964.610,-1000.000,-76.660,-507.324,-1000.000
1742470964.614,-892.090,0.488,285.645,-882.324
1742470964.617,582.031,34.180,515.625,589.844
1742470964.621,999.512,-23.926,71.289,999.512
1742470964.625,-362.793,-174.805,-810.547,-446.289
1742470964.629,-1000.000,-148.926,-848.145,-1000.000
1742470964.633,-805.176,-41.504,147.461,-797.363
1742470964.633,499.023,40.039,846.680,499.023
1742470964.637,999.512,-6.836,538.086,999.512
1742470964.641,803.711,-69.824,-155.273,744.629
1742470964.645,-556.152,-126.953,-292.969,-644.531
1742470964.649,-1000.000,-101.562,166.992,-1000.000
1742470964.653,96.191,37.109,692.383,210.449
1742470964.657,999.512,13.672,483.398,999.512
1742470964.660,629.883,-109.863,-436.035,517.090
1742470964.664,-777.344,-146.973,-771.973,-849.609
1742470964.668,-1000.000,-98.145,-125.000,-1000.000
1742470964.672,26.367,21.973,557.617,144.531
1742470964.676,999.512,52.246,735.840,999.512
1742470964.633,499.023,40.039,846.680,499.023
1742470964.637,999.512,-6.836,538.086,999.512
1742470964.641,803.711,-69.824,-155.273,744.629
1742470964.645,-556.152,-126.953,-292.969,-644.531
1742470964.649,-1000.000,-101.562,166.992,-1000.000
1742470964.653,96.191,37.109,692.383,210.449
1742470964.657,999.512,13.672,483.398,999.512
1742470964.660,629.883,-109.863,-436.035,517.090
1742470964.664,-777.344,-146.973,-771.973,-849.609
1742470964.668,-1000.000,-98.145,-125.000,-1000.000
1742470964.672,26.367,21.973,557.617,144.531
1742470964.676,999.512,52.246,735.840,999.512
1742470964.694,999.512,-32.227,143.066,953.613
1742470964.698,-157.715,-134.766,-366.699,-303.711
1742470964.702,-1000.000,-135.254,-66.895,-1000.000
1742470964.706,-77.637,34.668,683.594,104.004
1742470964.710,965.820,57.129,841.797,993.652
1742470964.714,999.512,7.812,286.621,999.512
1742470964.718,801.758,-45.410,-74.219,653.809
1742470964.721,-632.324,-136.719,-70.801,-751.465
1742470964.725,-1000.000,-96.191,176.270,-1000.000
1742470964.729,-942.871,-66.895,173.828,-953.613
1742470964.733,-958.984,-72.266,-379.883,-958.496
1742470964.737,-1000.000,-58.594,-641.113,-1000.000
1742470964.694,999.512,-32.227,143.066,953.613
1742470964.698,-157.715,-134.766,-366.699,-303.711
1742470964.702,-1000.000,-135.254,-66.895,-1000.000
1742470964.706,-77.637,34.668,683.594,104.004
1742470964.710,965.820,57.129,841.797,993.652
1742470964.714,999.512,7.812,286.621,999.512
1742470964.718,801.758,-45.410,-74.219,653.809
1742470964.721,-632.324,-136.719,-70.801,-751.465
1742470964.725,-1000.000,-96.191,176.270,-1000.000
1742470964.729,-942.871,-66.895,173.828,-953.613
1742470964.733,-958.984,-72.266,-379.883,-958.496
1742470964.737,-1000.000,-58.594,-641.113,-1000.000
1742470964.769,540.039,62.500,724.609,558.594
1742470964.773,999.512,4.883,354.004,999.512
1742470964.777,-267.578,-154.785,-673.340,-350.098
1742470964.781,-1000.000,-132.812,-743.652,-1000.000
1742470964.785,-833.984,-13.184,121.094,-849.609
1742470964.789,514.648,114.258,852.051,513.184
1742470964.793,999.512,41.504,632.812,999.512
1742470964.796,44.434,-149.414,-517.578,-103.027
1742470964.800,-1000.000,-148.438,-942.871,-1000.000
1742470964.804,-1000.000,-46.875,-152.344,-1000.000
1742470964.808,62.012,75.195,715.332,110.840
1742470964.812,999.512,50.781,551.270,999.512
1742470964.769,540.039,62.500,724.609,558.594
1742470964.773,999.512,4.883,354.004,999.512
1742470964.777,-267.578,-154.785,-673.340,-350.098
1742470964.781,-1000.000,-132.812,-743.652,-1000.000
1742470964.785,-833.984,-13.184,121.094,-849.609
1742470964.789,514.648,114.258,852.051,513.184
1742470964.793,999.512,41.504,632.812,999.512
1742470964.796,44.434,-149.414,-517.578,-103.027
1742470964.800,-1000.000,-148.438,-942.871,-1000.000
1742470964.804,-1000.000,-46.875,-152.344,-1000.000
1742470964.808,62.012,75.195,715.332,110.840
1742470964.812,999.512,50.781,551.270,999.512
1742470964.827,553.711,-76.172,-382.324,350.098
1742470964.831,-915.039,-137.695,-800.293,-995.117
1742470964.835,-1000.000,-53.223,-128.418,-969.727
1742470964.839,416.504,106.934,832.520,408.691
1742470964.843,999.512,39.551,595.703,999.512
1742470964.847,760.254,-53.223,-171.387,677.734
1742470964.851,-616.699,-124.023,-588.867,-702.637
1742470964.854,-1000.000,-106.934,-352.539,-1000.000
1742470964.858,-926.270,-45.898,150.391,-930.664
1742470964.862,-1000.000,-45.898,191.895,-1000.000
1742470964.866,-942.383,-45.898,-296.875,-942.383
1742470964.870,-1000.000,-41.504,-594.727,-1000.000
1742470964.827,553.711,-76.172,-382.324,350.098
1742470964.831,-915.039,-137.695,-800.293,-995.117
1742470964.835,-1000.000,-53.223,-128.418,-969.727
1742470964.839,416.504,106.934,832.520,408.691
1742470964.843,999.512,39.551,595.703,999.512
1742470964.847,760.254,-53.223,-171.387,677.734
1742470964.851,-616.699,-124.023,-588.867,-702.637
1742470964.854,-1000.000,-106.934,-352.539,-1000.000
1742470964.858,-926.270,-45.898,150.391,-930.664
1742470964.862,-1000.000,-45.898,191.895,-1000.000
1742470964.866,-942.383,-45.898,-296.875,-942.383
1742470964.870,-1000.000,-41.504,-594.727,-1000.000
1742470964.872,-875.000,10.254,30.273,-871.582
1742470964.876,505.859,72.754,634.277,510.254
1742470964.880,999.512,18.555,378.906,999.512
1742470964.884,764.648,-42.480,-203.613,764.160
1742470964.888,-515.625,-126.953,-754.395,-518.555
1742470964.892,-1000.000,-53.223,-309.082,-1000.000
1742470964.896,-771.973,38.574,575.195,-732.422
1742470964.899,726.074,55.176,575.684,753.906
1742470964.903,940.430,-16.602,-111.816,927.246
1742470964.907,-622.559,-129.395,-845.215,-622.559
1742470964.911,-1000.000,-70.801,-667.480,-1000.000
1742470964.915,-934.082,15.137,110.352,-917.480
1742470964.872,-875.000,10.254,30.273,-871.582
1742470964.876,505.859,72.754,634.277,510.254
1742470964.880,999.512,18.555,378.906,999.512
1742470964.884,764.648,-42.480,-203.613,764.160
1742470964.888,-515.625,-126.953,-754.395,-518.555
1742470964.892,-1000.000,-53.223,-309.082,-1000.000
1742470964.896,-771.973,38.574,575.195,-732.422
1742470964.899,726.074,55.176,575.684,753.906
1742470964.903,940.430,-16.602,-111.816,927.246
1742470964.907,-622.559,-129.395,-845.215,-622.559
1742470964.911,-1000.000,-70.801,-667.480,-1000.000
1742470964.915,-934.082,15.137,110.352,-917.480
1742470964.963,503.906,-119.141,-506.348,312.988
1742470964.967,-878.418,-176.270,-811.523,-964.844
1742470964.971,-1000.000,-104.004,-119.629,-1000.000
1742470964.975,227.539,11.230,537.109,290.039
1742470964.979,999.512,9.766,450.684,999.512
1742470964.983,775.879,-82.520,-289.062,749.023
1742470964.987,-538.086,-165.039,-688.477,-560.547
1742470964.990,-1000.000,-122.070,-77.637,-1000.000
1742470964.994,-876.465,-85.938,267.578,-851.562
1742470964.998,580.078,-4.395,126.465,620.605
1742470965.002,999.512,-41.504,-414.551,991.699
1742470965.006,-556.641,-173.828,-840.820,-597.656
1742470965.007,-1000.000,-143.066,-415.527,-1000.000
1742470965.011,-331.055,-20.508,286.133,-160.156
1742470965.015,978.516,61.523,649.414,999.512
1742470965.019,918.457,-33.691,80.078,888.672
1742470965.023,-558.105,-192.383,-883.301,-577.637
1742470965.027,-1000.000,-92.285,-418.457,-1000.000
1742470965.031,75.195,59.570,628.418,176.758
1742470965.034,999.512,15.137,448.242,999.512
1742470965.038,793.945,-67.383,-312.988,772.949
1742470965.042,-547.852,-167.969,-934.082,-553.711
1742470965.046,-1000.000,-132.324,-806.641,-1000.000
1742470965.050,-863.281,-20.996,74.219,-819.336
1742470965.007,-1000.000,-143.066,-415.527,-1000.000
1742470965.011,-331.055,-20.508,286.133,-160.156
1742470965.015,978.516,61.523,649.414,999.512
1742470965.019,918.457,-33.691,80.078,888.672
1742470965.023,-558.105,-192.383,-883.301,-577.637
1742470965.027,-1000.000,-92.285,-418.457,-1000.000
1742470965.031,75.195,59.570,628.418,176.758
1742470965.034,999.512,15.137,448.242,999.512
1742470965.038,793.945,-67.383,-312.988,772.949
1742470965.042,-547.852,-167.969,-934.082,-553.711
1742470965.046,-1000.000,-132.324,-806.641,-1000.000
1742470965.050,-863.281,-20.996,74.219,-819.336
1742470965.054,586.914,58.594,513.672,651.367
1742470965.058,999.512,-21.484,-67.383,984.375
1742470965.062,-533.203,-154.785,-883.301,-578.125
1742470965.066,-1000.000,-118.164,-746.094,-1000.000
1742470965.070,-801.270,-40.527,25.391,-803.711
1742470965.074,520.508,94.238,590.332,541.992
1742470965.078,999.512,31.738,266.113,999.512
1742470965.081,-425.293,-201.172,-803.711,-512.695
1742470965.085,-1000.000,-158.691,-963.867,-1000.000
1742470965.089,-1000.000,-70.801,-279.785,-1000.000
1742470965.093,-208.984,31.738,358.398,-142.090
1742470965.097,999.512,39.062,99.609,999.512
1742470965.054,586.914,58.594,513.672,651.367
1742470965.058,999.512,-21.484,-67.383,984.375
1742470965.062,-533.203,-154.785,-883.301,-578.125
1742470965.066,-1000.000,-118.164,-746.094,-1000.000
1742470965.070,-801.270,-40.527,25.391,-803.711
1742470965.074,520.508,94.238,590.332,541.992
1742470965.078,999.512,31.738,266.113,999.512
1742470965.081,-425.293,-201.172,-803.711,-512.695
1742470965.085,-1000.000,-158.691,-963.867,-1000.000
1742470965.089,-1000.000,-70.801,-279.785,-1000.000
1742470965.093,-208.984,31.738,358.398,-142.090
1742470965.097,999.512,39.062,99.609,999.512
1742470965.097,-92.285,-141.113,-790.039,-265.137
1742470965.101,-1000.000,-163.086,-998.535,-1000.000
1742470965.105,-894.531,-48.340,-260.742,-883.789
1742470965.109,366.699,74.219,651.367,363.770
1742470965.113,999.512,20.020,356.934,999.512
1742470965.117,601.562,-55.664,-364.746,414.062
1742470965.121,-702.637,-106.934,-529.297,-828.613
1742470965.124,-1000.000,-93.750,-89.844,-1000.000
1742470965.128,-586.914,-29.297,406.738,-398.438
1742470965.132,880.371,25.879,369.629,976.562
1742470965.136,937.012,-46.875,-298.340,811.035
1742470965.140,-743.652,-168.457,-784.668,-820.801
1742470965.097,-92.285,-141.113,-790.039,-265.137
1742470965.101,-1000.000,-163.086,-998.535,-1000.000
1742470965.105,-894.531,-48.340,-260.742,-883.789
1742470965.109,366.699,74.219,651.367,363.770
1742470965.113,999.512,20.020,356.934,999.512
1742470965.117,601.562,-55.664,-364.746,414.062
1742470965.121,-702.637,-106.934,-529.297,-828.613
1742470965.124,-1000.000,-93.750,-89.844,-1000.000
1742470965.128,-586.914,-29.297,406.738,-398.438
1742470965.132,880.371,25.879,369.629,976.562
1742470965.136,937.012,-46.875,-298.340,811.035
1742470965.140,-743.652,-168.457,-784.668,-820.801
1742470965.145,-985.352,-62.500,-41.992,-970.215
1742470965.149,551.758,70.801,850.586,543.945
1742470965.153,999.512,-12.695,521.973,999.512
1742470965.157,770.996,-76.660,-380.859,717.285
1742470965.161,-653.320,-128.418,-754.395,-724.121
1742470965.165,-1000.000,-50.781,43.457,-1000.000
1742470965.169,342.285,74.219,863.281,412.598
1742470965.172,999.512,7.812,648.926,999.512
1742470965.176,749.023,-91.309,-244.629,707.520
1742470965.180,-543.457,-147.461,-869.629,-597.656
1742470965.184,-1000.000,-111.328,-417.969,-1000.000
1742470965.188,-643.066,-2.930,432.129,-505.371
1742470965.145,-985.352,-62.500,-41.992,-970.215
1742470965.149,551.758,70.801,850.586,543.945
1742470965.153,999.512,-12.695,521.973,999.512
1742470965.157,770.996,-76.660,-380.859,717.285
1742470965.161,-653.320,-128.418,-754.395,-724.121
1742470965.165,-1000.000,-50.781,43.457,-1000.000
1742470965.169,342.285,74.219,863.281,412.598
1742470965.172,999.512,7.812,648.926,999.512
1742470965.176,749.023,-91.309,-244.629,707.520
1742470965.180,-543.457,-147.461,-869.629,-597.656
1742470965.184,-1000.000,-111.328,-417.969,-1000.000
1742470965.188,-643.066,-2.930,432.129,-505.371
1742470965.202,847.168,71.289,794.922,909.668
1742470965.206,910.156,-39.062,86.914,892.090
1742470965.210,-587.402,-165.039,-827.637,-587.891
1742470965.214,-1000.000,-79.102,-244.141,-1000.000
1742470965.218,-551.758,7.812,685.547,-416.992
1742470965.222,894.043,69.824,891.113,943.848
1742470965.226,914.551,-21.484,269.531,884.277
1742470965.229,-556.152,-180.176,-795.898,-558.105
1742470965.233,-1000.000,-118.652,-622.559,-1000.000
1742470965.237,-785.645,-20.996,309.082,-742.188
1742470965.241,496.582,45.410,727.539,554.688
1742470965.245,999.512,22.461,383.301,999.512
1742470965.247,686.523,-50.781,-273.926,522.949
1742470965.251,-813.477,-121.582,-330.078,-913.574
1742470965.255,-959.961,-53.711,292.969,-905.273
1742470965.259,573.730,71.777,861.328,585.938
1742470965.263,999.512,30.762,533.691,999.512
1742470965.267,836.426,-31.250,-183.594,797.852
1742470965.271,-625.488,-119.629,-257.324,-678.711
1742470965.274,-1000.000,-77.637,334.473,-1000.000
1742470965.278,517.090,39.062,680.176,552.734
1742470965.282,999.512,6.348,288.086,999.512
1742470965.286,576.172,-90.332,-490.234,449.707
1742470965.290,-886.230,-140.137,-741.211,-945.801
1742470965.247,686.523,-50.781,-273.926,522.949
1742470965.251,-813.477,-121.582,-330.078,-913.574
1742470965.255,-959.961,-53.711,292.969,-905.273
1742470965.259,573.730,71.777,861.328,585.938
1742470965.263,999.512,30.762,533.691,999.512
1742470965.267,836.426,-31.250,-183.594,797.852
1742470965.271,-625.488,-119.629,-257.324,-678.711
1742470965.274,-1000.000,-77.637,334.473,-1000.000
1742470965.278,517.090,39.062,680.176,552.734
1742470965.282,999.512,6.348,288.086,999.512
1742470965.286,576.172,-90.332,-490.234,449.707
1742470965.290,-886.230,-140.137,-741.211,-945.801
1742470965.292,-979.492,-52.246,37.109,-936.523
1742470965.296,499.512,42.969,670.410,522.949
1742470965.300,999.512,35.156,466.309,999.512
1742470965.304,809.570,-26.367,-103.027,816.895
1742470965.308,-567.871,-173.828,-645.508,-586.426
1742470965.312,-1000.000,-96.191,-88.379,-1000.000
1742470965.316,194.824,53.223,753.906,294.434
1742470965.319,999.512,1.465,453.613,999.512
1742470965.323,769.043,-72.266,-306.152,714.355
1742470965.327,-570.312,-162.598,-873.535,-643.066
1742470965.331,-1000.000,-123.047,-497.559,-1000.000
1742470965.335,-286.133,27.344,500.977,-128.906
1742470965.292,-979.492,-52.246,37.109,-936.523
1742470965.296,499.512,42.969,670.410,522.949
1742470965.300,999.512,35.156,466.309,999.512
1742470965.304,809.570,-26.367,-103.027,816.895
1742470965.308,-567.871,-173.828,-645.508,-586.426
1742470965.312,-1000.000,-96.191,-88.379,-1000.000
1742470965.316,194.824,53.223,753.906,294.434
1742470965.319,999.512,1.465,453.613,999.512
1742470965.323,769.043,-72.266,-306.152,714.355
1742470965.327,-570.312,-162.598,-873.535,-643.066
1742470965.331,-1000.000,-123.047,-497.559,-1000.000
1742470965.335,-286.133,27.344,500.977,-128.906
1742470965.337,988.281,58.594,669.922,999.512
1742470965.341,911.621,-25.391,-47.852,866.211
1742470965.345,-456.055,-130.371,-597.168,-486.816
1742470965.349,-1000.000,-122.070,-345.215,-1000.000
1742470965.353,-762.207,-17.578,397.949,-640.137
1742470965.357,708.496,89.844,812.500,804.199
1742470965.361,999.512,-2.441,77.148,963.867
1742470965.364,-488.281,-163.086,-784.180,-506.348
1742470965.368,-1000.000,-119.141,-492.676,-1000.000
1742470965.372,-704.102,5.371,332.031,-601.074
1742470965.376,743.164,97.168,850.586,821.777
1742470965.380,999.512,-0.488,277.832,987.793
1742470965.382,-399.414,-149.414,-693.848,-439.453
1742470965.386,-1000.000,-116.699,-562.500,-1000.000
1742470965.390,-719.238,8.789,253.906,-657.715
1742470965.394,601.562,87.402,855.469,653.320
1742470965.398,999.512,7.324,241.699,999.512
1742470965.402,807.617,-16.602,-384.766,772.461
1742470965.406,-555.664,-105.469,-246.582,-643.555
1742470965.409,-1000.000,-119.629,55.176,-1000.000
1742470965.413,113.770,24.902,393.066,309.082
1742470965.417,999.512,28.809,244.141,999.512
1742470965.421,793.945,-70.312,-416.992,696.289
1742470965.425,-743.164,-146.973,-630.859,-806.152
1742470965.430,-976.562,-59.570,96.191,-942.383
1742470965.434,574.219,64.453,857.910,588.867
1742470965.438,999.512,-39.551,387.695,999.512
1742470965.442,798.828,-102.051,-491.211,739.746
1742470965.446,-688.477,-143.066,-618.652,-755.859
1742470965.450,-983.887,-59.570,229.004,-928.711
1742470965.454,571.289,41.016,864.746,617.188
1742470965.457,999.512,-31.738,366.699,999.512
1742470965.461,731.445,-76.172,-422.363,686.523
1742470965.465,-694.824,-147.949,-777.344,-750.488
1742470965.469,-1000.000,-119.141,-322.754,-1000.000
1742470965.473,321.289,54.199,585.449,398.438
1742470965.430,-976.562,-59.570,96.191,-942.383
1742470965.434,574.219,64.453,857.910,588.867
1742470965.438,999.512,-39.551,387.695,999.512
1742470965.442,798.828,-102.051,-491.211,739.746
1742470965.446,-688.477,-143.066,-618.652,-755.859
1742470965.450,-983.887,-59.570,229.004,-928.711
1742470965.454,571.289,41.016,864.746,617.188
1742470965.457,999.512,-31.738,366.699,999.512
1742470965.461,731.445,-76.172,-422.363,686.523
1742470965.465,-694.824,-147.949,-777.344,-750.488
1742470965.469,-1000.000,-119.141,-322.754,-1000.000
1742470965.473,321.289,54.199,585.449,398.438
1742470965.472,999.512,53.223,638.184,999.512
1742470965.476,832.031,-68.359,-269.043,830.078
1742470965.480,-612.793,-159.180,-786.133,-627.930
1742470965.484,-1000.000,-65.918,-27.344,-1000.000
1742470965.488,423.340,57.617,751.465,479.492
1742470965.492,999.512,45.898,677.734,999.512
1742470965.496,766.113,-47.363,33.203,767.578
1742470965.499,-518.066,-199.219,-864.258,-518.555
1742470965.503,-1000.000,-145.996,-688.477,-1000.000
1742470965.507,-701.172,-34.668,173.828,-597.168
1742470965.511,682.617,18.066,410.156,777.832
1742470965.515,999.512,-12.695,-30.273,999.512
1742470965.472,999.512,53.223,638.184,999.512
1742470965.476,832.031,-68.359,-269.043,830.078
1742470965.480,-612.793,-159.180,-786.133,-627.930
1742470965.484,-1000.000,-65.918,-27.344,-1000.000
1742470965.488,423.340,57.617,751.465,479.492
1742470965.492,999.512,45.898,677.734,999.512
1742470965.496,766.113,-47.363,33.203,767.578
1742470965.499,-518.066,-199.219,-864.258,-518.555
1742470965.503,-1000.000,-145.996,-688.477,-1000.000
1742470965.507,-701.172,-34.668,173.828,-597.168
1742470965.511,682.617,18.066,410.156,777.832
1742470965.515,999.512,-12.695,-30.273,999.512
1742470965.532,-138.672,-135.254,-663.086,-261.230
1742470965.536,-1000.000,-152.832,-586.426,-1000.000
1742470965.540,-816.895,-50.781,130.371,-764.160
1742470965.544,504.883,52.734,563.965,579.102
1742470965.548,999.512,40.527,67.871,999.512
1742470965.552,609.863,-52.246,-530.273,319.824
1742470965.556,-939.453,-120.117,-492.188,-1000.000
1742470965.559,-749.023,8.301,401.367,-577.148
1742470965.563,888.672,61.523,740.723,936.035
1742470965.567,999.512,-31.738,-36.133,971.680
1742470965.571,-364.746,-151.855,-850.098,-403.809
1742470965.575,-1000.000,-90.332,-654.297,-1000.000
1742470965.532,-138.672,-135.254,-663.086,-261.230
1742470965.536,-1000.000,-152.832,-586.426,-1000.000
1742470965.540,-816.895,-50.781,130.371,-764.160
1742470965.544,504.883,52.734,563.965,579.102
1742470965.548,999.512,40.527,67.871,999.512
1742470965.552,609.863,-52.246,-530.273,319.824
1742470965.556,-939.453,-120.117,-492.188,-1000.000
1742470965.559,-749.023,8.301,401.367,-577.148
1742470965.563,888.672,61.523,740.723,936.035
1742470965.567,999.512,-31.738,-36.133,971.680
1742470965.571,-364.746,-151.855,-850.098,-403.809
1742470965.575,-1000.000,-90.332,-654.297,-1000.000
1742470965.577,-782.227,52.246,269.043,-729.980
1742470965.581,526.855,122.559,774.902,577.148
1742470965.585,999.512,130.371,326.172,999.512
1742470965.589,840.820,108.887,-286.133,800.293
1742470965.593,-635.254,8.301,-594.238,-686.035
1742470965.597,-992.676,117.676,-21.484,-985.840
1742470965.601,567.383,276.855,631.836,577.148
1742470965.604,999.512,220.215,187.012,999.512
1742470965.608,647.949,168.945,-529.785,480.957
1742470965.612,-807.129,103.516,-746.582,-904.785
1742470965.616,-1000.000,139.648,-266.602,-982.422
1742470965.620,459.473,290.039,583.008,493.164
1742470965.577,-782.227,52.246,269.043,-729.980
1742470965.581,526.855,122.559,774.902,577.148
1742470965.585,999.512,130.371,326.172,999.512
1742470965.589,840.820,108.887,-286.133,800.293
1742470965.593,-635.254,8.301,-594.238,-686.035
1742470965.597,-992.676,117.676,-21.484,-985.840
1742470965.601,567.383,276.855,631.836,577.148
1742470965.604,999.512,220.215,187.012,999.512
1742470965.608,647.949,168.945,-529.785,480.957
1742470965.612,-807.129,103.516,-746.582,-904.785
1742470965.616,-1000.000,139.648,-266.602,-982.422
1742470965.620,459.473,290.039,583.008,493.164
1742470965.622,999.512,240.723,580.078,999.512
1742470965.626,999.512,135.742,-165.039,969.238
1742470965.630,-195.801,14.160,-465.820,-354.004
1742470965.634,-1000.000,25.879,64.453,-1000.000
1742470965.638,617.188,183.105,845.703,627.441
1742470965.642,999.512,120.605,999.512,999.512
1742470965.646,890.137,17.578,422.852,891.602
1742470965.649,981.934,-28.320,-42.969,982.910
1742470965.653,966.309,-32.715,462.891,967.285
1742470965.657,966.309,-40.039,939.453,966.797
1742470965.661,966.309,-59.570,877.930,966.797
1742470965.665,966.309,-71.777,457.031,966.797
1742470965.622,999.512,240.723,580.078,999.512
1742470965.626,999.512,135.742,-165.039,969.238
1742470965.630,-195.801,14.160,-465.820,-354.004
1742470965.634,-1000.000,25.879,64.453,-1000.000
1742470965.638,617.188,183.105,845.703,627.441
1742470965.642,999.512,120.605,999.512,999.512
1742470965.646,890.137,17.578,422.852,891.602
1742470965.649,981.934,-28.320,-42.969,982.910
1742470965.653,966.309,-32.715,462.891,967.285
1742470965.657,966.309,-40.039,939.453,966.797
1742470965.661,966.309,-59.570,877.930,966.797
1742470965.665,966.309,-71.777,457.031,966.797
1742470965.667,966.309,-103.027,4.883,966.797
1742470965.671,966.309,-115.723,455.078,966.797
1742470965.675,966.309,-83.008,960.449,966.797
1742470965.679,966.309,-86.914,977.051,966.797
1742470965.683,966.309,-152.832,492.676,966.797
1742470965.687,966.309,-109.375,267.578,966.797
1742470965.691,966.309,-104.004,817.871,966.797
1742470965.694,966.309,-158.691,979.004,966.797
1742470965.698,966.309,-149.414,981.445,966.797
1742470965.702,966.309,-137.695,782.227,966.797
1742470965.706,966.309,-145.508,241.699,966.797
1742470965.710,966.309,-123.535,584.473,966.797
1742470965.667,966.309,-103.027,4.883,966.797
1742470965.671,966.309,-115.723,455.078,966.797
1742470965.675,966.309,-83.008,960.449,966.797
1742470965.679,966.309,-86.914,977.051,966.797
1742470965.683,966.309,-152.832,492.676,966.797
1742470965.687,966.309,-109.375,267.578,966.797
1742470965.691,966.309,-104.004,817.871,966.797
1742470965.694,966.309,-158.691,979.004,966.797
1742470965.698,966.309,-149.414,981.445,966.797
1742470965.702,966.309,-137.695,782.227,966.797
1742470965.706,966.309,-145.508,241.699,966.797
1742470965.710,966.309,-123.535,584.473,966.797
1742470965.714,966.309,-104.004,995.117,966.797
1742470965.718,966.309,-101.074,962.891,966.797
1742470965.722,966.309,-129.883,690.430,966.797
1742470965.726,966.309,-127.441,246.094,966.797
1742470965.730,969.238,-109.863,458.984,966.797
1742470965.734,960.449,-94.238,914.062,981.934
1742470965.738,918.457,-117.188,983.887,896.484
1742470965.741,999.512,-129.883,563.965,999.512
1742470965.745,193.359,-187.012,-321.289,645.020
1742470965.749,-1000.000,-231.445,-573.730,-933.105
1742470965.753,-892.090,-119.629,189.453,-872.559
1742470965.757,558.594,-9.766,804.199,697.266
1742470965.757,999.512,-57.129,333.008,999.512
1742470965.761,-130.859,-192.871,-676.758,-112.305
1742470965.765,-1000.000,-187.988,-928.711,-1000.000
1742470965.769,-958.008,-75.195,-132.324,-961.914
1742470965.773,-989.746,-82.031,216.797,-987.793
1742470965.777,-1000.000,-92.773,-235.840,-1000.000
1742470965.781,-1000.000,-100.098,-798.340,-1000.000
1742470965.784,-1000.000,-129.883,-1000.000,-1000.000
1742470965.788,-1000.000,-101.562,-724.121,-1000.000
1742470965.792,-1000.000,-88.379,-281.738,-1000.000
1742470965.796,-1000.000,-93.750,-512.695,-1000.000
1742470965.800,-1000.000,-106.934,-965.332,-1000.000
1742470965.804,-1000.000,-108.398,-1000.000,-1000.000
1742470965.808,-1000.000,-100.098,-967.773,-1000.000
1742470965.812,-1000.000,-108.887,-850.098,-1000.000
1742470965.816,-1000.000,-108.887,-920.898,-1000.000
1742470965.820,-1000.000,-100.586,-1000.000,-1000.000
1742470965.824,-1000.000,-65.430,-994.141,-1000.000
1742470965.828,-1000.000,-56.152,-1000.000,-1000.000
1742470965.831,-1000.000,-63.965,-1000.000,-1000.000
1742470965.835,-1000.000,-83.496,-1000.000,-1000.000
1742470965.839,-1000.000,-96.680,-1000.000,-1000.000
1742470965.843,-1000.000,-84.473,-1000.000,-1000.000
1742470965.847,-1000.000,-48.828,-1000.000,-1000.000
1742470965.804,-1000.000,-108.398,-1000.000,-1000.000
1742470965.808,-1000.000,-100.098,-967.773,-1000.000
1742470965.812,-1000.000,-108.887,-850.098,-1000.000
1742470965.816,-1000.000,-108.887,-920.898,-1000.000
1742470965.820,-1000.000,-100.586,-1000.000,-1000.000
1742470965.824,-1000.000,-65.430,-994.141,-1000.000
1742470965.828,-1000.000,-56.152,-1000.000,-1000.000
1742470965.831,-1000.000,-63.965,-1000.000,-1000.000
1742470965.835,-1000.000,-83.496,-1000.000,-1000.000
1742470965.839,-1000.000,-96.680,-1000.000,-1000.000
1742470965.843,-1000.000,-84.473,-1000.000,-1000.000
1742470965.847,-1000.000,-48.828,-1000.000,-1000.000
1742470965.847,-1000.000,-37.598,-1000.000,-1000.000
1742470965.851,-1000.000,-59.570,-1000.000,-1000.000
1742470965.855,-1000.000,-58.105,-1000.000,-1000.000
1742470965.859,-1000.000,-40.527,-979.492,-1000.000
1742470965.863,-1000.000,-71.289,-1000.000,-1000.000
1742470965.867,-1000.000,-24.414,-818.359,-1000.000
1742470965.871,-1000.000,-24.414,-485.840,-1000.000
1742470965.874,-1000.000,-78.613,-864.746,-1000.000
1742470965.878,-1000.000,-47.363,-1000.000,-1000.000
1742470965.882,-1000.000,-54.199,-747.070,-1000.000
1742470965.886,-1000.000,-54.688,-124.512,-1000.000
1742470965.890,-1000.000,-23.926,396.973,-1000.000
1742470965.847,-1000.000,-37.598,-1000.000,-1000.000
1742470965.851,-1000.000,-59.570,-1000.000,-1000.000
1742470965.855,-1000.000,-58.105,-1000.000,-1000.000
1742470965.859,-1000.000,-40.527,-979.492,-1000.000
1742470965.863,-1000.000,-71.289,-1000.000,-1000.000
1742470965.867,-1000.000,-24.414,-818.359,-1000.000
1742470965.871,-1000.000,-24.414,-485.840,-1000.000
1742470965.874,-1000.000,-78.613,-864.746,-1000.000
1742470965.878,-1000.000,-47.363,-1000.000,-1000.000
1742470965.882,-1000.000,-54.199,-747.070,-1000.000
1742470965.886,-1000.000,-54.688,-124.512,-1000.000
1742470965.890,-1000.000,-23.926,396.973,-1000.000
1742470965.894,-962.891,-35.645,151.367,-994.629
1742470965.898,-1000.000,-48.828,-437.012,-951.660
1742470965.902,-1000.000,-44.922,-291.016,-1000.000
1742470965.906,314.941,66.895,626.465,-171.875
1742470965.910,999.512,91.797,997.559,999.512
1742470965.914,896.973,41.016,925.293,952.637
1742470965.918,973.145,-2.441,447.266,941.895
1742470965.921,966.797,-49.805,68.359,974.121
1742470965.925,966.309,-24.414,649.902,966.797
1742470965.929,966.309,-31.738,999.512,966.797
1742470965.933,966.309,-46.875,726.074,966.797
1742470965.937,966.309,-9.277,304.199,967.285
1742470965.894,-962.891,-35.645,151.367,-994.629
1742470965.898,-1000.000,-48.828,-437.012,-951.660
1742470965.902,-1000.000,-44.922,-291.016,-1000.000
1742470965.906,314.941,66.895,626.465,-171.875
1742470965.910,999.512,91.797,997.559,999.512
1742470965.914,896.973,41.016,925.293,952.637
1742470965.918,973.145,-2.441,447.266,941.895
1742470965.921,966.797,-49.805,68.359,974.121
1742470965.925,966.309,-24.414,649.902,966.797
1742470965.929,966.309,-31.738,999.512,966.797
1742470965.933,966.309,-46.875,726.074,966.797
1742470965.937,966.309,-9.277,304.199,967.285
1742470965.952,966.309,-31.250,152.344,967.285
1742470965.956,983.398,-39.062,606.445,983.398
1742470965.960,900.879,-1.465,994.629,908.203
1742470965.964,999.512,-25.391,897.461,999.512
1742470965.968,811.035,-86.426,117.676,909.180
1742470965.972,-770.508,-127.441,-277.832,-663.574
1742470965.976,-987.305,-70.801,251.953,-1000.000
1742470965.979,633.789,58.594,877.441,649.902
1742470965.983,999.512,1.953,866.699,999.512
1742470965.987,891.602,-64.941,90.820,892.578
1742470965.991,981.934,-57.617,-406.738,982.910
1742470965.995,983.398,-50.293,199.707,983.398
1742470965.952,966.309,-31.250,152.344,967.285
1742470965.956,983.398,-39.062,606.445,983.398
1742470965.960,900.879,-1.465,994.629,908.203
1742470965.964,999.512,-25.391,897.461,999.512
1742470965.968,811.035,-86.426,117.676,909.180
1742470965.972,-770.508,-127.441,-277.832,-663.574
1742470965.976,-987.305,-70.801,251.953,-1000.000
1742470965.979,633.789,58.594,877.441,649.902
1742470965.983,999.512,1.953,866.699,999.512
1742470965.987,891.602,-64.941,90.820,892.578
1742470965.991,981.934,-57.617,-406.738,982.910
1742470965.995,983.398,-50.293,199.707,983.398
1742470965.997,897.949,-43.945,866.699,907.227
1742470966.001,999.512,-38.574,813.477,999.512
1742470966.005,748.535,-89.355,69.824,873.047
1742470966.009,-742.188,-190.430,-843.750,-634.277
1742470966.013,-1000.000,-109.863,-417.480,-1000.000
1742470966.017,228.027,81.055,731.934,352.539
1742470966.021,999.512,46.875,960.449,999.512
1742470966.024,845.215,-90.332,90.820,874.023
1742470966.028,-420.410,-185.059,-873.047,-392.578
1742470966.032,-1000.000,-143.066,-670.410,-1000.000
1742470966.036,-404.297,14.160,349.609,-136.230
1742470966.040,828.125,47.852,841.797,919.434
1742470965.997,897.949,-43.945,866.699,907.227
1742470966.001,999.512,-38.574,813.477,999.512
1742470966.005,748.535,-89.355,69.824,873.047
1742470966.009,-742.188,-190.430,-843.750,-634.277
1742470966.013,-1000.000,-109.863,-417.480,-1000.000
1742470966.017,228.027,81.055,731.934,352.539
1742470966.021,999.512,46.875,960.449,999.512
1742470966.024,845.215,-90.332,90.820,874.023
1742470966.028,-420.410,-185.059,-873.047,-392.578
1742470966.032,-1000.000,-143.066,-670.410,-1000.000
1742470966.036,-404.297,14.160,349.609,-136.230
1742470966.040,828.125,47.852,841.797,919.434
1742470966.042,999.512,-23.926,257.812,999.512
1742470966.046,840.820,-71.289,-598.633,810.547
1742470966.050,-752.930,-139.648,-660.645,-776.855
1742470966.054,-645.508,-2.930,386.230,-376.465
1742470966.058,901.855,70.801,931.641,992.676
1742470966.062,999.512,-14.648,233.398,974.609
1742470966.066,902.344,-28.320,-417.969,930.176
1742470966.069,-490.234,-162.598,-612.305,-524.414
1742470966.073,-1000.000,-139.648,-276.367,-1000.000
1742470966.077,336.914,56.641,440.430,477.539
1742470966.081,999.512,46.387,306.641,999.512
1742470966.085,753.418,-59.082,-581.543,711.426
1742470966.088,-756.348,-148.438,-903.809,-780.762
1742470966.092,-987.305,-75.195,-172.363,-964.355
1742470966.096,626.953,56.641,569.824,627.441
1742470966.100,999.512,6.836,375.488,999.512
1742470966.104,999.512,-41.016,-396.484,999.512
1742470966.108,77.148,-104.492,-638.184,-89.844
1742470966.112,-1000.000,-108.398,-113.770,-981.445
1742470966.115,401.367,32.227,481.445,496.094
1742470966.119,999.512,-9.766,97.656,999.512
1742470966.123,833.496,-89.355,-654.785,853.027
1742470966.127,-626.953,-182.617,-982.910,-606.445
1742470966.131,-1000.000,-85.449,-508.301,-1000.000
1742470966.132,592.773,87.402,489.746,624.512
1742470966.136,999.512,12.207,444.336,999.512
1742470966.140,891.602,-29.297,-409.668,892.090
1742470966.144,980.957,-7.812,-608.887,982.422
1742470966.148,981.934,-36.133,-262.695,983.398
1742470966.152,893.555,-23.438,269.043,896.484
1742470966.156,999.512,-43.457,223.145,999.512
1742470966.159,576.172,-122.070,-584.961,643.555
1742470966.163,-805.176,-148.926,-991.699,-742.188
1742470966.167,-1000.000,-75.195,-528.320,-1000.000
1742470966.171,-857.422,-48.340,2.930,-787.109
1742470966.175,529.785,52.246,294.922,629.883
1742470966.179,999.512,22.461,-108.398,999.512
1742470966.183,-209.961,-133.789,-868.652,-302.246
1742470966.187,-1000.000,-141.602,-754.395,-1000.000
1742470966.191,-778.809,-43.945,35.645,-711.914
1742470966.195,593.262,32.715,472.656,667.969
1742470966.199,999.512,9.277,24.902,999.512
1742470966.203,96.680,-121.094,-802.246,-28.809
1742470966.206,-1000.000,-171.387,-976.074,-1000.000
1742470966.210,-857.910,-61.523,-256.836,-842.773
1742470966.214,514.160,48.828,358.887,530.762
1742470966.218,999.512,-10.742,-152.832,999.512
1742470966.222,500.977,-92.773,-838.379,297.363
1742470966.179,999.512,22.461,-108.398,999.512
1742470966.183,-209.961,-133.789,-868.652,-302.246
1742470966.187,-1000.000,-141.602,-754.395,-1000.000
1742470966.191,-778.809,-43.945,35.645,-711.914
1742470966.195,593.262,32.715,472.656,667.969
1742470966.199,999.512,9.277,24.902,999.512
1742470966.203,96.680,-121.094,-802.246,-28.809
1742470966.206,-1000.000,-171.387,-976.074,-1000.000
1742470966.210,-857.910,-61.523,-256.836,-842.773
1742470966.214,514.160,48.828,358.887,530.762
1742470966.218,999.512,-10.742,-152.832,999.512
1742470966.222,500.977,-92.773,-838.379,297.363
1742470966.223,-946.289,-157.227,-842.285,-1000.000
1742470966.227,-939.941,-82.520,-238.281,-913.086
1742470966.231,564.941,92.285,590.332,563.965
1742470966.235,999.512,8.301,260.742,999.512
1742470966.239,136.230,-157.227,-852.539,53.223
1742470966.243,-1000.000,-134.766,-893.555,-1000.000
1742470966.247,-1000.000,-100.098,-265.625,-972.656
1742470966.250,188.965,-12.695,255.859,290.527
1742470966.254,999.512,7.812,144.531,999.512
1742470966.258,693.359,-117.676,-702.148,620.117
1742470966.262,-783.691,-182.617,-1000.000,-836.426
1742470966.266,-1000.000,-75.195,-328.613,-1000.000
1742470966.223,-946.289,-157.227,-842.285,-1000.000
1742470966.227,-939.941,-82.520,-238.281,-913.086
1742470966.231,564.941,92.285,590.332,563.965
1742470966.235,999.512,8.301,260.742,999.512
1742470966.239,136.230,-157.227,-852.539,53.223
1742470966.243,-1000.000,-134.766,-893.555,-1000.000
1742470966.247,-1000.000,-100.098,-265.625,-972.656
1742470966.250,188.965,-12.695,255.859,290.527
1742470966.254,999.512,7.812,144.531,999.512
1742470966.258,693.359,-117.676,-702.148,620.117
1742470966.262,-783.691,-182.617,-1000.000,-836.426
1742470966.266,-1000.000,-75.195,-328.613,-1000.000
1742470966.270,417.480,54.199,498.535,465.332
1742470966.274,999.512,56.152,498.047,999.512
1742470966.278,814.453,-38.086,-254.395,810.059
1742470966.282,-577.637,-170.410,-945.312,-604.004
1742470966.286,-1000.000,-91.309,-522.949,-1000.000
1742470966.290,247.070,100.586,553.223,323.730
1742470966.294,999.512,33.203,508.301,999.512
1742470966.297,765.137,-78.125,-492.676,728.516
1742470966.301,-535.156,-61.035,-979.492,-586.426
1742470966.305,-1000.000,30.762,-560.547,-1000.000
1742470966.309,-589.844,153.320,244.141,-434.570
1742470966.313,860.840,266.113,619.141,929.199
1742470966.270,417.480,54.199,498.535,465.332
1742470966.274,999.512,56.152,498.047,999.512
1742470966.278,814.453,-38.086,-254.395,810.059
1742470966.282,-577.637,-170.410,-945.312,-604.004
1742470966.286,-1000.000,-91.309,-522.949,-1000.000
1742470966.290,247.070,100.586,553.223,323.730
1742470966.294,999.512,33.203,508.301,999.512
1742470966.297,765.137,-78.125,-492.676,728.516
1742470966.301,-535.156,-61.035,-979.492,-586.426
1742470966.305,-1000.000,30.762,-560.547,-1000.000
1742470966.309,-589.844,153.320,244.141,-434.570
1742470966.313,860.840,266.113,619.141,929.199
1742470966.327,975.098,230.469,-29.297,936.523
1742470966.331,-558.594,103.516,-889.160,-578.613
1742470966.335,-1000.000,192.383,-479.980,-1000.000
1742470966.339,65.430,396.484,682.129,108.887
1742470966.343,999.512,409.668,831.543,999.512
1742470966.347,852.051,328.613,157.715,835.938
1742470966.351,-458.984,184.570,-759.766,-477.051
1742470966.354,-1000.000,178.711,-883.789,-1000.000
1742470966.358,-833.008,264.648,-41.992,-836.426
1742470966.362,509.766,351.562,568.359,529.297
1742470966.366,999.512,301.758,218.262,999.512
1742470966.370,-28.809,125.977,-697.754,-130.371
1742470966.327,975.098,230.469,-29.297,936.523
1742470966.331,-558.594,103.516,-889.160,-578.613
1742470966.335,-1000.000,192.383,-479.980,-1000.000
1742470966.339,65.430,396.484,682.129,108.887
1742470966.343,999.512,409.668,831.543,999.512
1742470966.347,852.051,328.613,157.715,835.938
1742470966.351,-458.984,184.570,-759.766,-477.051
1742470966.354,-1000.000,178.711,-883.789,-1000.000
1742470966.358,-833.008,264.648,-41.992,-836.426
1742470966.362,509.766,351.562,568.359,529.297
1742470966.366,999.512,301.758,218.262,999.512
1742470966.370,-28.809,125.977,-697.754,-130.371
1742470966.372,-1000.000,89.844,-743.164,-1000.000
1742470966.376,-837.402,144.043,119.141,-787.598
1742470966.380,507.812,190.430,635.742,553.223
1742470966.384,999.512,135.742,306.152,999.512
1742470966.388,686.035,40.527,-419.434,613.281
1742470966.392,-810.059,-20.020,-477.051,-859.863
1742470966.396,-988.770,21.973,250.488,-943.848
1742470966.399,592.773,111.816,786.133,629.395
1742470966.403,999.512,18.555,135.254,999.512
1742470966.407,-9.277,-139.160,-860.352,-30.273
1742470966.411,-1000.000,-154.297,-977.539,-1000.000
1742470966.415,-841.309,-28.320,-255.859,-839.355
1742470966.372,-1000.000,89.844,-743.164,-1000.000
1742470966.376,-837.402,144.043,119.141,-787.598
1742470966.380,507.812,190.430,635.742,553.223
1742470966.384,999.512,135.742,306.152,999.512
1742470966.388,686.035,40.527,-419.434,613.281
1742470966.392,-810.059,-20.020,-477.051,-859.863
1742470966.396,-988.770,21.973,250.488,-943.848
1742470966.399,592.773,111.816,786.133,629.395
1742470966.403,999.512,18.555,135.254,999.512
1742470966.407,-9.277,-139.160,-860.352,-30.273
1742470966.411,-1000.000,-154.297,-977.539,-1000.000
1742470966.415,-841.309,-28.320,-255.859,-839.355
1742470966.417,520.508,88.379,515.625,517.090
1742470966.421,999.512,10.254,258.301,999.512
1742470966.425,812.988,-66.406,-608.398,750.977
1742470966.429,-608.398,-127.441,-770.996,-692.871
1742470966.433,-1000.000,-123.047,-313.965,-1000.000
1742470966.437,372.559,51.270,599.121,448.242
1742470966.441,999.512,22.949,762.207,999.512
1742470966.444,794.434,-133.789,-347.656,772.461
1742470966.448,-590.332,-202.148,-992.676,-645.996
1742470966.452,-1000.000,-116.211,-340.820,-1000.000
1742470966.456,175.781,4.395,477.051,316.895
1742470966.460,999.512,12.695,531.250,999.512
1742470966.462,882.812,-76.172,-134.766,868.164
1742470966.466,-463.867,-200.195,-770.020,-498.047
1742470966.470,-1000.000,-152.832,-369.141,-1000.000
1742470966.474,112.793,12.695,647.949,239.258
1742470966.478,999.512,-4.395,939.453,999.512
1742470966.482,989.746,-47.363,348.145,965.332
1742470966.486,-39.551,-160.156,-482.422,-80.078
1742470966.489,-1000.000,-209.961,-448.730,-1000.000
1742470966.493,-680.664,-70.312,437.012,-538.086
1742470966.497,712.402,14.648,905.762,810.059
1742470966.501,999.512,-42.480,276.855,999.512
1742470966.505,124.023,-130.859,-395.996,56.641
1742470966.508,-1000.000,-165.527,-186.035,-1000.000
1742470966.512,-890.625,-104.004,375.977,-812.012
1742470966.516,563.477,38.574,874.023,648.926
1742470966.520,999.512,5.859,592.773,999.512
1742470966.524,-113.281,-174.316,-523.438,-142.090
1742470966.528,-1000.000,-141.602,-488.281,-1000.000
1742470966.532,-833.984,-47.363,467.773,-762.695
1742470966.535,520.996,-2.441,701.660,612.305
1742470966.539,999.512,-18.066,208.008,999.512
1742470966.543,262.207,-131.836,-551.758,175.781
1742470966.547,-1000.000,-175.781,-735.840,-1000.000
1742470966.551,-880.859,-38.086,182.129,-835.449
1742470966.508,-1000.000,-165.527,-186.035,-1000.000
1742470966.512,-890.625,-104.004,375.977,-812.012
1742470966.516,563.477,38.574,874.023,648.926
1742470966.520,999.512,5.859,592.773,999.512
1742470966.524,-113.281,-174.316,-523.438,-142.090
1742470966.528,-1000.000,-141.602,-488.281,-1000.000
1742470966.532,-833.984,-47.363,467.773,-762.695
1742470966.535,520.996,-2.441,701.660,612.305
1742470966.539,999.512,-18.066,208.008,999.512
1742470966.543,262.207,-131.836,-551.758,175.781
1742470966.547,-1000.000,-175.781,-735.840,-1000.000
1742470966.551,-880.859,-38.086,182.129,-835.449
1742470966.555,541.504,53.711,931.152,574.707
1742470966.559,999.512,-0.977,622.070,999.512
1742470966.563,832.031,-58.594,-88.379,833.496
1742470966.567,-614.258,-194.336,-449.707,-631.836
1742470966.571,-1000.000,-107.910,65.918,-1000.000
1742470966.575,472.656,96.680,896.484,529.785
1742470966.579,999.512,-18.555,729.492,999.512
1742470966.582,789.062,-120.605,-204.102,752.441
1742470966.586,-641.602,-153.809,-575.195,-703.613
1742470966.590,-1000.000,-106.934,66.895,-1000.000
1742470966.594,375.488,31.738,793.945,476.074
1742470966.598,999.512,32.227,762.695,999.512
1742470966.555,541.504,53.711,931.152,574.707
1742470966.559,999.512,-0.977,622.070,999.512
1742470966.563,832.031,-58.594,-88.379,833.496
1742470966.567,-614.258,-194.336,-449.707,-631.836
1742470966.571,-1000.000,-107.910,65.918,-1000.000
1742470966.575,472.656,96.680,896.484,529.785
1742470966.579,999.512,-18.555,729.492,999.512
1742470966.582,789.062,-120.605,-204.102,752.441
1742470966.586,-641.602,-153.809,-575.195,-703.613
1742470966.590,-1000.000,-106.934,66.895,-1000.000
1742470966.594,375.488,31.738,793.945,476.074
1742470966.598,999.512,32.227,762.695,999.512
1742470966.597,843.262,-59.570,17.090,844.727
1742470966.601,-543.945,-177.246,-541.504,-564.453
1742470966.605,-1000.000,-105.957,18.066,-1000.000
1742470966.609,271.973,41.016,834.473,366.211
1742470966.613,999.512,21.484,711.426,999.512
1742470966.617,787.598,-36.621,39.062,789.062
1742470966.621,-505.371,-170.898,-748.535,-494.141
1742470966.624,-1000.000,-155.762,-500.488,-1000.000
1742470966.628,-755.859,-36.621,322.266,-651.855
1742470966.632,632.324,35.645,623.047,739.746
1742470966.636,999.512,-38.086,71.289,999.512
1742470966.640,-160.645,-165.527,-607.910,-264.160
1742470966.597,843.262,-59.570,17.090,844.727
1742470966.601,-543.945,-177.246,-541.504,-564.453
1742470966.605,-1000.000,-105.957,18.066,-1000.000
1742470966.609,271.973,41.016,834.473,366.211
1742470966.613,999.512,21.484,711.426,999.512
1742470966.617,787.598,-36.621,39.062,789.062
1742470966.621,-505.371,-170.898,-748.535,-494.141
1742470966.624,-1000.000,-155.762,-500.488,-1000.000
1742470966.628,-755.859,-36.621,322.266,-651.855
1742470966.632,632.324,35.645,623.047,739.746
1742470966.636,999.512,-38.086,71.289,999.512
1742470966.640,-160.645,-165.527,-607.910,-264.160
1742470966.644,-1000.000,-147.461,-379.395,-1000.000
1742470966.648,-613.770,-19.531,444.336,-467.773
1742470966.652,778.809,33.691,786.621,857.910
1742470966.656,999.512,-25.879,214.844,999.512
1742470966.660,6.348,-133.789,-511.230,-117.188
1742470966.664,-1000.000,-118.652,-201.172,-1000.000
1742470966.668,-529.297,-0.977,669.922,-353.027
1742470966.671,864.258,27.344,917.969,926.758
1742470966.675,999.512,-57.129,218.262,999.512
1742470966.679,-78.613,-161.133,-641.602,-114.258
1742470966.683,-1000.000,-142.090,-542.969,-1000.000
1742470966.687,-809.570,-19.531,337.891,-742.676
1742470966.644,-1000.000,-147.461,-379.395,-1000.000
1742470966.648,-613.770,-19.531,444.336,-467.773
1742470966.652,778.809,33.691,786.621,857.910
1742470966.656,999.512,-25.879,214.844,999.512
1742470966.660,6.348,-133.789,-511.230,-117.188
1742470966.664,-1000.000,-118.652,-201.172,-1000.000
1742470966.668,-529.297,-0.977,669.922,-353.027
1742470966.671,864.258,27.344,917.969,926.758
1742470966.675,999.512,-57.129,218.262,999.512
1742470966.679,-78.613,-161.133,-641.602,-114.258
1742470966.683,-1000.000,-142.090,-542.969,-1000.000
1742470966.687,-809.570,-19.531,337.891,-742.676
1742470966.702,563.477,60.547,927.734,648.438
1742470966.706,999.512,-2.930,438.965,999.512
1742470966.710,199.707,-97.168,-430.176,79.590
1742470966.714,-1000.000,-108.887,-350.098,-1000.000
1742470966.718,-870.605,-40.039,234.863,-856.934
1742470966.722,521.484,97.656,839.844,520.996
1742470966.726,999.512,46.875,767.578,999.512
1742470966.729,608.398,-104.492,-298.828,523.926
1742470966.733,-881.836,-166.992,-866.699,-917.480
1742470966.737,-941.406,-42.480,4.395,-922.852
1742470966.741,562.500,65.430,796.875,560.059
1742470966.745,999.512,20.996,505.859,999.512
1742470966.702,563.477,60.547,927.734,648.438
1742470966.706,999.512,-2.930,438.965,999.512
1742470966.710,199.707,-97.168,-430.176,79.590
1742470966.714,-1000.000,-108.887,-350.098,-1000.000
1742470966.718,-870.605,-40.039,234.863,-856.934
1742470966.722,521.484,97.656,839.844,520.996
1742470966.726,999.512,46.875,767.578,999.512
1742470966.729,608.398,-104.492,-298.828,523.926
1742470966.733,-881.836,-166.992,-866.699,-917.480
1742470966.737,-941.406,-42.480,4.395,-922.852
1742470966.741,562.500,65.430,796.875,560.059
1742470966.745,999.512,20.996,505.859,999.512
1742470966.747,756.836,-50.293,-296.387,711.426
1742470966.751,-666.016,-140.625,-767.090,-728.516
1742470966.755,-1000.000,-61.035,-101.562,-1000.000
1742470966.759,370.117,93.750,751.465,437.500
1742470966.763,999.512,55.176,639.648,999.512
1742470966.767,977.539,9.766,49.316,933.594
1742470966.771,45.410,-78.613,-294.922,-106.445
1742470966.774,-1000.000,-152.832,-258.301,-1000.000
1742470966.778,-893.066,-41.016,246.582,-838.867
1742470966.782,580.566,81.055,543.457,636.719
1742470966.786,999.512,15.137,-55.664,999.512
1742470966.790,-414.551,-127.930,-546.387,-508.301
1742470966.747,756.836,-50.293,-296.387,711.426
1742470966.751,-666.016,-140.625,-767.090,-728.516
1742470966.755,-1000.000,-61.035,-101.562,-1000.000
1742470966.759,370.117,93.750,751.465,437.500
1742470966.763,999.512,55.176,639.648,999.512
1742470966.767,977.539,9.766,49.316,933.594
1742470966.771,45.410,-78.613,-294.922,-106.445
1742470966.774,-1000.000,-152.832,-258.301,-1000.000
1742470966.778,-893.066,-41.016,246.582,-838.867
1742470966.782,580.566,81.055,543.457,636.719
1742470966.786,999.512,15.137,-55.664,999.512
1742470966.790,-414.551,-127.930,-546.387,-508.301
1742470966.792,-1000.000,-89.844,113.770,-1000.000
1742470966.796,95.215,39.551,776.367,232.910
1742470966.800,999.512,66.895,813.477,999.512
1742470966.804,878.906,-2.930,278.320,851.074
1742470966.808,-390.625,-144.531,-651.367,-408.203
1742470966.812,-1000.000,-109.375,-369.141,-1000.000
1742470966.816,-761.230,-19.043,452.148,-671.387
1742470966.819,656.738,47.363,707.520,748.047
1742470966.823,999.512,-9.277,177.734,999.512
1742470966.827,-285.156,-161.133,-731.445,-341.797
1742470966.831,-1000.000,-157.227,-732.422,-1000.000
1742470966.835,-661.621,-3.418,294.922,-569.824
1742470966.792,-1000.000,-89.844,113.770,-1000.000
1742470966.796,95.215,39.551,776.367,232.910
1742470966.800,999.512,66.895,813.477,999.512
1742470966.804,878.906,-2.930,278.320,851.074
1742470966.808,-390.625,-144.531,-651.367,-408.203
1742470966.812,-1000.000,-109.375,-369.141,-1000.000
1742470966.816,-761.230,-19.043,452.148,-671.387
1742470966.819,656.738,47.363,707.520,748.047
1742470966.823,999.512,-9.277,177.734,999.512
1742470966.827,-285.156,-161.133,-731.445,-341.797
1742470966.831,-1000.000,-157.227,-732.422,-1000.000
1742470966.835,-661.621,-3.418,294.922,-569.824
1742470966.839,683.105,71.289,899.902,758.301
1742470966.843,999.512,-3.418,316.895,999.512
1742470966.847,274.902,-90.332,-441.895,131.836
1742470966.851,-1000.000,-136.719,-496.094,-1000.000
1742470966.855,-904.785,-50.293,88.379,-885.742
1742470966.859,551.758,104.980,816.895,559.570
1742470966.863,999.512,40.527,556.152,999.512
1742470966.866,81.055,-148.926,-621.582,-10.254
1742470966.870,-1000.000,-155.273,-964.844,-1000.000
1742470966.874,-939.941,-37.109,-196.777,-888.184
1742470966.878,373.047,65.918,461.426,438.965
1742470966.882,999.512,54.688,362.793,999.512
1742470966.839,683.105,71.289,899.902,758.301
1742470966.843,999.512,-3.418,316.895,999.512
1742470966.847,274.902,-90.332,-441.895,131.836
1742470966.851,-1000.000,-136.719,-496.094,-1000.000
1742470966.855,-904.785,-50.293,88.379,-885.742
1742470966.859,551.758,104.980,816.895,559.570
1742470966.863,999.512,40.527,556.152,999.512
1742470966.866,81.055,-148.926,-621.582,-10.254
1742470966.870,-1000.000,-155.273,-964.844,-1000.000
1742470966.874,-939.941,-37.109,-196.777,-888.184
1742470966.878,373.047,65.918,461.426,438.965
1742470966.882,999.512,54.688,362.793,999.512
1742470966.882,708.496,-63.965,-440.918,628.906
1742470966.886,-778.809,-153.320,-856.445,-836.914
1742470966.890,-1000.000,-38.574,-82.031,-972.656
1742470966.894,507.812,104.980,714.355,522.949
1742470966.898,999.512,35.645,311.523,999.512
1742470966.902,686.523,-53.223,-455.566,592.773
1742470966.906,-718.262,-132.324,-842.285,-775.879
1742470966.909,-1000.000,-89.355,-334.473,-1000.000
1742470966.913,-989.746,-74.707,170.898,-1000.000
1742470966.917,-946.777,-39.551,121.094,-574.219
1742470966.921,683.594,55.176,-250.000,801.758
1742470966.925,388.672,-53.223,-615.234,-18.066
1742470966.929,-1000.000,-105.957,-250.977,-1000.000
1742470966.933,-771.973,-18.555,351.562,-653.809
1742470966.937,826.172,34.668,372.070,847.168
1742470966.941,922.363,-14.160,-152.832,909.180
1742470966.945,-613.770,-124.023,-759.277,-609.863
1742470966.949,-1000.000,-61.035,-196.289,-1000.000
1742470966.953,-774.902,-6.348,459.961,-735.840
1742470966.956,635.742,80.566,568.848,681.641
1742470966.960,943.359,-11.230,19.043,933.594
1742470966.964,-605.469,-175.781,-901.367,-603.027
1742470966.968,-1000.000,-108.398,-604.004,-1000.000
1742470966.972,-850.098,-16.602,247.070,-810.059
1742470966.929,-1000.000,-105.957,-250.977,-1000.000
1742470966.933,-771.973,-18.555,351.562,-653.809
1742470966.937,826.172,34.668,372.070,847.168
1742470966.941,922.363,-14.160,-152.832,909.180
1742470966.945,-613.770,-124.023,-759.277,-609.863
1742470966.949,-1000.000,-61.035,-196.289,-1000.000
1742470966.953,-774.902,-6.348,459.961,-735.840
1742470966.956,635.742,80.566,568.848,681.641
1742470966.960,943.359,-11.230,19.043,933.594
1742470966.964,-605.469,-175.781,-901.367,-603.027
1742470966.968,-1000.000,-108.398,-604.004,-1000.000
1742470966.972,-850.098,-16.602,247.070,-810.059
1742470966.972,587.402,81.543,682.129,649.902
1742470966.976,999.512,2.441,80.078,999.512
1742470966.980,-466.797,-135.742,-813.965,-524.414
1742470966.984,-1000.000,-101.562,-431.641,-1000.000
1742470966.988,-854.004,-39.062,244.141,-857.422
1742470966.992,554.688,112.305,746.094,570.801
1742470966.996,999.512,49.316,509.766,999.512
1742470966.999,-368.164,-182.129,-720.703,-438.965
1742470967.003,-1000.000,-143.066,-963.867,-1000.000
1742470967.007,-936.523,-19.531,-139.648,-921.875
1742470967.011,313.477,78.613,540.527,373.047
1742470967.015,999.512,28.809,230.957,999.512
1742470966.972,587.402,81.543,682.129,649.902
1742470966.976,999.512,2.441,80.078,999.512
1742470966.980,-466.797,-135.742,-813.965,-524.414
1742470966.984,-1000.000,-101.562,-431.641,-1000.000
1742470966.988,-854.004,-39.062,244.141,-857.422
1742470966.992,554.688,112.305,746.094,570.801
1742470966.996,999.512,49.316,509.766,999.512
1742470966.999,-368.164,-182.129,-720.703,-438.965
1742470967.003,-1000.000,-143.066,-963.867,-1000.000
1742470967.007,-936.523,-19.531,-139.648,-921.875
1742470967.011,313.477,78.613,540.527,373.047
1742470967.015,999.512,28.809,230.957,999.512
1742470967.019,98.633,-118.652,-666.504,-86.426
1742470967.023,-1000.000,-135.742,-757.812,-1000.000
1742470967.027,-967.773,-68.848,-52.246,-919.434
1742470967.031,336.914,44.434,624.023,367.188
1742470967.035,999.512,21.973,534.180,999.512
1742470967.039,780.762,-37.598,-78.125,769.043
1742470967.043,-501.465,-115.234,-347.168,-521.484
1742470967.046,-1000.000,-148.926,-152.832,-1000.000
1742470967.050,-785.156,-49.805,346.680,-652.344
1742470967.054,725.098,53.223,431.152,832.520
1742470967.058,936.035,-38.086,-411.621,833.496
1742470967.062,-804.688,-134.277,-827.637,-864.258
1742470967.019,98.633,-118.652,-666.504,-86.426
1742470967.023,-1000.000,-135.742,-757.812,-1000.000
1742470967.027,-967.773,-68.848,-52.246,-919.434
1742470967.031,336.914,44.434,624.023,367.188
1742470967.035,999.512,21.973,534.180,999.512
1742470967.039,780.762,-37.598,-78.125,769.043
1742470967.043,-501.465,-115.234,-347.168,-521.484
1742470967.046,-1000.000,-148.926,-152.832,-1000.000
1742470967.050,-785.156,-49.805,346.680,-652.344
1742470967.054,725.098,53.223,431.152,832.520
1742470967.058,936.035,-38.086,-411.621,833.496
1742470967.062,-804.688,-134.277,-827.637,-864.258
1742470967.077,-990.723,-20.508,36.133,-966.309
1742470967.081,530.762,62.012,802.246,540.527
1742470967.085,999.512,9.277,573.242,999.512
1742470967.089,790.039,-42.969,13.184,799.805
1742470967.093,-536.621,-173.340,-672.363,-555.664
1742470967.097,-1000.000,-96.680,-188.965,-1000.000
1742470967.101,-113.281,42.480,724.609,47.852
1742470967.104,999.512,12.207,542.480,999.512
1742470967.108,807.129,-82.031,-277.344,747.070
1742470967.112,-572.266,-165.039,-934.570,-605.469
1742470967.116,-1000.000,-117.676,-568.359,-1000.000
1742470967.120,-824.707,-18.066,296.875,-747.559
1742470967.077,-990.723,-20.508,36.133,-966.309
1742470967.081,530.762,62.012,802.246,540.527
1742470967.085,999.512,9.277,573.242,999.512
1742470967.089,790.039,-42.969,13.184,799.805
1742470967.093,-536.621,-173.340,-672.363,-555.664
1742470967.097,-1000.000,-96.680,-188.965,-1000.000
1742470967.101,-113.281,42.480,724.609,47.852
1742470967.104,999.512,12.207,542.480,999.512
1742470967.108,807.129,-82.031,-277.344,747.070
1742470967.112,-572.266,-165.039,-934.570,-605.469
1742470967.116,-1000.000,-117.676,-568.359,-1000.000
1742470967.120,-824.707,-18.066,296.875,-747.559
1742470967.122,650.391,54.199,571.777,729.004
1742470967.126,980.469,-27.832,-38.086,950.195
1742470967.130,-565.430,-169.922,-834.473,-580.078
1742470967.134,-1000.000,-109.375,-459.961,-1000.000
1742470967.138,-835.449,-32.715,281.738,-829.102
1742470967.142,519.531,82.031,658.691,555.664
1742470967.146,999.512,54.688,402.344,999.512
1742470967.149,-112.305,-146.484,-608.398,-235.352
1742470967.153,-1000.000,-154.297,-773.926,-1000.000
1742470967.157,-827.148,-30.762,73.242,-823.730
1742470967.161,498.535,56.641,587.891,503.906
1742470967.165,999.512,30.273,359.863,999.512
1742470967.122,650.391,54.199,571.777,729.004
1742470967.126,980.469,-27.832,-38.086,950.195
1742470967.130,-565.430,-169.922,-834.473,-580.078
1742470967.134,-1000.000,-109.375,-459.961,-1000.000
1742470967.138,-835.449,-32.715,281.738,-829.102
1742470967.142,519.531,82.031,658.691,555.664
1742470967.146,999.512,54.688,402.344,999.512
1742470967.149,-112.305,-146.484,-608.398,-235.352
1742470967.153,-1000.000,-154.297,-773.926,-1000.000
1742470967.157,-827.148,-30.762,73.242,-823.730
1742470967.161,498.535,56.641,587.891,503.906
1742470967.165,999.512,30.273,359.863,999.512
1742470967.167,599.609,-70.801,-346.191,399.414
1742470967.171,-895.508,-119.629,-418.945,-992.188
1742470967.175,-920.410,-11.230,365.234,-846.680
1742470967.179,582.520,80.078,931.152,616.699
1742470967.183,999.512,-8.789,376.953,999.512
1742470967.187,681.641,-56.641,-357.910,536.621
1742470967.191,-663.086,-97.168,-285.645,-790.039
1742470967.194,-1000.000,-104.980,156.250,-1000.000
1742470967.198,-149.902,2.441,422.852,59.082
1742470967.202,999.512,52.734,319.824,999.512
1742470967.206,691.895,-84.961,-518.555,555.176
1742470967.210,-835.449,-146.973,-875.000,-898.438
1742470967.167,599.609,-70.801,-346.191,399.414
1742470967.171,-895.508,-119.629,-418.945,-992.188
1742470967.175,-920.410,-11.230,365.234,-846.680
1742470967.179,582.520,80.078,931.152,616.699
1742470967.183,999.512,-8.789,376.953,999.512
1742470967.187,681.641,-56.641,-357.910,536.621
1742470967.191,-663.086,-97.168,-285.645,-790.039
1742470967.194,-1000.000,-104.980,156.250,-1000.000
1742470967.198,-149.902,2.441,422.852,59.082
1742470967.202,999.512,52.734,319.824,999.512
1742470967.206,691.895,-84.961,-518.555,555.176
1742470967.210,-835.449,-146.973,-875.000,-898.438
1742470967.212,-1000.000,-48.340,-119.629,-1000.000
1742470967.216,343.262,70.312,551.270,403.320
1742470967.220,999.512,51.758,449.219,999.512
1742470967.224,839.355,-36.133,-207.520,827.637
1742470967.228,-632.324,-146.484,-614.258,-648.926
1742470967.232,-1000.000,-42.480,127.441,-1000.000
1742470967.236,525.879,96.680,901.367,541.992
1742470967.239,999.512,35.645,711.426,999.512
1742470967.243,777.832,-66.406,-64.941,760.254
1742470967.247,-520.996,-174.805,-796.387,-570.801
1742470967.251,-1000.000,-119.141,-372.070,-1000.000
1742470967.255,-324.707,17.578,521.484,-143.555
1742470967.257,985.352,65.918,753.906,999.512
1742470967.261,902.344,-49.805,-7.324,874.512
1742470967.265,-508.789,-148.438,-703.125,-510.254
1742470967.269,-1000.000,-88.379,-173.340,-1000.000
1742470967.273,-476.562,6.836,468.262,-341.797
1742470967.277,833.496,91.309,675.293,923.828
1742470967.281,999.512,-7.324,119.141,957.520
1742470967.284,-340.820,-173.828,-785.645,-393.066
1742470967.288,-1000.000,-139.648,-704.590,-1000.000
1742470967.292,-816.895,-9.277,186.035,-751.465
1742470967.296,615.234,84.473,800.293,696.777
1742470967.300,999.512,-11.719,180.664,999.512
1742470967.257,985.352,65.918,753.906,999.512
1742470967.261,902.344,-49.805,-7.324,874.512
1742470967.265,-508.789,-148.438,-703.125,-510.254
1742470967.269,-1000.000,-88.379,-173.340,-1000.000
1742470967.273,-476.562,6.836,468.262,-341.797
1742470967.277,833.496,91.309,675.293,923.828
1742470967.281,999.512,-7.324,119.141,957.520
1742470967.284,-340.820,-173.828,-785.645,-393.066
1742470967.288,-1000.000,-139.648,-704.590,-1000.000
1742470967.292,-816.895,-9.277,186.035,-751.465
1742470967.296,615.234,84.473,800.293,696.777
1742470967.300,999.512,-11.719,180.664,999.512
1742470967.304,-393.555,-161.621,-825.684,-452.148
1742470967.308,-1000.000,-131.348,-810.547,-1000.000
1742470967.312,-968.750,-53.711,-215.820,-925.781
1742470967.316,167.969,75.195,355.957,252.930
1742470967.320,999.512,84.961,259.766,999.512
1742470967.324,776.367,-17.578,-269.531,731.934
1742470967.328,-540.527,-127.930,-366.699,-579.590
1742470967.331,-1000.000,-120.605,-84.473,-1000.000
1742470967.335,-887.695,-43.945,218.262,-857.422
1742470967.339,498.535,47.852,172.852,578.613
1742470967.343,999.512,14.648,-326.660,999.512
1742470967.347,-517.090,-131.836,-499.512,-658.691
1742470967.304,-393.555,-161.621,-825.684,-452.148
1742470967.308,-1000.000,-131.348,-810.547,-1000.000
1742470967.312,-968.750,-53.711,-215.820,-925.781
1742470967.316,167.969,75.195,355.957,252.930
1742470967.320,999.512,84.961,259.766,999.512
1742470967.324,776.367,-17.578,-269.531,731.934
1742470967.328,-540.527,-127.930,-366.699,-579.590
1742470967.331,-1000.000,-120.605,-84.473,-1000.000
1742470967.335,-887.695,-43.945,218.262,-857.422
1742470967.339,498.535,47.852,172.852,578.613
1742470967.343,999.512,14.648,-326.660,999.512
1742470967.347,-517.090,-131.836,-499.512,-658.691
1742470967.348,-1000.000,-61.523,104.492,-999.512
1742470967.352,551.270,83.008,727.539,548.828
1742470967.356,999.512,34.180,418.457,999.512
1742470967.360,795.410,-31.738,-243.652,718.262
1742470967.364,-655.762,-153.809,-752.441,-744.629
1742470967.368,-1000.000,-60.547,-108.887,-1000.000
1742470967.372,440.430,75.195,737.305,483.398
1742470967.375,999.512,-3.906,453.125,999.512
1742470967.379,578.613,-98.145,-439.453,465.332
1742470967.383,-790.527,-141.602,-899.902,-855.957
1742470967.387,-1000.000,-87.891,-305.176,-1000.000
1742470967.391,34.180,40.039,562.500,98.633
1742470967.348,-1000.000,-61.523,104.492,-999.512
1742470967.352,551.270,83.008,727.539,548.828
1742470967.356,999.512,34.180,418.457,999.512
1742470967.360,795.410,-31.738,-243.652,718.262
1742470967.364,-655.762,-153.809,-752.441,-744.629
1742470967.368,-1000.000,-60.547,-108.887,-1000.000
1742470967.372,440.430,75.195,737.305,483.398
1742470967.375,999.512,-3.906,453.125,999.512
1742470967.379,578.613,-98.145,-439.453,465.332
1742470967.383,-790.527,-141.602,-899.902,-855.957
1742470967.387,-1000.000,-87.891,-305.176,-1000.000
1742470967.391,34.180,40.039,562.500,98.633
1742470967.394,999.512,50.293,680.176,999.512
1742470967.398,819.824,-77.637,-98.633,820.801
1742470967.402,-559.570,-166.504,-756.348,-576.172
1742470967.406,-1000.000,-78.125,-121.094,-1000.000
1742470967.410,-125.000,29.297,645.508,19.531
1742470967.414,999.512,64.941,819.336,999.512
1742470967.418,895.508,-8.301,204.102,854.492
1742470967.421,-431.152,-140.137,-787.109,-461.426
1742470967.425,-1000.000,-103.516,-637.695,-1000.000
1742470967.429,-770.508,-1.465,159.668,-687.988
1742470967.433,647.461,77.637,420.410,737.305
1742470967.437,999.512,35.645,-62.988,999.512
1742470967.394,999.512,50.293,680.176,999.512
1742470967.398,819.824,-77.637,-98.633,820.801
1742470967.402,-559.570,-166.504,-756.348,-576.172
1742470967.406,-1000.000,-78.125,-121.094,-1000.000
1742470967.410,-125.000,29.297,645.508,19.531
1742470967.414,999.512,64.941,819.336,999.512
1742470967.418,895.508,-8.301,204.102,854.492
1742470967.421,-431.152,-140.137,-787.109,-461.426
1742470967.425,-1000.000,-103.516,-637.695,-1000.000
1742470967.429,-770.508,-1.465,159.668,-687.988
1742470967.433,647.461,77.637,420.410,737.305
1742470967.437,999.512,35.645,-62.988,999.512
1742470967.394,999.512,50.293,680.176,999.512
1742470967.398,819.824,-77.637,-98.633,820.801
1742470967.402,-559.570,-166.504,-756.348,-576.172
1742470967.406,-1000.000,-78.125,-121.094,-1000.000
1742470967.410,-125.000,29.297,645.508,19.531
1742470967.414,999.512,64.941,819.336,999.512
1742470967.418,895.508,-8.301,204.102,854.492
1742470967.421,-431.152,-140.137,-787.109,-461.426
1742470967.425,-1000.000,-103.516,-637.695,-1000.000
1742470967.429,-770.508,-1.465,159.668,-687.988
1742470967.433,647.461,77.637,420.410,737.305
1742470967.437,999.512,35.645,-62.988,999.512
1742470967.452,-305.176,-100.586,-768.066,-385.254
1742470967.456,-1000.000,-85.449,-621.094,-1000.000
1742470967.460,-848.633,34.668,93.750,-811.523
1742470967.464,539.551,160.645,664.062,607.910
1742470967.468,999.512,69.336,83.008,999.512
1742470967.472,-219.238,-84.961,-769.043,-332.031
1742470967.476,-1000.000,-51.758,-527.832,-1000.000
1742470967.479,-978.516,-0.488,93.262,-922.363
1742470967.483,172.852,53.711,269.043,283.691
1742470967.487,999.512,71.777,46.875,999.512
1742470967.491,694.336,-27.344,-578.125,541.504
1742470967.495,-826.660,-111.816,-721.191,-909.180
1742470967.452,-305.176,-100.586,-768.066,-385.254
1742470967.456,-1000.000,-85.449,-621.094,-1000.000
1742470967.460,-848.633,34.668,93.750,-811.523
1742470967.464,539.551,160.645,664.062,607.910
1742470967.468,999.512,69.336,83.008,999.512
1742470967.472,-219.238,-84.961,-769.043,-332.031
1742470967.476,-1000.000,-51.758,-527.832,-1000.000
1742470967.479,-978.516,-0.488,93.262,-922.363
1742470967.483,172.852,53.711,269.043,283.691
1742470967.487,999.512,71.777,46.875,999.512
1742470967.491,694.336,-27.344,-578.125,541.504
1742470967.495,-826.660,-111.816,-721.191,-909.180
1742470967.497,-958.984,-31.250,-21.973,-930.176
1742470967.501,572.266,107.422,572.266,558.105
1742470967.505,999.512,68.359,350.586,999.512
1742470967.509,825.195,-20.996,-391.113,741.699
1742470967.513,-655.273,-108.398,-648.438,-743.652
1742470967.517,-989.746,-9.766,164.551,-957.520
1742470967.521,572.754,92.285,877.930,585.449
1742470967.524,999.512,2.930,373.535,999.512
1742470967.528,735.840,-55.664,-413.574,708.008
1742470967.532,-690.430,-138.184,-796.387,-734.375
1742470967.536,-1000.000,-65.430,-271.484,-1000.000
1742470967.540,320.801,96.191,625.977,410.645
1742470967.497,-958.984,-31.250,-21.973,-930.176
1742470967.501,572.266,107.422,572.266,558.105
1742470967.505,999.512,68.359,350.586,999.512
1742470967.509,825.195,-20.996,-391.113,741.699
1742470967.513,-655.273,-108.398,-648.438,-743.652
1742470967.517,-989.746,-9.766,164.551,-957.520
1742470967.521,572.754,92.285,877.930,585.449
1742470967.524,999.512,2.930,373.535,999.512
1742470967.528,735.840,-55.664,-413.574,708.008
1742470967.532,-690.430,-138.184,-796.387,-734.375
1742470967.536,-1000.000,-65.430,-271.484,-1000.000
1742470967.540,320.801,96.191,625.977,410.645
1742470967.542,999.512,54.199,606.934,999.512
1742470967.546,799.316,-61.035,-291.016,801.758
1742470967.550,-549.316,-134.766,-679.688,-579.590
1742470967.554,-1000.000,-80.078,7.812,-1000.000
1742470967.558,-24.414,31.738,553.711,157.715
1742470967.562,999.512,58.594,585.449,999.512
1742470967.566,803.223,-72.266,-200.684,770.508
1742470967.569,-542.480,-184.570,-897.949,-558.105
1742470967.573,-1000.000,-136.230,-458.496,-1000.000
1742470967.577,-705.078,-37.109,281.738,-538.574
1742470967.581,765.625,44.434,569.336,867.676
1742470967.585,984.863,-30.273,27.832,937.988
1742470967.542,999.512,54.199,606.934,999.512
1742470967.546,799.316,-61.035,-291.016,801.758
1742470967.550,-549.316,-134.766,-679.688,-579.590
1742470967.554,-1000.000,-80.078,7.812,-1000.000
1742470967.558,-24.414,31.738,553.711,157.715
1742470967.562,999.512,58.594,585.449,999.512
1742470967.566,803.223,-72.266,-200.684,770.508
1742470967.569,-542.480,-184.570,-897.949,-558.105
1742470967.573,-1000.000,-136.230,-458.496,-1000.000
1742470967.577,-705.078,-37.109,281.738,-538.574
1742470967.581,765.625,44.434,569.336,867.676
1742470967.585,984.863,-30.273,27.832,937.988
1742470967.587,-507.812,-178.223,-750.000,-518.066
1742470967.591,-1000.000,-141.602,-498.047,-1000.000
1742470967.595,-807.129,-45.898,157.715,-811.035
1742470967.599,481.934,48.828,519.043,518.066
1742470967.603,999.512,-4.395,96.680,999.512
1742470967.607,358.398,-92.773,-433.105,92.773
1742470967.611,-930.664,-119.141,-228.027,-1000.000
1742470967.614,-1000.000,-102.539,106.445,-997.559
1742470967.618,-964.355,-68.848,161.133,-951.172
1742470967.622,-972.656,-57.129,-184.570,-946.289
1742470967.626,-1000.000,-72.266,-607.422,-1000.000
1742470967.630,-1000.000,-49.805,-291.504,-1000.000
1742470968.097,999.512,7.324,154.785,999.512
1742470968.101,478.516,-98.145,-597.168,301.270
1742470968.105,-984.375,-123.535,-449.707,-1000.000
1742470968.109,-754.395,-21.484,407.227,-606.445
1742470968.113,743.652,16.113,737.305,801.758
1742470968.117,999.512,-16.113,407.715,999.512
1742470968.121,828.125,-41.992,-122.559,842.773
1742470968.124,-585.938,-173.340,-545.898,-613.770
1742470968.128,-1000.000,-96.680,-148.438,-1000.000
1742470968.132,340.820,82.031,581.543,448.730
1742470968.136,999.512,69.824,414.062,999.512
1742470968.140,849.121,-6.836,-133.789,849.609
1742470967.633,372.070,73.242,556.641,365.723
1742470967.637,999.512,42.969,904.785,999.512
1742470967.641,966.797,-46.875,325.684,980.957
1742470967.645,792.969,-83.984,-351.562,685.547
1742470967.649,-805.664,-176.758,-647.949,-879.395
1742470967.653,-965.332,-41.992,76.172,-948.242
1742470967.657,559.570,84.473,758.789,565.430
1742470967.660,999.512,35.156,416.992,999.512
1742470967.664,544.434,-52.734,-364.746,384.277
1742470967.668,-861.816,-119.629,-707.520,-940.430
1742470967.672,-1000.000,-37.109,-144.531,-1000.000
1742470967.676,302.734,143.066,641.602,354.492
1742470967.633,372.070,73.242,556.641,365.723
1742470967.637,999.512,42.969,904.785,999.512
1742470967.641,966.797,-46.875,325.684,980.957
1742470967.645,792.969,-83.984,-351.562,685.547
1742470967.649,-805.664,-176.758,-647.949,-879.395
1742470967.653,-965.332,-41.992,76.172,-948.242
1742470967.657,559.570,84.473,758.789,565.430
1742470967.660,999.512,35.156,416.992,999.512
1742470967.664,544.434,-52.734,-364.746,384.277
1742470967.668,-861.816,-119.629,-707.520,-940.430
1742470967.672,-1000.000,-37.109,-144.531,-1000.000
1742470967.676,302.734,143.066,641.602,354.492
1742470967.679,999.512,106.445,514.648,999.512
1742470967.683,610.840,-50.781,-433.594,470.215
1742470967.687,-803.711,-107.422,-897.461,-888.184
1742470967.691,-1000.000,-9.766,-46.387,-1000.000
1742470967.695,228.027,82.031,614.746,275.879
1742470967.699,999.512,97.656,540.039,999.512
1742470967.703,775.879,-14.160,-7.812,753.418
1742470967.706,-537.598,-160.156,-800.781,-558.594
1742470967.710,-1000.000,-104.980,-500.488,-1000.000
1742470967.714,-864.746,-20.508,235.840,-827.148
1742470967.718,576.660,62.012,349.121,643.555
1742470967.722,999.512,11.719,-170.410,977.051
1742470967.679,999.512,106.445,514.648,999.512
1742470967.683,610.840,-50.781,-433.594,470.215
1742470967.687,-803.711,-107.422,-897.461,-888.184
1742470967.691,-1000.000,-9.766,-46.387,-1000.000
1742470967.695,228.027,82.031,614.746,275.879
1742470967.699,999.512,97.656,540.039,999.512
1742470967.703,775.879,-14.160,-7.812,753.418
1742470967.706,-537.598,-160.156,-800.781,-558.594
1742470967.710,-1000.000,-104.980,-500.488,-1000.000
1742470967.714,-864.746,-20.508,235.840,-827.148
1742470967.718,576.660,62.012,349.121,643.555
1742470967.722,999.512,11.719,-170.410,977.051
1742470967.722,-485.352,-128.906,-663.574,-559.570
1742470967.726,-1000.000,-118.652,-392.578,-1000.000
1742470967.730,-776.367,-14.648,288.574,-726.074
1742470967.734,725.098,105.957,805.176,764.160
1742470967.738,944.336,-23.926,25.391,937.988
1742470967.742,-600.098,-151.367,-834.473,-608.398
1742470967.746,-1000.000,-73.730,-321.289,-1000.000
1742470967.749,-454.102,9.766,478.516,-342.773
1742470967.753,948.730,33.691,494.141,984.375
1742470967.757,871.582,-71.289,-251.953,854.004
1742470967.761,-580.078,-184.082,-919.434,-574.219
1742470967.765,-1000.000,-103.027,-557.617,-1000.000
1742470967.722,-485.352,-128.906,-663.574,-559.570
1742470967.726,-1000.000,-118.652,-392.578,-1000.000
1742470967.730,-776.367,-14.648,288.574,-726.074
1742470967.734,725.098,105.957,805.176,764.160
1742470967.738,944.336,-23.926,25.391,937.988
1742470967.742,-600.098,-151.367,-834.473,-608.398
1742470967.746,-1000.000,-73.730,-321.289,-1000.000
1742470967.749,-454.102,9.766,478.516,-342.773
1742470967.753,948.730,33.691,494.141,984.375
1742470967.757,871.582,-71.289,-251.953,854.004
1742470967.761,-580.078,-184.082,-919.434,-574.219
1742470967.765,-1000.000,-103.027,-557.617,-1000.000
1742470967.769,-757.324,-4.395,297.852,-726.074
1742470967.773,636.230,86.426,761.230,688.477
1742470967.777,999.512,35.645,297.852,999.512
1742470967.781,-201.172,-148.438,-638.184,-321.777
1742470967.785,-1000.000,-140.625,-678.711,-1000.000
1742470967.789,-779.785,31.250,322.266,-753.906
1742470967.793,654.297,96.680,908.691,686.035
1742470967.796,999.512,-16.113,177.734,999.512
1742470967.800,-270.020,-130.859,-673.340,-365.234
1742470967.804,-1000.000,-146.973,-722.656,-1000.000
1742470967.808,-934.570,-70.801,-132.324,-900.391
1742470967.812,264.160,73.242,526.367,327.148
1742470967.769,-757.324,-4.395,297.852,-726.074
1742470967.773,636.230,86.426,761.230,688.477
1742470967.777,999.512,35.645,297.852,999.512
1742470967.781,-201.172,-148.438,-638.184,-321.777
1742470967.785,-1000.000,-140.625,-678.711,-1000.000
1742470967.789,-779.785,31.250,322.266,-753.906
1742470967.793,654.297,96.680,908.691,686.035
1742470967.796,999.512,-16.113,177.734,999.512
1742470967.800,-270.020,-130.859,-673.340,-365.234
1742470967.804,-1000.000,-146.973,-722.656,-1000.000
1742470967.808,-934.570,-70.801,-132.324,-900.391
1742470967.812,264.160,73.242,526.367,327.148
1742470967.827,999.512,62.500,426.270,999.512
1742470967.831,660.645,-70.312,-448.242,524.414
1742470967.835,-792.969,-114.746,-712.891,-886.719
1742470967.839,-1000.000,-24.902,131.348,-1000.000
1742470967.843,370.605,68.359,586.426,427.246
1742470967.847,999.512,59.570,470.215,999.512
1742470967.851,773.438,-44.922,-190.918,742.188
1742470967.854,-518.555,-164.551,-814.941,-583.008
1742470967.858,-1000.000,-121.094,-322.266,-1000.000
1742470967.862,-487.305,-11.230,346.191,-262.207
1742470967.866,935.547,31.738,312.012,999.512
1742470967.870,877.441,-53.223,-222.168,831.543
1742470967.827,999.512,62.500,426.270,999.512
1742470967.831,660.645,-70.312,-448.242,524.414
1742470967.835,-792.969,-114.746,-712.891,-886.719
1742470967.839,-1000.000,-24.902,131.348,-1000.000
1742470967.843,370.605,68.359,586.426,427.246
1742470967.847,999.512,59.570,470.215,999.512
1742470967.851,773.438,-44.922,-190.918,742.188
1742470967.854,-518.555,-164.551,-814.941,-583.008
1742470967.858,-1000.000,-121.094,-322.266,-1000.000
1742470967.862,-487.305,-11.230,346.191,-262.207
1742470967.866,935.547,31.738,312.012,999.512
1742470967.870,877.441,-53.223,-222.168,831.543
1742470967.872,-584.961,-181.152,-759.277,-582.520
1742470967.876,-1000.000,-127.441,-293.945,-1000.000
1742470967.880,-812.988,-50.293,279.785,-703.125
1742470967.884,679.199,45.410,331.543,771.484
1742470967.888,951.660,-9.277,-231.934,922.852
1742470967.892,-629.883,-124.512,-666.992,-620.117
1742470967.896,-1000.000,-100.586,-237.305,-1000.000
1742470967.899,-962.891,-73.730,62.988,-923.340
1742470967.903,318.359,46.875,143.066,436.523
1742470967.907,999.512,10.742,-150.879,999.512
1742470967.911,-224.121,-173.828,-750.488,-373.535
1742470967.915,-1000.000,-147.949,-524.414,-1000.000
1742470967.872,-584.961,-181.152,-759.277,-582.520
1742470967.876,-1000.000,-127.441,-293.945,-1000.000
1742470967.880,-812.988,-50.293,279.785,-703.125
1742470967.884,679.199,45.410,331.543,771.484
1742470967.888,951.660,-9.277,-231.934,922.852
1742470967.892,-629.883,-124.512,-666.992,-620.117
1742470967.896,-1000.000,-100.586,-237.305,-1000.000
1742470967.899,-962.891,-73.730,62.988,-923.340
1742470967.903,318.359,46.875,143.066,436.523
1742470967.907,999.512,10.742,-150.879,999.512
1742470967.911,-224.121,-173.828,-750.488,-373.535
1742470967.915,-1000.000,-147.949,-524.414,-1000.000
1742470967.918,-581.543,-3.418,336.914,-475.586
1742470967.922,739.258,48.828,747.070,776.855
1742470967.926,999.512,-20.996,211.426,999.512
1742470967.930,717.773,-94.727,-338.867,601.074
1742470967.934,-792.480,-175.781,-431.152,-891.113
1742470967.938,-991.211,-68.359,285.156,-900.879
1742470967.942,676.270,22.461,709.473,750.977
1742470967.945,999.512,-65.430,130.371,999.512
1742470967.949,-381.836,-219.238,-759.766,-431.152
1742470967.953,-1000.000,-193.359,-706.055,-1000.000
1742470967.957,-811.035,-71.777,178.711,-777.832
1742470967.961,487.793,10.254,676.758,546.387
1742470967.963,999.512,-30.762,282.715,999.512
1742470967.967,406.738,-148.438,-551.270,251.953
1742470967.971,-986.328,-209.961,-788.574,-1000.000
1742470967.975,-927.246,-74.219,69.336,-888.184
1742470967.979,562.500,25.879,739.258,589.844
1742470967.983,999.512,-24.414,371.094,999.512
1742470967.987,56.152,-161.621,-570.801,-31.738
1742470967.990,-1000.000,-197.754,-883.301,-1000.000
1742470967.994,-1000.000,-96.680,-176.758,-1000.000
1742470967.998,17.090,4.395,401.367,155.273
1742470968.002,999.512,11.719,250.000,999.512
1742470968.006,816.406,-69.824,-391.602,770.508
1742470968.007,-556.641,-149.902,-680.176,-627.930
1742470968.011,-1000.000,-125.000,-208.496,-1000.000
1742470968.015,-152.832,19.531,430.664,55.176
1742470968.019,999.512,70.312,604.004,999.512
1742470968.023,843.750,-72.266,-336.426,761.719
1742470968.027,-644.531,-144.531,-834.961,-711.426
1742470968.031,-1000.000,-74.707,-232.422,-1000.000
1742470968.034,230.957,55.176,465.820,308.594
1742470968.038,999.512,20.996,303.223,999.512
1742470968.042,794.434,-85.449,-470.703,773.438
1742470968.046,-541.504,-157.227,-930.664,-585.449
1742470968.050,-1000.000,-93.750,-481.445,-1000.000
1742470968.007,-556.641,-149.902,-680.176,-627.930
1742470968.011,-1000.000,-125.000,-208.496,-1000.000
1742470968.015,-152.832,19.531,430.664,55.176
1742470968.019,999.512,70.312,604.004,999.512
1742470968.023,843.750,-72.266,-336.426,761.719
1742470968.027,-644.531,-144.531,-834.961,-711.426
1742470968.031,-1000.000,-74.707,-232.422,-1000.000
1742470968.034,230.957,55.176,465.820,308.594
1742470968.038,999.512,20.996,303.223,999.512
1742470968.042,794.434,-85.449,-470.703,773.438
1742470968.046,-541.504,-157.227,-930.664,-585.449
1742470968.050,-1000.000,-93.750,-481.445,-1000.000
1742470968.054,-195.801,34.180,452.148,-49.316
1742470968.058,999.512,43.457,661.621,999.512
1742470968.062,955.078,-51.270,-107.910,911.621
1742470968.066,-386.230,-150.879,-721.191,-447.754
1742470968.070,-1000.000,-113.770,-397.461,-1000.000
1742470968.074,-213.867,58.105,563.965,-72.754
1742470968.078,970.703,66.406,803.711,999.512
1742470968.081,999.512,-36.133,-8.789,953.125
1742470968.085,-226.074,-110.352,-607.422,-284.668
1742470968.089,-1000.000,-119.629,-380.859,-1000.000
1742470968.093,-815.918,-56.641,109.375,-797.852
1742470968.097,494.629,40.527,504.883,532.715
1742470968.054,-195.801,34.180,452.148,-49.316
1742470968.058,999.512,43.457,661.621,999.512
1742470968.062,955.078,-51.270,-107.910,911.621
1742470968.066,-386.230,-150.879,-721.191,-447.754
1742470968.070,-1000.000,-113.770,-397.461,-1000.000
1742470968.074,-213.867,58.105,563.965,-72.754
1742470968.078,970.703,66.406,803.711,999.512
1742470968.081,999.512,-36.133,-8.789,953.125
1742470968.085,-226.074,-110.352,-607.422,-284.668
1742470968.089,-1000.000,-119.629,-380.859,-1000.000
1742470968.093,-815.918,-56.641,109.375,-797.852
1742470968.097,494.629,40.527,504.883,532.715
1742470968.145,-549.805,-167.969,-457.520,-577.148
1742470968.149,-1000.000,-121.582,-45.898,-1000.000
1742470968.153,311.035,80.078,731.934,418.457
1742470968.157,999.512,56.152,640.625,999.512
1742470968.161,785.156,-60.547,-182.617,779.785
1742470968.165,-530.762,-106.934,-365.723,-578.613
1742470968.169,-1000.000,-74.219,172.363,-1000.000
1742470968.172,-304.199,12.695,508.301,-13.672
1742470968.176,999.512,62.988,434.570,999.512
1742470968.180,869.629,-40.039,-203.613,831.055
1742470968.184,-584.473,-167.480,-694.824,-597.168
1742470968.188,-1000.000,-110.840,-223.145,-1000.000
1742470968.145,-549.805,-167.969,-457.520,-577.148
1742470968.149,-1000.000,-121.582,-45.898,-1000.000
1742470968.153,311.035,80.078,731.934,418.457
1742470968.157,999.512,56.152,640.625,999.512
1742470968.161,785.156,-60.547,-182.617,779.785
1742470968.165,-530.762,-106.934,-365.723,-578.613
1742470968.169,-1000.000,-74.219,172.363,-1000.000
1742470968.172,-304.199,12.695,508.301,-13.672
1742470968.176,999.512,62.988,434.570,999.512
1742470968.180,869.629,-40.039,-203.613,831.055
1742470968.184,-584.473,-167.480,-694.824,-597.168
1742470968.188,-1000.000,-110.840,-223.145,-1000.000
1742470968.202,-145.020,34.668,553.223,25.391
1742470968.206,999.512,66.895,681.641,999.512
1742470968.210,845.703,-31.250,-51.758,821.289
1742470968.214,-515.137,-148.438,-705.566,-520.996
1742470968.218,-1000.000,-132.812,-496.582,-1000.000
1742470968.222,-684.082,-0.977,348.633,-561.523
1742470968.226,812.500,54.688,652.344,885.742
1742470968.229,917.480,-79.102,-225.098,867.676
1742470968.233,-605.469,-190.918,-944.824,-626.465
1742470968.237,-1000.000,-119.629,-470.703,-1000.000
1742470968.241,-870.605,-44.434,298.340,-846.680
1742470968.245,591.309,50.293,562.500,629.883
1742470968.202,-145.020,34.668,553.223,25.391
1742470968.206,999.512,66.895,681.641,999.512
1742470968.210,845.703,-31.250,-51.758,821.289
1742470968.214,-515.137,-148.438,-705.566,-520.996
1742470968.218,-1000.000,-132.812,-496.582,-1000.000
1742470968.222,-684.082,-0.977,348.633,-561.523
1742470968.226,812.500,54.688,652.344,885.742
1742470968.229,917.480,-79.102,-225.098,867.676
1742470968.233,-605.469,-190.918,-944.824,-626.465
1742470968.237,-1000.000,-119.629,-470.703,-1000.000
1742470968.241,-870.605,-44.434,298.340,-846.680
1742470968.245,591.309,50.293,562.500,629.883
1742470968.247,990.723,-17.090,50.781,966.797
1742470968.251,-566.406,-198.242,-850.586,-592.773
1742470968.255,-1000.000,-158.691,-764.648,-1000.000
1742470968.259,-845.703,-29.297,195.312,-840.820
1742470968.263,536.621,75.684,830.078,573.242
1742470968.267,999.512,11.719,429.199,999.512
1742470968.271,-319.336,-191.406,-598.145,-427.734
1742470968.274,-1000.000,-198.242,-852.051,-1000.000
1742470968.278,-936.035,-91.309,-140.137,-931.641
1742470968.282,-1000.000,-92.285,177.734,-1000.000
1742470968.286,-1000.000,-84.473,-237.305,-1000.000
1742470968.290,-928.711,-63.477,-600.586,-929.199
1742470968.247,990.723,-17.090,50.781,966.797
1742470968.251,-566.406,-198.242,-850.586,-592.773
1742470968.255,-1000.000,-158.691,-764.648,-1000.000
1742470968.259,-845.703,-29.297,195.312,-840.820
1742470968.263,536.621,75.684,830.078,573.242
1742470968.267,999.512,11.719,429.199,999.512
1742470968.271,-319.336,-191.406,-598.145,-427.734
1742470968.274,-1000.000,-198.242,-852.051,-1000.000
1742470968.278,-936.035,-91.309,-140.137,-931.641
1742470968.282,-1000.000,-92.285,177.734,-1000.000
1742470968.286,-1000.000,-84.473,-237.305,-1000.000
1742470968.290,-928.711,-63.477,-600.586,-929.199
1742470968.292,-1000.000,-70.801,-449.219,-1000.000
1742470968.296,-556.641,-15.625,180.176,-641.113
1742470968.300,850.586,55.176,780.273,823.730
1742470968.304,999.512,-23.926,419.922,999.512
1742470968.308,-91.797,-185.059,-714.355,-256.348
1742470968.312,-1000.000,-162.598,-870.605,-1000.000
1742470968.316,-969.238,-53.711,-141.113,-958.496
1742470968.319,316.895,57.129,529.297,340.820
1742470968.323,999.512,13.672,187.988,999.512
1742470968.327,23.438,-152.344,-798.828,-164.551
1742470968.331,-1000.000,-154.785,-968.750,-1000.000
1742470968.335,-1000.000,-69.336,-237.305,-1000.000
1742470968.337,-281.250,15.137,448.242,-223.633
1742470968.341,999.512,49.316,439.453,999.512
1742470968.345,722.656,-73.242,-408.203,591.309
1742470968.349,-705.566,-143.066,-918.945,-800.781
1742470968.353,-1000.000,-76.660,-321.289,-1000.000
1742470968.357,-413.574,21.973,457.520,-354.492
1742470968.361,999.512,46.875,522.461,999.512
1742470968.364,728.027,-91.797,-389.160,614.746
1742470968.368,-757.324,-173.828,-969.727,-825.684
1742470968.372,-1000.000,-100.098,-372.070,-1000.000
1742470968.376,-958.984,-86.914,127.930,-958.496
1742470968.380,443.359,32.227,279.785,469.238
1742470968.383,999.512,-7.324,-96.191,999.512
1742470968.387,-604.980,-200.195,-859.375,-651.855
1742470968.391,-1000.000,-111.816,-451.660,-1000.000
1742470968.395,-925.781,-46.387,391.113,-925.781
1742470968.399,-1000.000,-100.586,160.156,-1000.000
1742470968.403,-1000.000,-48.340,-225.098,-1000.000
1742470968.407,-927.734,-46.387,-423.828,-929.688
1742470968.410,-1000.000,-112.305,-424.805,-1000.000
1742470968.414,-631.836,-51.758,95.215,-714.844
1742470968.418,793.457,21.484,483.398,782.227
1742470968.422,999.512,-47.852,-9.766,999.512
1742470968.426,11.719,-137.207,-548.340,-304.688
1742470968.429,-1000.000,-167.969,-479.492,-1000.000
1742470968.433,-892.578,-81.055,119.141,-887.695
1742470968.437,553.223,55.664,678.223,535.645
1742470968.441,999.512,-1.465,270.996,999.512
1742470968.445,-306.641,-175.293,-676.270,-436.523
1742470968.449,-1000.000,-117.676,-497.070,-1000.000
1742470968.453,-1000.000,-82.031,147.949,-1000.000
1742470968.456,-623.535,-49.805,302.246,-454.102
1742470968.460,966.797,43.457,216.309,999.512
1742470968.464,738.770,-68.359,-497.559,509.766
1742470968.468,-931.641,-169.434,-837.402,-1000.000
1742470968.472,-958.008,-63.965,1.953,-923.340
1742470968.429,-1000.000,-167.969,-479.492,-1000.000
1742470968.433,-892.578,-81.055,119.141,-887.695
1742470968.437,553.223,55.664,678.223,535.645
1742470968.441,999.512,-1.465,270.996,999.512
1742470968.445,-306.641,-175.293,-676.270,-436.523
1742470968.449,-1000.000,-117.676,-497.070,-1000.000
1742470968.453,-1000.000,-82.031,147.949,-1000.000
1742470968.456,-623.535,-49.805,302.246,-454.102
1742470968.460,966.797,43.457,216.309,999.512
1742470968.464,738.770,-68.359,-497.559,509.766
1742470968.468,-931.641,-169.434,-837.402,-1000.000
1742470968.472,-958.008,-63.965,1.953,-923.340
1742470968.473,525.391,63.477,763.184,506.836
1742470968.477,999.512,30.273,521.973,999.512
1742470968.481,805.176,-47.852,-146.973,730.469
1742470968.485,-558.594,-175.293,-618.164,-659.668
1742470968.489,-1000.000,-138.184,-275.879,-1000.000
1742470968.493,134.277,60.059,649.902,209.961
1742470968.497,999.512,47.852,684.570,999.512
1742470968.500,636.719,-110.840,-377.441,527.832
1742470968.504,-766.113,-180.664,-950.195,-834.961
1742470968.508,-1000.000,-101.562,-306.152,-1000.000
1742470968.512,19.531,40.527,600.098,92.285
1742470968.516,999.512,49.805,678.223,999.512
1742470968.473,525.391,63.477,763.184,506.836
1742470968.477,999.512,30.273,521.973,999.512
1742470968.481,805.176,-47.852,-146.973,730.469
1742470968.485,-558.594,-175.293,-618.164,-659.668
1742470968.489,-1000.000,-138.184,-275.879,-1000.000
1742470968.493,134.277,60.059,649.902,209.961
1742470968.497,999.512,47.852,684.570,999.512
1742470968.500,636.719,-110.840,-377.441,527.832
1742470968.504,-766.113,-180.664,-950.195,-834.961
1742470968.508,-1000.000,-101.562,-306.152,-1000.000
1742470968.512,19.531,40.527,600.098,92.285
1742470968.516,999.512,49.805,678.223,999.512
1742470968.519,828.613,-64.453,-103.027,817.871
1742470968.523,-569.824,-176.270,-716.797,-592.285
1742470968.527,-1000.000,-132.324,-283.203,-1000.000
1742470968.531,-14.160,41.504,655.273,92.773
1742470968.535,999.512,74.219,993.164,999.512
1742470968.539,922.852,-32.227,400.879,895.020
1742470968.543,-332.031,-202.637,-664.062,-373.047
1742470968.546,-1000.000,-175.293,-558.105,-1000.000
1742470968.550,-637.695,-24.414,465.332,-485.840
1742470968.554,829.590,26.855,772.949,907.227
1742470968.558,978.027,-58.594,73.730,933.105
1742470968.562,-478.027,-186.523,-784.180,-495.117
1742470968.519,828.613,-64.453,-103.027,817.871
1742470968.523,-569.824,-176.270,-716.797,-592.285
1742470968.527,-1000.000,-132.324,-283.203,-1000.000
1742470968.531,-14.160,41.504,655.273,92.773
1742470968.535,999.512,74.219,993.164,999.512
1742470968.539,922.852,-32.227,400.879,895.020
1742470968.543,-332.031,-202.637,-664.062,-373.047
1742470968.546,-1000.000,-175.293,-558.105,-1000.000
1742470968.550,-637.695,-24.414,465.332,-485.840
1742470968.554,829.590,26.855,772.949,907.227
1742470968.558,978.027,-58.594,73.730,933.105
1742470968.562,-478.027,-186.523,-784.180,-495.117
1742470968.578,-1000.000,-150.391,-507.812,-1000.000
1742470968.582,-773.438,-67.383,248.047,-691.406
1742470968.586,625.977,24.414,482.422,711.426
1742470968.590,999.512,9.766,155.273,999.512
1742470968.594,-215.820,-151.367,-738.281,-268.066
1742470968.598,-1000.000,-119.141,-571.777,-1000.000
1742470968.602,-634.766,4.395,478.027,-504.883
1742470968.605,834.473,38.574,753.418,897.461
1742470968.609,999.512,-52.246,-77.148,967.285
1742470968.613,-430.664,-194.336,-923.828,-438.477
1742470968.617,-1000.000,-157.715,-925.781,-1000.000
1742470968.621,-808.105,-14.160,-35.645,-775.391
1742470968.578,-1000.000,-150.391,-507.812,-1000.000
1742470968.582,-773.438,-67.383,248.047,-691.406
1742470968.586,625.977,24.414,482.422,711.426
1742470968.590,999.512,9.766,155.273,999.512
1742470968.594,-215.820,-151.367,-738.281,-268.066
1742470968.598,-1000.000,-119.141,-571.777,-1000.000
1742470968.602,-634.766,4.395,478.027,-504.883
1742470968.605,834.473,38.574,753.418,897.461
1742470968.609,999.512,-52.246,-77.148,967.285
1742470968.613,-430.664,-194.336,-923.828,-438.477
1742470968.617,-1000.000,-157.715,-925.781,-1000.000
1742470968.621,-808.105,-14.160,-35.645,-775.391
1742470968.622,490.234,96.191,763.184,549.316
1742470968.626,999.512,80.566,385.254,999.512
1742470968.630,369.141,-26.855,-611.328,237.793
1742470968.634,-1000.000,-73.242,-713.379,-1000.000
1742470968.638,-896.973,-5.859,146.484,-874.023
1742470968.642,538.086,101.074,853.027,536.621
1742470968.646,999.512,41.016,622.070,999.512
1742470968.649,656.250,-88.867,-339.844,610.840
1742470968.653,-738.770,-147.949,-815.918,-797.363
1742470968.657,-1000.000,-105.469,-15.625,-1000.000
1742470968.661,154.785,-46.387,604.004,302.734
1742470968.665,999.512,-48.340,437.988,999.512
1742470968.622,490.234,96.191,763.184,549.316
1742470968.626,999.512,80.566,385.254,999.512
1742470968.630,369.141,-26.855,-611.328,237.793
1742470968.634,-1000.000,-73.242,-713.379,-1000.000
1742470968.638,-896.973,-5.859,146.484,-874.023
1742470968.642,538.086,101.074,853.027,536.621
1742470968.646,999.512,41.016,622.070,999.512
1742470968.649,656.250,-88.867,-339.844,610.840
1742470968.653,-738.770,-147.949,-815.918,-797.363
1742470968.657,-1000.000,-105.469,-15.625,-1000.000
1742470968.661,154.785,-46.387,604.004,302.734
1742470968.665,999.512,-48.340,437.988,999.512
1742470968.668,743.652,-147.461,-350.586,676.758
1742470968.672,-755.371,-246.582,-939.453,-803.223
1742470968.676,-1000.000,-134.766,-276.367,-1000.000
1742470968.680,458.008,51.270,804.199,490.234
1742470968.684,999.512,-24.414,677.734,999.512
1742470968.688,767.090,-117.188,-154.297,767.090
1742470968.692,-527.832,-190.918,-568.359,-521.484
1742470968.695,-1000.000,-198.730,-303.223,-1000.000
1742470968.699,-867.188,-138.184,212.891,-797.363
1742470968.703,583.496,-30.762,429.199,669.434
1742470968.707,999.512,-87.891,-255.371,989.746
1742470968.711,-513.184,-201.172,-757.324,-549.316
1742470968.713,-1000.000,-166.992,-255.371,-1000.000
1742470968.717,-534.180,-57.617,438.477,-377.930
1742470968.721,899.902,1.465,759.277,956.055
1742470968.725,948.242,-104.980,-19.043,924.316
1742470968.729,-532.227,-221.191,-894.043,-541.504
1742470968.733,-1000.000,-125.488,-332.520,-1000.000
1742470968.737,-200.195,-2.930,668.945,-76.172
1742470968.740,999.512,-31.250,703.613,999.512
1742470968.744,898.926,-113.770,-87.891,869.629
1742470968.748,-450.195,-224.609,-901.855,-461.914
1742470968.752,-1000.000,-195.312,-805.176,-1000.000
1742470968.756,-708.496,-73.730,175.293,-645.020
1742470968.758,597.656,-22.949,782.715,655.273
1742470968.762,999.512,-73.242,243.164,999.512
1742470968.766,738.770,-98.633,-431.152,615.723
1742470968.770,-730.469,-191.406,-522.461,-827.637
1742470968.774,-1000.000,-164.062,-80.566,-1000.000
1742470968.778,499.512,38.574,719.238,546.387
1742470968.782,999.512,-23.926,508.789,999.512
1742470968.785,15.137,-225.098,-711.426,-79.102
1742470968.789,-1000.000,-220.703,-953.125,-1000.000
1742470968.793,-843.262,-107.910,-81.543,-834.961
1742470968.797,511.719,13.672,676.270,506.348
1742470968.801,999.512,-5.371,465.820,999.512
1742470968.758,597.656,-22.949,782.715,655.273
1742470968.762,999.512,-73.242,243.164,999.512
1742470968.766,738.770,-98.633,-431.152,615.723
1742470968.770,-730.469,-191.406,-522.461,-827.637
1742470968.774,-1000.000,-164.062,-80.566,-1000.000
1742470968.778,499.512,38.574,719.238,546.387
1742470968.782,999.512,-23.926,508.789,999.512
1742470968.785,15.137,-225.098,-711.426,-79.102
1742470968.789,-1000.000,-220.703,-953.125,-1000.000
1742470968.793,-843.262,-107.910,-81.543,-834.961
1742470968.797,511.719,13.672,676.270,506.348
1742470968.801,999.512,-5.371,465.820,999.512
1742470968.758,597.656,-22.949,782.715,655.273
1742470968.762,999.512,-73.242,243.164,999.512
1742470968.766,738.770,-98.633,-431.152,615.723
1742470968.770,-730.469,-191.406,-522.461,-827.637
1742470968.774,-1000.000,-164.062,-80.566,-1000.000
1742470968.778,499.512,38.574,719.238,546.387
1742470968.782,999.512,-23.926,508.789,999.512
1742470968.785,15.137,-225.098,-711.426,-79.102
1742470968.789,-1000.000,-220.703,-953.125,-1000.000
1742470968.793,-843.262,-107.910,-81.543,-834.961
1742470968.797,511.719,13.672,676.270,506.348
1742470968.801,999.512,-5.371,465.820,999.512
1742470969.272,-943.359,11.719,-450.195,-911.621
1742470969.276,565.918,96.191,70.312,558.594
1742470969.280,999.512,18.555,-523.438,999.512
1742470969.284,806.152,-44.434,-995.117,721.680
1742470969.288,-679.688,-87.891,-1000.000,-759.277
1742470969.292,-985.840,46.875,-597.168,-967.773
1742470969.296,574.707,176.270,222.168,567.871
1742470969.299,999.512,72.266,-294.434,999.512
1742470969.303,739.746,-10.254,-1000.000,673.828
1742470969.307,-604.004,-58.105,-1000.000,-690.430
1742470969.311,-1000.000,-15.137,-924.805,-1000.000
1742470969.315,-83.984,121.094,-183.594,71.289
1742470968.804,694.336,-111.328,-446.289,620.117
1742470968.808,-795.410,-180.664,-933.105,-846.680
1742470968.812,-984.375,-70.801,-259.766,-959.961
1742470968.816,540.039,69.824,643.555,547.852
1742470968.820,999.512,41.992,553.223,999.512
1742470968.824,782.227,-37.109,-253.906,784.668
1742470968.828,-526.367,-157.715,-888.184,-557.129
1742470968.831,-1000.000,-105.957,-491.211,-1000.000
1742470968.835,-247.070,67.383,329.102,-53.223
1742470968.839,999.512,139.648,401.367,999.512
1742470968.843,874.023,97.168,-410.156,831.055
1742470968.847,-599.609,48.828,-978.027,-626.953
1742470968.804,694.336,-111.328,-446.289,620.117
1742470968.808,-795.410,-180.664,-933.105,-846.680
1742470968.812,-984.375,-70.801,-259.766,-959.961
1742470968.816,540.039,69.824,643.555,547.852
1742470968.820,999.512,41.992,553.223,999.512
1742470968.824,782.227,-37.109,-253.906,784.668
1742470968.828,-526.367,-157.715,-888.184,-557.129
1742470968.831,-1000.000,-105.957,-491.211,-1000.000
1742470968.835,-247.070,67.383,329.102,-53.223
1742470968.839,999.512,139.648,401.367,999.512
1742470968.843,874.023,97.168,-410.156,831.055
1742470968.847,-599.609,48.828,-978.027,-626.953
1742470968.847,-1000.000,170.410,-416.504,-1000.000
1742470968.851,75.195,343.262,472.168,160.156
1742470968.855,999.512,386.230,675.293,999.512
1742470968.859,858.398,321.777,121.582,845.703
1742470968.863,-495.117,164.551,-812.012,-524.902
1742470968.867,-1000.000,220.215,-433.105,-1000.000
1742470968.871,-120.605,361.816,730.957,0.977
1742470968.874,999.512,325.195,804.199,999.512
1742470968.878,819.824,173.828,-222.168,792.969
1742470968.882,-546.875,63.965,-997.559,-567.383
1742470968.886,-1000.000,99.609,-732.422,-1000.000
1742470968.890,-613.281,200.684,285.156,-481.445
1742470968.847,-1000.000,170.410,-416.504,-1000.000
1742470968.851,75.195,343.262,472.168,160.156
1742470968.855,999.512,386.230,675.293,999.512
1742470968.859,858.398,321.777,121.582,845.703
1742470968.863,-495.117,164.551,-812.012,-524.902
1742470968.867,-1000.000,220.215,-433.105,-1000.000
1742470968.871,-120.605,361.816,730.957,0.977
1742470968.874,999.512,325.195,804.199,999.512
1742470968.878,819.824,173.828,-222.168,792.969
1742470968.882,-546.875,63.965,-997.559,-567.383
1742470968.886,-1000.000,99.609,-732.422,-1000.000
1742470968.890,-613.281,200.684,285.156,-481.445
1742470968.894,820.312,236.328,805.176,886.230
1742470968.898,999.512,109.863,109.375,973.145
1742470968.902,-398.926,-81.055,-873.047,-416.504
1742470968.906,-1000.000,-82.031,-754.395,-1000.000
1742470968.910,-720.703,25.879,227.051,-647.461
1742470968.914,696.289,107.422,907.227,759.766
1742470968.918,999.512,1.465,321.289,999.512
1742470968.921,-262.207,-204.102,-827.637,-286.621
1742470968.925,-1000.000,-197.754,-889.648,-1000.000
1742470968.929,-715.820,-63.477,119.629,-659.668
1742470968.933,613.770,-31.738,724.121,677.246
1742470968.937,999.512,-85.449,246.582,999.512
1742470968.894,820.312,236.328,805.176,886.230
1742470968.898,999.512,109.863,109.375,973.145
1742470968.902,-398.926,-81.055,-873.047,-416.504
1742470968.906,-1000.000,-82.031,-754.395,-1000.000
1742470968.910,-720.703,25.879,227.051,-647.461
1742470968.914,696.289,107.422,907.227,759.766
1742470968.918,999.512,1.465,321.289,999.512
1742470968.921,-262.207,-204.102,-827.637,-286.621
1742470968.925,-1000.000,-197.754,-889.648,-1000.000
1742470968.929,-715.820,-63.477,119.629,-659.668
1742470968.933,613.770,-31.738,724.121,677.246
1742470968.937,999.512,-85.449,246.582,999.512
1742470968.952,431.641,-167.969,-558.594,303.223
1742470968.956,-978.027,-236.328,-812.500,-1000.000
1742470968.960,-908.203,-126.465,-111.328,-884.277
1742470968.964,554.688,8.789,813.477,547.852
1742470968.968,999.512,-83.008,462.402,999.512
1742470968.972,791.992,-144.531,-417.969,781.250
1742470968.976,-538.086,-215.820,-667.969,-591.797
1742470968.979,-1000.000,-206.543,-322.266,-1000.000
1742470968.983,-93.750,-57.129,312.012,119.629
1742470968.987,999.512,-33.203,313.965,999.512
1742470968.991,724.609,-159.668,-635.254,640.625
1742470968.995,-821.777,-200.684,-932.617,-854.492
1742470968.952,431.641,-167.969,-558.594,303.223
1742470968.956,-978.027,-236.328,-812.500,-1000.000
1742470968.960,-908.203,-126.465,-111.328,-884.277
1742470968.964,554.688,8.789,813.477,547.852
1742470968.968,999.512,-83.008,462.402,999.512
1742470968.972,791.992,-144.531,-417.969,781.250
1742470968.976,-538.086,-215.820,-667.969,-591.797
1742470968.979,-1000.000,-206.543,-322.266,-1000.000
1742470968.983,-93.750,-57.129,312.012,119.629
1742470968.987,999.512,-33.203,313.965,999.512
1742470968.991,724.609,-159.668,-635.254,640.625
1742470968.995,-821.777,-200.684,-932.617,-854.492
1742470968.997,-1000.000,-104.492,-38.574,-991.699
1742470969.001,441.895,-18.066,620.605,489.258
1742470969.005,999.512,-59.570,440.918,999.512
1742470969.009,835.449,-144.043,-341.797,823.242
1742470969.013,-625.000,-240.723,-928.223,-643.066
1742470969.017,-1000.000,-132.324,-110.840,-1000.000
1742470969.021,509.766,11.230,897.461,522.949
1742470969.024,999.512,-77.148,595.703,999.512
1742470969.028,780.762,-168.457,-331.543,769.043
1742470969.032,-525.391,-239.746,-955.566,-565.918
1742470969.036,-1000.000,-192.871,-611.816,-1000.000
1742470969.040,-274.902,-43.945,418.457,-117.188
1742470968.997,-1000.000,-104.492,-38.574,-991.699
1742470969.001,441.895,-18.066,620.605,489.258
1742470969.005,999.512,-59.570,440.918,999.512
1742470969.009,835.449,-144.043,-341.797,823.242
1742470969.013,-625.000,-240.723,-928.223,-643.066
1742470969.017,-1000.000,-132.324,-110.840,-1000.000
1742470969.021,509.766,11.230,897.461,522.949
1742470969.024,999.512,-77.148,595.703,999.512
1742470969.028,780.762,-168.457,-331.543,769.043
1742470969.032,-525.391,-239.746,-955.566,-565.918
1742470969.036,-1000.000,-192.871,-611.816,-1000.000
1742470969.040,-274.902,-43.945,418.457,-117.188
1742470969.043,999.512,4.883,781.738,999.512
1742470969.047,842.773,-118.652,-121.582,827.637
1742470969.051,-559.082,-220.215,-918.945,-552.734
1742470969.055,-1000.000,-129.395,-324.219,-1000.000
1742470969.059,-625.488,-51.270,450.684,-498.047
1742470969.063,799.805,31.738,770.996,872.070
1742470969.067,999.512,-42.480,247.559,982.910
1742470969.070,-367.676,-214.355,-823.242,-413.574
1742470969.074,-1000.000,-175.293,-854.980,-1000.000
1742470969.078,-832.520,-52.734,-8.301,-815.430
1742470969.082,516.113,29.785,500.488,559.082
1742470969.086,999.512,-7.812,76.660,999.512
1742470969.043,999.512,4.883,781.738,999.512
1742470969.047,842.773,-118.652,-121.582,827.637
1742470969.051,-559.082,-220.215,-918.945,-552.734
1742470969.055,-1000.000,-129.395,-324.219,-1000.000
1742470969.059,-625.488,-51.270,450.684,-498.047
1742470969.063,799.805,31.738,770.996,872.070
1742470969.067,999.512,-42.480,247.559,982.910
1742470969.070,-367.676,-214.355,-823.242,-413.574
1742470969.074,-1000.000,-175.293,-854.980,-1000.000
1742470969.078,-832.520,-52.734,-8.301,-815.430
1742470969.082,516.113,29.785,500.488,559.082
1742470969.086,999.512,-7.812,76.660,999.512
1742470969.087,0.000,-138.672,-800.781,-115.723
1742470969.091,-1000.000,-156.738,-895.020,-1000.000
1742470969.095,-842.285,-53.711,-85.938,-817.871
1742470969.099,520.996,55.176,656.250,524.902
1742470969.103,999.512,14.648,331.543,999.512
1742470969.107,793.457,-53.711,-454.590,726.074
1742470969.111,-569.824,-120.117,-586.426,-675.293
1742470969.114,-1000.000,-107.422,-93.262,-1000.000
1742470969.118,102.539,16.602,286.621,259.766
1742470969.122,999.512,39.062,134.277,999.512
1742470969.126,750.488,-69.824,-592.285,666.016
1742470969.130,-758.301,-162.109,-987.793,-817.871
1742470969.132,-1000.000,-65.918,-289.551,-996.094
1742470969.136,456.543,82.520,500.488,500.488
1742470969.140,999.512,63.477,391.113,999.512
1742470969.144,834.961,-40.527,-251.465,819.336
1742470969.148,-623.535,-181.641,-936.035,-649.414
1742470969.152,-1000.000,-63.477,-348.145,-1000.000
1742470969.156,489.746,104.004,774.902,519.043
1742470969.159,999.512,38.574,462.402,999.512
1742470969.163,544.922,-92.773,-670.898,519.531
1742470969.167,-776.367,-141.602,-1000.000,-801.270
1742470969.171,-1000.000,-79.102,-682.129,-1000.000
1742470969.175,-269.043,42.480,115.723,-83.496
1742470969.132,-1000.000,-65.918,-289.551,-996.094
1742470969.136,456.543,82.520,500.488,500.488
1742470969.140,999.512,63.477,391.113,999.512
1742470969.144,834.961,-40.527,-251.465,819.336
1742470969.148,-623.535,-181.641,-936.035,-649.414
1742470969.152,-1000.000,-63.477,-348.145,-1000.000
1742470969.156,489.746,104.004,774.902,519.043
1742470969.159,999.512,38.574,462.402,999.512
1742470969.163,544.922,-92.773,-670.898,519.531
1742470969.167,-776.367,-141.602,-1000.000,-801.270
1742470969.171,-1000.000,-79.102,-682.129,-1000.000
1742470969.175,-269.043,42.480,115.723,-83.496
1742470969.179,999.512,92.773,441.895,999.512
1742470969.183,895.508,-6.348,-289.062,874.023
1742470969.187,-516.113,-128.906,-969.238,-530.273
1742470969.191,-1000.000,-86.426,-616.699,-1000.000
1742470969.195,-238.770,67.383,303.711,-60.059
1742470969.199,999.512,127.441,598.145,999.512
1742470969.203,837.402,-13.672,-237.793,819.336
1742470969.206,-569.824,-161.133,-984.375,-543.945
1742470969.210,-1000.000,-102.539,-918.945,-1000.000
1742470969.214,-816.895,8.301,-220.215,-758.789
1742470969.218,543.945,65.430,322.266,632.812
1742470969.222,999.512,9.277,-172.363,999.512
1742470969.179,999.512,92.773,441.895,999.512
1742470969.183,895.508,-6.348,-289.062,874.023
1742470969.187,-516.113,-128.906,-969.238,-530.273
1742470969.191,-1000.000,-86.426,-616.699,-1000.000
1742470969.195,-238.770,67.383,303.711,-60.059
1742470969.199,999.512,127.441,598.145,999.512
1742470969.203,837.402,-13.672,-237.793,819.336
1742470969.206,-569.824,-161.133,-984.375,-543.945
1742470969.210,-1000.000,-102.539,-918.945,-1000.000
1742470969.214,-816.895,8.301,-220.215,-758.789
1742470969.218,543.945,65.430,322.266,632.812
1742470969.222,999.512,9.277,-172.363,999.512
1742470969.222,-104.980,-116.699,-882.324,-209.473
1742470969.226,-1000.000,-114.258,-862.305,-1000.000
1742470969.230,-730.957,31.250,28.320,-651.367
1742470969.234,725.586,99.609,512.207,781.250
1742470969.238,999.512,-2.441,-339.844,999.512
1742470969.242,-273.438,-98.145,-990.723,-297.852
1742470969.246,-1000.000,-95.215,-948.242,-1000.000
1742470969.249,-901.855,-58.105,-634.277,-869.141
1742470969.253,331.055,60.059,48.340,409.668
1742470969.257,999.512,49.316,17.578,999.512
1742470969.261,617.676,-73.242,-833.496,465.332
1742470969.265,-879.883,-101.074,-1000.000,-945.801
1742470969.222,-104.980,-116.699,-882.324,-209.473
1742470969.226,-1000.000,-114.258,-862.305,-1000.000
1742470969.230,-730.957,31.250,28.320,-651.367
1742470969.234,725.586,99.609,512.207,781.250
1742470969.238,999.512,-2.441,-339.844,999.512
1742470969.242,-273.438,-98.145,-990.723,-297.852
1742470969.246,-1000.000,-95.215,-948.242,-1000.000
1742470969.249,-901.855,-58.105,-634.277,-869.141
1742470969.253,331.055,60.059,48.340,409.668
1742470969.257,999.512,49.316,17.578,999.512
1742470969.261,617.676,-73.242,-833.496,465.332
1742470969.265,-879.883,-101.074,-1000.000,-945.801
1742470969.327,999.512,145.020,43.945,999.512
1742470969.331,826.660,20.508,-699.707,784.668
1742470969.335,-601.074,-77.637,-1000.000,-598.633
1742470969.339,-1000.000,-13.184,-875.977,-1000.000
1742470969.343,-1000.000,17.578,-733.398,-956.543
1742470969.347,4.883,89.844,-818.848,224.609
1742470969.351,999.512,56.641,-957.031,999.512
1742470969.354,924.316,-12.207,-1000.000,907.227
1742470969.358,971.680,14.160,-997.559,985.352
1742470969.362,911.621,6.836,-693.848,908.203
1742470969.366,999.512,17.090,-694.824,999.512
1742470969.370,840.820,-9.766,-972.656,815.918
1742470969.327,999.512,145.020,43.945,999.512
1742470969.331,826.660,20.508,-699.707,784.668
1742470969.335,-601.074,-77.637,-1000.000,-598.633
1742470969.339,-1000.000,-13.184,-875.977,-1000.000
1742470969.343,-1000.000,17.578,-733.398,-956.543
1742470969.347,4.883,89.844,-818.848,224.609
1742470969.351,999.512,56.641,-957.031,999.512
1742470969.354,924.316,-12.207,-1000.000,907.227
1742470969.358,971.680,14.160,-997.559,985.352
1742470969.362,911.621,6.836,-693.848,908.203
1742470969.366,999.512,17.090,-694.824,999.512
1742470969.370,840.820,-9.766,-972.656,815.918
1742470969.372,-539.551,-100.586,-1000.000,-564.941
1742470969.376,-1000.000,-62.500,-976.562,-1000.000
1742470969.380,-795.410,25.391,-444.336,-730.469
1742470969.384,496.582,117.188,-86.426,569.336
1742470969.388,999.512,62.012,-715.332,999.512
1742470969.392,840.332,20.020,-1000.000,816.406
1742470969.396,-634.277,-62.988,-953.125,-677.734
1742470969.399,-1000.000,-37.598,-338.379,-963.379
1742470969.403,581.543,84.473,187.500,649.414
1742470969.407,999.512,32.227,-476.074,999.512
1742470969.411,217.285,-82.520,-1000.000,93.750
1742470969.415,-1000.000,-103.027,-1000.000,-1000.000
1742470969.417,-874.512,20.996,-637.695,-853.516
1742470969.421,541.504,117.676,31.250,539.551
1742470969.425,999.512,69.824,-211.426,999.512
1742470969.429,864.258,21.484,-646.484,860.352
1742470969.433,-597.656,-124.023,-948.242,-605.957
1742470969.437,-997.559,-31.738,-474.609,-995.117
1742470969.441,568.848,145.996,471.680,573.242
1742470969.444,999.512,91.797,375.977,999.512
1742470969.448,694.336,-39.551,-597.656,671.875
1742470969.452,-805.664,-134.766,-997.559,-819.824
1742470969.456,-970.703,-18.555,-21.973,-953.613
1742470969.460,603.516,116.211,917.480,609.863
1742470969.417,-874.512,20.996,-637.695,-853.516
1742470969.421,541.504,117.676,31.250,539.551
1742470969.425,999.512,69.824,-211.426,999.512
1742470969.429,864.258,21.484,-646.484,860.352
1742470969.433,-597.656,-124.023,-948.242,-605.957
1742470969.437,-997.559,-31.738,-474.609,-995.117
1742470969.441,568.848,145.996,471.680,573.242
1742470969.444,999.512,91.797,375.977,999.512
1742470969.448,694.336,-39.551,-597.656,671.875
1742470969.452,-805.664,-134.766,-997.559,-819.824
1742470969.456,-970.703,-18.555,-21.973,-953.613
1742470969.460,603.516,116.211,917.480,609.863
1742470969.463,999.512,46.387,974.609,999.512
1742470969.467,955.566,-35.645,477.051,941.406
1742470969.471,-154.785,-128.418,248.047,-250.488
1742470969.475,-1000.000,-112.793,829.102,-1000.000
1742470969.479,-214.355,55.664,999.512,109.863
1742470969.483,984.375,97.168,942.383,999.512
1742470969.487,965.820,-5.371,915.527,924.805
1742470969.490,933.105,-33.691,892.090,956.543
1742470969.494,991.699,-20.020,968.262,986.816
1742470969.498,906.738,-9.277,948.242,907.227
1742470969.502,999.512,6.348,997.070,999.512
1742470969.506,828.125,-63.965,913.574,822.754
1742470969.463,999.512,46.387,974.609,999.512
1742470969.467,955.566,-35.645,477.051,941.406
1742470969.471,-154.785,-128.418,248.047,-250.488
1742470969.475,-1000.000,-112.793,829.102,-1000.000
1742470969.479,-214.355,55.664,999.512,109.863
1742470969.483,984.375,97.168,942.383,999.512
1742470969.487,965.820,-5.371,915.527,924.805
1742470969.490,933.105,-33.691,892.090,956.543
1742470969.494,991.699,-20.020,968.262,986.816
1742470969.498,906.738,-9.277,948.242,907.227
1742470969.502,999.512,6.348,997.070,999.512
1742470969.506,828.125,-63.965,913.574,822.754
1742470969.507,-586.426,-158.203,542.480,-571.777
1742470969.511,-1000.000,-103.027,812.988,-1000.000
1742470969.515,-957.031,-30.273,999.512,-865.234
1742470969.519,282.227,83.496,949.707,466.309
1742470969.523,999.512,22.949,956.055,999.512
1742470969.527,896.973,-30.762,900.391,893.066
1742470969.531,988.770,-9.277,961.914,996.582
1742470969.534,908.203,-45.898,941.406,909.180
1742470969.538,999.512,-31.738,999.512,999.512
1742470969.542,854.004,-65.430,890.137,847.168
1742470969.546,-588.379,-177.734,174.316,-567.383
1742470969.550,-1000.000,-91.797,500.977,-1000.000
1742470969.555,-1000.000,0.000,999.512,-942.871
1742470969.559,-184.082,54.688,950.684,157.227
1742470969.563,999.512,46.387,894.043,999.512
1742470969.567,726.074,-53.223,369.629,599.121
1742470969.571,-844.727,-127.441,268.066,-885.742
1742470969.575,-980.469,-17.090,847.656,-945.312
1742470969.579,514.160,103.516,999.512,551.270
1742470969.582,999.512,28.809,917.480,999.512
1742470969.586,584.961,-87.402,295.898,502.441
1742470969.590,-808.594,-139.648,0.977,-872.070
1742470969.594,-1000.000,-83.008,667.969,-1000.000
1742470969.598,193.359,45.898,999.512,325.195
1742470969.555,-1000.000,0.000,999.512,-942.871
1742470969.559,-184.082,54.688,950.684,157.227
1742470969.563,999.512,46.387,894.043,999.512
1742470969.567,726.074,-53.223,369.629,599.121
1742470969.571,-844.727,-127.441,268.066,-885.742
1742470969.575,-980.469,-17.090,847.656,-945.312
1742470969.579,514.160,103.516,999.512,551.270
1742470969.582,999.512,28.809,917.480,999.512
1742470969.586,584.961,-87.402,295.898,502.441
1742470969.590,-808.594,-139.648,0.977,-872.070
1742470969.594,-1000.000,-83.008,667.969,-1000.000
1742470969.598,193.359,45.898,999.512,325.195
1742470969.597,999.512,49.805,920.410,999.512
1742470969.601,802.246,-74.707,262.695,734.375
1742470969.605,-635.254,-153.320,-199.707,-717.773
1742470969.609,-1000.000,-69.336,555.664,-1000.000
1742470969.613,298.828,58.594,999.512,395.020
1742470969.617,999.512,58.105,930.664,999.512
1742470969.621,689.453,-65.918,199.707,629.883
1742470969.624,-664.551,-159.668,-499.512,-728.516
1742470969.628,-1000.000,-87.402,160.156,-1000.000
1742470969.632,-183.594,68.848,907.715,-46.875
1742470969.636,999.512,82.520,841.797,999.512
1742470969.640,828.125,-39.062,170.898,796.875
1742470969.597,999.512,49.805,920.410,999.512
1742470969.601,802.246,-74.707,262.695,734.375
1742470969.605,-635.254,-153.320,-199.707,-717.773
1742470969.609,-1000.000,-69.336,555.664,-1000.000
1742470969.613,298.828,58.594,999.512,395.020
1742470969.617,999.512,58.105,930.664,999.512
1742470969.621,689.453,-65.918,199.707,629.883
1742470969.624,-664.551,-159.668,-499.512,-728.516
1742470969.628,-1000.000,-87.402,160.156,-1000.000
1742470969.632,-183.594,68.848,907.715,-46.875
1742470969.636,999.512,82.520,841.797,999.512
1742470969.640,828.125,-39.062,170.898,796.875
1742470969.644,-550.781,-141.602,-483.887,-575.684
1742470969.648,-1000.000,-90.332,-90.332,-1000.000
1742470969.652,-621.094,17.090,699.707,-455.566
1742470969.656,848.633,55.176,809.570,921.875
1742470969.660,837.402,-29.785,181.641,809.082
1742470969.664,-603.516,-143.066,-449.219,-614.746
1742470969.668,-1000.000,-116.699,-160.645,-1000.000
1742470969.671,-312.988,28.320,774.902,-186.523
1742470969.675,999.512,56.152,962.891,999.512
1742470969.679,848.145,-55.176,215.820,831.055
1742470969.683,-576.660,-174.805,-609.863,-565.430
1742470969.687,-1000.000,-118.164,-306.641,-1000.000
1742470969.644,-550.781,-141.602,-483.887,-575.684
1742470969.648,-1000.000,-90.332,-90.332,-1000.000
1742470969.652,-621.094,17.090,699.707,-455.566
1742470969.656,848.633,55.176,809.570,921.875
1742470969.660,837.402,-29.785,181.641,809.082
1742470969.664,-603.516,-143.066,-449.219,-614.746
1742470969.668,-1000.000,-116.699,-160.645,-1000.000
1742470969.671,-312.988,28.320,774.902,-186.523
1742470969.675,999.512,56.152,962.891,999.512
1742470969.679,848.145,-55.176,215.820,831.055
1742470969.683,-576.660,-174.805,-609.863,-565.430
1742470969.687,-1000.000,-118.164,-306.641,-1000.000
1742470969.703,-799.805,-15.625,526.855,-786.133
1742470969.707,474.609,56.641,849.121,511.230
1742470969.711,999.512,50.293,524.902,999.512
1742470969.715,605.957,-44.434,-83.008,406.738
1742470969.719,-882.812,-157.227,-350.586,-968.262
1742470969.723,-955.566,-41.016,420.410,-928.223
1742470969.727,565.918,82.520,929.688,581.055
1742470969.730,999.512,3.906,418.457,999.512
1742470969.734,239.258,-121.094,-262.695,19.531
1742470969.738,-988.770,-165.527,-476.562,-1000.000
1742470969.742,-1000.000,-77.148,176.758,-973.145
1742470969.746,233.398,48.340,810.547,307.129
1742470969.703,-799.805,-15.625,526.855,-786.133
1742470969.707,474.609,56.641,849.121,511.230
1742470969.711,999.512,50.293,524.902,999.512
1742470969.715,605.957,-44.434,-83.008,406.738
1742470969.719,-882.812,-157.227,-350.586,-968.262
1742470969.723,-955.566,-41.016,420.410,-928.223
1742470969.727,565.918,82.520,929.688,581.055
1742470969.730,999.512,3.906,418.457,999.512
1742470969.734,239.258,-121.094,-262.695,19.531
1742470969.738,-988.770,-165.527,-476.562,-1000.000
1742470969.742,-1000.000,-77.148,176.758,-973.145
1742470969.746,233.398,48.340,810.547,307.129
1742470969.747,999.512,27.832,634.766,999.512
1742470969.751,532.715,-118.164,-257.812,344.238
1742470969.755,-899.902,-164.551,-674.805,-979.492
1742470969.759,-1000.000,-43.457,108.887,-978.027
1742470969.763,369.141,104.004,877.930,399.902
1742470969.767,999.512,100.586,877.441,999.512
1742470969.771,609.863,-53.223,-42.969,489.258
1742470969.774,-699.707,-115.723,-561.035,-776.855
1742470969.778,-1000.000,-55.664,21.973,-1000.000
1742470969.782,-742.188,-8.301,473.145,-621.582
1742470969.786,762.695,68.848,462.891,850.586
1742470969.790,927.734,11.719,-69.336,866.211
1742470969.747,999.512,27.832,634.766,999.512
1742470969.751,532.715,-118.164,-257.812,344.238
1742470969.755,-899.902,-164.551,-674.805,-979.492
1742470969.759,-1000.000,-43.457,108.887,-978.027
1742470969.763,369.141,104.004,877.930,399.902
1742470969.767,999.512,100.586,877.441,999.512
1742470969.771,609.863,-53.223,-42.969,489.258
1742470969.774,-699.707,-115.723,-561.035,-776.855
1742470969.778,-1000.000,-55.664,21.973,-1000.000
1742470969.782,-742.188,-8.301,473.145,-621.582
1742470969.786,762.695,68.848,462.891,850.586
1742470969.790,927.734,11.719,-69.336,866.211
1742470969.792,-597.168,-110.840,-688.965,-632.812
1742470969.796,-1000.000,-68.359,-248.047,-1000.000
1742470969.800,-733.887,20.020,490.234,-687.012
1742470969.804,765.625,113.770,772.461,799.316
1742470969.808,935.547,-7.812,-22.949,912.598
1742470969.812,-630.859,-106.934,-671.387,-631.348
1742470969.816,-1000.000,-46.875,-127.441,-1000.000
1742470969.819,-1000.000,-46.387,204.590,-955.566
1742470969.823,297.852,65.430,155.762,419.434
1742470969.827,999.512,41.016,-247.070,999.512
1742470969.831,-446.289,-150.879,-886.719,-525.879
1742470969.835,-1000.000,-103.027,-503.906,-1000.000
1742470969.792,-597.168,-110.840,-688.965,-632.812
1742470969.796,-1000.000,-68.359,-248.047,-1000.000
1742470969.800,-733.887,20.020,490.234,-687.012
1742470969.804,765.625,113.770,772.461,799.316
1742470969.808,935.547,-7.812,-22.949,912.598
