timestamps,TP9,AF7,AF8,TP10
1742550827.530,303.711,256.836,-72.754,364.746
1742550827.534,-1000.000,-1000.000,-122.070,-999.512
1742550827.538,-864.258,-434.570,-1.953,-974.121
1742550827.542,508.789,935.547,24.902,375.488
1742550827.546,999.512,960.449,-117.188,999.512
1742550827.550,837.402,407.227,-117.676,914.551
1742550827.554,-441.895,-704.102,-45.410,-299.805
1742550827.557,-1000.000,-1000.000,-7.812,-1000.000
1742550827.561,-1000.000,-1000.000,-13.184,-1000.000
1742550827.565,-245.117,-200.195,-21.973,-225.586
1742550827.569,999.512,999.512,-45.898,979.004
1742550827.573,999.512,625.977,-44.922,999.512
1742550830.061,-1000.000,-1000.000,97.168,-1000.000
1742550830.065,-1000.000,-916.016,143.555,-1000.000
1742550830.069,-144.043,180.176,227.539,-207.520
1742550830.073,999.512,999.512,164.551,999.512
1742550830.077,217.285,-128.418,-1.953,231.445
1742550830.081,-1000.000,-1000.000,100.098,-1000.000
1742550830.085,-257.324,318.359,238.770,-183.105
1742550830.088,999.512,999.512,198.730,999.512
1742550830.092,186.523,-57.129,79.590,304.199
1742550830.096,-1000.000,-1000.000,50.781,-989.258
1742550830.100,-1000.000,-546.875,141.602,-1000.000
1742550830.104,88.379,736.328,247.070,-154.297
1742550830.195,-1000.000,-791.016,-105.957,-1000.000
1742550830.199,-38.574,414.551,-59.570,-147.949
1742550830.203,999.512,999.512,-115.234,999.512
1742550830.207,547.363,284.180,-217.773,713.379
1742550830.211,-803.711,-1000.000,-259.766,-637.695
1742550830.215,-1000.000,-173.340,-160.156,-1000.000
1742550830.219,-190.430,999.512,-71.777,-214.355
1742550830.222,999.512,946.777,-104.492,999.512
1742550830.226,240.723,-189.941,-176.758,430.664
1742550830.230,-1000.000,-1000.000,-214.355,-918.457
1742550830.234,-1000.000,-1000.000,-184.082,-1000.000
1742550830.238,-256.348,-86.914,-77.148,-238.770
1742550831.050,-942.871,-537.109,21.973,-1000.000
1742550831.054,323.730,736.328,48.828,177.734
1742550831.058,999.512,999.512,10.254,999.512
1742550831.062,261.719,164.551,-59.570,347.168
1742550831.066,-1000.000,-1000.000,-80.078,-957.031
1742550831.070,-1000.000,-283.203,-4.395,-1000.000
1742550831.074,231.445,999.512,73.730,60.059
1742550831.077,999.512,521.484,-8.301,999.512
1742550831.081,-51.270,-815.430,-167.480,152.344
1742550831.085,-1000.000,-1000.000,-155.273,-1000.000
1742550831.089,-371.582,-208.008,12.695,-589.844
1742550831.093,905.273,999.512,67.383,781.250
1742550831.185,999.512,999.512,34.180,999.512
1742550831.189,284.668,197.754,-3.418,548.340
1742550831.193,-1000.000,-1000.000,-73.242,-738.281
1742550831.197,-735.352,-251.953,-43.457,-1000.000
1742550831.201,694.336,999.512,-8.301,-156.738
1742550831.205,999.512,680.664,-2.441,999.512
1742550831.209,875.977,-678.223,39.062,902.832
1742550831.212,999.512,116.699,-5.371,999.512
1742550831.216,-56.641,-41.504,-161.133,71.777
1742550831.220,-1000.000,-1000.000,-128.418,-1000.000
1742550831.224,-765.625,-389.648,8.301,-972.168
1742550831.228,524.414,868.164,55.664,214.844
1742550831.470,999.512,967.773,20.020,999.512
1742550831.474,193.359,-71.289,6.348,506.348
1742550831.478,-1000.000,-1000.000,-64.453,-775.391
1742550831.482,-989.258,-486.816,-94.238,-1000.000
1742550831.486,288.574,829.102,-43.945,-138.672
1742550831.490,999.512,999.512,-10.742,969.727
1742550831.494,999.512,741.211,-7.324,999.512
1742550831.497,-76.172,-505.371,-82.031,146.484
1742550831.501,-1000.000,-1000.000,-149.414,-1000.000
1742550831.505,-1000.000,-980.957,-107.910,-1000.000
1742550831.509,-223.633,6.836,-4.395,-237.793
1742550831.513,997.559,999.512,18.555,962.402
1742550832.595,904.297,999.512,75.684,683.594
1742550832.599,999.512,613.281,2.930,999.512
1742550832.603,38.086,-682.129,-77.637,148.926
1742550832.607,-1000.000,-1000.000,-90.820,-1000.000
1742550832.611,-801.270,-496.582,-9.766,-987.793
1742550832.615,489.746,775.391,112.793,233.887
1742550832.619,999.512,999.512,67.871,999.512
1742550832.622,520.996,297.852,-54.199,677.734
1742550832.626,-761.719,-920.410,-140.625,-586.914
1742550832.630,-1000.000,-1000.000,-109.375,-1000.000
1742550832.634,-355.469,-252.930,9.766,-455.566
1742550832.638,926.758,999.512,39.062,857.910
1742550834.320,999.512,999.512,-37.109,999.512
1742550834.324,335.449,182.617,-95.215,454.590
1742550834.328,-1000.000,-1000.000,-55.664,-1000.000
1742550834.332,-750.977,-368.652,57.129,-887.695
1742550834.336,638.672,999.512,32.227,477.539
1742550834.340,999.512,920.410,-25.391,999.512
1742550834.344,354.980,-219.238,-34.668,490.234
1742550834.347,-912.109,-1000.000,-45.898,-807.129
1742550834.351,-1000.000,-930.176,-0.488,-1000.000
1742550834.355,-132.324,280.273,3.906,-202.637
1742550834.359,999.512,999.512,-80.566,999.512
1742550834.363,336.914,58.105,-96.191,459.961
1742550835.505,-944.336,-1000.000,-32.227,-766.602
1742550835.509,-1000.000,-1000.000,-27.344,-1000.000
1742550835.513,-187.988,-125.977,-32.227,-257.812
1742550835.517,980.469,999.512,-38.086,913.086
1742550835.521,999.512,685.547,-60.547,999.512
1742550835.525,-6.348,-864.258,-42.969,386.230
1742550835.529,-1000.000,-698.242,25.391,-947.266
1742550835.532,-954.102,899.414,-9.277,-1000.000
1742550835.536,-938.477,-133.789,-128.418,-894.043
1742550835.540,-1000.000,-1000.000,-84.473,-1000.000
1742550835.544,-46.387,157.715,12.695,-193.359
1742550835.548,999.512,999.512,22.461,981.934
1742550838.549,-725.586,886.230,5.859,-790.039
1742550838.553,577.148,786.621,4.395,453.125
1742550838.557,999.512,999.512,-33.203,999.512
1742550838.561,173.340,-251.953,-112.305,183.594
1742550838.565,-1000.000,-1000.000,-77.637,-1000.000
1742550838.569,-233.398,341.797,75.684,-275.391
1742550838.573,999.512,957.520,26.855,999.512
1742550838.576,126.953,-588.379,-126.465,439.453
1742550838.580,-1000.000,-1000.000,-131.348,-895.020
1742550838.584,-1000.000,-1000.000,-94.238,-1000.000
1742550838.588,-196.289,-198.242,22.461,-256.836
1742550838.592,970.215,999.512,84.473,930.176
1742550839.195,999.512,833.008,-73.730,999.512
1742550839.199,103.027,-449.219,-61.523,206.543
1742550839.203,-1000.000,-1000.000,-15.625,-1000.000
1742550839.207,-251.465,27.344,14.648,-363.770
1742550839.211,999.512,999.512,-0.977,999.512
1742550839.215,853.516,504.395,-39.062,992.188
1742550839.219,-474.121,-807.617,-26.367,-295.410
1742550839.222,-1000.000,-1000.000,-7.812,-1000.000
1742550839.226,-876.465,-584.961,-39.551,-1000.000
1742550839.230,303.223,676.758,-28.320,10.742
1742550839.234,999.512,999.512,-28.809,999.512
1742550839.238,352.051,82.031,-4.883,795.410
1742550839.485,95.215,-576.172,-84.473,177.246
1742550839.489,-1000.000,-1000.000,-4.395,-1000.000
1742550839.493,-486.816,-79.590,38.574,-619.629
1742550839.497,838.379,967.285,-44.922,726.562
1742550839.501,999.512,999.512,-74.707,999.512
1742550839.505,418.945,302.246,-57.617,553.711
1742550839.509,-933.594,-993.652,-42.480,-824.707
1742550839.512,-970.703,-980.469,-43.945,-1000.000
1742550839.516,-1000.000,-1000.000,-91.309,-1000.000
1742550839.520,-251.465,7.324,-118.164,-725.098
1742550839.524,955.078,984.863,-99.609,665.039
1742550839.528,999.512,999.512,-19.043,999.512
1742550842.151,-956.055,-1000.000,-18.066,-850.586
1742550842.155,-1000.000,-1000.000,-24.902,-1000.000
1742550842.159,-295.898,-237.793,-58.105,-549.316
1742550842.163,935.059,999.512,-53.711,785.156
1742550842.167,999.512,488.770,-48.340,999.512
1742550842.171,70.801,-862.793,-13.184,929.688
1742550842.175,-1000.000,-1000.000,23.926,-140.137
1742550842.178,-975.586,67.871,-41.992,-1000.000
1742550842.182,-916.504,194.336,-152.344,-895.996
1742550842.186,-1000.000,-1000.000,-125.977,-1000.000
1742550842.190,-224.609,-210.449,1.465,-225.586
1742550842.194,993.652,999.512,45.410,978.516
1742550842.570,935.547,999.512,-57.129,772.461
1742550842.574,999.512,999.512,-73.730,999.512
1742550842.578,183.105,65.430,-132.324,215.820
1742550842.582,-1000.000,-1000.000,-124.512,-992.676
1742550842.586,-1000.000,-622.559,8.301,-1000.000
1742550842.590,180.664,757.812,94.727,-18.555
1742550842.594,999.512,999.512,67.383,999.512
1742550842.597,131.348,-216.309,-41.992,291.504
1742550842.601,-1000.000,-1000.000,-28.809,-950.684
1742550842.605,-1000.000,-1000.000,-4.395,-1000.000
1742550842.609,-214.355,-184.570,79.102,-286.133
1742550842.613,984.863,999.512,163.086,936.523
1742550843.050,975.098,558.594,67.871,999.512
1742550843.054,-264.648,-789.551,-20.020,-153.809
1742550843.058,-1000.000,-1000.000,60.547,-1000.000
1742550843.062,-189.941,-14.648,211.914,-199.219
1742550843.066,999.512,999.512,211.914,999.512
1742550843.070,964.355,621.582,55.664,999.512
1742550843.074,-265.625,-679.199,-18.066,-143.066
1742550843.077,-1000.000,-1000.000,-8.789,-1000.000
1742550843.081,-785.156,-376.953,25.391,-925.781
1742550843.085,483.398,877.441,32.227,278.809
1742550843.089,999.512,999.512,-49.316,999.512
1742550843.093,154.297,46.875,-129.883,153.320
1742550844.730,999.512,999.512,-122.070,999.512
1742550844.734,271.973,167.480,-98.633,383.301
1742550844.738,-970.703,-1000.000,-79.102,-900.391
1742550844.742,-1000.000,-750.488,-55.176,-1000.000
1742550844.746,3.906,701.660,-62.988,-143.555
1742550844.750,999.512,927.734,-114.258,999.512
1742550844.754,215.820,-525.879,-82.031,379.883
1742550844.757,-988.770,-1000.000,-45.410,-924.805
1742550844.761,-1000.000,-1000.000,-76.660,-1000.000
1742550844.765,-198.242,-168.945,-72.266,-247.070
1742550844.769,982.910,999.512,-81.543,938.477
1742550844.773,999.512,776.367,-64.941,999.512
1742550845.615,-867.676,-1000.000,0.000,-484.375
1742550845.619,-1000.000,-768.066,5.859,-1000.000
1742550845.623,-29.785,542.969,-0.977,-138.672
1742550845.627,999.512,999.512,-57.617,999.512
1742550845.631,572.754,254.883,-62.500,810.547
1742550845.635,-888.184,-1000.000,-31.250,-597.168
1742550845.639,-1000.000,-251.465,27.344,-1000.000
1742550845.642,352.051,999.512,-40.039,217.773
1742550845.646,999.512,303.223,-113.281,999.512
1742550845.650,150.391,-913.574,-113.770,143.066
1742550845.654,-1000.000,-1000.000,-66.895,-1000.000
1742550845.658,-820.801,-446.289,37.109,-968.750
1742550846.321,27.344,-877.441,-7.324,746.582
1742550846.325,-1000.000,-1000.000,-45.410,-541.016
1742550846.329,-948.730,-43.945,-55.664,-1000.000
1742550846.333,-917.969,949.219,-54.199,-884.766
1742550846.337,-1000.000,-641.602,-8.301,-1000.000
1742550846.341,-162.598,-189.453,80.078,-230.469
1742550846.345,999.512,999.512,51.758,999.512
1742550846.348,239.746,-44.434,-85.449,458.008
1742550846.352,-999.512,-1000.000,-112.305,-891.113
1742550846.356,-1000.000,-937.012,9.766,-1000.000
1742550846.360,-196.289,180.664,89.844,-193.848
1742550846.364,999.512,999.512,57.129,999.512
1742550848.435,999.512,778.809,-48.828,999.512
1742550848.439,93.750,-462.891,-153.320,178.711
1742550848.443,-1000.000,-1000.000,-140.137,-1000.000
1742550848.447,-438.965,-208.496,13.672,-631.348
1742550848.451,929.688,999.512,65.918,750.000
1742550848.455,999.512,520.996,-41.016,999.512
1742550848.459,-169.434,-900.879,-111.816,91.797
1742550848.462,-1000.000,-974.121,-96.680,-1000.000
1742550848.466,-1000.000,-1000.000,-102.051,-1000.000
1742550848.470,-660.156,-572.266,-65.430,-753.906
1742550848.474,701.660,792.969,-15.625,547.363
1742550848.478,999.512,999.512,-29.785,999.512
1742550848.945,999.512,999.512,47.852,999.512
1742550848.949,643.555,224.121,-19.531,999.512
1742550848.953,-617.188,-983.887,-86.426,-40.527
1742550848.957,-1000.000,-1000.000,-90.332,-1000.000
1742550848.961,-473.145,-79.590,-35.156,-957.031
1742550848.965,809.082,999.512,40.039,229.004
1742550848.969,999.512,725.586,49.316,999.512
1742550848.972,108.887,-552.246,-97.656,194.336
1742550848.976,-1000.000,-1000.000,-139.648,-1000.000
1742550848.980,-790.039,-352.539,-13.184,-1000.000
1742550848.984,520.996,902.832,55.664,94.238
1742550848.988,999.512,999.512,4.883,999.512
1742550849.470,-602.051,-1000.000,-77.148,-414.062
1742550849.474,-1000.000,-1000.000,-49.316,-1000.000
1742550849.478,-226.074,-152.832,-15.625,-241.211
1742550849.482,999.512,999.512,-55.176,999.512
1742550849.486,663.086,237.793,-151.855,799.316
1742550849.490,-966.797,-1000.000,-145.508,-769.531
1742550849.494,-684.570,-283.691,-3.418,-833.496
1742550849.497,896.973,999.512,111.328,708.008
1742550849.501,999.512,510.254,22.461,999.512
1742550849.505,-268.066,-832.520,-128.906,-22.461
1742550849.509,-1000.000,-1000.000,-98.145,-1000.000
1742550849.513,-556.641,-309.570,37.598,-785.645
1742550851.570,999.512,999.512,29.785,999.512
1742550851.574,253.418,187.012,-15.137,606.445
1742550851.578,-1000.000,-1000.000,-76.660,-751.953
1742550851.582,-986.816,-14.160,-47.852,-1000.000
1742550851.586,-925.293,537.598,-83.496,-895.508
1742550851.590,-1000.000,-1000.000,-48.340,-1000.000
1742550851.594,-49.316,14.648,11.719,-110.352
1742550851.597,999.512,999.512,-76.660,999.512
1742550851.601,269.531,-120.605,-147.949,401.367
1742550851.605,-1000.000,-1000.000,-126.465,-950.195
1742550851.609,-1000.000,-659.668,-22.461,-1000.000
1742550851.613,130.371,631.348,42.480,39.062
1742550852.515,523.926,142.578,-66.406,754.395
1742550852.519,-865.723,-1000.000,-48.340,-613.770
1742550852.523,-1000.000,-620.605,-9.766,-1000.000
1742550852.527,94.727,695.312,3.906,9.766
1742550852.531,999.512,999.512,-61.035,999.512
1742550852.535,555.176,326.660,-104.004,711.426
1742550852.539,-769.043,-915.527,-34.180,-588.867
1742550852.542,-1000.000,-1000.000,-0.488,-1000.000
1742550852.546,-242.188,-215.332,6.348,-334.961
1742550852.550,995.605,999.512,-27.344,925.781
1742550852.554,984.375,316.406,-86.426,999.512
1742550852.558,-211.426,-960.449,-35.156,-51.758
1742550853.491,-959.961,-1000.000,-87.891,-930.176
1742550853.495,-1000.000,-1000.000,-23.926,-1000.000
1742550853.499,-258.301,-91.309,64.453,-247.070
1742550853.503,999.512,999.512,-11.719,999.512
1742550853.507,550.293,213.379,-138.672,664.551
1742550853.511,-1000.000,-1000.000,-118.652,-957.520
1742550853.515,-566.406,-240.723,-16.602,-654.785
1742550853.518,999.512,999.512,18.555,979.004
1742550853.522,593.750,143.066,-110.352,871.094
1742550853.526,-836.914,-1000.000,-161.133,-524.902
1742550853.530,-1000.000,-789.062,-90.332,-1000.000
1742550853.534,-130.859,469.727,20.996,-185.547
1742550854.345,-735.840,-980.469,-51.758,-547.852
1742550854.349,-1000.000,-1000.000,-29.785,-1000.000
1742550854.353,-194.824,-182.617,-11.719,-264.160
1742550854.357,999.512,999.512,-11.230,959.473
1742550854.361,932.617,323.730,-82.520,999.512
1742550854.365,-298.340,-947.266,-26.855,-72.754
1742550854.369,-1000.000,-1000.000,-10.254,-1000.000
1742550854.372,-719.238,-424.316,-72.754,-928.711
1742550854.376,602.539,999.512,-82.031,298.340
1742550854.380,999.512,406.738,-71.289,999.512
1742550854.384,26.855,-961.426,-38.086,139.160
1742550854.388,-1000.000,-1000.000,-0.977,-1000.000
1742550857.106,999.512,684.082,2.441,999.512
1742550857.110,160.156,-532.715,-23.438,312.012
1742550857.114,-1000.000,-1000.000,-61.523,-954.590
1742550857.118,-553.223,-182.617,-26.367,-1000.000
1742550857.122,833.984,999.512,-18.066,-84.961
1742550857.126,986.816,619.141,4.883,977.051
1742550857.130,972.168,-783.691,23.438,999.512
1742550857.133,-46.387,-999.023,-23.926,217.773
1742550857.137,-1000.000,-1000.000,-90.332,-996.094
1742550857.141,-693.359,-271.484,-65.918,-1000.000
1742550857.145,608.887,951.172,-15.137,-111.328
1742550857.149,999.512,999.512,21.973,999.512
1742550864.785,-0.488,-0.488,-0.488,-0.488
1742550864.789,0.000,11.719,1.465,-0.488
1742550864.793,28.320,-41.992,-5.371,39.551
1742550864.797,-125.977,60.059,9.277,-110.352
1742550864.801,513.184,-141.113,-13.184,414.062
1742550864.805,185.059,-854.980,-41.504,874.512
1742550864.809,-1000.000,-1000.000,-15.625,-389.160
1742550864.812,-1000.000,-612.305,-63.965,-1000.000
1742550864.816,-19.043,723.633,-51.270,-367.188
1742550864.820,991.211,966.309,19.043,867.188
1742550864.824,999.512,999.512,46.387,999.512
1742550864.828,445.801,289.551,-31.250,703.613
1742550864.830,-884.766,-1000.000,-133.301,-577.637
1742550864.834,-1000.000,-883.301,-84.473,-1000.000
1742550864.838,-217.773,369.629,39.062,-288.086
1742550864.842,999.512,999.512,49.316,945.801
1742550864.846,759.277,236.816,-41.504,999.512
1742550864.850,-549.316,-954.590,-57.617,-41.992
1742550864.854,-1000.000,-1000.000,-73.730,-1000.000
1742550864.857,-535.645,-308.594,-9.766,-739.746
1742550864.861,765.625,939.453,36.133,569.824
1742550864.865,999.512,999.512,-23.438,999.512
1742550864.869,158.691,50.781,-87.891,183.105
1742550864.873,-1000.000,-1000.000,-109.375,-1000.000
1742550864.830,-884.766,-1000.000,-133.301,-577.637
1742550864.834,-1000.000,-883.301,-84.473,-1000.000
1742550864.838,-217.773,369.629,39.062,-288.086
1742550864.842,999.512,999.512,49.316,945.801
1742550864.846,759.277,236.816,-41.504,999.512
1742550864.850,-549.316,-954.590,-57.617,-41.992
1742550864.854,-1000.000,-1000.000,-73.730,-1000.000
1742550864.857,-535.645,-308.594,-9.766,-739.746
1742550864.861,765.625,939.453,36.133,569.824
1742550864.865,999.512,999.512,-23.438,999.512
1742550864.869,158.691,50.781,-87.891,183.105
1742550864.873,-1000.000,-1000.000,-109.375,-1000.000
1742550864.876,-1000.000,-464.844,-11.719,-1000.000
1742550864.880,159.180,839.844,29.785,-48.828
1742550864.884,999.512,999.512,-4.395,999.512
1742550864.888,376.465,131.348,-78.125,505.371
1742550864.892,-1000.000,-1000.000,-148.438,-935.059
1742550864.896,-693.359,-202.148,-5.371,-1000.000
1742550864.900,734.863,999.512,118.652,317.383
1742550864.903,999.512,855.957,21.973,999.512
1742550864.907,21.484,-588.867,-148.438,123.535
1742550864.911,-1000.000,-1000.000,-120.605,-1000.000
1742550864.915,-969.238,687.012,20.996,-984.375
1742550864.919,-919.922,385.254,21.484,-910.156
1742550864.876,-1000.000,-464.844,-11.719,-1000.000
1742550864.880,159.180,839.844,29.785,-48.828
1742550864.884,999.512,999.512,-4.395,999.512
1742550864.888,376.465,131.348,-78.125,505.371
1742550864.892,-1000.000,-1000.000,-148.438,-935.059
1742550864.896,-693.359,-202.148,-5.371,-1000.000
1742550864.900,734.863,999.512,118.652,317.383
1742550864.903,999.512,855.957,21.973,999.512
1742550864.907,21.484,-588.867,-148.438,123.535
1742550864.911,-1000.000,-1000.000,-120.605,-1000.000
1742550864.915,-969.238,687.012,20.996,-984.375
1742550864.919,-919.922,385.254,21.484,-910.156
1742550864.935,-1000.000,-1000.000,-19.531,-1000.000
1742550864.939,-202.148,-209.473,-24.414,-209.473
1742550864.943,981.934,999.512,-21.973,982.422
1742550864.947,999.512,695.801,-32.227,999.512
1742550864.951,134.277,-679.688,2.930,673.828
1742550864.955,-1000.000,-1000.000,54.199,-658.691
1742550864.959,-980.957,462.891,23.438,-1000.000
1742550864.962,-912.598,216.797,-85.938,-879.395
1742550864.966,-1000.000,-1000.000,-77.637,-1000.000
1742550864.970,-220.215,-141.602,11.719,-230.469
1742550864.974,978.027,999.512,41.992,971.680
1742550864.978,999.512,838.379,-28.809,999.512
1742550864.935,-1000.000,-1000.000,-19.531,-1000.000
1742550864.939,-202.148,-209.473,-24.414,-209.473
1742550864.943,981.934,999.512,-21.973,982.422
1742550864.947,999.512,695.801,-32.227,999.512
1742550864.951,134.277,-679.688,2.930,673.828
1742550864.955,-1000.000,-1000.000,54.199,-658.691
1742550864.959,-980.957,462.891,23.438,-1000.000
1742550864.962,-912.598,216.797,-85.938,-879.395
1742550864.966,-1000.000,-1000.000,-77.637,-1000.000
1742550864.970,-220.215,-141.602,11.719,-230.469
1742550864.974,978.027,999.512,41.992,971.680
1742550864.978,999.512,838.379,-28.809,999.512
1742550864.980,156.738,-374.512,-104.980,179.688
1742550864.984,-1000.000,-1000.000,-82.031,-1000.000
1742550864.988,-1000.000,-579.102,20.996,-1000.000
1742550864.992,229.980,845.703,47.363,128.906
1742550864.996,999.512,729.980,-20.996,999.512
1742550865.000,888.184,524.414,-41.504,871.094
1742550865.004,999.512,948.730,-12.695,999.512
1742550865.007,-203.125,-362.305,20.996,-28.320
1742550865.011,-1000.000,-1000.000,2.441,-1000.000
1742550865.015,-1000.000,-1000.000,-73.242,-1000.000
1742550865.019,-238.281,-147.461,-56.641,-701.660
1742550865.023,966.797,999.512,-26.855,679.199
1742550864.980,156.738,-374.512,-104.980,179.688
1742550864.984,-1000.000,-1000.000,-82.031,-1000.000
1742550864.988,-1000.000,-579.102,20.996,-1000.000
1742550864.992,229.980,845.703,47.363,128.906
1742550864.996,999.512,729.980,-20.996,999.512
1742550865.000,888.184,524.414,-41.504,871.094
1742550865.004,999.512,948.730,-12.695,999.512
1742550865.007,-203.125,-362.305,20.996,-28.320
1742550865.011,-1000.000,-1000.000,2.441,-1000.000
1742550865.015,-1000.000,-1000.000,-73.242,-1000.000
1742550865.019,-238.281,-147.461,-56.641,-701.660
1742550865.023,966.797,999.512,-26.855,679.199
1742550865.027,999.512,242.676,-34.180,993.164
1742550865.031,437.012,-1000.000,-8.301,999.512
1742550865.035,-870.117,-1000.000,12.695,83.008
1742550865.039,-979.492,-612.305,-22.949,-1000.000
1742550865.043,-1000.000,534.180,-86.914,-1000.000
1742550865.047,-211.914,981.445,35.156,-409.668
1742550865.051,971.191,989.258,93.262,865.723
1742550865.054,999.512,-152.344,-8.301,999.512
1742550865.058,313.477,-1000.000,-90.332,398.438
1742550865.062,-1000.000,-1000.000,-106.445,-901.855
1742550865.066,-1000.000,-521.973,-8.301,-1000.000
1742550865.070,170.410,999.512,61.523,-55.176
1742550865.027,999.512,242.676,-34.180,993.164
1742550865.031,437.012,-1000.000,-8.301,999.512
1742550865.035,-870.117,-1000.000,12.695,83.008
1742550865.039,-979.492,-612.305,-22.949,-1000.000
1742550865.043,-1000.000,534.180,-86.914,-1000.000
1742550865.047,-211.914,981.445,35.156,-409.668
1742550865.051,971.191,989.258,93.262,865.723
1742550865.054,999.512,-152.344,-8.301,999.512
1742550865.058,313.477,-1000.000,-90.332,398.438
1742550865.062,-1000.000,-1000.000,-106.445,-901.855
1742550865.066,-1000.000,-521.973,-8.301,-1000.000
1742550865.070,170.410,999.512,61.523,-55.176
1742550865.536,-5.371,-648.438,-98.145,90.332
1742550865.540,-1000.000,-1000.000,-42.480,-1000.000
1742550865.544,-450.684,-236.328,75.684,-560.059
1742550865.548,907.227,999.512,67.383,810.547
1742550865.552,999.512,479.004,-20.508,999.512
1742550865.556,-74.219,-1000.000,-56.152,104.004
1742550865.560,-1000.000,-804.688,-18.555,-1000.000
1742550865.563,-254.395,545.898,26.367,-371.094
1742550865.567,999.512,999.512,10.742,985.840
1742550865.571,793.945,180.664,-62.988,999.512
1742550865.575,-566.406,-982.910,-106.934,-242.676
1742550865.579,-1000.000,-1000.000,-70.801,-1000.000
1742550865.027,999.512,242.676,-34.180,993.164
1742550865.031,437.012,-1000.000,-8.301,999.512
1742550865.035,-870.117,-1000.000,12.695,83.008
1742550865.039,-979.492,-612.305,-22.949,-1000.000
1742550865.043,-1000.000,534.180,-86.914,-1000.000
1742550865.047,-211.914,981.445,35.156,-409.668
1742550865.051,971.191,989.258,93.262,865.723
1742550865.054,999.512,-152.344,-8.301,999.512
1742550865.058,313.477,-1000.000,-90.332,398.438
1742550865.062,-1000.000,-1000.000,-106.445,-901.855
1742550865.066,-1000.000,-521.973,-8.301,-1000.000
1742550865.070,170.410,999.512,61.523,-55.176
1742550865.070,999.512,571.777,-3.418,999.512
1742550865.074,904.297,-860.840,-94.727,994.141
1742550865.078,-265.625,-1000.000,-92.773,-125.000
1742550865.082,-1000.000,-902.832,-64.453,-1000.000
1742550865.086,-160.156,228.027,32.227,-198.242
1742550865.090,974.121,999.512,78.125,968.750
1742550865.094,999.512,840.332,-47.363,999.512
1742550865.097,132.812,-283.691,-123.047,150.391
1742550865.101,-1000.000,-1000.000,-143.066,-1000.000
1742550865.105,-1000.000,-920.410,-90.332,-1000.000
1742550865.109,-256.348,176.270,-3.418,-257.324
1742550865.113,999.512,999.512,-33.203,999.512
1742550865.070,999.512,571.777,-3.418,999.512
1742550865.074,904.297,-860.840,-94.727,994.141
1742550865.078,-265.625,-1000.000,-92.773,-125.000
1742550865.082,-1000.000,-902.832,-64.453,-1000.000
1742550865.086,-160.156,228.027,32.227,-198.242
1742550865.090,974.121,999.512,78.125,968.750
1742550865.094,999.512,840.332,-47.363,999.512
1742550865.097,132.812,-283.691,-123.047,150.391
1742550865.101,-1000.000,-1000.000,-143.066,-1000.000
1742550865.105,-1000.000,-920.410,-90.332,-1000.000
1742550865.109,-256.348,176.270,-3.418,-257.324
1742550865.113,999.512,999.512,-33.203,999.512
1742550865.116,524.414,225.586,-119.629,631.836
1742550865.120,-860.352,-1000.000,-105.957,-746.094
1742550865.124,-1000.000,-1000.000,-32.227,-1000.000
1742550865.128,-142.090,295.898,11.719,-143.066
1742550865.132,956.055,831.543,-23.438,970.215
1742550865.136,999.512,813.965,-33.691,999.512
1742550865.140,605.957,515.137,-52.246,778.320
1742550865.143,-720.703,-841.309,-61.523,-540.527
1742550865.147,-1000.000,-1000.000,-36.621,-1000.000
1742550865.151,-611.816,-316.406,-49.316,-916.016
1742550865.155,661.621,923.340,-23.926,264.648
1742550865.159,999.512,999.512,-28.320,999.512
1742550865.116,524.414,225.586,-119.629,631.836
1742550865.120,-860.352,-1000.000,-105.957,-746.094
1742550865.124,-1000.000,-1000.000,-32.227,-1000.000
1742550865.128,-142.090,295.898,11.719,-143.066
1742550865.132,956.055,831.543,-23.438,970.215
1742550865.136,999.512,813.965,-33.691,999.512
1742550865.140,605.957,515.137,-52.246,778.320
1742550865.143,-720.703,-841.309,-61.523,-540.527
1742550865.147,-1000.000,-1000.000,-36.621,-1000.000
1742550865.151,-611.816,-316.406,-49.316,-916.016
1742550865.155,661.621,923.340,-23.926,264.648
1742550865.159,999.512,999.512,-28.320,999.512
1742550865.625,999.512,999.512,34.180,999.512
1742550865.629,223.145,117.188,-66.406,338.867
1742550865.633,-965.332,-1000.000,-132.324,-918.457
1742550865.637,-1000.000,-900.391,-28.320,-1000.000
1742550865.641,-139.648,334.473,34.180,-163.574
1742550865.645,976.562,999.512,41.992,965.820
1742550865.649,999.512,831.055,-20.508,999.512
1742550865.652,153.320,-312.500,-99.121,151.855
1742550865.656,-1000.000,-1000.000,-82.031,-993.652
1742550865.660,-1000.000,-1000.000,-36.621,-1000.000
1742550865.664,-310.547,-235.352,4.395,-404.297
1742550865.668,999.512,999.512,-29.297,952.148
1742550865.160,409.180,43.457,-2.930,901.367
1742550865.164,-850.098,-1000.000,-22.949,-293.945
1742550865.168,-1000.000,-802.246,-31.250,-1000.000
1742550865.172,-223.633,520.020,-33.691,-1000.000
1742550865.176,999.512,999.512,-57.617,-124.023
1742550865.180,896.484,870.605,56.152,974.609
1742550865.184,999.512,999.512,94.238,999.512
1742550865.187,188.965,11.230,-38.574,333.496
1742550865.191,-1000.000,-1000.000,-149.414,-923.828
1742550865.195,-1000.000,-1000.000,-127.441,-1000.000
1742550865.199,-238.770,1.465,-4.395,-312.988
1742550865.203,999.512,999.512,40.527,927.734
1742550865.160,409.180,43.457,-2.930,901.367
1742550865.164,-850.098,-1000.000,-22.949,-293.945
1742550865.168,-1000.000,-802.246,-31.250,-1000.000
1742550865.172,-223.633,520.020,-33.691,-1000.000
1742550865.176,999.512,999.512,-57.617,-124.023
1742550865.180,896.484,870.605,56.152,974.609
1742550865.184,999.512,999.512,94.238,999.512
1742550865.187,188.965,11.230,-38.574,333.496
1742550865.191,-1000.000,-1000.000,-149.414,-923.828
1742550865.195,-1000.000,-1000.000,-127.441,-1000.000
1742550865.199,-238.770,1.465,-4.395,-312.988
1742550865.203,999.512,999.512,40.527,927.734
1742550865.205,798.340,260.742,-22.461,999.512
1742550865.209,-507.324,-1000.000,-93.262,66.406
1742550865.213,-1000.000,-1000.000,-76.660,-1000.000
1742550865.217,-284.668,214.844,9.277,-819.336
1742550865.221,898.926,988.281,37.109,467.285
1742550865.225,999.512,999.512,72.754,999.512
1742550865.229,541.016,374.023,-19.043,694.824
1742550865.232,-765.137,-921.875,-168.945,-557.129
1742550865.236,-1000.000,-1000.000,-104.004,-1000.000
1742550865.240,-399.414,-251.465,22.949,-518.555
1742550865.244,870.117,999.512,64.453,777.832
1742550865.248,999.512,756.348,-34.180,999.512
1742550865.205,798.340,260.742,-22.461,999.512
1742550865.209,-507.324,-1000.000,-93.262,66.406
1742550865.213,-1000.000,-1000.000,-76.660,-1000.000
1742550865.217,-284.668,214.844,9.277,-819.336
1742550865.221,898.926,988.281,37.109,467.285
1742550865.225,999.512,999.512,72.754,999.512
1742550865.229,541.016,374.023,-19.043,694.824
1742550865.232,-765.137,-921.875,-168.945,-557.129
1742550865.236,-1000.000,-1000.000,-104.004,-1000.000
1742550865.240,-399.414,-251.465,22.949,-518.555
1742550865.244,870.117,999.512,64.453,777.832
1742550865.248,999.512,756.348,-34.180,999.512
1742550865.251,91.797,-514.160,-85.938,118.652
1742550865.255,-1000.000,-1000.000,-43.945,-1000.000
1742550865.259,-1000.000,-669.434,-17.578,-1000.000
1742550865.263,196.777,822.754,19.043,92.285
1742550865.267,999.512,663.574,-42.480,999.512
1742550865.271,864.258,24.414,-40.527,857.910
1742550865.275,999.512,956.055,8.789,999.512
1742550865.278,-22.949,-96.680,-50.781,130.371
1742550865.282,-1000.000,-1000.000,-54.199,-1000.000
1742550865.286,-1000.000,-1000.000,-59.570,-1000.000
1742550865.290,-296.387,-109.863,-85.938,-912.109
1742550865.294,999.512,999.512,-39.551,372.559
1742550865.251,91.797,-514.160,-85.938,118.652
1742550865.255,-1000.000,-1000.000,-43.945,-1000.000
1742550865.259,-1000.000,-669.434,-17.578,-1000.000
1742550865.263,196.777,822.754,19.043,92.285
1742550865.267,999.512,663.574,-42.480,999.512
1742550865.271,864.258,24.414,-40.527,857.910
1742550865.275,999.512,956.055,8.789,999.512
1742550865.278,-22.949,-96.680,-50.781,130.371
1742550865.282,-1000.000,-1000.000,-54.199,-1000.000
1742550865.286,-1000.000,-1000.000,-59.570,-1000.000
1742550865.290,-296.387,-109.863,-85.938,-912.109
1742550865.294,999.512,999.512,-39.551,372.559
1742550865.311,977.539,469.727,0.977,999.512
1742550865.315,880.371,-1000.000,10.254,863.770
1742550865.319,999.512,19.043,5.371,994.629
1742550865.323,847.656,981.934,-28.809,917.969
1742550865.327,-477.051,-784.668,-117.188,-359.375
1742550865.331,-1000.000,-503.418,-18.066,-1000.000
1742550865.335,-212.891,999.512,69.824,-215.332
1742550865.338,999.512,999.512,-33.203,999.512
1742550865.342,212.891,-17.578,-151.367,261.230
1742550865.346,-1000.000,-1000.000,-161.133,-1000.000
1742550865.350,-919.922,-459.473,-31.250,-1000.000
1742550865.354,351.074,952.148,41.992,83.008
1742550865.311,977.539,469.727,0.977,999.512
1742550865.315,880.371,-1000.000,10.254,863.770
1742550865.319,999.512,19.043,5.371,994.629
1742550865.323,847.656,981.934,-28.809,917.969
1742550865.327,-477.051,-784.668,-117.188,-359.375
1742550865.331,-1000.000,-503.418,-18.066,-1000.000
1742550865.335,-212.891,999.512,69.824,-215.332
1742550865.338,999.512,999.512,-33.203,999.512
1742550865.342,212.891,-17.578,-151.367,261.230
1742550865.346,-1000.000,-1000.000,-161.133,-1000.000
1742550865.350,-919.922,-459.473,-31.250,-1000.000
1742550865.354,351.074,952.148,41.992,83.008
1742550865.355,999.512,856.445,19.531,999.512
1742550865.359,261.230,-370.117,-67.383,445.312
1742550865.363,-974.609,-1000.000,-118.164,-870.117
1742550865.367,-1000.000,-726.562,-43.945,-1000.000
1742550865.371,32.227,570.312,71.289,-94.238
1742550865.375,999.512,999.512,83.984,981.934
1742550865.379,999.512,934.082,-14.648,999.512
1742550865.382,76.172,-179.688,-82.520,130.371
1742550865.386,-1000.000,-1000.000,-104.004,-1000.000
1742550865.390,-1000.000,-1000.000,-47.363,-1000.000
1742550865.394,-272.461,-28.809,39.062,-260.254
1742550865.398,999.512,999.512,-14.160,999.512
1742550865.355,999.512,856.445,19.531,999.512
1742550865.359,261.230,-370.117,-67.383,445.312
1742550865.363,-974.609,-1000.000,-118.164,-870.117
1742550865.367,-1000.000,-726.562,-43.945,-1000.000
1742550865.371,32.227,570.312,71.289,-94.238
1742550865.375,999.512,999.512,83.984,981.934
1742550865.379,999.512,934.082,-14.648,999.512
1742550865.382,76.172,-179.688,-82.520,130.371
1742550865.386,-1000.000,-1000.000,-104.004,-1000.000
1742550865.390,-1000.000,-1000.000,-47.363,-1000.000
1742550865.394,-272.461,-28.809,39.062,-260.254
1742550865.398,999.512,999.512,-14.160,999.512
1742550865.400,593.262,294.434,-129.395,686.523
1742550865.404,-849.609,-1000.000,-83.008,-727.539
1742550865.408,-1000.000,-684.082,40.039,-1000.000
1742550865.412,144.043,978.027,39.551,76.660
1742550865.416,999.512,381.836,-59.570,999.512
1742550865.420,868.652,-300.293,-44.434,862.793
1742550865.424,999.512,999.512,-5.371,999.512
1742550865.427,-1.465,-51.270,-42.480,135.254
1742550865.431,-1000.000,-1000.000,-33.691,-1000.000
1742550865.435,-1000.000,-980.469,-39.551,-1000.000
1742550865.439,-218.750,15.137,-37.109,-707.031
1742550865.443,993.652,999.512,-15.625,612.793
1742550865.400,593.262,294.434,-129.395,686.523
1742550865.404,-849.609,-1000.000,-83.008,-727.539
1742550865.408,-1000.000,-684.082,40.039,-1000.000
1742550865.412,144.043,978.027,39.551,76.660
1742550865.416,999.512,381.836,-59.570,999.512
1742550865.420,868.652,-300.293,-44.434,862.793
1742550865.424,999.512,999.512,-5.371,999.512
1742550865.427,-1.465,-51.270,-42.480,135.254
1742550865.431,-1000.000,-1000.000,-33.691,-1000.000
1742550865.435,-1000.000,-980.469,-39.551,-1000.000
1742550865.439,-218.750,15.137,-37.109,-707.031
1742550865.443,993.652,999.512,-15.625,612.793
1742550865.400,593.262,294.434,-129.395,686.523
1742550865.404,-849.609,-1000.000,-83.008,-727.539
1742550865.408,-1000.000,-684.082,40.039,-1000.000
1742550865.412,144.043,978.027,39.551,76.660
1742550865.416,999.512,381.836,-59.570,999.512
1742550865.420,868.652,-300.293,-44.434,862.793
1742550865.424,999.512,999.512,-5.371,999.512
1742550865.427,-1.465,-51.270,-42.480,135.254
1742550865.431,-1000.000,-1000.000,-33.691,-1000.000
1742550865.435,-1000.000,-980.469,-39.551,-1000.000
1742550865.439,-218.750,15.137,-37.109,-707.031
1742550865.443,993.652,999.512,-15.625,612.793
1742550865.445,999.512,317.871,-13.672,999.512
1742550865.449,-14.648,-986.816,13.672,853.027
1742550865.453,-1000.000,-989.746,-2.930,-269.531
1742550865.457,-1000.000,-1000.000,-91.797,-1000.000
1742550865.461,-219.238,73.242,-95.215,-840.820
1742550865.465,985.352,999.512,37.598,425.781
1742550865.469,968.262,999.512,74.219,999.512
1742550865.472,904.297,689.453,-12.695,980.957
1742550865.476,-299.316,-641.602,-176.758,-47.852
1742550865.480,-1000.000,-1000.000,-168.945,-1000.000
1742550865.484,-419.922,-210.449,10.742,-650.879
1742550865.488,852.539,999.512,36.133,657.715
1742550865.490,999.512,949.219,-23.438,999.512
1742550865.494,165.039,-144.531,-62.500,258.789
1742550865.498,-1000.000,-1000.000,-76.172,-950.195
1742550865.502,-1000.000,-720.215,2.441,-1000.000
1742550865.506,-28.320,531.250,53.223,-144.043
1742550865.510,999.512,999.512,74.707,999.512
1742550865.514,906.250,606.445,-11.719,982.910
1742550865.517,-305.664,-672.852,-125.488,-176.270
1742550865.521,-1000.000,-1000.000,-78.125,-1000.000
1742550865.525,-328.125,-206.543,62.988,-423.828
1742550865.529,931.152,999.512,110.840,876.465
1742550865.533,999.512,658.691,8.301,999.512
1742550865.580,-962.402,-637.695,-6.348,-1000.000
1742550865.584,255.859,668.457,52.734,139.648
1742550865.588,999.512,976.562,-17.578,999.512
1742550865.592,999.512,911.133,-74.219,999.512
1742550865.596,252.930,-112.305,-115.234,245.117
1742550865.600,-1000.000,-854.492,-25.391,-1000.000
1742550865.604,-265.137,649.902,94.727,-248.047
1742550865.607,999.512,999.512,-19.531,999.512
1742550865.611,214.844,-266.113,-107.910,201.660
1742550865.615,-1000.000,-1000.000,-75.195,-1000.000
1742550865.619,-851.562,-377.930,43.457,-993.652
1742550865.623,463.867,883.789,70.801,207.520
1742550865.580,-962.402,-637.695,-6.348,-1000.000
1742550865.584,255.859,668.457,52.734,139.648
1742550865.588,999.512,976.562,-17.578,999.512
1742550865.592,999.512,911.133,-74.219,999.512
1742550865.596,252.930,-112.305,-115.234,245.117
1742550865.600,-1000.000,-854.492,-25.391,-1000.000
1742550865.604,-265.137,649.902,94.727,-248.047
1742550865.607,999.512,999.512,-19.531,999.512
1742550865.611,214.844,-266.113,-107.910,201.660
1742550865.615,-1000.000,-1000.000,-75.195,-1000.000
1742550865.619,-851.562,-377.930,43.457,-993.652
1742550865.623,463.867,883.789,70.801,207.520
1742550865.685,901.367,378.906,-130.859,999.512
1742550865.689,-415.527,-1000.000,-93.750,-236.816
1742550865.693,-1000.000,-946.289,1.953,-1000.000
1742550865.697,-139.648,366.211,28.320,-142.090
1742550865.701,970.703,999.512,-22.949,974.609
1742550865.705,999.512,999.512,-20.996,999.512
1742550865.709,149.902,136.230,-31.250,232.910
1742550865.712,-998.535,-1000.000,-47.363,-1000.000
1742550865.716,-1000.000,-183.594,30.762,-934.082
1742550865.720,-514.648,999.512,-33.203,-1000.000
1742550865.724,787.598,889.160,-96.680,-534.668
1742550865.728,999.512,999.512,-52.734,758.301
1742550865.685,901.367,378.906,-130.859,999.512
1742550865.689,-415.527,-1000.000,-93.750,-236.816
1742550865.693,-1000.000,-946.289,1.953,-1000.000
1742550865.697,-139.648,366.211,28.320,-142.090
1742550865.701,970.703,999.512,-22.949,974.609
1742550865.705,999.512,999.512,-20.996,999.512
1742550865.709,149.902,136.230,-31.250,232.910
1742550865.712,-998.535,-1000.000,-47.363,-1000.000
1742550865.716,-1000.000,-183.594,30.762,-934.082
1742550865.720,-514.648,999.512,-33.203,-1000.000
1742550865.724,787.598,889.160,-96.680,-534.668
1742550865.728,999.512,999.512,-52.734,758.301
1742550865.730,855.957,164.551,-7.812,999.512
1742550865.734,-311.523,-1000.000,-29.785,187.988
1742550865.738,-1000.000,-1000.000,-75.684,-983.887
1742550865.742,-683.105,-198.730,-83.008,-1000.000
1742550865.746,662.109,999.512,-13.672,-145.020
1742550865.750,987.305,929.199,57.129,971.191
1742550865.754,999.512,993.652,19.531,999.512
1742550865.757,186.035,-83.496,-69.336,242.188
1742550865.761,-1000.000,-1000.000,-170.410,-965.332
1742550865.765,-1000.000,-988.770,-144.531,-1000.000
1742550865.769,-209.961,63.477,16.602,-293.945
1742550865.773,995.605,999.512,38.086,929.199
1742550865.730,855.957,164.551,-7.812,999.512
1742550865.734,-311.523,-1000.000,-29.785,187.988
1742550865.738,-1000.000,-1000.000,-75.684,-983.887
1742550865.742,-683.105,-198.730,-83.008,-1000.000
1742550865.746,662.109,999.512,-13.672,-145.020
1742550865.750,987.305,929.199,57.129,971.191
1742550865.754,999.512,993.652,19.531,999.512
1742550865.757,186.035,-83.496,-69.336,242.188
1742550865.761,-1000.000,-1000.000,-170.410,-965.332
1742550865.765,-1000.000,-988.770,-144.531,-1000.000
1742550865.769,-209.961,63.477,16.602,-293.945
1742550865.773,995.605,999.512,38.086,929.199
1742550865.775,999.512,127.930,-77.148,999.512
1742550865.779,-15.625,-1000.000,-127.441,166.504
1742550865.783,-1000.000,-1000.000,-121.582,-1000.000
1742550865.787,-650.391,-305.664,-23.926,-886.719
1742550865.791,687.012,912.598,18.066,427.734
1742550865.795,999.512,999.512,21.484,999.512
1742550865.799,763.672,538.574,-54.688,855.957
1742550865.802,-462.891,-752.930,-124.512,-319.824
1742550865.806,-1000.000,-1000.000,-69.824,-1000.000
1742550865.810,-479.980,-260.254,0.000,-618.652
1742550865.814,814.453,976.562,21.484,675.293
1742550865.818,999.512,978.027,-52.246,999.512
1742550865.775,999.512,127.930,-77.148,999.512
1742550865.779,-15.625,-1000.000,-127.441,166.504
1742550865.783,-1000.000,-1000.000,-121.582,-1000.000
1742550865.787,-650.391,-305.664,-23.926,-886.719
1742550865.791,687.012,912.598,18.066,427.734
1742550865.795,999.512,999.512,21.484,999.512
1742550865.799,763.672,538.574,-54.688,855.957
1742550865.802,-462.891,-752.930,-124.512,-319.824
1742550865.806,-1000.000,-1000.000,-69.824,-1000.000
1742550865.810,-479.980,-260.254,0.000,-618.652
1742550865.814,814.453,976.562,21.484,675.293
1742550865.818,999.512,978.027,-52.246,999.512
1742550865.821,132.324,-126.465,-127.930,155.762
1742550865.825,-993.652,-1000.000,-63.965,-983.887
1742550865.829,-1000.000,-947.266,3.418,-1000.000
1742550865.833,-179.199,215.820,12.207,-180.176
1742550865.837,961.426,958.008,-21.973,986.328
1742550865.841,999.512,999.512,-39.551,977.539
1742550865.845,576.660,342.285,-12.695,875.977
1742550865.848,-818.848,-964.355,-11.230,-446.777
1742550865.852,-1000.000,-989.258,-73.242,-1000.000
1742550865.856,-1000.000,-1000.000,-130.859,-1000.000
1742550865.860,-254.395,-13.672,-66.895,-441.895
1742550865.864,999.512,999.512,-13.184,868.652
1742550865.821,132.324,-126.465,-127.930,155.762
1742550865.825,-993.652,-1000.000,-63.965,-983.887
1742550865.829,-1000.000,-947.266,3.418,-1000.000
1742550865.833,-179.199,215.820,12.207,-180.176
1742550865.837,961.426,958.008,-21.973,986.328
1742550865.841,999.512,999.512,-39.551,977.539
1742550865.845,576.660,342.285,-12.695,875.977
1742550865.848,-818.848,-964.355,-11.230,-446.777
1742550865.852,-1000.000,-989.258,-73.242,-1000.000
1742550865.856,-1000.000,-1000.000,-130.859,-1000.000
1742550865.860,-254.395,-13.672,-66.895,-441.895
1742550865.864,999.512,999.512,-13.184,868.652
1742550865.865,937.988,231.934,-7.324,999.512
1742550865.869,-229.004,-981.934,5.859,464.844
1742550865.873,-1000.000,-1000.000,-60.547,-819.824
1742550865.877,-623.047,-228.027,-52.734,-1000.000
1742550865.881,699.219,941.895,-3.418,-64.453
1742550865.885,999.512,999.512,60.547,999.512
1742550865.889,872.070,552.246,88.867,999.512
1742550865.892,-386.230,-791.992,-57.617,15.625
1742550865.896,-1000.000,-1000.000,-95.703,-1000.000
1742550865.900,-1000.000,-960.449,-61.035,-1000.000
1742550865.904,-273.926,41.504,26.855,-258.301
1742550865.908,999.512,999.512,85.938,992.188
1742550865.865,937.988,231.934,-7.324,999.512
1742550865.869,-229.004,-981.934,5.859,464.844
1742550865.873,-1000.000,-1000.000,-60.547,-819.824
1742550865.877,-623.047,-228.027,-52.734,-1000.000
1742550865.881,699.219,941.895,-3.418,-64.453
1742550865.885,999.512,999.512,60.547,999.512
1742550865.889,872.070,552.246,88.867,999.512
1742550865.892,-386.230,-791.992,-57.617,15.625
1742550865.896,-1000.000,-1000.000,-95.703,-1000.000
1742550865.900,-1000.000,-960.449,-61.035,-1000.000
1742550865.904,-273.926,41.504,26.855,-258.301
1742550865.908,999.512,999.512,85.938,992.188
1742550865.910,803.711,267.090,-42.480,999.512
1742550865.914,-499.512,-981.445,-104.004,-63.965
1742550865.918,-1000.000,-1000.000,-76.172,-1000.000
1742550865.922,-344.727,-86.426,-7.324,-569.824
1742550865.926,926.758,997.559,28.320,806.152
1742550865.930,958.984,976.562,17.578,985.352
1742550865.934,999.512,824.707,-17.090,999.512
1742550865.937,-146.973,-467.285,-69.824,-35.156
1742550865.941,-1000.000,-1000.000,-41.016,-1000.000
1742550865.945,-1000.000,-1000.000,-40.527,-1000.000
1742550865.949,-297.852,-266.602,-25.391,-415.527
1742550865.953,999.512,999.512,-40.527,922.852
1742550865.910,803.711,267.090,-42.480,999.512
1742550865.914,-499.512,-981.445,-104.004,-63.965
1742550865.918,-1000.000,-1000.000,-76.172,-1000.000
1742550865.922,-344.727,-86.426,-7.324,-569.824
1742550865.926,926.758,997.559,28.320,806.152
1742550865.930,958.984,976.562,17.578,985.352
1742550865.934,999.512,824.707,-17.090,999.512
1742550865.937,-146.973,-467.285,-69.824,-35.156
1742550865.941,-1000.000,-1000.000,-41.016,-1000.000
1742550865.945,-1000.000,-1000.000,-40.527,-1000.000
1742550865.949,-297.852,-266.602,-25.391,-415.527
1742550865.953,999.512,999.512,-40.527,922.852
1742550865.957,999.512,399.902,-106.934,999.512
1742550865.961,-176.758,-930.664,-58.105,-27.832
1742550865.965,-1000.000,-1000.000,0.488,-1000.000
1742550865.969,-375.488,-102.051,7.324,-525.879
1742550865.973,893.066,965.820,-41.992,838.867
1742550865.977,999.512,999.512,-38.574,993.652
1742550865.981,794.434,584.961,4.883,979.492
1742550865.984,-480.957,-919.434,-54.199,-94.238
1742550865.988,-1000.000,-810.547,-38.574,-1000.000
1742550865.992,-167.969,624.512,-23.926,-234.863
1742550865.996,999.512,999.512,-75.684,999.512
1742550866.000,588.379,148.926,-39.062,801.758
1742550865.957,999.512,399.902,-106.934,999.512
1742550865.961,-176.758,-930.664,-58.105,-27.832
1742550865.965,-1000.000,-1000.000,0.488,-1000.000
1742550865.969,-375.488,-102.051,7.324,-525.879
1742550865.973,893.066,965.820,-41.992,838.867
1742550865.977,999.512,999.512,-38.574,993.652
1742550865.981,794.434,584.961,4.883,979.492
1742550865.984,-480.957,-919.434,-54.199,-94.238
1742550865.988,-1000.000,-810.547,-38.574,-1000.000
1742550865.992,-167.969,624.512,-23.926,-234.863
1742550865.996,999.512,999.512,-75.684,999.512
1742550866.000,588.379,148.926,-39.062,801.758
1742550865.957,999.512,399.902,-106.934,999.512
1742550865.961,-176.758,-930.664,-58.105,-27.832
1742550865.965,-1000.000,-1000.000,0.488,-1000.000
1742550865.969,-375.488,-102.051,7.324,-525.879
1742550865.973,893.066,965.820,-41.992,838.867
1742550865.977,999.512,999.512,-38.574,993.652
1742550865.981,794.434,584.961,4.883,979.492
1742550865.984,-480.957,-919.434,-54.199,-94.238
1742550865.988,-1000.000,-810.547,-38.574,-1000.000
1742550865.992,-167.969,624.512,-23.926,-234.863
1742550865.996,999.512,999.512,-75.684,999.512
1742550866.000,588.379,148.926,-39.062,801.758
1742550866.000,-791.504,-1000.000,-42.969,-535.156
1742550866.004,-1000.000,-918.457,-29.297,-1000.000
1742550866.008,-197.266,311.035,-18.555,-212.891
1742550866.012,999.512,999.512,-60.547,999.512
1742550866.016,555.176,260.742,-60.547,732.422
1742550866.020,-911.133,-1000.000,4.883,-691.406
1742550866.024,-1000.000,-385.254,31.738,-1000.000
1742550866.027,464.355,999.512,-41.992,347.656
1742550866.031,510.742,187.988,-170.410,536.621
1742550866.035,-1000.000,-1000.000,-130.371,-1000.000
1742550866.039,-942.383,-545.898,3.906,-1000.000
1742550866.043,397.461,765.137,53.223,239.746
1742550866.000,-791.504,-1000.000,-42.969,-535.156
1742550866.004,-1000.000,-918.457,-29.297,-1000.000
1742550866.008,-197.266,311.035,-18.555,-212.891
1742550866.012,999.512,999.512,-60.547,999.512
1742550866.016,555.176,260.742,-60.547,732.422
1742550866.020,-911.133,-1000.000,4.883,-691.406
1742550866.024,-1000.000,-385.254,31.738,-1000.000
1742550866.027,464.355,999.512,-41.992,347.656
1742550866.031,510.742,187.988,-170.410,536.621
1742550866.035,-1000.000,-1000.000,-130.371,-1000.000
1742550866.039,-942.383,-545.898,3.906,-1000.000
1742550866.043,397.461,765.137,53.223,239.746
1742550866.000,-791.504,-1000.000,-42.969,-535.156
1742550866.004,-1000.000,-918.457,-29.297,-1000.000
1742550866.008,-197.266,311.035,-18.555,-212.891
1742550866.012,999.512,999.512,-60.547,999.512
1742550866.016,555.176,260.742,-60.547,732.422
1742550866.020,-911.133,-1000.000,4.883,-691.406
1742550866.024,-1000.000,-385.254,31.738,-1000.000
1742550866.027,464.355,999.512,-41.992,347.656
1742550866.031,510.742,187.988,-170.410,536.621
1742550866.035,-1000.000,-1000.000,-130.371,-1000.000
1742550866.039,-942.383,-545.898,3.906,-1000.000
1742550866.043,397.461,765.137,53.223,239.746
1742550866.046,999.512,999.512,0.000,999.512
1742550866.050,168.457,38.086,-91.309,269.043
1742550866.054,-989.746,-1000.000,-106.934,-952.148
1742550866.058,-1000.000,-920.410,-10.742,-1000.000
1742550866.062,-170.898,239.258,59.570,-185.059
1742550866.066,999.512,999.512,83.984,999.512
1742550866.070,922.363,584.473,-27.832,982.422
1742550866.073,-313.965,-709.473,-126.465,-190.430
1742550866.077,-1000.000,-1000.000,-52.734,-1000.000
1742550866.081,-374.512,-204.590,44.922,-465.332
1742550866.085,889.648,999.512,65.918,838.867
1742550866.089,999.512,885.254,-30.762,999.512
1742550866.046,999.512,999.512,0.000,999.512
1742550866.050,168.457,38.086,-91.309,269.043
1742550866.054,-989.746,-1000.000,-106.934,-952.148
1742550866.058,-1000.000,-920.410,-10.742,-1000.000
1742550866.062,-170.898,239.258,59.570,-185.059
1742550866.066,999.512,999.512,83.984,999.512
1742550866.070,922.363,584.473,-27.832,982.422
1742550866.073,-313.965,-709.473,-126.465,-190.430
1742550866.077,-1000.000,-1000.000,-52.734,-1000.000
1742550866.081,-374.512,-204.590,44.922,-465.332
1742550866.085,889.648,999.512,65.918,838.867
1742550866.089,999.512,885.254,-30.762,999.512
1742550866.105,124.512,-457.520,-98.633,144.043
1742550866.109,-1000.000,-1000.000,-23.926,-1000.000
1742550866.113,-730.469,227.539,0.488,-813.477
1742550866.117,748.047,999.512,-7.812,602.539
1742550866.121,999.512,320.801,-34.180,999.512
1742550866.125,-439.453,-1000.000,-55.664,-264.160
1742550866.129,-1000.000,-471.680,20.020,-1000.000
1742550866.132,142.578,999.512,51.758,-57.617
1742550866.136,999.512,308.594,-60.547,999.512
1742550866.140,704.590,-1000.000,-136.719,833.984
1742550866.144,-593.750,-955.078,-111.816,-431.152
1742550866.148,-1000.000,-1000.000,-76.172,-1000.000
1742550866.105,124.512,-457.520,-98.633,144.043
1742550866.109,-1000.000,-1000.000,-23.926,-1000.000
1742550866.113,-730.469,227.539,0.488,-813.477
1742550866.117,748.047,999.512,-7.812,602.539
1742550866.121,999.512,320.801,-34.180,999.512
1742550866.125,-439.453,-1000.000,-55.664,-264.160
1742550866.129,-1000.000,-471.680,20.020,-1000.000
1742550866.132,142.578,999.512,51.758,-57.617
1742550866.136,999.512,308.594,-60.547,999.512
1742550866.140,704.590,-1000.000,-136.719,833.984
1742550866.144,-593.750,-955.078,-111.816,-431.152
1742550866.148,-1000.000,-1000.000,-76.172,-1000.000
1742550866.150,-167.969,-77.148,6.348,-225.586
1742550866.154,979.980,999.512,32.227,952.148
1742550866.158,999.512,751.465,-67.871,999.512
1742550866.162,32.227,-530.273,-100.586,129.883
1742550866.166,-1000.000,-1000.000,-63.477,-1000.000
1742550866.170,-250.977,-29.785,28.320,-284.668
1742550866.174,999.512,999.512,46.875,999.512
1742550866.177,515.137,107.422,-99.609,773.438
1742550866.181,-852.539,-1000.000,-156.738,-573.730
1742550866.185,-1000.000,-1000.000,-101.562,-1000.000
1742550866.189,-223.145,-54.199,4.883,-222.168
1742550866.193,999.512,999.512,45.898,999.512
1742550866.150,-167.969,-77.148,6.348,-225.586
1742550866.154,979.980,999.512,32.227,952.148
1742550866.158,999.512,751.465,-67.871,999.512
1742550866.162,32.227,-530.273,-100.586,129.883
1742550866.166,-1000.000,-1000.000,-63.477,-1000.000
1742550866.170,-250.977,-29.785,28.320,-284.668
1742550866.174,999.512,999.512,46.875,999.512
1742550866.177,515.137,107.422,-99.609,773.438
1742550866.181,-852.539,-1000.000,-156.738,-573.730
1742550866.185,-1000.000,-1000.000,-101.562,-1000.000
1742550866.189,-223.145,-54.199,4.883,-222.168
1742550866.193,999.512,999.512,45.898,999.512
1742550866.150,-167.969,-77.148,6.348,-225.586
1742550866.154,979.980,999.512,32.227,952.148
1742550866.158,999.512,751.465,-67.871,999.512
1742550866.162,32.227,-530.273,-100.586,129.883
1742550866.166,-1000.000,-1000.000,-63.477,-1000.000
1742550866.170,-250.977,-29.785,28.320,-284.668
1742550866.174,999.512,999.512,46.875,999.512
1742550866.177,515.137,107.422,-99.609,773.438
1742550866.181,-852.539,-1000.000,-156.738,-573.730
1742550866.185,-1000.000,-1000.000,-101.562,-1000.000
1742550866.189,-223.145,-54.199,4.883,-222.168
1742550866.193,999.512,999.512,45.898,999.512
1742550866.195,757.324,275.879,-64.941,991.211
1742550866.199,-574.219,-988.770,-106.445,-185.059
1742550866.203,-1000.000,-1000.000,-75.195,-1000.000
1742550866.207,-295.898,-67.871,-12.695,-464.844
1742550866.211,917.969,979.980,16.113,857.910
1742550866.215,999.512,999.512,-20.996,999.512
1742550866.219,832.520,453.125,-40.527,924.805
1742550866.222,-493.164,-861.328,-68.359,-304.688
1742550866.226,-1000.000,-982.910,-56.641,-1000.000
1742550866.230,-1000.000,-1000.000,-50.781,-1000.000
1742550866.234,-293.945,-238.770,-12.207,-379.883
1742550866.238,999.512,999.512,-23.926,999.512
1742550866.195,757.324,275.879,-64.941,991.211
1742550866.199,-574.219,-988.770,-106.445,-185.059
1742550866.203,-1000.000,-1000.000,-75.195,-1000.000
1742550866.207,-295.898,-67.871,-12.695,-464.844
1742550866.211,917.969,979.980,16.113,857.910
1742550866.215,999.512,999.512,-20.996,999.512
1742550866.219,832.520,453.125,-40.527,924.805
1742550866.222,-493.164,-861.328,-68.359,-304.688
1742550866.226,-1000.000,-982.910,-56.641,-1000.000
1742550866.230,-1000.000,-1000.000,-50.781,-1000.000
1742550866.234,-293.945,-238.770,-12.207,-379.883
1742550866.238,999.512,999.512,-23.926,999.512
1742550866.195,757.324,275.879,-64.941,991.211
1742550866.199,-574.219,-988.770,-106.445,-185.059
1742550866.203,-1000.000,-1000.000,-75.195,-1000.000
1742550866.207,-295.898,-67.871,-12.695,-464.844
1742550866.211,917.969,979.980,16.113,857.910
1742550866.215,999.512,999.512,-20.996,999.512
1742550866.219,832.520,453.125,-40.527,924.805
1742550866.222,-493.164,-861.328,-68.359,-304.688
1742550866.226,-1000.000,-982.910,-56.641,-1000.000
1742550866.230,-1000.000,-1000.000,-50.781,-1000.000
1742550866.234,-293.945,-238.770,-12.207,-379.883
1742550866.238,999.512,999.512,-23.926,999.512
1742550866.242,702.637,295.410,-104.004,876.953
1742550866.246,-680.664,-1000.000,-47.363,-458.984
1742550866.250,-1000.000,-854.004,33.691,-1000.000
1742550866.254,-85.449,542.969,51.758,-120.117
1742550866.258,999.512,909.668,-25.879,999.512
1742550866.262,912.598,781.250,-31.250,887.207
1742550866.266,999.512,845.703,50.293,999.512
1742550866.269,-96.191,-404.785,-15.625,144.043
1742550866.273,-1000.000,-1000.000,-77.148,-1000.000
1742550866.277,-1000.000,-243.652,-55.176,-977.051
1742550866.281,293.945,999.512,-57.617,-986.328
1742550866.285,818.848,459.961,-16.113,-934.082
1742550866.285,-976.562,-1000.000,-7.812,-1000.000
1742550866.289,-451.172,-371.094,38.574,-420.898
1742550866.293,999.512,999.512,28.809,935.059
1742550866.297,990.723,830.078,-63.965,999.512
1742550866.301,19.531,-514.160,-9.766,49.316
1742550866.305,-1000.000,-1000.000,37.109,-1000.000
1742550866.309,-284.180,163.574,58.105,-335.449
1742550866.312,999.512,999.512,-20.020,999.512
1742550866.316,239.746,-242.188,-180.664,236.816
1742550866.320,-1000.000,-1000.000,-115.723,-1000.000
1742550866.324,-617.676,-335.449,39.062,-714.844
1742550866.328,867.676,999.512,78.125,700.684
1742550866.285,-976.562,-1000.000,-7.812,-1000.000
1742550866.289,-451.172,-371.094,38.574,-420.898
1742550866.293,999.512,999.512,28.809,935.059
1742550866.297,990.723,830.078,-63.965,999.512
1742550866.301,19.531,-514.160,-9.766,49.316
1742550866.305,-1000.000,-1000.000,37.109,-1000.000
1742550866.309,-284.180,163.574,58.105,-335.449
1742550866.312,999.512,999.512,-20.020,999.512
1742550866.316,239.746,-242.188,-180.664,236.816
1742550866.320,-1000.000,-1000.000,-115.723,-1000.000
1742550866.324,-617.676,-335.449,39.062,-714.844
1742550866.328,867.676,999.512,78.125,700.684
1742550866.331,999.512,404.785,-63.477,999.512
1742550866.335,-313.965,-967.285,-144.043,-70.801
1742550866.339,-1000.000,-1000.000,-69.336,-1000.000
1742550866.343,-196.289,-46.387,22.949,-350.586
1742550866.347,942.871,977.539,68.359,896.484
1742550866.351,999.512,999.512,24.414,999.512
1742550866.355,422.363,292.969,-68.848,508.789
1742550866.358,-874.512,-959.473,-141.602,-788.086
1742550866.362,-1000.000,-1000.000,-58.594,-1000.000
1742550866.366,-311.035,-182.617,43.457,-415.527
1742550866.370,920.410,999.512,54.199,857.910
1742550866.374,999.512,883.301,-19.531,999.512
1742550866.331,999.512,404.785,-63.477,999.512
1742550866.335,-313.965,-967.285,-144.043,-70.801
1742550866.339,-1000.000,-1000.000,-69.336,-1000.000
1742550866.343,-196.289,-46.387,22.949,-350.586
1742550866.347,942.871,977.539,68.359,896.484
1742550866.351,999.512,999.512,24.414,999.512
1742550866.355,422.363,292.969,-68.848,508.789
1742550866.358,-874.512,-959.473,-141.602,-788.086
1742550866.362,-1000.000,-1000.000,-58.594,-1000.000
1742550866.366,-311.035,-182.617,43.457,-415.527
1742550866.370,920.410,999.512,54.199,857.910
1742550866.374,999.512,883.301,-19.531,999.512
1742550866.376,84.473,-538.086,-84.473,133.789
1742550866.380,-1000.000,-910.645,11.719,-1000.000
1742550866.384,-139.648,605.957,77.637,-201.172
1742550866.388,999.512,999.512,-21.484,999.512
1742550866.392,154.297,-111.328,-115.234,194.336
1742550866.396,-1000.000,-1000.000,-70.801,-1000.000
1742550866.400,-1000.000,228.027,44.434,-1000.000
1742550866.403,-162.598,999.512,63.965,-178.711
1742550866.407,999.512,295.410,-33.203,999.512
1742550866.411,999.512,-995.605,-100.098,999.512
1742550866.415,-152.832,-967.285,-75.195,-121.094
1742550866.419,-1000.000,-1000.000,-45.410,-1000.000
1742550866.902,999.512,999.512,27.344,999.512
1742550866.906,147.461,-150.391,-118.652,145.508
1742550866.910,-1000.000,-1000.000,-83.008,-1000.000
1742550866.914,-941.406,-462.402,17.578,-1000.000
1742550866.918,339.355,789.551,43.457,226.562
1742550866.922,999.512,999.512,19.043,999.512
1742550866.926,795.898,517.578,-54.199,900.879
1742550866.929,-419.434,-752.930,-107.910,-259.277
1742550866.933,-1000.000,-1000.000,-70.801,-1000.000
1742550866.937,-552.734,-272.949,14.160,-723.145
1742550866.941,748.535,957.031,18.066,558.105
1742550866.945,999.512,999.512,-32.227,999.512
1742550866.376,84.473,-538.086,-84.473,133.789
1742550866.380,-1000.000,-910.645,11.719,-1000.000
1742550866.384,-139.648,605.957,77.637,-201.172
1742550866.388,999.512,999.512,-21.484,999.512
1742550866.392,154.297,-111.328,-115.234,194.336
1742550866.396,-1000.000,-1000.000,-70.801,-1000.000
1742550866.400,-1000.000,228.027,44.434,-1000.000
1742550866.403,-162.598,999.512,63.965,-178.711
1742550866.407,999.512,295.410,-33.203,999.512
1742550866.411,999.512,-995.605,-100.098,999.512
1742550866.415,-152.832,-967.285,-75.195,-121.094
1742550866.419,-1000.000,-1000.000,-45.410,-1000.000
1742550866.376,84.473,-538.086,-84.473,133.789
1742550866.380,-1000.000,-910.645,11.719,-1000.000
1742550866.384,-139.648,605.957,77.637,-201.172
1742550866.388,999.512,999.512,-21.484,999.512
1742550866.392,154.297,-111.328,-115.234,194.336
1742550866.396,-1000.000,-1000.000,-70.801,-1000.000
1742550866.400,-1000.000,228.027,44.434,-1000.000
1742550866.403,-162.598,999.512,63.965,-178.711
1742550866.407,999.512,295.410,-33.203,999.512
1742550866.411,999.512,-995.605,-100.098,999.512
1742550866.415,-152.832,-967.285,-75.195,-121.094
1742550866.419,-1000.000,-1000.000,-45.410,-1000.000
1742550866.435,-190.430,-134.277,40.039,-267.090
1742550866.439,999.512,999.512,53.711,965.332
1742550866.443,999.512,614.746,-50.293,999.512
1742550866.447,-71.289,-747.559,-100.586,33.203
1742550866.451,-1000.000,-1000.000,-30.273,-1000.000
1742550866.455,-231.445,338.867,98.633,-246.582
1742550866.459,999.512,959.961,46.875,999.512
1742550866.462,392.090,-517.090,-116.699,623.047
1742550866.466,-936.523,-1000.000,-121.094,-742.188
1742550866.470,-1000.000,-1000.000,-28.809,-1000.000
1742550866.474,-182.617,-127.930,62.012,-247.070
1742550866.478,973.633,999.512,67.871,933.594
1742550866.435,-190.430,-134.277,40.039,-267.090
1742550866.439,999.512,999.512,53.711,965.332
1742550866.443,999.512,614.746,-50.293,999.512
1742550866.447,-71.289,-747.559,-100.586,33.203
1742550866.451,-1000.000,-1000.000,-30.273,-1000.000
1742550866.455,-231.445,338.867,98.633,-246.582
1742550866.459,999.512,959.961,46.875,999.512
1742550866.462,392.090,-517.090,-116.699,623.047
1742550866.466,-936.523,-1000.000,-121.094,-742.188
1742550866.470,-1000.000,-1000.000,-28.809,-1000.000
1742550866.474,-182.617,-127.930,62.012,-247.070
1742550866.478,973.633,999.512,67.871,933.594
1742550866.480,999.512,808.105,-25.391,999.512
1742550866.484,104.492,-434.082,-103.027,173.340
1742550866.488,-1000.000,-1000.000,-72.754,-1000.000
1742550866.492,-587.402,-200.195,33.691,-745.605
1742550866.496,763.672,941.895,55.664,613.281
1742550866.500,999.512,999.512,14.160,999.512
1742550866.504,692.383,412.109,-51.270,812.500
1742550866.507,-657.715,-921.875,-92.773,-480.957
1742550866.511,-1000.000,-974.121,-44.922,-1000.000
1742550866.515,-1000.000,-1000.000,-32.715,-1000.000
1742550866.519,-286.621,-246.582,-44.922,-354.004
1742550866.523,999.512,999.512,-65.918,999.512
1742550866.480,999.512,808.105,-25.391,999.512
1742550866.484,104.492,-434.082,-103.027,173.340
1742550866.488,-1000.000,-1000.000,-72.754,-1000.000
1742550866.492,-587.402,-200.195,33.691,-745.605
1742550866.496,763.672,941.895,55.664,613.281
1742550866.500,999.512,999.512,14.160,999.512
1742550866.504,692.383,412.109,-51.270,812.500
1742550866.507,-657.715,-921.875,-92.773,-480.957
1742550866.511,-1000.000,-974.121,-44.922,-1000.000
1742550866.515,-1000.000,-1000.000,-32.715,-1000.000
1742550866.519,-286.621,-246.582,-44.922,-354.004
1742550866.523,999.512,999.512,-65.918,999.512
1742550866.525,817.871,279.297,-107.910,977.539
1742550866.529,-515.137,-1000.000,-36.621,-256.348
1742550866.533,-1000.000,-1000.000,15.625,-1000.000
1742550866.537,-141.602,-3.418,21.484,-210.449
1742550866.541,970.215,982.910,-33.691,996.094
1742550866.545,999.512,999.512,-28.320,934.082
1742550866.549,761.719,476.074,41.992,999.512
1742550866.552,-547.363,-887.695,-36.621,-93.750
1742550866.556,-1000.000,-1000.000,-29.785,-1000.000
1742550866.560,-153.320,90.332,-6.348,-869.141
1742550866.564,964.355,999.512,-66.895,243.652
1742550866.568,999.512,664.551,7.324,999.512
1742550866.525,817.871,279.297,-107.910,977.539
1742550866.529,-515.137,-1000.000,-36.621,-256.348
1742550866.533,-1000.000,-1000.000,15.625,-1000.000
1742550866.537,-141.602,-3.418,21.484,-210.449
1742550866.541,970.215,982.910,-33.691,996.094
1742550866.545,999.512,999.512,-28.320,934.082
1742550866.549,761.719,476.074,41.992,999.512
1742550866.552,-547.363,-887.695,-36.621,-93.750
1742550866.556,-1000.000,-1000.000,-29.785,-1000.000
1742550866.560,-153.320,90.332,-6.348,-869.141
1742550866.564,964.355,999.512,-66.895,243.652
1742550866.568,999.512,664.551,7.324,999.512
1742550866.525,817.871,279.297,-107.910,977.539
1742550866.529,-515.137,-1000.000,-36.621,-256.348
1742550866.533,-1000.000,-1000.000,15.625,-1000.000
1742550866.537,-141.602,-3.418,21.484,-210.449
1742550866.541,970.215,982.910,-33.691,996.094
1742550866.545,999.512,999.512,-28.320,934.082
1742550866.549,761.719,476.074,41.992,999.512
1742550866.552,-547.363,-887.695,-36.621,-93.750
1742550866.556,-1000.000,-1000.000,-29.785,-1000.000
1742550866.560,-153.320,90.332,-6.348,-869.141
1742550866.564,964.355,999.512,-66.895,243.652
1742550866.568,999.512,664.551,7.324,999.512
1742550866.570,140.625,-610.840,19.043,543.457
1742550866.574,-999.512,-1000.000,-13.184,-747.559
1742550866.578,-1000.000,-1000.000,-42.969,-1000.000
1742550866.582,-300.781,-115.234,-62.012,-774.414
1742550866.586,971.680,999.512,1.465,537.109
1742550866.590,936.523,999.512,44.922,999.512
1742550866.594,999.512,633.301,30.273,999.512
1742550866.597,-48.828,-596.191,-97.168,194.336
1742550866.601,-1000.000,-1000.000,-195.801,-1000.000
1742550866.605,-948.242,-466.309,-74.219,-1000.000
1742550866.609,220.703,792.969,38.574,-84.473
1742550866.613,999.512,999.512,40.039,999.512
1742550866.570,140.625,-610.840,19.043,543.457
1742550866.574,-999.512,-1000.000,-13.184,-747.559
1742550866.578,-1000.000,-1000.000,-42.969,-1000.000
1742550866.582,-300.781,-115.234,-62.012,-774.414
1742550866.586,971.680,999.512,1.465,537.109
1742550866.590,936.523,999.512,44.922,999.512
1742550866.594,999.512,633.301,30.273,999.512
1742550866.597,-48.828,-596.191,-97.168,194.336
1742550866.601,-1000.000,-1000.000,-195.801,-1000.000
1742550866.605,-948.242,-466.309,-74.219,-1000.000
1742550866.609,220.703,792.969,38.574,-84.473
1742550866.613,999.512,999.512,40.039,999.512
1742550866.615,338.379,192.871,-82.520,525.391
1742550866.619,-919.434,-1000.000,-152.344,-820.312
1742550866.623,-1000.000,-963.379,-41.992,-1000.000
1742550866.627,-162.598,275.391,22.461,-161.133
1742550866.631,965.332,999.512,41.992,957.520
1742550866.635,999.512,999.512,4.883,999.512
1742550866.639,158.203,44.434,-80.078,202.148
1742550866.642,-1000.000,-1000.000,-97.656,-979.492
1742550866.646,-1000.000,-1000.000,-28.320,-1000.000
1742550866.650,-228.516,-216.797,65.918,-301.270
1742550866.654,970.215,999.512,83.008,932.129
1742550866.658,999.512,779.297,-22.949,999.512
1742550866.661,87.891,-589.844,-100.098,153.809
1742550866.665,-1000.000,-1000.000,-14.648,-1000.000
1742550866.669,-206.543,306.641,113.281,-231.934
1742550866.673,999.512,999.512,14.160,999.512
1742550866.677,164.551,-252.441,-134.766,184.570
1742550866.681,-1000.000,-747.559,-77.148,-1000.000
1742550866.685,-1000.000,724.121,36.621,-1000.000
1742550866.688,-180.176,999.512,43.457,-180.176
1742550866.692,999.512,145.508,-38.086,999.512
1742550866.696,657.715,-1000.000,-93.750,695.801
1742550866.700,-708.496,-982.910,-79.590,-643.066
1742550866.704,-1000.000,-965.820,-33.203,-1000.000
1742550866.661,87.891,-589.844,-100.098,153.809
1742550866.665,-1000.000,-1000.000,-14.648,-1000.000
1742550866.669,-206.543,306.641,113.281,-231.934
1742550866.673,999.512,999.512,14.160,999.512
1742550866.677,164.551,-252.441,-134.766,184.570
1742550866.681,-1000.000,-747.559,-77.148,-1000.000
1742550866.685,-1000.000,724.121,36.621,-1000.000
1742550866.688,-180.176,999.512,43.457,-180.176
1742550866.692,999.512,145.508,-38.086,999.512
1742550866.696,657.715,-1000.000,-93.750,695.801
1742550866.700,-708.496,-982.910,-79.590,-643.066
1742550866.704,-1000.000,-965.820,-33.203,-1000.000
1742550866.661,87.891,-589.844,-100.098,153.809
1742550866.665,-1000.000,-1000.000,-14.648,-1000.000
1742550866.669,-206.543,306.641,113.281,-231.934
1742550866.673,999.512,999.512,14.160,999.512
1742550866.677,164.551,-252.441,-134.766,184.570
1742550866.681,-1000.000,-747.559,-77.148,-1000.000
1742550866.685,-1000.000,724.121,36.621,-1000.000
1742550866.688,-180.176,999.512,43.457,-180.176
1742550866.692,999.512,145.508,-38.086,999.512
1742550866.696,657.715,-1000.000,-93.750,695.801
1742550866.700,-708.496,-982.910,-79.590,-643.066
1742550866.704,-1000.000,-965.820,-33.203,-1000.000
1742550866.706,-194.824,124.512,46.875,-189.941
1742550866.710,999.512,999.512,27.344,999.512
1742550866.714,927.246,495.117,-57.617,989.258
1742550866.718,-408.203,-994.629,-105.957,-250.977
1742550866.722,-1000.000,-717.285,-11.230,-1000.000
1742550866.726,67.383,817.871,119.629,-83.008
1742550866.730,999.512,996.094,52.734,999.512
1742550866.733,142.578,-314.941,-120.605,166.992
1742550866.737,-1000.000,-1000.000,-145.020,-1000.000
1742550866.741,-962.402,-393.555,-20.508,-1000.000
1742550866.745,270.996,839.355,49.805,2.441
1742550866.749,999.512,999.512,21.484,999.512
1742550866.706,-194.824,124.512,46.875,-189.941
1742550866.710,999.512,999.512,27.344,999.512
1742550866.714,927.246,495.117,-57.617,989.258
1742550866.718,-408.203,-994.629,-105.957,-250.977
1742550866.722,-1000.000,-717.285,-11.230,-1000.000
1742550866.726,67.383,817.871,119.629,-83.008
1742550866.730,999.512,996.094,52.734,999.512
1742550866.733,142.578,-314.941,-120.605,166.992
1742550866.737,-1000.000,-1000.000,-145.020,-1000.000
1742550866.741,-962.402,-393.555,-20.508,-1000.000
1742550866.745,270.996,839.355,49.805,2.441
1742550866.749,999.512,999.512,21.484,999.512
1742550866.750,692.383,325.195,-56.641,879.395
1742550866.754,-594.727,-962.402,-108.398,-351.562
1742550866.758,-1000.000,-1000.000,-43.457,-1000.000
1742550866.762,-142.090,123.535,44.434,-195.312
1742550866.766,966.309,980.957,26.855,968.750
1742550866.770,999.512,999.512,-10.742,987.793
1742550866.774,754.883,557.617,-51.270,867.676
1742550866.777,-621.094,-805.664,-65.430,-445.801
1742550866.781,-1000.000,-1000.000,-55.664,-1000.000
1742550866.785,-1000.000,-954.590,-48.828,-1000.000
1742550866.789,-240.234,109.375,-14.648,-288.086
1742550866.793,999.512,999.512,-41.504,999.512
1742550866.750,692.383,325.195,-56.641,879.395
1742550866.754,-594.727,-962.402,-108.398,-351.562
1742550866.758,-1000.000,-1000.000,-43.457,-1000.000
1742550866.762,-142.090,123.535,44.434,-195.312
1742550866.766,966.309,980.957,26.855,968.750
1742550866.770,999.512,999.512,-10.742,987.793
1742550866.774,754.883,557.617,-51.270,867.676
1742550866.777,-621.094,-805.664,-65.430,-445.801
1742550866.781,-1000.000,-1000.000,-55.664,-1000.000
1742550866.785,-1000.000,-954.590,-48.828,-1000.000
1742550866.789,-240.234,109.375,-14.648,-288.086
1742550866.793,999.512,999.512,-41.504,999.512
1742550866.750,692.383,325.195,-56.641,879.395
1742550866.754,-594.727,-962.402,-108.398,-351.562
1742550866.758,-1000.000,-1000.000,-43.457,-1000.000
1742550866.762,-142.090,123.535,44.434,-195.312
1742550866.766,966.309,980.957,26.855,968.750
1742550866.770,999.512,999.512,-10.742,987.793
1742550866.774,754.883,557.617,-51.270,867.676
1742550866.777,-621.094,-805.664,-65.430,-445.801
1742550866.781,-1000.000,-1000.000,-55.664,-1000.000
1742550866.785,-1000.000,-954.590,-48.828,-1000.000
1742550866.789,-240.234,109.375,-14.648,-288.086
1742550866.793,999.512,999.512,-41.504,999.512
1742550866.810,432.129,198.730,-85.449,576.660
1742550866.814,-934.082,-1000.000,-19.531,-808.594
1742550866.818,-1000.000,-873.047,30.762,-1000.000
1742550866.822,-1.953,648.438,0.977,-100.098
1742550866.826,999.512,676.758,-85.938,999.512
1742550866.830,903.809,221.191,-54.688,883.789
1742550866.834,999.512,907.227,27.832,999.512
1742550866.837,-81.055,-322.754,-54.688,143.555
1742550866.841,-1000.000,-1000.000,-89.355,-1000.000
1742550866.845,-394.043,-82.520,-56.641,-978.027
1742550866.849,999.512,999.512,-78.125,-974.121
1742550866.853,51.758,-285.156,-63.965,-947.754
1742550866.810,432.129,198.730,-85.449,576.660
1742550866.814,-934.082,-1000.000,-19.531,-808.594
1742550866.818,-1000.000,-873.047,30.762,-1000.000
1742550866.822,-1.953,648.438,0.977,-100.098
1742550866.826,999.512,676.758,-85.938,999.512
1742550866.830,903.809,221.191,-54.688,883.789
1742550866.834,999.512,907.227,27.832,999.512
1742550866.837,-81.055,-322.754,-54.688,143.555
1742550866.841,-1000.000,-1000.000,-89.355,-1000.000
1742550866.845,-394.043,-82.520,-56.641,-978.027
1742550866.849,999.512,999.512,-78.125,-974.121
1742550866.853,51.758,-285.156,-63.965,-947.754
1742550866.855,-1000.000,-1000.000,-13.672,-1000.000
1742550866.859,-97.168,-33.203,28.320,-170.410
1742550866.863,999.512,999.512,-11.230,987.793
1742550866.867,999.512,773.438,-79.590,999.512
1742550866.871,4.395,-743.652,-67.383,152.832
1742550866.875,-1000.000,-493.652,7.812,-1000.000
1742550866.879,-55.176,999.512,52.734,-39.551
1742550866.882,999.512,980.469,-34.180,999.512
1742550866.886,190.918,-239.258,-160.645,183.105
1742550866.890,-1000.000,-1000.000,-90.820,-1000.000
1742550866.894,-725.586,-313.477,31.738,-843.262
1742550866.898,661.133,964.844,66.895,483.398
1742550866.855,-1000.000,-1000.000,-13.672,-1000.000
1742550866.859,-97.168,-33.203,28.320,-170.410
1742550866.863,999.512,999.512,-11.230,987.793
1742550866.867,999.512,773.438,-79.590,999.512
1742550866.871,4.395,-743.652,-67.383,152.832
1742550866.875,-1000.000,-493.652,7.812,-1000.000
1742550866.879,-55.176,999.512,52.734,-39.551
1742550866.882,999.512,980.469,-34.180,999.512
1742550866.886,190.918,-239.258,-160.645,183.105
1742550866.890,-1000.000,-1000.000,-90.820,-1000.000
1742550866.894,-725.586,-313.477,31.738,-843.262
1742550866.898,661.133,964.844,66.895,483.398
1742550866.946,193.848,-48.828,-93.750,210.449
1742550866.950,-1000.000,-1000.000,-58.594,-1000.000
1742550866.954,-312.988,-102.539,84.961,-383.301
1742550866.958,999.512,999.512,27.832,999.512
1742550866.962,457.520,165.039,-81.543,540.527
1742550866.966,-1000.000,-1000.000,-83.496,-925.781
1742550866.970,-970.703,-436.035,-20.508,-1000.000
1742550866.973,350.586,999.512,1.953,178.223
1742550866.977,999.512,219.238,-104.980,999.512
1742550866.981,354.492,-1000.000,-137.207,380.859
1742550866.985,-997.070,-1000.000,-100.098,-948.730
1742550866.989,-992.188,-410.156,-17.090,-1000.000
1742550866.946,193.848,-48.828,-93.750,210.449
1742550866.950,-1000.000,-1000.000,-58.594,-1000.000
1742550866.954,-312.988,-102.539,84.961,-383.301
1742550866.958,999.512,999.512,27.832,999.512
1742550866.962,457.520,165.039,-81.543,540.527
1742550866.966,-1000.000,-1000.000,-83.496,-925.781
1742550866.970,-970.703,-436.035,-20.508,-1000.000
1742550866.973,350.586,999.512,1.953,178.223
1742550866.977,999.512,219.238,-104.980,999.512
1742550866.981,354.492,-1000.000,-137.207,380.859
1742550866.985,-997.070,-1000.000,-100.098,-948.730
1742550866.989,-992.188,-410.156,-17.090,-1000.000
1742550866.990,297.363,856.934,24.414,105.469
1742550866.994,999.512,999.512,-26.855,999.512
1742550866.998,466.309,173.828,-90.820,618.164
1742550867.002,-836.426,-987.793,-115.723,-697.266
1742550867.006,-1000.000,-1000.000,-61.523,-1000.000
1742550867.010,-239.258,-170.410,70.801,-230.957
1742550867.014,999.512,999.512,95.703,999.512
1742550867.017,400.391,195.312,-99.121,529.785
1742550867.021,-942.871,-1000.000,-194.336,-848.145
1742550867.025,-1000.000,-962.891,-62.500,-1000.000
1742550867.029,-226.562,194.336,31.250,-217.773
1742550867.033,999.512,999.512,23.438,999.512
1742550867.035,622.559,263.184,-44.434,787.598
1742550867.039,-775.879,-1000.000,-89.355,-560.059
1742550867.043,-1000.000,-726.562,-5.371,-1000.000
1742550867.047,-48.340,766.602,88.379,-131.836
1742550867.051,999.512,770.508,55.664,999.512
1742550867.055,890.625,536.621,7.324,890.625
1742550867.059,999.512,999.512,-12.695,999.512
1742550867.062,-2.930,-170.898,-21.484,115.234
1742550867.066,-1000.000,-1000.000,-30.762,-1000.000
1742550867.070,-1000.000,-1000.000,-37.109,-1000.000
1742550867.074,-409.668,-228.516,-50.781,-817.871
1742550867.078,979.004,999.512,-64.941,528.809
1742550867.035,622.559,263.184,-44.434,787.598
1742550867.039,-775.879,-1000.000,-89.355,-560.059
1742550867.043,-1000.000,-726.562,-5.371,-1000.000
1742550867.047,-48.340,766.602,88.379,-131.836
1742550867.051,999.512,770.508,55.664,999.512
1742550867.055,890.625,536.621,7.324,890.625
1742550867.059,999.512,999.512,-12.695,999.512
1742550867.062,-2.930,-170.898,-21.484,115.234
1742550867.066,-1000.000,-1000.000,-30.762,-1000.000
1742550867.070,-1000.000,-1000.000,-37.109,-1000.000
1742550867.074,-409.668,-228.516,-50.781,-817.871
1742550867.078,979.004,999.512,-64.941,528.809
1742550867.080,962.891,308.594,-64.941,999.512
1742550867.084,-344.727,-1000.000,-25.391,-95.703
1742550867.088,-1000.000,-776.855,25.879,-1000.000
1742550867.092,-57.617,619.141,5.371,-136.719
1742550867.096,999.512,999.512,-45.410,999.512
1742550867.100,908.691,915.039,-11.719,884.766
1742550867.104,999.512,958.496,64.453,999.512
1742550867.107,-90.332,-261.230,-30.273,144.531
1742550867.111,-1000.000,-1000.000,-116.211,-1000.000
1742550867.115,-934.570,-499.023,-69.824,-1000.000
1742550867.119,231.445,784.668,-25.391,-209.961
1742550867.123,999.512,999.512,4.395,999.512
1742550867.080,962.891,308.594,-64.941,999.512
1742550867.084,-344.727,-1000.000,-25.391,-95.703
1742550867.088,-1000.000,-776.855,25.879,-1000.000
1742550867.092,-57.617,619.141,5.371,-136.719
1742550867.096,999.512,999.512,-45.410,999.512
1742550867.100,908.691,915.039,-11.719,884.766
1742550867.104,999.512,958.496,64.453,999.512
1742550867.107,-90.332,-261.230,-30.273,144.531
1742550867.111,-1000.000,-1000.000,-116.211,-1000.000
1742550867.115,-934.570,-499.023,-69.824,-1000.000
1742550867.119,231.445,784.668,-25.391,-209.961
1742550867.123,999.512,999.512,4.395,999.512
1742550867.125,361.816,125.000,-15.137,954.590
1742550867.129,-886.230,-1000.000,-56.152,-244.629
1742550867.133,-1000.000,-1000.000,-103.027,-1000.000
1742550867.137,-403.320,-145.020,-86.914,-905.762
1742550867.141,907.227,997.070,12.695,346.191
1742550867.145,955.566,968.262,71.777,999.512
1742550867.149,999.512,873.535,30.273,999.512
1742550867.152,-20.508,-333.984,-99.609,156.250
1742550867.156,-1000.000,-1000.000,-163.574,-1000.000
1742550867.160,-882.812,-443.848,-50.781,-1000.000
1742550867.164,371.094,803.711,49.316,131.348
1742550867.168,999.512,999.512,0.977,999.512
1742550867.125,361.816,125.000,-15.137,954.590
1742550867.129,-886.230,-1000.000,-56.152,-244.629
1742550867.133,-1000.000,-1000.000,-103.027,-1000.000
1742550867.137,-403.320,-145.020,-86.914,-905.762
1742550867.141,907.227,997.070,12.695,346.191
1742550867.145,955.566,968.262,71.777,999.512
1742550867.149,999.512,873.535,30.273,999.512
1742550867.152,-20.508,-333.984,-99.609,156.250
1742550867.156,-1000.000,-1000.000,-163.574,-1000.000
1742550867.160,-882.812,-443.848,-50.781,-1000.000
1742550867.164,371.094,803.711,49.316,131.348
1742550867.168,999.512,999.512,0.977,999.512
1742550867.185,854.004,609.375,-80.078,941.406
1742550867.189,-355.469,-719.238,-153.320,-211.914
1742550867.193,-1000.000,-1000.000,-84.961,-1000.000
1742550867.197,-152.832,70.312,29.297,-185.059
1742550867.201,965.820,999.512,21.973,957.520
1742550867.205,999.512,999.512,-18.555,999.512
1742550867.209,180.664,84.473,-94.727,250.000
1742550867.212,-994.629,-1000.000,-104.980,-960.938
1742550867.216,-1000.000,-1000.000,-24.414,-1000.000
1742550867.220,-191.895,-125.000,51.270,-255.859
1742550867.224,968.262,999.512,13.184,940.430
1742550867.228,999.512,902.344,-65.430,999.512
1742550867.185,854.004,609.375,-80.078,941.406
1742550867.189,-355.469,-719.238,-153.320,-211.914
1742550867.193,-1000.000,-1000.000,-84.961,-1000.000
1742550867.197,-152.832,70.312,29.297,-185.059
1742550867.201,965.820,999.512,21.973,957.520
1742550867.205,999.512,999.512,-18.555,999.512
1742550867.209,180.664,84.473,-94.727,250.000
1742550867.212,-994.629,-1000.000,-104.980,-960.938
1742550867.216,-1000.000,-1000.000,-24.414,-1000.000
1742550867.220,-191.895,-125.000,51.270,-255.859
1742550867.224,968.262,999.512,13.184,940.430
1742550867.228,999.512,902.344,-65.430,999.512
1742550867.230,221.680,-257.812,-93.262,218.750
1742550867.234,-1000.000,-1000.000,-62.012,-1000.000
1742550867.238,-514.648,-151.855,45.898,-655.762
1742550867.242,923.340,999.512,-27.344,793.457
1742550867.246,937.500,732.422,-109.375,959.473
1742550867.250,999.512,911.621,-33.203,999.512
1742550867.254,187.500,121.094,-35.645,355.957
1742550867.257,-1000.000,-1000.000,-78.125,-1000.000
1742550867.261,-1000.000,-1000.000,-131.836,-961.914
1742550867.265,-711.426,-394.043,-120.117,-1000.000
1742550867.269,593.262,881.348,-30.762,-125.977
1742550867.273,999.512,999.512,23.926,999.512
1742550867.230,221.680,-257.812,-93.262,218.750
1742550867.234,-1000.000,-1000.000,-62.012,-1000.000
1742550867.238,-514.648,-151.855,45.898,-655.762
1742550867.242,923.340,999.512,-27.344,793.457
1742550867.246,937.500,732.422,-109.375,959.473
1742550867.250,999.512,911.621,-33.203,999.512
1742550867.254,187.500,121.094,-35.645,355.957
1742550867.257,-1000.000,-1000.000,-78.125,-1000.000
1742550867.261,-1000.000,-1000.000,-131.836,-961.914
1742550867.265,-711.426,-394.043,-120.117,-1000.000
1742550867.269,593.262,881.348,-30.762,-125.977
1742550867.273,999.512,999.512,23.926,999.512
1742550867.230,221.680,-257.812,-93.262,218.750
1742550867.234,-1000.000,-1000.000,-62.012,-1000.000
1742550867.238,-514.648,-151.855,45.898,-655.762
1742550867.242,923.340,999.512,-27.344,793.457
1742550867.246,937.500,732.422,-109.375,959.473
1742550867.250,999.512,911.621,-33.203,999.512
1742550867.254,187.500,121.094,-35.645,355.957
1742550867.257,-1000.000,-1000.000,-78.125,-1000.000
1742550867.261,-1000.000,-1000.000,-131.836,-961.914
1742550867.265,-711.426,-394.043,-120.117,-1000.000
1742550867.269,593.262,881.348,-30.762,-125.977
1742550867.273,999.512,999.512,23.926,999.512
1742550867.275,458.496,149.902,-0.977,970.703
1742550867.279,-813.477,-1000.000,-60.547,-161.621
1742550867.283,-1000.000,-1000.000,-92.285,-1000.000
1742550867.287,-276.367,-2.930,-79.590,-847.168
1742550867.291,979.492,999.512,-37.109,448.242
1742550867.295,908.691,891.602,13.672,999.512
1742550867.299,999.512,999.512,-23.926,999.512
1742550867.302,184.570,61.035,-187.012,201.660
1742550867.306,-1000.000,-1000.000,-229.004,-1000.000
1742550867.310,-1000.000,-694.336,-71.289,-1000.000
1742550867.314,65.918,598.145,35.156,-93.262
1742550867.318,999.512,999.512,-9.277,999.512
1742550867.275,458.496,149.902,-0.977,970.703
1742550867.279,-813.477,-1000.000,-60.547,-161.621
1742550867.283,-1000.000,-1000.000,-92.285,-1000.000
1742550867.287,-276.367,-2.930,-79.590,-847.168
1742550867.291,979.492,999.512,-37.109,448.242
1742550867.295,908.691,891.602,13.672,999.512
1742550867.299,999.512,999.512,-23.926,999.512
1742550867.302,184.570,61.035,-187.012,201.660
1742550867.306,-1000.000,-1000.000,-229.004,-1000.000
1742550867.310,-1000.000,-694.336,-71.289,-1000.000
1742550867.314,65.918,598.145,35.156,-93.262
1742550867.318,999.512,999.512,-9.277,999.512
1742550867.320,922.363,325.684,-77.637,982.910
1742550867.324,-240.234,-844.727,-100.586,-147.949
1742550867.328,-1000.000,-1000.000,-65.430,-1000.000
1742550867.332,-549.805,-229.980,-34.668,-685.059
1742550867.336,823.730,999.512,-42.969,687.012
1742550867.340,960.449,901.367,-69.824,984.375
1742550867.344,999.512,999.512,-70.801,999.512
1742550867.347,195.312,161.621,-53.223,223.633
1742550867.351,-1000.000,-1000.000,-113.281,-1000.000
1742550867.355,-1000.000,-1000.000,-104.980,-1000.000
1742550867.359,-318.359,-137.207,-69.824,-841.309
1742550867.363,982.422,999.512,-71.289,475.586
1742550867.320,922.363,325.684,-77.637,982.910
1742550867.324,-240.234,-844.727,-100.586,-147.949
1742550867.328,-1000.000,-1000.000,-65.430,-1000.000
1742550867.332,-549.805,-229.980,-34.668,-685.059
1742550867.336,823.730,999.512,-42.969,687.012
1742550867.340,960.449,901.367,-69.824,984.375
1742550867.344,999.512,999.512,-70.801,999.512
1742550867.347,195.312,161.621,-53.223,223.633
1742550867.351,-1000.000,-1000.000,-113.281,-1000.000
1742550867.355,-1000.000,-1000.000,-104.980,-1000.000
1742550867.359,-318.359,-137.207,-69.824,-841.309
1742550867.363,982.422,999.512,-71.289,475.586
1742550867.365,980.469,509.766,-32.227,999.512
1742550867.369,891.602,-1000.000,32.227,879.395
1742550867.373,985.840,-114.746,42.480,957.520
1742550867.377,960.449,999.512,-30.762,999.512
1742550867.381,-353.516,-632.324,-132.324,-198.730
1742550867.385,-1000.000,-532.715,-35.645,-1000.000
1742550867.389,-936.523,999.512,53.711,-950.195
1742550867.392,-942.871,-104.004,-30.762,-928.223
1742550867.396,-1000.000,-1000.000,-87.891,-1000.000
1742550867.400,-227.051,-192.871,-41.992,-366.699
1742550867.404,986.328,999.512,44.434,910.645
1742550867.408,999.512,316.406,10.742,999.512
1742550867.410,66.895,-964.355,-35.156,546.875
1742550867.414,-1000.000,-1000.000,-58.105,-722.168
1742550867.418,-1000.000,-604.980,-65.430,-1000.000
1742550867.422,-50.293,749.512,-35.156,-264.160
1742550867.426,999.512,925.781,8.789,987.305
1742550867.430,880.859,781.250,61.035,906.250
1742550867.434,999.512,999.512,65.430,999.512
1742550867.437,56.152,-103.516,-72.754,181.641
1742550867.441,-1000.000,-1000.000,-119.141,-1000.000
1742550867.445,-1000.000,-955.078,-15.137,-1000.000
1742550867.449,-247.070,96.680,59.082,-234.375
1742550867.453,999.512,999.512,46.387,999.512
1742550867.410,66.895,-964.355,-35.156,546.875
1742550867.414,-1000.000,-1000.000,-58.105,-722.168
1742550867.418,-1000.000,-604.980,-65.430,-1000.000
1742550867.422,-50.293,749.512,-35.156,-264.160
1742550867.426,999.512,925.781,8.789,987.305
1742550867.430,880.859,781.250,61.035,906.250
1742550867.434,999.512,999.512,65.430,999.512
1742550867.437,56.152,-103.516,-72.754,181.641
1742550867.441,-1000.000,-1000.000,-119.141,-1000.000
1742550867.445,-1000.000,-955.078,-15.137,-1000.000
1742550867.449,-247.070,96.680,59.082,-234.375
1742550867.453,999.512,999.512,46.387,999.512
1742550867.410,66.895,-964.355,-35.156,546.875
1742550867.414,-1000.000,-1000.000,-58.105,-722.168
1742550867.418,-1000.000,-604.980,-65.430,-1000.000
1742550867.422,-50.293,749.512,-35.156,-264.160
1742550867.426,999.512,925.781,8.789,987.305
1742550867.430,880.859,781.250,61.035,906.250
1742550867.434,999.512,999.512,65.430,999.512
1742550867.437,56.152,-103.516,-72.754,181.641
1742550867.441,-1000.000,-1000.000,-119.141,-1000.000
1742550867.445,-1000.000,-955.078,-15.137,-1000.000
1742550867.449,-247.070,96.680,59.082,-234.375
1742550867.453,999.512,999.512,46.387,999.512
1742550867.458,832.031,458.496,-72.266,921.875
1742550867.462,-500.488,-911.621,-104.004,-353.027
1742550867.466,-1000.000,-1000.000,-1.465,-1000.000
1742550867.470,-139.648,206.055,42.480,-143.555
1742550867.474,963.867,988.770,-8.301,982.422
1742550867.478,999.512,999.512,-18.555,992.188
1742550867.482,690.430,489.258,-30.762,817.383
1742550867.485,-620.605,-840.332,-62.988,-439.453
1742550867.489,-1000.000,-1000.000,-26.367,-1000.000
1742550867.493,-387.207,-227.539,57.617,-540.039
1742550867.497,884.766,999.512,69.824,766.113
1742550867.501,999.512,722.656,-18.555,999.512
1742550867.458,832.031,458.496,-72.266,921.875
1742550867.462,-500.488,-911.621,-104.004,-353.027
1742550867.466,-1000.000,-1000.000,-1.465,-1000.000
1742550867.470,-139.648,206.055,42.480,-143.555
1742550867.474,963.867,988.770,-8.301,982.422
1742550867.478,999.512,999.512,-18.555,992.188
1742550867.482,690.430,489.258,-30.762,817.383
1742550867.485,-620.605,-840.332,-62.988,-439.453
1742550867.489,-1000.000,-1000.000,-26.367,-1000.000
1742550867.493,-387.207,-227.539,57.617,-540.039
1742550867.497,884.766,999.512,69.824,766.113
1742550867.501,999.512,722.656,-18.555,999.512
1742550867.500,54.199,-621.094,-26.367,138.672
1742550867.504,-1000.000,-1000.000,40.527,-1000.000
1742550867.508,-414.062,9.277,93.750,-541.992
1742550867.512,999.512,999.512,20.996,979.492
1742550867.516,593.262,119.629,-104.492,744.629
1742550867.520,-828.613,-1000.000,-70.312,-684.570
1742550867.524,-1000.000,-756.348,1.953,-1000.000
1742550867.527,65.430,821.289,51.758,-17.578
1742550867.531,999.512,326.660,-63.477,999.512
1742550867.535,29.297,-1000.000,-150.391,107.910
1742550867.539,-1000.000,-1000.000,-74.219,-1000.000
1742550867.543,-339.355,-144.043,17.578,-480.469
1742550867.500,54.199,-621.094,-26.367,138.672
1742550867.504,-1000.000,-1000.000,40.527,-1000.000
1742550867.508,-414.062,9.277,93.750,-541.992
1742550867.512,999.512,999.512,20.996,979.492
1742550867.516,593.262,119.629,-104.492,744.629
1742550867.520,-828.613,-1000.000,-70.312,-684.570
1742550867.524,-1000.000,-756.348,1.953,-1000.000
1742550867.527,65.430,821.289,51.758,-17.578
1742550867.531,999.512,326.660,-63.477,999.512
1742550867.535,29.297,-1000.000,-150.391,107.910
1742550867.539,-1000.000,-1000.000,-74.219,-1000.000
1742550867.543,-339.355,-144.043,17.578,-480.469
1742550867.560,910.645,973.633,47.852,843.262
1742550867.564,999.512,999.512,-9.277,999.512
1742550867.568,410.156,238.281,-44.922,503.418
1742550867.572,-892.090,-1000.000,-76.172,-804.199
1742550867.576,-1000.000,-1000.000,-15.137,-1000.000
1742550867.580,-174.316,154.297,93.262,-205.078
1742550867.584,999.512,999.512,68.848,999.512
1742550867.587,389.160,173.340,-83.984,479.980
1742550867.591,-937.012,-1000.000,-170.898,-884.766
1742550867.595,-1000.000,-984.863,-57.617,-1000.000
1742550867.599,-238.770,148.926,43.945,-224.609
1742550867.603,999.512,999.512,46.875,999.512
1742550867.560,910.645,973.633,47.852,843.262
1742550867.564,999.512,999.512,-9.277,999.512
1742550867.568,410.156,238.281,-44.922,503.418
1742550867.572,-892.090,-1000.000,-76.172,-804.199
1742550867.576,-1000.000,-1000.000,-15.137,-1000.000
1742550867.580,-174.316,154.297,93.262,-205.078
1742550867.584,999.512,999.512,68.848,999.512
1742550867.587,389.160,173.340,-83.984,479.980
1742550867.591,-937.012,-1000.000,-170.898,-884.766
1742550867.595,-1000.000,-984.863,-57.617,-1000.000
1742550867.599,-238.770,148.926,43.945,-224.609
1742550867.603,999.512,999.512,46.875,999.512
1742550867.605,655.762,333.496,-47.852,770.996
1742550867.609,-737.793,-1000.000,-73.730,-582.520
1742550867.613,-1000.000,-886.230,22.461,-1000.000
1742550867.617,-87.891,533.691,74.219,-121.582
1742550867.621,980.469,857.910,45.410,991.211
1742550867.625,999.512,861.816,-0.488,966.797
1742550867.629,788.574,655.762,-21.484,901.855
1742550867.632,-593.262,-769.531,-40.039,-396.484
1742550867.636,-1000.000,-1000.000,-67.871,-1000.000
1742550867.640,-1000.000,-998.535,-101.074,-1000.000
1742550867.644,-233.398,-33.203,-89.355,-377.441
1742550867.648,980.957,999.512,-86.426,902.344
1742550867.605,655.762,333.496,-47.852,770.996
1742550867.609,-737.793,-1000.000,-73.730,-582.520
1742550867.613,-1000.000,-886.230,22.461,-1000.000
1742550867.617,-87.891,533.691,74.219,-121.582
1742550867.621,980.469,857.910,45.410,991.211
1742550867.625,999.512,861.816,-0.488,966.797
1742550867.629,788.574,655.762,-21.484,901.855
1742550867.632,-593.262,-769.531,-40.039,-396.484
1742550867.636,-1000.000,-1000.000,-67.871,-1000.000
1742550867.640,-1000.000,-998.535,-101.074,-1000.000
1742550867.644,-233.398,-33.203,-89.355,-377.441
1742550867.648,980.957,999.512,-86.426,902.344
1742550867.650,999.512,637.695,-58.105,999.512
1742550867.654,104.004,-625.977,-39.062,448.242
1742550867.658,-1000.000,-1000.000,-45.410,-856.445
1742550867.662,-1000.000,-750.000,-70.312,-1000.000
1742550867.666,-159.180,489.746,-117.676,-958.008
1742550867.670,978.516,999.512,-18.066,123.047
1742550867.674,999.512,982.910,45.898,999.512
1742550867.677,169.434,-18.555,-44.434,487.305
1742550867.681,-1000.000,-1000.000,-135.742,-798.828
1742550867.685,-1000.000,-791.504,-109.863,-1000.000
1742550867.689,-123.047,447.754,-17.090,-193.359
1742550867.693,999.512,999.512,-5.859,958.984
1742550867.695,784.180,200.684,-48.828,999.512
1742550867.699,-506.348,-966.309,-118.652,114.258
1742550867.703,-1000.000,-1000.000,-141.113,-1000.000
1742550867.707,-787.109,-264.160,-84.473,-1000.000
1742550867.711,521.973,987.793,-21.973,-39.062
1742550867.715,999.512,915.039,48.340,999.512
1742550867.719,999.512,999.512,19.531,999.512
1742550867.722,187.988,90.820,-106.445,181.641
1742550867.726,-1000.000,-1000.000,-130.859,-986.328
1742550867.730,-1000.000,-1000.000,-20.996,-1000.000
1742550867.734,-351.562,-142.090,43.457,-458.496
1742550867.738,895.996,966.309,25.391,853.516
1742550867.741,999.512,999.512,-15.137,999.512
1742550867.745,623.535,408.203,-40.527,774.414
1742550867.749,-748.047,-902.832,-33.691,-553.711
1742550867.753,-1000.000,-1000.000,40.039,-1000.000
1742550867.757,-1000.000,-774.414,-17.090,-1000.000
1742550867.761,-102.051,434.082,-16.602,-275.879
1742550867.765,999.512,999.512,11.230,999.512
1742550867.768,233.398,-29.297,-39.062,472.168
1742550867.772,-1000.000,-1000.000,-15.137,-948.730
1742550867.776,-912.598,-360.352,28.809,-1000.000
1742550867.780,402.344,937.012,3.418,178.711
1742550867.784,999.512,999.512,-28.320,999.512
1742550867.785,169.434,10.742,-44.434,240.234
1742550867.789,-1000.000,-1000.000,-21.484,-1000.000
1742550867.793,-890.625,-505.371,43.945,-1000.000
1742550867.797,495.117,999.512,20.508,273.926
1742550867.801,999.512,430.664,-100.098,999.512
1742550867.805,831.543,-548.340,-44.922,834.473
1742550867.809,999.512,945.312,66.406,999.512
1742550867.812,270.020,344.238,-3.906,550.781
1742550867.816,-964.355,-1000.000,-149.414,-845.703
1742550867.820,-1000.000,-1000.000,-135.254,-1000.000
1742550867.824,-448.242,-54.688,-37.109,-965.820
1742550867.828,833.008,999.512,12.695,117.188
1742550867.785,169.434,10.742,-44.434,240.234
1742550867.789,-1000.000,-1000.000,-21.484,-1000.000
1742550867.793,-890.625,-505.371,43.945,-1000.000
1742550867.797,495.117,999.512,20.508,273.926
1742550867.801,999.512,430.664,-100.098,999.512
1742550867.805,831.543,-548.340,-44.922,834.473
1742550867.809,999.512,945.312,66.406,999.512
1742550867.812,270.020,344.238,-3.906,550.781
1742550867.816,-964.355,-1000.000,-149.414,-845.703
1742550867.820,-1000.000,-1000.000,-135.254,-1000.000
1742550867.824,-448.242,-54.688,-37.109,-965.820
1742550867.828,833.008,999.512,12.695,117.188
1742550867.785,169.434,10.742,-44.434,240.234
1742550867.789,-1000.000,-1000.000,-21.484,-1000.000
1742550867.793,-890.625,-505.371,43.945,-1000.000
1742550867.797,495.117,999.512,20.508,273.926
1742550867.801,999.512,430.664,-100.098,999.512
1742550867.805,831.543,-548.340,-44.922,834.473
1742550867.809,999.512,945.312,66.406,999.512
1742550867.812,270.020,344.238,-3.906,550.781
1742550867.816,-964.355,-1000.000,-149.414,-845.703
1742550867.820,-1000.000,-1000.000,-135.254,-1000.000
1742550867.824,-448.242,-54.688,-37.109,-965.820
1742550867.828,833.008,999.512,12.695,117.188
1742550867.785,169.434,10.742,-44.434,240.234
1742550867.789,-1000.000,-1000.000,-21.484,-1000.000
1742550867.793,-890.625,-505.371,43.945,-1000.000
1742550867.797,495.117,999.512,20.508,273.926
1742550867.801,999.512,430.664,-100.098,999.512
1742550867.805,831.543,-548.340,-44.922,834.473
1742550867.809,999.512,945.312,66.406,999.512
1742550867.812,270.020,344.238,-3.906,550.781
1742550867.816,-964.355,-1000.000,-149.414,-845.703
1742550867.820,-1000.000,-1000.000,-135.254,-1000.000
1742550867.824,-448.242,-54.688,-37.109,-965.820
1742550867.828,833.008,999.512,12.695,117.188
1742550867.785,169.434,10.742,-44.434,240.234
1742550867.789,-1000.000,-1000.000,-21.484,-1000.000
1742550867.793,-890.625,-505.371,43.945,-1000.000
1742550867.797,495.117,999.512,20.508,273.926
1742550867.801,999.512,430.664,-100.098,999.512
1742550867.805,831.543,-548.340,-44.922,834.473
1742550867.809,999.512,945.312,66.406,999.512
1742550867.812,270.020,344.238,-3.906,550.781
1742550867.816,-964.355,-1000.000,-149.414,-845.703
1742550867.820,-1000.000,-1000.000,-135.254,-1000.000
1742550867.824,-448.242,-54.688,-37.109,-965.820
1742550867.828,833.008,999.512,12.695,117.188
1742550867.785,169.434,10.742,-44.434,240.234
1742550867.789,-1000.000,-1000.000,-21.484,-1000.000
1742550867.793,-890.625,-505.371,43.945,-1000.000
1742550867.797,495.117,999.512,20.508,273.926
1742550867.801,999.512,430.664,-100.098,999.512
1742550867.805,831.543,-548.340,-44.922,834.473
1742550867.809,999.512,945.312,66.406,999.512
1742550867.812,270.020,344.238,-3.906,550.781
1742550867.816,-964.355,-1000.000,-149.414,-845.703
1742550867.820,-1000.000,-1000.000,-135.254,-1000.000
1742550867.824,-448.242,-54.688,-37.109,-965.820
1742550867.828,833.008,999.512,12.695,117.188
1742550867.785,169.434,10.742,-44.434,240.234
1742550867.789,-1000.000,-1000.000,-21.484,-1000.000
1742550867.793,-890.625,-505.371,43.945,-1000.000
1742550867.797,495.117,999.512,20.508,273.926
1742550867.801,999.512,430.664,-100.098,999.512
1742550867.805,831.543,-548.340,-44.922,834.473
1742550867.809,999.512,945.312,66.406,999.512
1742550867.812,270.020,344.238,-3.906,550.781
1742550867.816,-964.355,-1000.000,-149.414,-845.703
1742550867.820,-1000.000,-1000.000,-135.254,-1000.000
1742550867.824,-448.242,-54.688,-37.109,-965.820
1742550867.828,833.008,999.512,12.695,117.188
1742550867.785,169.434,10.742,-44.434,240.234
1742550867.789,-1000.000,-1000.000,-21.484,-1000.000
1742550867.793,-890.625,-505.371,43.945,-1000.000
1742550867.797,495.117,999.512,20.508,273.926
1742550867.801,999.512,430.664,-100.098,999.512
1742550867.805,831.543,-548.340,-44.922,834.473
1742550867.809,999.512,945.312,66.406,999.512
1742550867.812,270.020,344.238,-3.906,550.781
1742550867.816,-964.355,-1000.000,-149.414,-845.703
1742550867.820,-1000.000,-1000.000,-135.254,-1000.000
1742550867.824,-448.242,-54.688,-37.109,-965.820
1742550867.828,833.008,999.512,12.695,117.188
1742550867.785,169.434,10.742,-44.434,240.234
1742550867.789,-1000.000,-1000.000,-21.484,-1000.000
1742550867.793,-890.625,-505.371,43.945,-1000.000
1742550867.797,495.117,999.512,20.508,273.926
1742550867.801,999.512,430.664,-100.098,999.512
1742550867.805,831.543,-548.340,-44.922,834.473
1742550867.809,999.512,945.312,66.406,999.512
1742550867.812,270.020,344.238,-3.906,550.781
1742550867.816,-964.355,-1000.000,-149.414,-845.703
1742550867.820,-1000.000,-1000.000,-135.254,-1000.000
1742550867.824,-448.242,-54.688,-37.109,-965.820
1742550867.828,833.008,999.512,12.695,117.188
1742550867.785,169.434,10.742,-44.434,240.234
1742550867.789,-1000.000,-1000.000,-21.484,-1000.000
1742550867.793,-890.625,-505.371,43.945,-1000.000
1742550867.797,495.117,999.512,20.508,273.926
1742550867.801,999.512,430.664,-100.098,999.512
1742550867.805,831.543,-548.340,-44.922,834.473
1742550867.809,999.512,945.312,66.406,999.512
1742550867.812,270.020,344.238,-3.906,550.781
1742550867.816,-964.355,-1000.000,-149.414,-845.703
1742550867.820,-1000.000,-1000.000,-135.254,-1000.000
1742550867.824,-448.242,-54.688,-37.109,-965.820
1742550867.828,833.008,999.512,12.695,117.188
1742550867.785,169.434,10.742,-44.434,240.234
1742550867.789,-1000.000,-1000.000,-21.484,-1000.000
1742550867.793,-890.625,-505.371,43.945,-1000.000
1742550867.797,495.117,999.512,20.508,273.926
1742550867.801,999.512,430.664,-100.098,999.512
1742550867.805,831.543,-548.340,-44.922,834.473
1742550867.809,999.512,945.312,66.406,999.512
1742550867.812,270.020,344.238,-3.906,550.781
1742550867.816,-964.355,-1000.000,-149.414,-845.703
1742550867.820,-1000.000,-1000.000,-135.254,-1000.000
1742550867.824,-448.242,-54.688,-37.109,-965.820
1742550867.828,833.008,999.512,12.695,117.188
1742550867.785,169.434,10.742,-44.434,240.234
1742550867.789,-1000.000,-1000.000,-21.484,-1000.000
1742550867.793,-890.625,-505.371,43.945,-1000.000
1742550867.797,495.117,999.512,20.508,273.926
1742550867.801,999.512,430.664,-100.098,999.512
1742550867.805,831.543,-548.340,-44.922,834.473
1742550867.809,999.512,945.312,66.406,999.512
1742550867.812,270.020,344.238,-3.906,550.781
1742550867.816,-964.355,-1000.000,-149.414,-845.703
1742550867.820,-1000.000,-1000.000,-135.254,-1000.000
1742550867.824,-448.242,-54.688,-37.109,-965.820
1742550867.828,833.008,999.512,12.695,117.188
1742550867.830,999.512,949.219,13.184,999.512
1742550867.834,266.113,-130.859,-74.707,491.211
1742550867.838,-945.312,-1000.000,-129.395,-815.430
1742550867.842,-1000.000,-983.887,-84.961,-1000.000
1742550867.846,-180.664,129.395,43.945,-183.105
1742550867.850,966.309,999.512,100.098,954.590
1742550867.854,999.512,970.703,-7.324,999.512
1742550867.857,213.379,-53.223,-155.762,207.520
1742550867.861,-1000.000,-1000.000,-203.613,-1000.000
1742550867.865,-709.473,-318.848,-37.109,-877.441
1742550867.869,669.922,999.512,31.250,441.895
1742550867.873,999.512,914.062,-52.246,999.512
1742550867.830,999.512,949.219,13.184,999.512
1742550867.834,266.113,-130.859,-74.707,491.211
1742550867.838,-945.312,-1000.000,-129.395,-815.430
1742550867.842,-1000.000,-983.887,-84.961,-1000.000
1742550867.846,-180.664,129.395,43.945,-183.105
1742550867.850,966.309,999.512,100.098,954.590
1742550867.854,999.512,970.703,-7.324,999.512
1742550867.857,213.379,-53.223,-155.762,207.520
1742550867.861,-1000.000,-1000.000,-203.613,-1000.000
1742550867.865,-709.473,-318.848,-37.109,-877.441
1742550867.869,669.922,999.512,31.250,441.895
1742550867.873,999.512,914.062,-52.246,999.512
1742550867.830,999.512,949.219,13.184,999.512
1742550867.834,266.113,-130.859,-74.707,491.211
1742550867.838,-945.312,-1000.000,-129.395,-815.430
1742550867.842,-1000.000,-983.887,-84.961,-1000.000
1742550867.846,-180.664,129.395,43.945,-183.105
1742550867.850,966.309,999.512,100.098,954.590
1742550867.854,999.512,970.703,-7.324,999.512
1742550867.857,213.379,-53.223,-155.762,207.520
1742550867.861,-1000.000,-1000.000,-203.613,-1000.000
1742550867.865,-709.473,-318.848,-37.109,-877.441
1742550867.869,669.922,999.512,31.250,441.895
1742550867.873,999.512,914.062,-52.246,999.512
1742550867.830,999.512,949.219,13.184,999.512
1742550867.834,266.113,-130.859,-74.707,491.211
1742550867.838,-945.312,-1000.000,-129.395,-815.430
1742550867.842,-1000.000,-983.887,-84.961,-1000.000
1742550867.846,-180.664,129.395,43.945,-183.105
1742550867.850,966.309,999.512,100.098,954.590
1742550867.854,999.512,970.703,-7.324,999.512
1742550867.857,213.379,-53.223,-155.762,207.520
1742550867.861,-1000.000,-1000.000,-203.613,-1000.000
1742550867.865,-709.473,-318.848,-37.109,-877.441
1742550867.869,669.922,999.512,31.250,441.895
1742550867.873,999.512,914.062,-52.246,999.512
1742550867.830,999.512,949.219,13.184,999.512
1742550867.834,266.113,-130.859,-74.707,491.211
1742550867.838,-945.312,-1000.000,-129.395,-815.430
1742550867.842,-1000.000,-983.887,-84.961,-1000.000
1742550867.846,-180.664,129.395,43.945,-183.105
1742550867.850,966.309,999.512,100.098,954.590
1742550867.854,999.512,970.703,-7.324,999.512
1742550867.857,213.379,-53.223,-155.762,207.520
1742550867.861,-1000.000,-1000.000,-203.613,-1000.000
1742550867.865,-709.473,-318.848,-37.109,-877.441
1742550867.869,669.922,999.512,31.250,441.895
1742550867.873,999.512,914.062,-52.246,999.512
1742550867.830,999.512,949.219,13.184,999.512
1742550867.834,266.113,-130.859,-74.707,491.211
1742550867.838,-945.312,-1000.000,-129.395,-815.430
1742550867.842,-1000.000,-983.887,-84.961,-1000.000
1742550867.846,-180.664,129.395,43.945,-183.105
1742550867.850,966.309,999.512,100.098,954.590
1742550867.854,999.512,970.703,-7.324,999.512
1742550867.857,213.379,-53.223,-155.762,207.520
1742550867.861,-1000.000,-1000.000,-203.613,-1000.000
1742550867.865,-709.473,-318.848,-37.109,-877.441
1742550867.869,669.922,999.512,31.250,441.895
1742550867.873,999.512,914.062,-52.246,999.512
1742550867.830,999.512,949.219,13.184,999.512
1742550867.834,266.113,-130.859,-74.707,491.211
1742550867.838,-945.312,-1000.000,-129.395,-815.430
1742550867.842,-1000.000,-983.887,-84.961,-1000.000
1742550867.846,-180.664,129.395,43.945,-183.105
1742550867.850,966.309,999.512,100.098,954.590
1742550867.854,999.512,970.703,-7.324,999.512
1742550867.857,213.379,-53.223,-155.762,207.520
1742550867.861,-1000.000,-1000.000,-203.613,-1000.000
1742550867.865,-709.473,-318.848,-37.109,-877.441
1742550867.869,669.922,999.512,31.250,441.895
1742550867.873,999.512,914.062,-52.246,999.512
1742550867.830,999.512,949.219,13.184,999.512
1742550867.834,266.113,-130.859,-74.707,491.211
1742550867.838,-945.312,-1000.000,-129.395,-815.430
1742550867.842,-1000.000,-983.887,-84.961,-1000.000
1742550867.846,-180.664,129.395,43.945,-183.105
1742550867.850,966.309,999.512,100.098,954.590
1742550867.854,999.512,970.703,-7.324,999.512
1742550867.857,213.379,-53.223,-155.762,207.520
1742550867.861,-1000.000,-1000.000,-203.613,-1000.000
1742550867.865,-709.473,-318.848,-37.109,-877.441
1742550867.869,669.922,999.512,31.250,441.895
1742550867.873,999.512,914.062,-52.246,999.512
1742550867.830,999.512,949.219,13.184,999.512
1742550867.834,266.113,-130.859,-74.707,491.211
1742550867.838,-945.312,-1000.000,-129.395,-815.430
1742550867.842,-1000.000,-983.887,-84.961,-1000.000
1742550867.846,-180.664,129.395,43.945,-183.105
1742550867.850,966.309,999.512,100.098,954.590
1742550867.854,999.512,970.703,-7.324,999.512
1742550867.857,213.379,-53.223,-155.762,207.520
1742550867.861,-1000.000,-1000.000,-203.613,-1000.000
1742550867.865,-709.473,-318.848,-37.109,-877.441
1742550867.869,669.922,999.512,31.250,441.895
1742550867.873,999.512,914.062,-52.246,999.512
1742550867.830,999.512,949.219,13.184,999.512
1742550867.834,266.113,-130.859,-74.707,491.211
1742550867.838,-945.312,-1000.000,-129.395,-815.430
1742550867.842,-1000.000,-983.887,-84.961,-1000.000
1742550867.846,-180.664,129.395,43.945,-183.105
1742550867.850,966.309,999.512,100.098,954.590
1742550867.854,999.512,970.703,-7.324,999.512
1742550867.857,213.379,-53.223,-155.762,207.520
1742550867.861,-1000.000,-1000.000,-203.613,-1000.000
1742550867.865,-709.473,-318.848,-37.109,-877.441
1742550867.869,669.922,999.512,31.250,441.895
1742550867.873,999.512,914.062,-52.246,999.512
1742550867.830,999.512,949.219,13.184,999.512
1742550867.834,266.113,-130.859,-74.707,491.211
1742550867.838,-945.312,-1000.000,-129.395,-815.430
1742550867.842,-1000.000,-983.887,-84.961,-1000.000
1742550867.846,-180.664,129.395,43.945,-183.105
1742550867.850,966.309,999.512,100.098,954.590
1742550867.854,999.512,970.703,-7.324,999.512
1742550867.857,213.379,-53.223,-155.762,207.520
1742550867.861,-1000.000,-1000.000,-203.613,-1000.000
1742550867.865,-709.473,-318.848,-37.109,-877.441
1742550867.869,669.922,999.512,31.250,441.895
1742550867.873,999.512,914.062,-52.246,999.512
1742550867.830,999.512,949.219,13.184,999.512
1742550867.834,266.113,-130.859,-74.707,491.211
1742550867.838,-945.312,-1000.000,-129.395,-815.430
1742550867.842,-1000.000,-983.887,-84.961,-1000.000
1742550867.846,-180.664,129.395,43.945,-183.105
1742550867.850,966.309,999.512,100.098,954.590
1742550867.854,999.512,970.703,-7.324,999.512
1742550867.857,213.379,-53.223,-155.762,207.520
1742550867.861,-1000.000,-1000.000,-203.613,-1000.000
1742550867.865,-709.473,-318.848,-37.109,-877.441
1742550867.869,669.922,999.512,31.250,441.895
1742550867.873,999.512,914.062,-52.246,999.512
1742550867.830,999.512,949.219,13.184,999.512
1742550867.834,266.113,-130.859,-74.707,491.211
1742550867.838,-945.312,-1000.000,-129.395,-815.430
1742550867.842,-1000.000,-983.887,-84.961,-1000.000
1742550867.846,-180.664,129.395,43.945,-183.105
1742550867.850,966.309,999.512,100.098,954.590
1742550867.854,999.512,970.703,-7.324,999.512
1742550867.857,213.379,-53.223,-155.762,207.520
1742550867.861,-1000.000,-1000.000,-203.613,-1000.000
1742550867.865,-709.473,-318.848,-37.109,-877.441
1742550867.869,669.922,999.512,31.250,441.895
1742550867.873,999.512,914.062,-52.246,999.512
1742550867.830,999.512,949.219,13.184,999.512
1742550867.834,266.113,-130.859,-74.707,491.211
1742550867.838,-945.312,-1000.000,-129.395,-815.430
1742550867.842,-1000.000,-983.887,-84.961,-1000.000
1742550867.846,-180.664,129.395,43.945,-183.105
1742550867.850,966.309,999.512,100.098,954.590
1742550867.854,999.512,970.703,-7.324,999.512
1742550867.857,213.379,-53.223,-155.762,207.520
1742550867.861,-1000.000,-1000.000,-203.613,-1000.000
1742550867.865,-709.473,-318.848,-37.109,-877.441
1742550867.869,669.922,999.512,31.250,441.895
1742550867.873,999.512,914.062,-52.246,999.512
1742550867.875,168.457,-325.684,-135.742,169.922
1742550867.879,-1000.000,-1000.000,-115.723,-1000.000
1742550867.883,-693.359,-291.016,10.254,-861.816
1742550867.887,762.207,993.652,49.805,544.922
1742550867.891,962.891,900.879,-11.719,999.512
1742550867.895,999.512,999.512,-8.301,993.164
1742550867.899,521.973,416.504,-33.691,681.641
1742550867.902,-916.504,-930.176,-62.988,-763.672
1742550867.906,-992.676,-1000.000,-18.555,-1000.000
1742550867.910,-1000.000,-844.238,-51.758,-1000.000
1742550867.914,-116.699,314.941,-81.055,-229.492
1742550867.918,999.512,999.512,-72.754,993.164
1742550867.875,168.457,-325.684,-135.742,169.922
1742550867.879,-1000.000,-1000.000,-115.723,-1000.000
1742550867.883,-693.359,-291.016,10.254,-861.816
1742550867.887,762.207,993.652,49.805,544.922
1742550867.891,962.891,900.879,-11.719,999.512
1742550867.895,999.512,999.512,-8.301,993.164
1742550867.899,521.973,416.504,-33.691,681.641
1742550867.902,-916.504,-930.176,-62.988,-763.672
1742550867.906,-992.676,-1000.000,-18.555,-1000.000
1742550867.910,-1000.000,-844.238,-51.758,-1000.000
1742550867.914,-116.699,314.941,-81.055,-229.492
1742550867.918,999.512,999.512,-72.754,993.164
1742550867.875,168.457,-325.684,-135.742,169.922
1742550867.879,-1000.000,-1000.000,-115.723,-1000.000
1742550867.883,-693.359,-291.016,10.254,-861.816
1742550867.887,762.207,993.652,49.805,544.922
1742550867.891,962.891,900.879,-11.719,999.512
1742550867.895,999.512,999.512,-8.301,993.164
1742550867.899,521.973,416.504,-33.691,681.641
1742550867.902,-916.504,-930.176,-62.988,-763.672
1742550867.906,-992.676,-1000.000,-18.555,-1000.000
1742550867.910,-1000.000,-844.238,-51.758,-1000.000
1742550867.914,-116.699,314.941,-81.055,-229.492
1742550867.918,999.512,999.512,-72.754,993.164
1742550867.875,168.457,-325.684,-135.742,169.922
1742550867.879,-1000.000,-1000.000,-115.723,-1000.000
1742550867.883,-693.359,-291.016,10.254,-861.816
1742550867.887,762.207,993.652,49.805,544.922
1742550867.891,962.891,900.879,-11.719,999.512
1742550867.895,999.512,999.512,-8.301,993.164
1742550867.899,521.973,416.504,-33.691,681.641
1742550867.902,-916.504,-930.176,-62.988,-763.672
1742550867.906,-992.676,-1000.000,-18.555,-1000.000
1742550867.910,-1000.000,-844.238,-51.758,-1000.000
1742550867.914,-116.699,314.941,-81.055,-229.492
1742550867.918,999.512,999.512,-72.754,993.164
1742550867.875,168.457,-325.684,-135.742,169.922
1742550867.879,-1000.000,-1000.000,-115.723,-1000.000
1742550867.883,-693.359,-291.016,10.254,-861.816
1742550867.887,762.207,993.652,49.805,544.922
1742550867.891,962.891,900.879,-11.719,999.512
1742550867.895,999.512,999.512,-8.301,993.164
1742550867.899,521.973,416.504,-33.691,681.641
1742550867.902,-916.504,-930.176,-62.988,-763.672
1742550867.906,-992.676,-1000.000,-18.555,-1000.000
1742550867.910,-1000.000,-844.238,-51.758,-1000.000
1742550867.914,-116.699,314.941,-81.055,-229.492
1742550867.918,999.512,999.512,-72.754,993.164
1742550867.875,168.457,-325.684,-135.742,169.922
1742550867.879,-1000.000,-1000.000,-115.723,-1000.000
1742550867.883,-693.359,-291.016,10.254,-861.816
1742550867.887,762.207,993.652,49.805,544.922
1742550867.891,962.891,900.879,-11.719,999.512
1742550867.895,999.512,999.512,-8.301,993.164
1742550867.899,521.973,416.504,-33.691,681.641
1742550867.902,-916.504,-930.176,-62.988,-763.672
1742550867.906,-992.676,-1000.000,-18.555,-1000.000
1742550867.910,-1000.000,-844.238,-51.758,-1000.000
1742550867.914,-116.699,314.941,-81.055,-229.492
1742550867.918,999.512,999.512,-72.754,993.164
1742550867.875,168.457,-325.684,-135.742,169.922
1742550867.879,-1000.000,-1000.000,-115.723,-1000.000
1742550867.883,-693.359,-291.016,10.254,-861.816
1742550867.887,762.207,993.652,49.805,544.922
1742550867.891,962.891,900.879,-11.719,999.512
1742550867.895,999.512,999.512,-8.301,993.164
1742550867.899,521.973,416.504,-33.691,681.641
1742550867.902,-916.504,-930.176,-62.988,-763.672
1742550867.906,-992.676,-1000.000,-18.555,-1000.000
1742550867.910,-1000.000,-844.238,-51.758,-1000.000
1742550867.914,-116.699,314.941,-81.055,-229.492
1742550867.918,999.512,999.512,-72.754,993.164
1742550867.875,168.457,-325.684,-135.742,169.922
1742550867.879,-1000.000,-1000.000,-115.723,-1000.000
1742550867.883,-693.359,-291.016,10.254,-861.816
1742550867.887,762.207,993.652,49.805,544.922
1742550867.891,962.891,900.879,-11.719,999.512
1742550867.895,999.512,999.512,-8.301,993.164
1742550867.899,521.973,416.504,-33.691,681.641
1742550867.902,-916.504,-930.176,-62.988,-763.672
1742550867.906,-992.676,-1000.000,-18.555,-1000.000
1742550867.910,-1000.000,-844.238,-51.758,-1000.000
1742550867.914,-116.699,314.941,-81.055,-229.492
1742550867.918,999.512,999.512,-72.754,993.164
1742550867.875,168.457,-325.684,-135.742,169.922
1742550867.879,-1000.000,-1000.000,-115.723,-1000.000
1742550867.883,-693.359,-291.016,10.254,-861.816
1742550867.887,762.207,993.652,49.805,544.922
1742550867.891,962.891,900.879,-11.719,999.512
1742550867.895,999.512,999.512,-8.301,993.164
1742550867.899,521.973,416.504,-33.691,681.641
1742550867.902,-916.504,-930.176,-62.988,-763.672
1742550867.906,-992.676,-1000.000,-18.555,-1000.000
1742550867.910,-1000.000,-844.238,-51.758,-1000.000
1742550867.914,-116.699,314.941,-81.055,-229.492
1742550867.918,999.512,999.512,-72.754,993.164
1742550867.875,168.457,-325.684,-135.742,169.922
1742550867.879,-1000.000,-1000.000,-115.723,-1000.000
1742550867.883,-693.359,-291.016,10.254,-861.816
1742550867.887,762.207,993.652,49.805,544.922
1742550867.891,962.891,900.879,-11.719,999.512
1742550867.895,999.512,999.512,-8.301,993.164
1742550867.899,521.973,416.504,-33.691,681.641
1742550867.902,-916.504,-930.176,-62.988,-763.672
1742550867.906,-992.676,-1000.000,-18.555,-1000.000
1742550867.910,-1000.000,-844.238,-51.758,-1000.000
1742550867.914,-116.699,314.941,-81.055,-229.492
1742550867.918,999.512,999.512,-72.754,993.164
1742550867.875,168.457,-325.684,-135.742,169.922
1742550867.879,-1000.000,-1000.000,-115.723,-1000.000
1742550867.883,-693.359,-291.016,10.254,-861.816
1742550867.887,762.207,993.652,49.805,544.922
1742550867.891,962.891,900.879,-11.719,999.512
1742550867.895,999.512,999.512,-8.301,993.164
1742550867.899,521.973,416.504,-33.691,681.641
1742550867.902,-916.504,-930.176,-62.988,-763.672
1742550867.906,-992.676,-1000.000,-18.555,-1000.000
1742550867.910,-1000.000,-844.238,-51.758,-1000.000
1742550867.914,-116.699,314.941,-81.055,-229.492
1742550867.918,999.512,999.512,-72.754,993.164
1742550867.875,168.457,-325.684,-135.742,169.922
1742550867.879,-1000.000,-1000.000,-115.723,-1000.000
1742550867.883,-693.359,-291.016,10.254,-861.816
1742550867.887,762.207,993.652,49.805,544.922
1742550867.891,962.891,900.879,-11.719,999.512
1742550867.895,999.512,999.512,-8.301,993.164
1742550867.899,521.973,416.504,-33.691,681.641
1742550867.902,-916.504,-930.176,-62.988,-763.672
1742550867.906,-992.676,-1000.000,-18.555,-1000.000
1742550867.910,-1000.000,-844.238,-51.758,-1000.000
1742550867.914,-116.699,314.941,-81.055,-229.492
1742550867.918,999.512,999.512,-72.754,993.164
1742550867.875,168.457,-325.684,-135.742,169.922
1742550867.879,-1000.000,-1000.000,-115.723,-1000.000
1742550867.883,-693.359,-291.016,10.254,-861.816
1742550867.887,762.207,993.652,49.805,544.922
1742550867.891,962.891,900.879,-11.719,999.512
1742550867.895,999.512,999.512,-8.301,993.164
1742550867.899,521.973,416.504,-33.691,681.641
1742550867.902,-916.504,-930.176,-62.988,-763.672
1742550867.906,-992.676,-1000.000,-18.555,-1000.000
1742550867.910,-1000.000,-844.238,-51.758,-1000.000
1742550867.914,-116.699,314.941,-81.055,-229.492
1742550867.918,999.512,999.512,-72.754,993.164
1742550867.875,168.457,-325.684,-135.742,169.922
1742550867.879,-1000.000,-1000.000,-115.723,-1000.000
1742550867.883,-693.359,-291.016,10.254,-861.816
1742550867.887,762.207,993.652,49.805,544.922
1742550867.891,962.891,900.879,-11.719,999.512
1742550867.895,999.512,999.512,-8.301,993.164
1742550867.899,521.973,416.504,-33.691,681.641
1742550867.902,-916.504,-930.176,-62.988,-763.672
1742550867.906,-992.676,-1000.000,-18.555,-1000.000
1742550867.910,-1000.000,-844.238,-51.758,-1000.000
1742550867.914,-116.699,314.941,-81.055,-229.492
1742550867.918,999.512,999.512,-72.754,993.164
1742550867.875,168.457,-325.684,-135.742,169.922
1742550867.879,-1000.000,-1000.000,-115.723,-1000.000
1742550867.883,-693.359,-291.016,10.254,-861.816
1742550867.887,762.207,993.652,49.805,544.922
1742550867.891,962.891,900.879,-11.719,999.512
1742550867.895,999.512,999.512,-8.301,993.164
1742550867.899,521.973,416.504,-33.691,681.641
1742550867.902,-916.504,-930.176,-62.988,-763.672
1742550867.906,-992.676,-1000.000,-18.555,-1000.000
1742550867.910,-1000.000,-844.238,-51.758,-1000.000
1742550867.914,-116.699,314.941,-81.055,-229.492
1742550867.918,999.512,999.512,-72.754,993.164
1742550867.936,999.512,163.086,-36.621,986.816
1742550867.940,-3.418,-979.980,2.441,798.828
1742550867.944,-1000.000,-1000.000,-27.344,-432.617
1742550867.948,-1000.000,-457.031,-53.711,-1000.000
1742550867.952,-5.371,846.191,-61.523,-846.191
1742550867.956,999.512,999.512,37.598,316.895
1742550867.960,999.512,904.297,71.289,999.512
1742550867.963,146.973,-230.957,-33.691,274.902
1742550867.967,-1000.000,-1000.000,-126.465,-935.547
1742550867.971,-1000.000,-934.082,-125.000,-1000.000
1742550867.975,-232.422,147.461,23.438,-291.992
1742550867.979,999.512,999.512,87.891,920.898
1742550867.936,999.512,163.086,-36.621,986.816
1742550867.940,-3.418,-979.980,2.441,798.828
1742550867.944,-1000.000,-1000.000,-27.344,-432.617
1742550867.948,-1000.000,-457.031,-53.711,-1000.000
1742550867.952,-5.371,846.191,-61.523,-846.191
1742550867.956,999.512,999.512,37.598,316.895
1742550867.960,999.512,904.297,71.289,999.512
1742550867.963,146.973,-230.957,-33.691,274.902
1742550867.967,-1000.000,-1000.000,-126.465,-935.547
1742550867.971,-1000.000,-934.082,-125.000,-1000.000
1742550867.975,-232.422,147.461,23.438,-291.992
1742550867.979,999.512,999.512,87.891,920.898
1742550867.980,848.633,164.551,6.836,999.512
1742550867.984,-426.270,-994.141,-70.312,167.969
1742550867.988,-1000.000,-1000.000,-92.773,-1000.000
1742550867.992,-869.141,-328.613,-28.320,-1000.000
1742550867.996,378.418,912.109,42.480,-7.812
1742550868.000,999.512,999.512,104.004,999.512
1742550868.004,975.098,695.312,19.043,999.512
1742550868.007,-172.852,-581.055,-93.262,-7.812
1742550868.011,-1000.000,-1000.000,-89.355,-1000.000
1742550868.015,-1000.000,-854.980,-27.832,-1000.000
1742550868.019,-269.531,221.680,45.898,-267.578
1742550868.023,999.512,999.512,1.465,999.512
1742550867.980,848.633,164.551,6.836,999.512
1742550867.984,-426.270,-994.141,-70.312,167.969
1742550867.988,-1000.000,-1000.000,-92.773,-1000.000
1742550867.992,-869.141,-328.613,-28.320,-1000.000
1742550867.996,378.418,912.109,42.480,-7.812
1742550868.000,999.512,999.512,104.004,999.512
1742550868.004,975.098,695.312,19.043,999.512
1742550868.007,-172.852,-581.055,-93.262,-7.812
1742550868.011,-1000.000,-1000.000,-89.355,-1000.000
1742550868.015,-1000.000,-854.980,-27.832,-1000.000
1742550868.019,-269.531,221.680,45.898,-267.578
1742550868.023,999.512,999.512,1.465,999.512
1742550867.980,848.633,164.551,6.836,999.512
1742550867.984,-426.270,-994.141,-70.312,167.969
1742550867.988,-1000.000,-1000.000,-92.773,-1000.000
1742550867.992,-869.141,-328.613,-28.320,-1000.000
1742550867.996,378.418,912.109,42.480,-7.812
1742550868.000,999.512,999.512,104.004,999.512
1742550868.004,975.098,695.312,19.043,999.512
1742550868.007,-172.852,-581.055,-93.262,-7.812
1742550868.011,-1000.000,-1000.000,-89.355,-1000.000
1742550868.015,-1000.000,-854.980,-27.832,-1000.000
1742550868.019,-269.531,221.680,45.898,-267.578
1742550868.023,999.512,999.512,1.465,999.512
1742550868.025,477.539,214.355,-110.840,582.520
1742550868.029,-892.578,-994.141,-76.660,-788.574
1742550868.033,-1000.000,-1000.000,-41.992,-1000.000
1742550868.037,-183.105,-98.633,3.906,-247.070
1742550868.041,999.512,999.512,-42.969,990.723
1742550868.045,907.715,940.918,-99.121,905.273
1742550868.049,999.512,925.781,-14.160,999.512
1742550868.052,25.879,-202.637,-18.066,161.621
1742550868.056,-1000.000,-1000.000,-41.504,-1000.000
1742550868.060,-1000.000,-626.953,-35.156,-1000.000
1742550868.064,-30.762,644.531,-48.828,-232.422
1742550868.068,999.512,999.512,-71.777,999.512
1742550868.025,477.539,214.355,-110.840,582.520
1742550868.029,-892.578,-994.141,-76.660,-788.574
1742550868.033,-1000.000,-1000.000,-41.992,-1000.000
1742550868.037,-183.105,-98.633,3.906,-247.070
1742550868.041,999.512,999.512,-42.969,990.723
1742550868.045,907.715,940.918,-99.121,905.273
1742550868.049,999.512,925.781,-14.160,999.512
1742550868.052,25.879,-202.637,-18.066,161.621
1742550868.056,-1000.000,-1000.000,-41.504,-1000.000
1742550868.060,-1000.000,-626.953,-35.156,-1000.000
1742550868.064,-30.762,644.531,-48.828,-232.422
1742550868.068,999.512,999.512,-71.777,999.512
1742550868.070,378.418,147.461,-62.012,754.883
1742550868.074,-922.363,-1000.000,-13.672,-566.406
1742550868.078,-1000.000,-686.523,-4.883,-1000.000
1742550868.082,-118.652,873.047,1.953,-236.328
1742550868.086,999.512,656.738,-51.758,999.512
1742550868.090,872.559,-142.090,2.930,895.996
1742550868.094,999.512,999.512,99.609,999.512
1742550868.097,312.988,308.594,-17.090,631.348
1742550868.101,-951.172,-1000.000,-148.438,-769.531
1742550868.105,-1000.000,-1000.000,-123.047,-1000.000
1742550868.109,-604.004,-265.625,-13.184,-958.496
1742550868.113,714.844,999.512,64.941,192.871
1742550868.070,378.418,147.461,-62.012,754.883
1742550868.074,-922.363,-1000.000,-13.672,-566.406
1742550868.078,-1000.000,-686.523,-4.883,-1000.000
1742550868.082,-118.652,873.047,1.953,-236.328
1742550868.086,999.512,656.738,-51.758,999.512
1742550868.090,872.559,-142.090,2.930,895.996
1742550868.094,999.512,999.512,99.609,999.512
1742550868.097,312.988,308.594,-17.090,631.348
1742550868.101,-951.172,-1000.000,-148.438,-769.531
1742550868.105,-1000.000,-1000.000,-123.047,-1000.000
1742550868.109,-604.004,-265.625,-13.184,-958.496
1742550868.113,714.844,999.512,64.941,192.871
1742550868.117,999.512,542.480,40.039,999.512
1742550868.121,772.949,-850.098,-46.387,905.762
1742550868.125,-467.773,-1000.000,-78.613,-253.418
1742550868.129,-1000.000,-1000.000,-25.391,-1000.000
1742550868.133,-146.484,64.941,62.012,-189.941
1742550868.137,955.078,999.512,83.496,946.289
1742550868.141,999.512,999.512,16.602,999.512
1742550868.144,353.027,274.902,-74.707,420.898
1742550868.148,-925.293,-1000.000,-125.977,-883.301
1742550868.152,-1000.000,-1000.000,8.301,-1000.000
1742550868.156,-177.246,163.086,110.840,-186.523
1742550868.160,962.402,999.512,36.621,956.543
1742550868.241,999.512,999.512,-20.508,999.512
1742550868.245,177.734,52.246,-43.457,166.016
1742550868.249,-1000.000,-1000.000,-15.137,-1000.000
1742550868.253,-1000.000,-554.688,19.531,-1000.000
1742550868.257,96.191,775.879,7.812,-68.359
1742550868.261,999.512,997.559,-4.395,994.141
1742550868.265,999.512,947.266,-38.574,999.512
1742550868.268,175.781,-55.664,-56.152,182.617
1742550868.272,-1000.000,-1000.000,-81.055,-989.746
1742550868.276,-1000.000,-705.078,-31.250,-1000.000
1742550868.280,-138.184,547.852,-40.039,-395.996
1742550868.284,999.512,999.512,-64.941,873.047
