timestamps,TP9,AF7,AF8,TP10
1742645112.902,999.512,14.160,17.578,999.512
1742645112.906,123.047,-3.906,24.414,-3.418
1742645112.910,-1000.000,-19.531,24.414,-1000.000
1742645112.914,-164.551,5.371,29.297,-88.379
1742645112.918,999.512,13.672,27.832,999.512
1742645112.922,126.953,0.000,22.461,41.504
1742645112.926,-1000.000,4.395,30.762,-1000.000
1742645112.929,-397.461,10.742,33.203,-461.426
1742645112.933,999.512,16.113,32.715,999.512
1742645112.937,399.902,-7.324,26.855,464.844
1742645112.941,-1000.000,-17.578,27.832,-1000.000
1742645112.945,-877.930,1.953,29.297,-924.805
1742645112.961,559.570,13.672,16.602,440.918
1742645112.965,999.512,7.812,11.230,999.512
1742645112.969,-212.891,-8.301,18.066,-177.246
1742645112.973,-1000.000,-8.789,4.883,-1000.000
1742645112.977,-94.238,4.395,-0.977,-40.039
1742645112.981,999.512,8.789,4.883,999.512
1742645112.985,215.332,-9.766,6.836,220.703
1742645112.988,-1000.000,-18.066,15.625,-1000.000
1742645112.992,-263.672,1.953,11.230,-243.652
1742645112.996,999.512,9.766,9.277,999.512
1742645113.000,226.074,-18.066,19.043,208.984
1742645113.004,-1000.000,-37.598,14.648,-1000.000
1742645112.961,559.570,13.672,16.602,440.918
1742645112.965,999.512,7.812,11.230,999.512
1742645112.969,-212.891,-8.301,18.066,-177.246
1742645112.973,-1000.000,-8.789,4.883,-1000.000
1742645112.977,-94.238,4.395,-0.977,-40.039
1742645112.981,999.512,8.789,4.883,999.512
1742645112.985,215.332,-9.766,6.836,220.703
1742645112.988,-1000.000,-18.066,15.625,-1000.000
1742645112.992,-263.672,1.953,11.230,-243.652
1742645112.996,999.512,9.766,9.277,999.512
1742645113.000,226.074,-18.066,19.043,208.984
1742645113.004,-1000.000,-37.598,14.648,-1000.000
1742645113.006,-250.977,-17.090,11.230,-195.801
1742645113.010,999.512,-11.719,17.090,999.512
1742645113.014,193.848,-29.297,19.531,114.746
1742645113.018,-1000.000,-29.785,12.207,-1000.000
1742645113.022,-167.480,-1.465,13.672,-85.938
1742645113.026,999.512,-3.418,21.484,999.512
1742645113.030,200.195,-33.203,20.020,116.211
1742645113.033,-1000.000,-45.410,20.996,-1000.000
1742645113.037,-360.840,-34.668,24.414,-428.223
1742645113.041,999.512,-29.785,29.785,959.473
1742645113.045,978.027,-41.504,34.668,973.633
1742645113.049,-308.594,-55.176,31.250,-266.113
1742645113.006,-250.977,-17.090,11.230,-195.801
1742645113.010,999.512,-11.719,17.090,999.512
1742645113.014,193.848,-29.297,19.531,114.746
1742645113.018,-1000.000,-29.785,12.207,-1000.000
1742645113.022,-167.480,-1.465,13.672,-85.938
1742645113.026,999.512,-3.418,21.484,999.512
1742645113.030,200.195,-33.203,20.020,116.211
1742645113.033,-1000.000,-45.410,20.996,-1000.000
1742645113.037,-360.840,-34.668,24.414,-428.223
1742645113.041,999.512,-29.785,29.785,959.473
1742645113.045,978.027,-41.504,34.668,973.633
1742645113.049,-308.594,-55.176,31.250,-266.113
1742645113.051,-1000.000,-58.105,26.855,-1000.000
1742645113.055,-86.914,-33.203,24.902,-83.984
1742645113.059,999.512,-28.809,33.691,999.512
1742645113.063,337.891,-53.711,38.574,440.918
1742645113.067,-1000.000,-44.434,18.555,-1000.000
1742645113.071,-293.457,-16.602,10.254,-315.430
1742645113.075,999.512,-25.391,15.625,999.512
1742645113.078,427.246,-44.922,18.066,574.707
1742645113.082,-1000.000,-49.316,16.602,-1000.000
1742645113.086,-325.684,-25.391,12.695,-385.742
1742645113.090,999.512,-4.395,8.789,999.512
1742645113.094,280.273,-23.438,-1.953,344.727
1742645113.051,-1000.000,-58.105,26.855,-1000.000
1742645113.055,-86.914,-33.203,24.902,-83.984
1742645113.059,999.512,-28.809,33.691,999.512
1742645113.063,337.891,-53.711,38.574,440.918
1742645113.067,-1000.000,-44.434,18.555,-1000.000
1742645113.071,-293.457,-16.602,10.254,-315.430
1742645113.075,999.512,-25.391,15.625,999.512
1742645113.078,427.246,-44.922,18.066,574.707
1742645113.082,-1000.000,-49.316,16.602,-1000.000
1742645113.086,-325.684,-25.391,12.695,-385.742
1742645113.090,999.512,-4.395,8.789,999.512
1742645113.094,280.273,-23.438,-1.953,344.727
1742645113.096,-1000.000,-32.715,-6.836,-1000.000
1742645113.100,-258.301,-9.277,-6.348,-201.172
1742645113.104,999.512,4.883,-10.254,999.512
1742645113.108,261.719,-14.160,-15.625,317.871
1742645113.112,-1000.000,-29.297,-19.531,-1000.000
1742645113.116,-258.789,-11.230,-25.391,-222.168
1742645113.120,999.512,-6.348,-24.902,999.512
1742645113.123,311.035,-30.273,-18.066,391.113
1742645113.127,-1000.000,-37.598,-20.996,-1000.000
1742645113.131,-414.551,-15.137,-28.809,-477.051
1742645113.135,999.512,-6.348,-33.691,999.512
1742645113.139,818.359,-18.066,-35.645,885.742
1742645113.096,-1000.000,-32.715,-6.836,-1000.000
1742645113.100,-258.301,-9.277,-6.348,-201.172
1742645113.104,999.512,4.883,-10.254,999.512
1742645113.108,261.719,-14.160,-15.625,317.871
1742645113.112,-1000.000,-29.297,-19.531,-1000.000
1742645113.116,-258.789,-11.230,-25.391,-222.168
1742645113.120,999.512,-6.348,-24.902,999.512
1742645113.123,311.035,-30.273,-18.066,391.113
1742645113.127,-1000.000,-37.598,-20.996,-1000.000
1742645113.131,-414.551,-15.137,-28.809,-477.051
1742645113.135,999.512,-6.348,-33.691,999.512
1742645113.139,818.359,-18.066,-35.645,885.742
1742645113.141,-590.332,-34.668,-41.992,-445.312
1742645113.145,-1000.000,-32.227,-51.270,-1000.000
1742645113.149,12.207,-15.137,-44.434,-2.930
1742645113.153,999.512,-15.137,-37.109,999.512
1742645113.157,204.590,-33.691,-48.828,232.910
1742645113.161,-1000.000,-38.086,-47.363,-1000.000
1742645113.165,-232.422,-19.043,-37.109,-164.062
1742645113.168,999.512,-20.996,-31.250,999.512
1742645113.172,-80.566,-41.504,-32.227,-128.418
1742645113.176,-1000.000,-36.621,-40.527,-1000.000
1742645113.180,397.461,-20.020,-40.527,415.527
1742645113.184,989.746,-37.109,-30.273,985.840
1742645113.141,-590.332,-34.668,-41.992,-445.312
1742645113.145,-1000.000,-32.227,-51.270,-1000.000
1742645113.149,12.207,-15.137,-44.434,-2.930
1742645113.153,999.512,-15.137,-37.109,999.512
1742645113.157,204.590,-33.691,-48.828,232.910
1742645113.161,-1000.000,-38.086,-47.363,-1000.000
1742645113.165,-232.422,-19.043,-37.109,-164.062
1742645113.168,999.512,-20.996,-31.250,999.512
1742645113.172,-80.566,-41.504,-32.227,-128.418
1742645113.176,-1000.000,-36.621,-40.527,-1000.000
1742645113.180,397.461,-20.020,-40.527,415.527
1742645113.184,989.746,-37.109,-30.273,985.840
1742645113.187,-752.930,-54.688,-32.227,-651.367
1742645113.191,-861.816,-43.457,-41.016,-849.121
1742645113.195,757.324,-33.691,-44.434,692.383
1742645113.199,999.512,-41.504,-48.340,999.512
1742645113.203,-355.469,-56.641,-49.805,-276.855
1742645113.207,-1000.000,-41.016,-46.387,-1000.000
1742645113.211,146.973,-17.578,-35.156,130.859
1742645113.214,999.512,-23.926,-30.762,999.512
1742645113.218,-6.348,-40.527,-27.344,8.301
1742645113.222,-1000.000,-38.086,-22.949,-1000.000
1742645113.226,-186.035,-14.160,-22.949,-139.160
1742645113.230,999.512,-15.137,-33.691,999.512
1742645113.187,-752.930,-54.688,-32.227,-651.367
1742645113.191,-861.816,-43.457,-41.016,-849.121
1742645113.195,757.324,-33.691,-44.434,692.383
1742645113.199,999.512,-41.504,-48.340,999.512
1742645113.203,-355.469,-56.641,-49.805,-276.855
1742645113.207,-1000.000,-41.016,-46.387,-1000.000
1742645113.211,146.973,-17.578,-35.156,130.859
1742645113.214,999.512,-23.926,-30.762,999.512
1742645113.218,-6.348,-40.527,-27.344,8.301
1742645113.222,-1000.000,-38.086,-22.949,-1000.000
1742645113.226,-186.035,-14.160,-22.949,-139.160
1742645113.230,999.512,-15.137,-33.691,999.512
1742645113.246,205.566,-41.992,-45.410,181.152
1742645113.250,-1000.000,-41.504,-46.875,-1000.000
1742645113.254,-225.098,-18.555,-46.875,-145.020
1742645113.258,999.512,-13.672,-56.641,999.512
1742645113.262,136.230,-32.227,-59.570,50.781
1742645113.266,-1000.000,-36.133,-49.316,-1000.000
1742645113.270,19.043,-19.531,-47.363,88.867
1742645113.273,999.512,-20.020,-49.316,999.512
1742645113.277,-157.227,-35.156,-44.922,-172.363
1742645113.281,-1000.000,-36.133,-46.387,-1000.000
1742645113.285,-11.719,-18.555,-51.758,-17.090
1742645113.289,999.512,-20.996,-53.223,999.512
1742645113.246,205.566,-41.992,-45.410,181.152
1742645113.250,-1000.000,-41.504,-46.875,-1000.000
1742645113.254,-225.098,-18.555,-46.875,-145.020
1742645113.258,999.512,-13.672,-56.641,999.512
1742645113.262,136.230,-32.227,-59.570,50.781
1742645113.266,-1000.000,-36.133,-49.316,-1000.000
1742645113.270,19.043,-19.531,-47.363,88.867
1742645113.273,999.512,-20.020,-49.316,999.512
1742645113.277,-157.227,-35.156,-44.922,-172.363
1742645113.281,-1000.000,-36.133,-46.387,-1000.000
1742645113.285,-11.719,-18.555,-51.758,-17.090
1742645113.289,999.512,-20.996,-53.223,999.512
1742645113.276,133.301,-33.203,-59.082,85.938
1742645113.280,-1000.000,-36.133,-63.477,-1000.000
1742645113.284,-290.039,-20.508,-62.500,-356.445
1742645113.288,999.512,-13.184,-57.617,999.512
1742645113.292,500.000,-26.855,-45.898,618.164
1742645113.296,-1000.000,-37.598,-38.574,-947.266
1742645113.300,-611.328,-18.066,-39.551,-721.680
1742645113.303,999.512,-7.812,-36.621,919.434
1742645113.307,543.457,-38.086,-39.551,665.527
1742645113.311,-1000.000,-51.758,-44.434,-1000.000
1742645113.315,-386.230,-20.508,-40.527,-451.172
1742645113.319,999.512,-4.395,-34.180,999.512
1742645113.276,133.301,-33.203,-59.082,85.938
1742645113.280,-1000.000,-36.133,-63.477,-1000.000
1742645113.284,-290.039,-20.508,-62.500,-356.445
1742645113.288,999.512,-13.184,-57.617,999.512
1742645113.292,500.000,-26.855,-45.898,618.164
1742645113.296,-1000.000,-37.598,-38.574,-947.266
1742645113.300,-611.328,-18.066,-39.551,-721.680
1742645113.303,999.512,-7.812,-36.621,919.434
1742645113.307,543.457,-38.086,-39.551,665.527
1742645113.311,-1000.000,-51.758,-44.434,-1000.000
1742645113.315,-386.230,-20.508,-40.527,-451.172
1742645113.319,999.512,-4.395,-34.180,999.512
1742645113.336,230.469,-26.855,-27.832,198.730
1742645113.340,-1000.000,-30.273,-23.926,-1000.000
1742645113.344,-214.355,-12.207,-29.297,-122.070
1742645113.348,999.512,-10.254,-32.227,999.512
1742645113.352,200.195,-27.832,-31.738,126.465
1742645113.356,-1000.000,-38.086,-39.551,-1000.000
1742645113.360,-438.965,-32.715,-47.363,-535.156
1742645113.363,999.512,-29.785,-49.316,999.512
1742645113.367,534.668,-40.039,-41.504,573.730
1742645113.371,-954.102,-41.992,-32.227,-886.719
1742645113.375,-1000.000,-25.391,-35.645,-1000.000
1742645113.379,278.809,-14.160,-41.016,175.293
1742645113.336,230.469,-26.855,-27.832,198.730
1742645113.340,-1000.000,-30.273,-23.926,-1000.000
1742645113.344,-214.355,-12.207,-29.297,-122.070
1742645113.348,999.512,-10.254,-32.227,999.512
1742645113.352,200.195,-27.832,-31.738,126.465
1742645113.356,-1000.000,-38.086,-39.551,-1000.000
1742645113.360,-438.965,-32.715,-47.363,-535.156
1742645113.363,999.512,-29.785,-49.316,999.512
1742645113.367,534.668,-40.039,-41.504,573.730
1742645113.371,-954.102,-41.992,-32.227,-886.719
1742645113.375,-1000.000,-25.391,-35.645,-1000.000
1742645113.379,278.809,-14.160,-41.016,175.293
1742645113.396,999.512,-21.484,-42.480,999.512
1742645113.400,-194.336,-34.668,-45.410,-211.914
1742645113.404,-1000.000,-29.297,-48.340,-1000.000
1742645113.408,-196.777,-14.648,-46.875,-175.781
1742645113.412,999.512,-12.695,-46.875,999.512
1742645113.416,262.207,-28.809,-45.898,288.574
1742645113.420,-1000.000,-44.434,-47.363,-1000.000
1742645113.423,-510.254,-22.949,-46.875,-631.348
1742645113.427,999.512,-5.371,-46.387,977.051
1742645113.431,298.828,-26.855,-50.293,339.355
1742645113.435,-1000.000,-34.180,-47.363,-1000.000
1742645113.439,-250.000,-8.789,-48.340,-228.027
1742645113.396,999.512,-21.484,-42.480,999.512
1742645113.400,-194.336,-34.668,-45.410,-211.914
1742645113.404,-1000.000,-29.297,-48.340,-1000.000
1742645113.408,-196.777,-14.648,-46.875,-175.781
1742645113.412,999.512,-12.695,-46.875,999.512
1742645113.416,262.207,-28.809,-45.898,288.574
1742645113.420,-1000.000,-44.434,-47.363,-1000.000
1742645113.423,-510.254,-22.949,-46.875,-631.348
1742645113.427,999.512,-5.371,-46.387,977.051
1742645113.431,298.828,-26.855,-50.293,339.355
1742645113.435,-1000.000,-34.180,-47.363,-1000.000
1742645113.439,-250.000,-8.789,-48.340,-228.027
1742645113.427,999.512,-4.395,-49.316,999.512
1742645113.431,124.512,-28.320,-42.969,41.992
1742645113.435,-1000.000,-26.367,-34.668,-1000.000
1742645113.439,-215.332,-7.324,-26.367,-168.945
1742645113.443,999.512,-6.348,-24.902,999.512
1742645113.447,215.332,-21.973,-29.297,195.801
1742645113.451,-1000.000,-27.344,-29.297,-1000.000
1742645113.454,-842.285,-20.020,-26.855,-908.691
1742645113.458,535.156,-17.090,-22.461,398.438
1742645113.462,999.512,-26.367,-17.578,999.512
1742645113.466,-63.477,-42.969,-16.113,-93.750
1742645113.470,-1000.000,-44.434,-19.531,-1000.000
1742645113.427,999.512,-4.395,-49.316,999.512
1742645113.431,124.512,-28.320,-42.969,41.992
1742645113.435,-1000.000,-26.367,-34.668,-1000.000
1742645113.439,-215.332,-7.324,-26.367,-168.945
1742645113.443,999.512,-6.348,-24.902,999.512
1742645113.447,215.332,-21.973,-29.297,195.801
1742645113.451,-1000.000,-27.344,-29.297,-1000.000
1742645113.454,-842.285,-20.020,-26.855,-908.691
1742645113.458,535.156,-17.090,-22.461,398.438
1742645113.462,999.512,-26.367,-17.578,999.512
1742645113.466,-63.477,-42.969,-16.113,-93.750
1742645113.470,-1000.000,-44.434,-19.531,-1000.000
1742645113.427,999.512,-4.395,-49.316,999.512
1742645113.431,124.512,-28.320,-42.969,41.992
1742645113.435,-1000.000,-26.367,-34.668,-1000.000
1742645113.439,-215.332,-7.324,-26.367,-168.945
1742645113.443,999.512,-6.348,-24.902,999.512
1742645113.447,215.332,-21.973,-29.297,195.801
1742645113.451,-1000.000,-27.344,-29.297,-1000.000
1742645113.454,-842.285,-20.020,-26.855,-908.691
1742645113.458,535.156,-17.090,-22.461,398.438
1742645113.462,999.512,-26.367,-17.578,999.512
1742645113.466,-63.477,-42.969,-16.113,-93.750
1742645113.470,-1000.000,-44.434,-19.531,-1000.000
1742645113.472,-325.684,-18.066,-23.926,-440.430
1742645113.476,999.512,-15.625,-27.344,999.512
1742645113.480,611.816,-26.367,-23.438,685.059
1742645113.484,-959.473,-27.344,-25.391,-824.707
1742645113.488,-881.836,-12.695,-35.156,-949.219
1742645113.492,606.445,0.977,-31.738,466.309
1742645113.496,999.512,-11.719,-30.273,999.512
1742645113.499,-164.062,-30.762,-35.645,-138.184
1742645113.503,-1000.000,-32.227,-39.062,-1000.000
1742645113.507,214.844,-12.207,-42.480,225.098
1742645113.511,999.512,-15.137,-41.992,999.512
1742645113.515,-454.590,-31.738,-44.922,-429.688
1742645113.472,-325.684,-18.066,-23.926,-440.430
1742645113.476,999.512,-15.625,-27.344,999.512
1742645113.480,611.816,-26.367,-23.438,685.059
1742645113.484,-959.473,-27.344,-25.391,-824.707
1742645113.488,-881.836,-12.695,-35.156,-949.219
1742645113.492,606.445,0.977,-31.738,466.309
1742645113.496,999.512,-11.719,-30.273,999.512
1742645113.499,-164.062,-30.762,-35.645,-138.184
1742645113.503,-1000.000,-32.227,-39.062,-1000.000
1742645113.507,214.844,-12.207,-42.480,225.098
1742645113.511,999.512,-15.137,-41.992,999.512
1742645113.515,-454.590,-31.738,-44.922,-429.688
1742645113.516,-925.293,-21.973,-47.363,-896.484
1742645113.520,812.988,-20.020,-39.062,732.422
1742645113.524,876.465,-38.086,-29.297,891.113
1742645113.528,-814.941,-47.363,-35.156,-715.820
1742645113.532,-862.305,-38.574,-48.340,-863.770
1742645113.536,765.625,-26.855,-45.898,683.594
1742645113.540,993.164,-44.434,-43.945,999.512
1742645113.543,-475.586,-65.430,-45.898,-400.391
1742645113.547,-1000.000,-56.152,-39.062,-1000.000
1742645113.551,86.426,-41.504,-33.691,78.613
1742645113.555,999.512,-45.410,-33.203,999.512
1742645113.559,173.828,-61.523,-30.762,138.672
1742645113.516,-925.293,-21.973,-47.363,-896.484
1742645113.520,812.988,-20.020,-39.062,732.422
1742645113.524,876.465,-38.086,-29.297,891.113
1742645113.528,-814.941,-47.363,-35.156,-715.820
1742645113.532,-862.305,-38.574,-48.340,-863.770
1742645113.536,765.625,-26.855,-45.898,683.594
1742645113.540,993.164,-44.434,-43.945,999.512
1742645113.543,-475.586,-65.430,-45.898,-400.391
1742645113.547,-1000.000,-56.152,-39.062,-1000.000
1742645113.551,86.426,-41.504,-33.691,78.613
1742645113.555,999.512,-45.410,-33.203,999.512
1742645113.559,173.828,-61.523,-30.762,138.672
1742645113.561,-1000.000,-64.941,-27.344,-1000.000
1742645113.565,-520.508,-44.434,-29.785,-621.094
1742645113.569,998.047,-27.344,-30.273,833.008
1742645113.573,839.844,-37.109,-21.973,909.668
1742645113.577,-696.777,-48.340,-17.578,-558.105
1742645113.581,-1000.000,-37.598,-10.742,-1000.000
1742645113.585,549.805,-5.859,-4.883,476.074
1742645113.588,859.863,-18.066,-23.926,877.930
1742645113.592,-806.152,-41.992,-26.367,-685.547
1742645113.596,-1000.000,-26.367,-4.395,-1000.000
1742645113.600,625.977,-9.766,-0.488,559.570
1742645113.604,743.652,-22.461,-2.441,741.211
1742645113.561,-1000.000,-64.941,-27.344,-1000.000
1742645113.565,-520.508,-44.434,-29.785,-621.094
1742645113.569,998.047,-27.344,-30.273,833.008
1742645113.573,839.844,-37.109,-21.973,909.668
1742645113.577,-696.777,-48.340,-17.578,-558.105
1742645113.581,-1000.000,-37.598,-10.742,-1000.000
1742645113.585,549.805,-5.859,-4.883,476.074
1742645113.588,859.863,-18.066,-23.926,877.930
1742645113.592,-806.152,-41.992,-26.367,-685.547
1742645113.596,-1000.000,-26.367,-4.395,-1000.000
1742645113.600,625.977,-9.766,-0.488,559.570
1742645113.604,743.652,-22.461,-2.441,741.211
1742645113.606,-1000.000,-35.645,-1.953,-942.871
1742645113.610,-678.711,-18.555,-7.812,-725.586
1742645113.614,951.660,-9.277,-6.836,854.492
1742645113.618,888.184,-22.949,4.883,892.578
1742645113.622,-609.375,-40.527,11.230,-555.176
1742645113.626,-1000.000,-35.156,10.254,-1000.000
1742645113.630,273.926,-18.066,8.789,263.184
1742645113.633,999.512,-20.508,9.277,999.512
1742645113.637,-193.848,-27.832,5.371,-208.008
1742645113.641,-1000.000,-19.531,4.883,-1000.000
1742645113.645,-214.355,-4.395,-5.371,-206.055
1742645113.649,999.512,-7.812,-3.418,999.512
1742645113.606,-1000.000,-35.645,-1.953,-942.871
1742645113.610,-678.711,-18.555,-7.812,-725.586
1742645113.614,951.660,-9.277,-6.836,854.492
1742645113.618,888.184,-22.949,4.883,892.578
1742645113.622,-609.375,-40.527,11.230,-555.176
1742645113.626,-1000.000,-35.156,10.254,-1000.000
1742645113.630,273.926,-18.066,8.789,263.184
1742645113.633,999.512,-20.508,9.277,999.512
1742645113.637,-193.848,-27.832,5.371,-208.008
1742645113.641,-1000.000,-19.531,4.883,-1000.000
1742645113.645,-214.355,-4.395,-5.371,-206.055
1742645113.649,999.512,-7.812,-3.418,999.512
1742645113.651,229.980,-25.879,11.719,219.727
1742645113.655,-1000.000,-30.273,10.254,-1000.000
1742645113.659,-271.484,-10.742,8.301,-334.473
1742645113.663,999.512,-4.395,8.789,999.512
1742645113.667,225.586,-24.902,7.324,197.754
1742645113.671,-1000.000,-25.391,4.395,-1000.000
1742645113.675,-209.473,-12.207,-4.883,-140.137
1742645113.678,999.512,-16.113,-3.418,999.512
1742645113.682,-48.340,-27.832,-3.418,-127.930
1742645113.686,-1000.000,-31.738,-10.254,-1000.000
1742645113.690,41.992,-18.066,-6.836,62.012
1742645113.694,999.512,-12.207,-0.977,999.512
1742645113.651,229.980,-25.879,11.719,219.727
1742645113.655,-1000.000,-30.273,10.254,-1000.000
1742645113.659,-271.484,-10.742,8.301,-334.473
1742645113.663,999.512,-4.395,8.789,999.512
1742645113.667,225.586,-24.902,7.324,197.754
1742645113.671,-1000.000,-25.391,4.395,-1000.000
1742645113.675,-209.473,-12.207,-4.883,-140.137
1742645113.678,999.512,-16.113,-3.418,999.512
1742645113.682,-48.340,-27.832,-3.418,-127.930
1742645113.686,-1000.000,-31.738,-10.254,-1000.000
1742645113.690,41.992,-18.066,-6.836,62.012
1742645113.694,999.512,-12.207,-0.977,999.512
1742645113.697,125.000,-31.250,-3.906,82.520
1742645113.701,-1000.000,-33.203,-9.766,-1000.000
1742645113.705,-255.859,-5.371,-11.719,-231.934
1742645113.709,999.512,7.324,-9.766,999.512
1742645113.713,330.566,-10.254,-7.812,389.648
1742645113.717,-1000.000,-19.043,-7.812,-1000.000
1742645113.721,-500.488,4.395,-2.930,-601.562
1742645113.724,999.512,16.602,1.465,937.012
1742645113.728,778.320,-5.371,6.836,836.426
1742645113.732,-912.598,-18.555,4.395,-766.113
1742645113.736,-625.977,-0.488,0.977,-703.613
1742645113.740,999.512,8.789,0.488,999.512
1742645113.697,125.000,-31.250,-3.906,82.520
1742645113.701,-1000.000,-33.203,-9.766,-1000.000
1742645113.705,-255.859,-5.371,-11.719,-231.934
1742645113.709,999.512,7.324,-9.766,999.512
1742645113.713,330.566,-10.254,-7.812,389.648
1742645113.717,-1000.000,-19.043,-7.812,-1000.000
1742645113.721,-500.488,4.395,-2.930,-601.562
1742645113.724,999.512,16.602,1.465,937.012
1742645113.728,778.320,-5.371,6.836,836.426
1742645113.732,-912.598,-18.555,4.395,-766.113
1742645113.736,-625.977,-0.488,0.977,-703.613
1742645113.740,999.512,8.789,0.488,999.512
1742645113.697,125.000,-31.250,-3.906,82.520
1742645113.701,-1000.000,-33.203,-9.766,-1000.000
1742645113.705,-255.859,-5.371,-11.719,-231.934
1742645113.709,999.512,7.324,-9.766,999.512
1742645113.713,330.566,-10.254,-7.812,389.648
1742645113.717,-1000.000,-19.043,-7.812,-1000.000
1742645113.721,-500.488,4.395,-2.930,-601.562
1742645113.724,999.512,16.602,1.465,937.012
1742645113.728,778.320,-5.371,6.836,836.426
1742645113.732,-912.598,-18.555,4.395,-766.113
1742645113.736,-625.977,-0.488,0.977,-703.613
1742645113.740,999.512,8.789,0.488,999.512
1742645113.756,342.285,-12.207,-0.977,403.320
1742645113.760,-1000.000,-8.301,-2.930,-1000.000
1742645113.764,-253.418,18.066,3.418,-217.285
1742645113.768,999.512,17.090,10.254,999.512
1742645113.772,156.250,0.977,0.488,76.660
1742645113.776,-1000.000,-5.371,-17.578,-1000.000
1742645113.780,-161.621,0.488,-23.438,-96.191
1742645113.783,999.512,7.324,-15.137,999.512
1742645113.787,188.965,-10.254,-6.348,110.840
1742645113.791,-1000.000,-14.160,-10.254,-1000.000
1742645113.795,-270.020,12.695,-12.207,-322.266
1742645113.799,999.512,16.602,-7.812,999.512
1742645113.756,342.285,-12.207,-0.977,403.320
1742645113.760,-1000.000,-8.301,-2.930,-1000.000
1742645113.764,-253.418,18.066,3.418,-217.285
1742645113.768,999.512,17.090,10.254,999.512
1742645113.772,156.250,0.977,0.488,76.660
1742645113.776,-1000.000,-5.371,-17.578,-1000.000
1742645113.780,-161.621,0.488,-23.438,-96.191
1742645113.783,999.512,7.324,-15.137,999.512
1742645113.787,188.965,-10.254,-6.348,110.840
1742645113.791,-1000.000,-14.160,-10.254,-1000.000
1742645113.795,-270.020,12.695,-12.207,-322.266
1742645113.799,999.512,16.602,-7.812,999.512
1742645113.801,377.441,-1.465,-10.254,453.613
1742645113.805,-1000.000,-5.371,-4.395,-1000.000
1742645113.809,-426.758,8.301,3.418,-524.414
1742645113.813,999.512,17.578,1.953,961.426
1742645113.817,909.180,11.230,-4.883,945.801
1742645113.821,-653.320,-6.836,-11.719,-518.555
1742645113.825,-852.539,5.859,-19.043,-887.695
1742645113.828,938.477,26.367,-16.602,794.922
1742645113.832,584.473,-0.977,-12.207,659.180
1742645113.836,-1000.000,-15.625,-29.297,-1000.000
1742645113.840,-307.129,21.484,-36.621,-354.980
1742645113.844,999.512,26.367,-49.805,999.512
1742645113.801,377.441,-1.465,-10.254,453.613
1742645113.805,-1000.000,-5.371,-4.395,-1000.000
1742645113.809,-426.758,8.301,3.418,-524.414
1742645113.813,999.512,17.578,1.953,961.426
1742645113.817,909.180,11.230,-4.883,945.801
1742645113.821,-653.320,-6.836,-11.719,-518.555
1742645113.825,-852.539,5.859,-19.043,-887.695
1742645113.828,938.477,26.367,-16.602,794.922
1742645113.832,584.473,-0.977,-12.207,659.180
1742645113.836,-1000.000,-15.625,-29.297,-1000.000
1742645113.840,-307.129,21.484,-36.621,-354.980
1742645113.844,999.512,26.367,-49.805,999.512
1742645113.846,215.820,-2.441,-61.035,187.500
1742645113.850,-1000.000,-3.906,-55.176,-1000.000
1742645113.854,-265.625,18.555,-53.711,-253.906
1742645113.858,999.512,16.602,-52.734,999.512
1742645113.862,336.914,-12.207,-52.246,400.879
1742645113.866,-1000.000,-11.230,-59.082,-1000.000
1742645113.870,-812.988,7.324,-56.152,-867.676
1742645113.873,730.469,20.996,-58.594,603.516
1742645113.877,936.523,17.578,-71.777,945.312
1742645113.881,-610.840,6.836,-59.082,-506.348
1742645113.885,-1000.000,20.020,-58.594,-1000.000
1742645113.889,261.719,40.527,-55.176,191.406
1742645113.846,215.820,-2.441,-61.035,187.500
1742645113.850,-1000.000,-3.906,-55.176,-1000.000
1742645113.854,-265.625,18.555,-53.711,-253.906
1742645113.858,999.512,16.602,-52.734,999.512
1742645113.862,336.914,-12.207,-52.246,400.879
1742645113.866,-1000.000,-11.230,-59.082,-1000.000
1742645113.870,-812.988,7.324,-56.152,-867.676
1742645113.873,730.469,20.996,-58.594,603.516
1742645113.877,936.523,17.578,-71.777,945.312
1742645113.881,-610.840,6.836,-59.082,-506.348
1742645113.885,-1000.000,20.020,-58.594,-1000.000
1742645113.889,261.719,40.527,-55.176,191.406
1742645113.891,999.512,29.785,-48.340,999.512
1742645113.895,-91.797,3.418,-46.387,-96.680
1742645113.899,-1000.000,11.719,-34.180,-1000.000
1742645113.903,365.723,32.715,-41.992,335.449
1742645113.907,889.160,21.484,-36.133,854.492
1742645113.911,-934.570,-1.465,-29.297,-857.422
1742645113.915,-623.047,16.113,-36.621,-688.477
1742645113.918,999.512,34.180,-31.250,999.512
1742645113.922,444.336,8.789,-21.973,484.375
1742645113.926,-1000.000,2.441,-25.391,-1000.000
1742645113.930,-544.922,17.578,-42.969,-639.648
1742645113.934,999.512,19.043,-53.223,990.723
1742645113.891,999.512,29.785,-48.340,999.512
1742645113.895,-91.797,3.418,-46.387,-96.680
1742645113.899,-1000.000,11.719,-34.180,-1000.000
1742645113.903,365.723,32.715,-41.992,335.449
1742645113.907,889.160,21.484,-36.133,854.492
1742645113.911,-934.570,-1.465,-29.297,-857.422
1742645113.915,-623.047,16.113,-36.621,-688.477
1742645113.918,999.512,34.180,-31.250,999.512
1742645113.922,444.336,8.789,-21.973,484.375
1742645113.926,-1000.000,2.441,-25.391,-1000.000
1742645113.930,-544.922,17.578,-42.969,-639.648
1742645113.934,999.512,19.043,-53.223,990.723
1742645113.936,409.180,1.953,-33.691,458.984
1742645113.940,-1000.000,-1.465,-15.137,-965.820
1742645113.944,-1000.000,16.113,-37.598,-1000.000
1742645113.948,65.430,20.996,-46.875,3.418
1742645113.952,999.512,-1.465,-40.527,999.512
1742645113.956,-103.027,-18.555,-31.250,-157.227
1742645113.960,-1000.000,-19.043,-31.738,-1000.000
1742645113.963,-437.500,-10.742,-32.227,-629.395
1742645113.967,999.512,2.930,-23.926,907.715
1742645113.971,293.945,-19.043,-16.113,339.355
1742645113.975,-1000.000,-25.879,-4.883,-1000.000
1742645113.979,-297.852,2.930,0.977,-378.906
1742645113.981,999.512,-1.953,2.930,999.512
1742645113.985,48.340,-23.438,-4.395,-48.828
1742645113.989,-1000.000,-11.230,-1.953,-1000.000
1742645113.993,-161.133,8.789,21.484,-106.934
1742645113.997,999.512,0.488,26.367,999.512
1742645114.001,33.691,-18.555,12.695,-88.867
1742645114.005,-1000.000,-30.762,3.418,-1000.000
1742645114.008,-426.270,-34.668,-6.348,-563.477
1742645114.012,999.512,-23.926,6.348,983.887
1742645114.016,358.887,-20.996,33.691,390.137
1742645114.020,-1000.000,-10.742,34.180,-1000.000
1742645114.024,-1000.000,-5.859,6.836,-1000.000
1742645113.981,999.512,-1.953,2.930,999.512
1742645113.985,48.340,-23.438,-4.395,-48.828
1742645113.989,-1000.000,-11.230,-1.953,-1000.000
1742645113.993,-161.133,8.789,21.484,-106.934
1742645113.997,999.512,0.488,26.367,999.512
1742645114.001,33.691,-18.555,12.695,-88.867
1742645114.005,-1000.000,-30.762,3.418,-1000.000
1742645114.008,-426.270,-34.668,-6.348,-563.477
1742645114.012,999.512,-23.926,6.348,983.887
1742645114.016,358.887,-20.996,33.691,390.137
1742645114.020,-1000.000,-10.742,34.180,-1000.000
1742645114.024,-1000.000,-5.859,6.836,-1000.000
1742645114.027,57.129,-26.855,-25.879,24.902
1742645114.031,999.512,-52.246,-37.598,998.047
1742645114.035,-201.660,-58.594,-39.551,-236.328
1742645114.039,-1000.000,-47.363,-53.223,-1000.000
1742645114.043,-331.055,-23.926,-76.172,-472.168
1742645114.047,999.512,-21.484,-93.262,999.512
1742645114.051,398.438,-55.176,-105.957,466.309
1742645114.054,-1000.000,-54.688,-129.883,-978.516
1742645114.058,-1000.000,-35.156,-153.320,-1000.000
1742645114.062,274.902,-27.832,-155.762,152.832
1742645114.066,999.512,-36.621,-139.648,999.512
1742645114.070,-173.340,-62.988,-140.625,-177.734
1742645114.027,57.129,-26.855,-25.879,24.902
1742645114.031,999.512,-52.246,-37.598,998.047
1742645114.035,-201.660,-58.594,-39.551,-236.328
1742645114.039,-1000.000,-47.363,-53.223,-1000.000
1742645114.043,-331.055,-23.926,-76.172,-472.168
1742645114.047,999.512,-21.484,-93.262,999.512
1742645114.051,398.438,-55.176,-105.957,466.309
1742645114.054,-1000.000,-54.688,-129.883,-978.516
1742645114.058,-1000.000,-35.156,-153.320,-1000.000
1742645114.062,274.902,-27.832,-155.762,152.832
1742645114.066,999.512,-36.621,-139.648,999.512
1742645114.070,-173.340,-62.988,-140.625,-177.734
1742645114.086,-1000.000,-59.082,-130.371,-1000.000
1742645114.090,295.410,-38.574,-110.352,245.117
1742645114.094,837.891,-48.340,-114.258,781.250
1742645114.098,-940.918,-81.055,-130.859,-880.859
1742645114.102,-800.293,-82.031,-143.555,-861.328
1742645114.106,949.707,-68.359,-143.555,813.477
1742645114.110,600.098,-95.703,-142.090,620.605
1742645114.113,-980.469,-107.422,-138.184,-928.223
1742645114.117,-1000.000,-85.449,-136.230,-1000.000
1742645114.121,368.164,-69.336,-121.094,305.664
1742645114.125,999.512,-68.359,-108.887,999.512
1742645114.129,-196.289,-81.543,-116.699,-201.660
1742645114.086,-1000.000,-59.082,-130.371,-1000.000
1742645114.090,295.410,-38.574,-110.352,245.117
1742645114.094,837.891,-48.340,-114.258,781.250
1742645114.098,-940.918,-81.055,-130.859,-880.859
1742645114.102,-800.293,-82.031,-143.555,-861.328
1742645114.106,949.707,-68.359,-143.555,813.477
1742645114.110,600.098,-95.703,-142.090,620.605
1742645114.113,-980.469,-107.422,-138.184,-928.223
1742645114.117,-1000.000,-85.449,-136.230,-1000.000
1742645114.121,368.164,-69.336,-121.094,305.664
1742645114.125,999.512,-68.359,-108.887,999.512
1742645114.129,-196.289,-81.543,-116.699,-201.660
1742645114.131,-1000.000,-79.102,-110.352,-1000.000
1742645114.135,-228.516,-62.500,-87.402,-307.617
1742645114.139,999.512,-51.270,-70.801,999.512
1742645114.143,265.137,-58.594,-62.012,312.988
1742645114.147,-1000.000,-59.570,-63.477,-1000.000
1742645114.151,-773.438,-42.480,-63.965,-834.473
1742645114.155,850.098,-20.508,-44.434,676.758
1742645114.158,728.516,-28.320,-23.438,765.625
1742645114.162,-872.070,-44.434,-18.066,-769.043
1742645114.166,-1000.000,-33.203,-17.578,-1000.000
1742645114.170,446.289,-5.859,-15.137,354.492
1742645114.174,840.332,-7.812,-2.441,824.219
1742645114.131,-1000.000,-79.102,-110.352,-1000.000
1742645114.135,-228.516,-62.500,-87.402,-307.617
1742645114.139,999.512,-51.270,-70.801,999.512
1742645114.143,265.137,-58.594,-62.012,312.988
1742645114.147,-1000.000,-59.570,-63.477,-1000.000
1742645114.151,-773.438,-42.480,-63.965,-834.473
1742645114.155,850.098,-20.508,-44.434,676.758
1742645114.158,728.516,-28.320,-23.438,765.625
1742645114.162,-872.070,-44.434,-18.066,-769.043
1742645114.166,-1000.000,-33.203,-17.578,-1000.000
1742645114.170,446.289,-5.859,-15.137,354.492
1742645114.174,840.332,-7.812,-2.441,824.219
1742645114.176,-836.914,-29.785,-3.418,-734.863
1742645114.180,-1000.000,-16.113,-15.137,-1000.000
1742645114.184,661.621,3.418,-17.090,578.613
1742645114.188,598.145,-18.066,-12.207,593.750
1742645114.192,-1000.000,-37.598,-4.395,-1000.000
1742645114.196,-511.230,-11.230,-4.395,-589.844
1742645114.200,999.512,0.000,-2.441,999.512
1742645114.203,274.414,-25.879,8.301,324.707
1742645114.207,-1000.000,-29.785,2.441,-1000.000
1742645114.211,-1000.000,-30.273,-19.531,-1000.000
1742645114.215,360.352,-23.926,-31.738,300.293
1742645114.219,999.512,-22.461,-37.109,965.332
1742645114.176,-836.914,-29.785,-3.418,-734.863
1742645114.180,-1000.000,-16.113,-15.137,-1000.000
1742645114.184,661.621,3.418,-17.090,578.613
1742645114.188,598.145,-18.066,-12.207,593.750
1742645114.192,-1000.000,-37.598,-4.395,-1000.000
1742645114.196,-511.230,-11.230,-4.395,-589.844
1742645114.200,999.512,0.000,-2.441,999.512
1742645114.203,274.414,-25.879,8.301,324.707
1742645114.207,-1000.000,-29.785,2.441,-1000.000
1742645114.211,-1000.000,-30.273,-19.531,-1000.000
1742645114.215,360.352,-23.926,-31.738,300.293
1742645114.219,999.512,-22.461,-37.109,965.332
1742645114.221,-385.254,-36.133,-29.297,-390.625
1742645114.225,-1000.000,-27.344,-20.996,-1000.000
1742645114.229,-217.773,-13.672,-3.906,-268.555
1742645114.233,999.512,-13.184,5.859,999.512
1742645114.237,235.352,-35.645,12.695,270.996
1742645114.241,-1000.000,-40.039,20.996,-1000.000
1742645114.245,-295.898,-6.348,37.598,-379.883
1742645114.248,999.512,21.973,62.988,999.512
1742645114.252,217.285,21.484,68.359,151.855
1742645114.256,-1000.000,20.020,69.336,-1000.000
1742645114.260,-216.309,29.785,72.754,-141.602
1742645114.264,999.512,36.133,82.520,999.512
1742645114.221,-385.254,-36.133,-29.297,-390.625
1742645114.225,-1000.000,-27.344,-20.996,-1000.000
1742645114.229,-217.773,-13.672,-3.906,-268.555
1742645114.233,999.512,-13.184,5.859,999.512
1742645114.237,235.352,-35.645,12.695,270.996
1742645114.241,-1000.000,-40.039,20.996,-1000.000
1742645114.245,-295.898,-6.348,37.598,-379.883
1742645114.248,999.512,21.973,62.988,999.512
1742645114.252,217.285,21.484,68.359,151.855
1742645114.256,-1000.000,20.020,69.336,-1000.000
1742645114.260,-216.309,29.785,72.754,-141.602
1742645114.264,999.512,36.133,82.520,999.512
1742645114.266,173.340,24.414,83.496,73.242
1742645114.270,-1000.000,8.301,69.824,-1000.000
1742645114.274,-241.211,21.973,41.992,-176.758
1742645114.278,999.512,22.461,31.250,999.512
1742645114.282,229.980,-9.277,38.086,244.141
1742645114.286,-1000.000,-20.020,30.273,-1000.000
1742645114.290,-349.121,10.742,14.160,-413.086
1742645114.293,999.512,16.113,10.254,999.512
1742645114.297,425.293,-15.625,22.949,514.160
1742645114.301,-1000.000,-23.438,16.113,-1000.000
1742645114.305,-594.727,-1.465,1.953,-700.195
1742645114.309,999.512,-0.488,0.977,901.855
1742645114.266,173.340,24.414,83.496,73.242
1742645114.270,-1000.000,8.301,69.824,-1000.000
1742645114.274,-241.211,21.973,41.992,-176.758
1742645114.278,999.512,22.461,31.250,999.512
1742645114.282,229.980,-9.277,38.086,244.141
1742645114.286,-1000.000,-20.020,30.273,-1000.000
1742645114.290,-349.121,10.742,14.160,-413.086
1742645114.293,999.512,16.113,10.254,999.512
1742645114.297,425.293,-15.625,22.949,514.160
1742645114.301,-1000.000,-23.438,16.113,-1000.000
1742645114.305,-594.727,-1.465,1.953,-700.195
1742645114.309,999.512,-0.488,0.977,901.855
1742645114.776,999.512,31.738,52.246,999.512
1742645114.780,155.762,10.742,44.434,75.684
1742645114.784,-1000.000,11.230,30.273,-1000.000
1742645114.788,-30.273,38.086,2.441,37.598
1742645114.792,999.512,33.203,2.441,999.512
1742645114.796,219.238,-12.207,19.531,283.203
1742645114.800,-1000.000,-27.344,13.184,-1000.000
1742645114.803,-308.594,-4.395,6.348,-337.891
1742645114.807,999.512,-3.418,5.859,999.512
1742645114.811,595.215,-29.297,6.348,702.148
1742645114.815,-942.383,-49.805,6.836,-771.973
1742645114.819,-931.641,-46.875,-3.906,-949.219
1742645114.312,635.254,-24.902,-2.930,718.262
1742645114.316,-1000.000,-41.016,-6.836,-963.867
1742645114.320,-465.820,-18.555,-10.254,-550.293
1742645114.324,999.512,1.465,-9.766,999.512
1742645114.328,239.258,-29.297,-6.836,241.699
1742645114.332,-1000.000,-30.762,-5.371,-1000.000
1742645114.336,-154.785,-0.977,-9.766,-99.121
1742645114.339,999.512,-7.324,-19.531,999.512
1742645114.343,-31.250,-24.902,-20.020,-87.402
1742645114.347,-1000.000,-31.250,-24.414,-1000.000
1742645114.351,-60.059,-19.043,-20.020,-22.461
1742645114.355,999.512,-14.160,-3.418,999.512
1742645114.312,635.254,-24.902,-2.930,718.262
1742645114.316,-1000.000,-41.016,-6.836,-963.867
1742645114.320,-465.820,-18.555,-10.254,-550.293
1742645114.324,999.512,1.465,-9.766,999.512
1742645114.328,239.258,-29.297,-6.836,241.699
1742645114.332,-1000.000,-30.762,-5.371,-1000.000
1742645114.336,-154.785,-0.977,-9.766,-99.121
1742645114.339,999.512,-7.324,-19.531,999.512
1742645114.343,-31.250,-24.902,-20.020,-87.402
1742645114.347,-1000.000,-31.250,-24.414,-1000.000
1742645114.351,-60.059,-19.043,-20.020,-22.461
1742645114.355,999.512,-14.160,-3.418,999.512
1742645114.356,149.902,-27.832,2.930,67.871
1742645114.360,-1000.000,-41.504,-2.930,-1000.000
1742645114.364,-271.484,-31.250,-11.230,-333.496
1742645114.368,999.512,-19.043,-10.742,999.512
1742645114.372,373.535,-37.598,-21.973,488.770
1742645114.376,-1000.000,-50.293,-31.250,-1000.000
1742645114.380,-491.699,-32.227,-20.996,-610.352
1742645114.383,999.512,-31.738,-1.953,999.512
1742645114.387,295.410,-59.570,1.465,372.070
1742645114.391,-1000.000,-62.012,-9.766,-1000.000
1742645114.395,-238.770,-25.391,-11.230,-226.074
1742645114.399,999.512,-26.367,-13.672,999.512
1742645114.356,149.902,-27.832,2.930,67.871
1742645114.360,-1000.000,-41.504,-2.930,-1000.000
1742645114.364,-271.484,-31.250,-11.230,-333.496
1742645114.368,999.512,-19.043,-10.742,999.512
1742645114.372,373.535,-37.598,-21.973,488.770
1742645114.376,-1000.000,-50.293,-31.250,-1000.000
1742645114.380,-491.699,-32.227,-20.996,-610.352
1742645114.383,999.512,-31.738,-1.953,999.512
1742645114.387,295.410,-59.570,1.465,372.070
1742645114.391,-1000.000,-62.012,-9.766,-1000.000
1742645114.395,-238.770,-25.391,-11.230,-226.074
1742645114.399,999.512,-26.367,-13.672,999.512
1742645114.401,-20.996,-59.570,-26.855,-104.492
1742645114.405,-1000.000,-61.035,-23.926,-1000.000
1742645114.409,-90.332,-39.551,-26.367,-57.617
1742645114.413,999.512,-38.086,-36.621,999.512
1742645114.417,152.344,-55.176,-38.086,77.148
1742645114.421,-1000.000,-71.777,-61.035,-1000.000
1742645114.425,-255.371,-67.383,-79.590,-279.785
1742645114.428,999.512,-62.988,-78.613,999.512
1742645114.432,236.816,-88.379,-63.477,238.281
1742645114.436,-1000.000,-87.891,-59.082,-1000.000
1742645114.440,-587.891,-63.965,-59.570,-694.336
1742645114.444,968.750,-51.270,-59.570,793.945
1742645114.401,-20.996,-59.570,-26.855,-104.492
1742645114.405,-1000.000,-61.035,-23.926,-1000.000
1742645114.409,-90.332,-39.551,-26.367,-57.617
1742645114.413,999.512,-38.086,-36.621,999.512
1742645114.417,152.344,-55.176,-38.086,77.148
1742645114.421,-1000.000,-71.777,-61.035,-1000.000
1742645114.425,-255.371,-67.383,-79.590,-279.785
1742645114.428,999.512,-62.988,-78.613,999.512
1742645114.432,236.816,-88.379,-63.477,238.281
1742645114.436,-1000.000,-87.891,-59.082,-1000.000
1742645114.440,-587.891,-63.965,-59.570,-694.336
1742645114.444,968.750,-51.270,-59.570,793.945
1742645114.446,783.691,-66.895,-55.664,835.449
1742645114.450,-719.238,-82.031,-48.340,-618.164
1742645114.454,-1000.000,-79.590,-62.500,-1000.000
1742645114.458,199.707,-90.820,-83.496,171.875
1742645114.462,999.512,-106.934,-99.609,999.512
1742645114.466,-441.895,-120.117,-104.004,-402.344
1742645114.470,-1000.000,-105.469,-91.309,-1000.000
1742645114.473,801.758,-77.148,-81.055,691.406
1742645114.477,451.660,-92.773,-76.660,485.840
1742645114.481,-1000.000,-113.281,-70.801,-1000.000
1742645114.485,-282.227,-83.984,-70.312,-334.473
1742645114.489,999.512,-60.547,-77.637,999.512
1742645114.446,783.691,-66.895,-55.664,835.449
1742645114.450,-719.238,-82.031,-48.340,-618.164
1742645114.454,-1000.000,-79.590,-62.500,-1000.000
1742645114.458,199.707,-90.820,-83.496,171.875
1742645114.462,999.512,-106.934,-99.609,999.512
1742645114.466,-441.895,-120.117,-104.004,-402.344
1742645114.470,-1000.000,-105.469,-91.309,-1000.000
1742645114.473,801.758,-77.148,-81.055,691.406
1742645114.477,451.660,-92.773,-76.660,485.840
1742645114.481,-1000.000,-113.281,-70.801,-1000.000
1742645114.485,-282.227,-83.984,-70.312,-334.473
1742645114.489,999.512,-60.547,-77.637,999.512
1742645114.506,232.910,-81.543,-73.730,257.324
1742645114.510,-1000.000,-90.820,-73.242,-1000.000
1742645114.514,-435.547,-75.195,-73.242,-492.676
1742645114.518,999.512,-76.172,-55.176,999.512
1742645114.522,621.094,-83.496,-35.645,711.914
1742645114.526,-862.305,-74.219,-42.969,-722.656
1742645114.530,-1000.000,-65.918,-59.082,-1000.000
1742645114.533,181.152,-54.688,-56.641,155.762
1742645114.537,999.512,-53.711,-53.711,999.512
1742645114.541,58.105,-74.219,-57.617,16.602
1742645114.545,-1000.000,-65.918,-64.453,-1000.000
1742645114.549,-121.094,-37.598,-65.918,-51.270
1742645114.506,232.910,-81.543,-73.730,257.324
1742645114.510,-1000.000,-90.820,-73.242,-1000.000
1742645114.514,-435.547,-75.195,-73.242,-492.676
1742645114.518,999.512,-76.172,-55.176,999.512
1742645114.522,621.094,-83.496,-35.645,711.914
1742645114.526,-862.305,-74.219,-42.969,-722.656
1742645114.530,-1000.000,-65.918,-59.082,-1000.000
1742645114.533,181.152,-54.688,-56.641,155.762
1742645114.537,999.512,-53.711,-53.711,999.512
1742645114.541,58.105,-74.219,-57.617,16.602
1742645114.545,-1000.000,-65.918,-64.453,-1000.000
1742645114.549,-121.094,-37.598,-65.918,-51.270
1742645115.016,-447.754,-28.809,-34.180,-360.352
1742645115.020,-1000.000,-24.902,-41.504,-1000.000
1742645115.024,-75.684,-9.766,-47.363,-77.148
1742645115.028,999.512,-1.953,-46.875,999.512
1742645115.032,239.746,-22.949,-38.086,312.988
1742645115.036,-1000.000,-30.273,-27.344,-1000.000
1742645115.040,-215.820,-12.695,-17.090,-163.574
1742645115.043,999.512,-23.926,-20.996,999.512
1742645115.047,-194.336,-44.922,-28.320,-220.703
1742645115.051,-1000.000,-29.785,-30.273,-1000.000
1742645115.055,399.902,5.371,-23.926,402.344
1742645115.059,999.512,-6.348,-30.273,999.512
1742645114.551,999.512,-39.551,-56.152,999.512
1742645114.555,-9.766,-64.453,-57.617,-46.875
1742645114.559,-1000.000,-62.988,-52.734,-1000.000
1742645114.563,382.812,-44.434,-45.898,393.555
1742645114.567,999.512,-49.316,-41.504,999.512
1742645114.571,-731.934,-62.012,-43.945,-639.160
1742645114.575,-650.879,-47.363,-44.434,-644.531
1742645114.578,999.512,-36.133,-36.621,983.398
1742645114.582,787.598,-48.828,-45.410,855.469
1742645114.586,-888.672,-56.152,-49.316,-731.445
1742645114.590,-653.809,-31.250,-35.156,-676.270
1742645114.594,947.754,-15.625,-17.578,872.559
1742645114.551,999.512,-39.551,-56.152,999.512
1742645114.555,-9.766,-64.453,-57.617,-46.875
1742645114.559,-1000.000,-62.988,-52.734,-1000.000
1742645114.563,382.812,-44.434,-45.898,393.555
1742645114.567,999.512,-49.316,-41.504,999.512
1742645114.571,-731.934,-62.012,-43.945,-639.160
1742645114.575,-650.879,-47.363,-44.434,-644.531
1742645114.578,999.512,-36.133,-36.621,983.398
1742645114.582,787.598,-48.828,-45.410,855.469
1742645114.586,-888.672,-56.152,-49.316,-731.445
1742645114.590,-653.809,-31.250,-35.156,-676.270
1742645114.594,947.754,-15.625,-17.578,872.559
1742645114.596,998.047,-28.809,-15.625,999.512
1742645114.600,-486.816,-37.598,-14.160,-362.793
1742645114.604,-1000.000,-24.902,-12.207,-987.793
1742645114.608,460.449,-9.766,-17.090,422.363
1742645114.612,999.512,-17.090,-15.137,999.512
1742645114.616,-104.980,-36.621,-11.719,-89.844
1742645114.620,-1000.000,-30.762,-14.648,-1000.000
1742645114.623,364.746,-11.719,-28.320,404.297
1742645114.627,999.512,-2.441,-7.812,999.512
1742645114.631,-516.602,1.465,29.297,-463.867
1742645114.635,-796.875,15.137,23.438,-765.137
1742645114.639,973.633,36.133,12.695,892.090
1742645114.641,764.648,12.695,2.441,822.754
1742645114.645,-968.262,-17.090,-4.395,-847.656
1742645114.649,-551.758,-13.184,-20.508,-566.406
1742645114.653,999.512,-7.812,-38.574,980.469
1742645114.657,926.270,-35.156,-42.969,951.660
1742645114.661,-582.031,-58.594,-39.062,-458.008
1742645114.665,-1000.000,-45.898,-40.039,-966.309
1742645114.668,532.227,-37.109,-49.805,493.652
1742645114.672,999.512,-41.992,-50.293,999.512
1742645114.676,-276.367,-50.293,-42.480,-208.008
1742645114.680,-1000.000,-41.992,-43.457,-969.238
1742645114.684,543.945,-22.461,-41.016,488.281
1742645114.641,764.648,12.695,2.441,822.754
1742645114.645,-968.262,-17.090,-4.395,-847.656
1742645114.649,-551.758,-13.184,-20.508,-566.406
1742645114.653,999.512,-7.812,-38.574,980.469
1742645114.657,926.270,-35.156,-42.969,951.660
1742645114.661,-582.031,-58.594,-39.062,-458.008
1742645114.665,-1000.000,-45.898,-40.039,-966.309
1742645114.668,532.227,-37.109,-49.805,493.652
1742645114.672,999.512,-41.992,-50.293,999.512
1742645114.676,-276.367,-50.293,-42.480,-208.008
1742645114.680,-1000.000,-41.992,-43.457,-969.238
1742645114.684,543.945,-22.461,-41.016,488.281
1742645114.686,999.512,-35.156,-31.250,999.512
1742645114.690,-540.039,-51.270,-32.227,-417.480
1742645114.694,-839.844,-28.320,-35.156,-796.387
1742645114.698,916.992,-11.230,-33.691,842.773
1742645114.702,794.922,-31.738,-30.762,865.723
1742645114.706,-946.777,-51.758,-26.367,-799.316
1742645114.710,-522.949,-30.762,-25.391,-539.062
1742645114.713,999.512,-7.324,-33.203,999.512
1742645114.717,556.152,-36.133,-46.875,663.086
1742645114.721,-1000.000,-60.059,-53.711,-941.895
1742645114.725,-641.113,-32.715,-43.945,-666.992
1742645114.729,900.391,-22.461,-43.945,838.867
1742645114.731,999.512,-43.945,-39.062,999.512
1742645114.735,-333.008,-58.594,-27.344,-227.539
1742645114.739,-1000.000,-59.570,-27.344,-1000.000
1742645114.743,34.668,-42.969,-20.996,58.105
1742645114.747,999.512,-13.672,-10.742,999.512
1742645114.751,313.477,-22.461,-17.578,446.777
1742645114.755,-1000.000,-32.227,-3.418,-1000.000
1742645114.758,-324.219,23.438,38.086,-367.188
1742645114.762,999.512,55.664,60.547,999.512
1742645114.766,505.859,32.715,68.848,650.879
1742645114.770,-1000.000,20.996,60.547,-955.078
1742645114.774,-309.082,37.598,51.270,-311.035
1742645114.731,999.512,-43.945,-39.062,999.512
1742645114.735,-333.008,-58.594,-27.344,-227.539
1742645114.739,-1000.000,-59.570,-27.344,-1000.000
1742645114.743,34.668,-42.969,-20.996,58.105
1742645114.747,999.512,-13.672,-10.742,999.512
1742645114.751,313.477,-22.461,-17.578,446.777
1742645114.755,-1000.000,-32.227,-3.418,-1000.000
1742645114.758,-324.219,23.438,38.086,-367.188
1742645114.762,999.512,55.664,60.547,999.512
1742645114.766,505.859,32.715,68.848,650.879
1742645114.770,-1000.000,20.996,60.547,-955.078
1742645114.774,-309.082,37.598,51.270,-311.035
1742645114.822,557.617,-26.855,-4.395,491.211
1742645114.826,999.512,-42.480,5.371,999.512
1742645114.830,-190.918,-63.477,17.090,-131.836
1742645114.834,-1000.000,-66.406,34.668,-1000.000
1742645114.838,-5.859,-64.941,27.344,22.461
1742645114.842,999.512,-71.289,18.066,999.512
1742645114.846,182.129,-95.215,19.043,169.434
1742645114.849,-1000.000,-102.539,24.902,-1000.000
1742645114.853,-230.469,-80.566,30.273,-157.715
1742645114.857,999.512,-81.055,33.203,999.512
1742645114.861,-17.090,-83.008,41.992,-104.004
1742645114.865,-1000.000,-80.078,36.621,-1000.000
1742645114.822,557.617,-26.855,-4.395,491.211
1742645114.826,999.512,-42.480,5.371,999.512
1742645114.830,-190.918,-63.477,17.090,-131.836
1742645114.834,-1000.000,-66.406,34.668,-1000.000
1742645114.838,-5.859,-64.941,27.344,22.461
1742645114.842,999.512,-71.289,18.066,999.512
1742645114.846,182.129,-95.215,19.043,169.434
1742645114.849,-1000.000,-102.539,24.902,-1000.000
1742645114.853,-230.469,-80.566,30.273,-157.715
1742645114.857,999.512,-81.055,33.203,999.512
1742645114.861,-17.090,-83.008,41.992,-104.004
1742645114.865,-1000.000,-80.078,36.621,-1000.000
1742645114.881,193.359,-83.496,47.363,241.699
1742645114.885,999.512,-91.309,52.734,999.512
1742645114.889,-278.320,-95.703,49.805,-281.250
1742645114.893,-1000.000,-73.730,36.133,-1000.000
1742645114.897,120.605,-54.688,29.785,151.367
1742645114.901,999.512,-64.453,33.691,999.512
1742645114.905,161.133,-86.914,17.090,124.023
1742645114.908,-1000.000,-81.055,18.066,-1000.000
1742645114.912,-273.926,-46.875,15.137,-299.316
1742645114.916,999.512,-37.598,5.859,999.512
1742645114.920,645.996,-63.965,6.836,742.676
1742645114.924,-805.176,-74.707,-3.418,-650.879
1742645114.881,193.359,-83.496,47.363,241.699
1742645114.885,999.512,-91.309,52.734,999.512
1742645114.889,-278.320,-95.703,49.805,-281.250
1742645114.893,-1000.000,-73.730,36.133,-1000.000
1742645114.897,120.605,-54.688,29.785,151.367
1742645114.901,999.512,-64.453,33.691,999.512
1742645114.905,161.133,-86.914,17.090,124.023
1742645114.908,-1000.000,-81.055,18.066,-1000.000
1742645114.912,-273.926,-46.875,15.137,-299.316
1742645114.916,999.512,-37.598,5.859,999.512
1742645114.920,645.996,-63.965,6.836,742.676
1742645114.924,-805.176,-74.707,-3.418,-650.879
1742645114.926,-1000.000,-63.477,-18.066,-1000.000
1742645114.930,202.148,-48.340,-12.207,179.199
1742645114.934,999.512,-39.062,0.488,999.512
1742645114.938,131.348,-47.363,1.465,85.938
1742645114.942,-1000.000,-54.688,-25.879,-1000.000
1742645114.946,-207.520,-41.504,-38.086,-142.090
1742645114.950,999.512,-29.297,-21.484,999.512
1742645114.953,267.090,-42.480,-22.461,339.355
1742645114.957,-1000.000,-51.758,-43.457,-1000.000
1742645114.961,-214.355,-23.438,-46.875,-270.020
1742645114.965,999.512,-16.113,-39.551,999.512
1742645114.969,211.914,-44.434,-47.363,163.574
1742645114.926,-1000.000,-63.477,-18.066,-1000.000
1742645114.930,202.148,-48.340,-12.207,179.199
1742645114.934,999.512,-39.062,0.488,999.512
1742645114.938,131.348,-47.363,1.465,85.938
1742645114.942,-1000.000,-54.688,-25.879,-1000.000
1742645114.946,-207.520,-41.504,-38.086,-142.090
1742645114.950,999.512,-29.297,-21.484,999.512
1742645114.953,267.090,-42.480,-22.461,339.355
1742645114.957,-1000.000,-51.758,-43.457,-1000.000
1742645114.961,-214.355,-23.438,-46.875,-270.020
1742645114.965,999.512,-16.113,-39.551,999.512
1742645114.969,211.914,-44.434,-47.363,163.574
1742645114.971,-1000.000,-46.387,-59.570,-1000.000
1742645114.975,-175.293,-18.555,-64.941,-96.680
1742645114.979,999.512,-17.090,-57.129,999.512
1742645114.983,195.801,-39.062,-44.434,132.812
1742645114.987,-1000.000,-38.574,-39.062,-1000.000
1742645114.991,-226.562,-18.555,-38.086,-175.293
1742645114.995,999.512,-17.578,-55.176,999.512
1742645114.998,228.027,-33.691,-58.594,219.238
1742645115.002,-1000.000,-37.109,-60.547,-1000.000
1742645115.006,-502.441,-18.066,-48.828,-586.426
1742645115.010,975.586,-1.465,-27.344,856.445
1742645115.014,930.176,-12.207,-27.344,953.125
1742645114.971,-1000.000,-46.387,-59.570,-1000.000
1742645114.975,-175.293,-18.555,-64.941,-96.680
1742645114.979,999.512,-17.090,-57.129,999.512
1742645114.983,195.801,-39.062,-44.434,132.812
1742645114.987,-1000.000,-38.574,-39.062,-1000.000
1742645114.991,-226.562,-18.555,-38.086,-175.293
1742645114.995,999.512,-17.578,-55.176,999.512
1742645114.998,228.027,-33.691,-58.594,219.238
1742645115.002,-1000.000,-37.109,-60.547,-1000.000
1742645115.006,-502.441,-18.066,-48.828,-586.426
1742645115.010,975.586,-1.465,-27.344,856.445
1742645115.014,930.176,-12.207,-27.344,953.125
1742645115.062,-247.559,-40.039,-35.645,-230.469
1742645115.066,-1000.000,-34.180,-7.812,-1000.000
1742645115.070,183.594,-11.719,1.953,204.590
1742645115.074,999.512,-9.766,-3.906,999.512
1742645115.078,155.762,-23.926,-13.672,109.375
1742645115.082,-1000.000,-20.508,-22.461,-1000.000
1742645115.086,-209.473,0.000,-18.066,-140.625
1742645115.089,999.512,-4.395,-16.113,999.512
1742645115.093,217.285,-26.855,-22.461,227.539
1742645115.097,-1000.000,-34.668,-28.320,-1000.000
1742645115.101,-280.762,-15.137,-26.855,-325.195
1742645115.105,999.512,-0.488,-14.160,999.512
1742645115.062,-247.559,-40.039,-35.645,-230.469
1742645115.066,-1000.000,-34.180,-7.812,-1000.000
1742645115.070,183.594,-11.719,1.953,204.590
1742645115.074,999.512,-9.766,-3.906,999.512
1742645115.078,155.762,-23.926,-13.672,109.375
1742645115.082,-1000.000,-20.508,-22.461,-1000.000
1742645115.086,-209.473,0.000,-18.066,-140.625
1742645115.089,999.512,-4.395,-16.113,999.512
1742645115.093,217.285,-26.855,-22.461,227.539
1742645115.097,-1000.000,-34.668,-28.320,-1000.000
1742645115.101,-280.762,-15.137,-26.855,-325.195
1742645115.105,999.512,-0.488,-14.160,999.512
1742645115.107,736.328,-11.719,-9.766,852.539
1742645115.111,-868.164,-35.156,-20.020,-641.113
1742645115.115,-699.219,-25.391,-27.344,-737.793
1742645115.119,999.512,-8.789,-37.598,956.543
1742645115.123,535.645,-28.320,-37.598,648.926
1742645115.127,-1000.000,-37.598,-6.348,-1000.000
1742645115.131,-299.316,-14.160,-7.324,-299.316
1742645115.134,999.512,-9.277,-15.625,999.512
1742645115.138,215.332,-30.762,0.488,246.094
1742645115.142,-1000.000,-29.297,-4.883,-1000.000
1742645115.146,-214.844,3.418,-26.367,-158.203
1742645115.150,999.512,-0.977,-29.297,999.512
1742645115.107,736.328,-11.719,-9.766,852.539
1742645115.111,-868.164,-35.156,-20.020,-641.113
1742645115.115,-699.219,-25.391,-27.344,-737.793
1742645115.119,999.512,-8.789,-37.598,956.543
1742645115.123,535.645,-28.320,-37.598,648.926
1742645115.127,-1000.000,-37.598,-6.348,-1000.000
1742645115.131,-299.316,-14.160,-7.324,-299.316
1742645115.134,999.512,-9.277,-15.625,999.512
1742645115.138,215.332,-30.762,0.488,246.094
1742645115.142,-1000.000,-29.297,-4.883,-1000.000
1742645115.146,-214.844,3.418,-26.367,-158.203
1742645115.150,999.512,-0.977,-29.297,999.512
1742645115.151,310.059,-28.809,-29.297,398.438
1742645115.155,-1000.000,-32.227,-43.457,-1000.000
1742645115.159,-406.738,-8.789,-42.969,-455.566
1742645115.163,999.512,4.883,-37.598,999.512
1742645115.167,901.367,-8.301,-36.621,935.059
1742645115.171,-494.629,-25.391,-30.273,-370.605
1742645115.175,-1000.000,-33.691,-42.480,-1000.000
1742645115.178,144.043,-18.066,-31.250,167.969
1742645115.182,999.512,-6.348,-21.484,999.512
1742645115.186,184.082,-26.855,-23.438,194.824
1742645115.190,-1000.000,-37.109,-25.879,-1000.000
1742645115.194,-241.211,-23.926,-29.297,-161.621
1742645115.151,310.059,-28.809,-29.297,398.438
1742645115.155,-1000.000,-32.227,-43.457,-1000.000
1742645115.159,-406.738,-8.789,-42.969,-455.566
1742645115.163,999.512,4.883,-37.598,999.512
1742645115.167,901.367,-8.301,-36.621,935.059
1742645115.171,-494.629,-25.391,-30.273,-370.605
1742645115.175,-1000.000,-33.691,-42.480,-1000.000
1742645115.178,144.043,-18.066,-31.250,167.969
1742645115.182,999.512,-6.348,-21.484,999.512
1742645115.186,184.082,-26.855,-23.438,194.824
1742645115.190,-1000.000,-37.109,-25.879,-1000.000
1742645115.194,-241.211,-23.926,-29.297,-161.621
1742645115.196,999.512,-22.949,-23.438,999.512
1742645115.200,208.984,-35.156,-31.738,181.152
1742645115.204,-1000.000,-31.738,-37.598,-1000.000
1742645115.208,-172.852,-9.277,-39.551,-82.031
1742645115.212,999.512,-6.836,-33.203,999.512
1742645115.216,199.219,-29.297,-29.297,177.246
1742645115.220,-1000.000,-35.156,-24.414,-1000.000
1742645115.223,-134.277,-13.184,-26.855,-50.781
1742645115.227,999.512,-13.184,-43.945,999.512
1742645115.231,208.984,-25.879,-39.062,205.566
1742645115.235,-1000.000,-21.973,-26.855,-1000.000
1742645115.239,-262.695,-9.277,-8.301,-193.359
1742645115.196,999.512,-22.949,-23.438,999.512
1742645115.200,208.984,-35.156,-31.738,181.152
1742645115.204,-1000.000,-31.738,-37.598,-1000.000
1742645115.208,-172.852,-9.277,-39.551,-82.031
1742645115.212,999.512,-6.836,-33.203,999.512
1742645115.216,199.219,-29.297,-29.297,177.246
1742645115.220,-1000.000,-35.156,-24.414,-1000.000
1742645115.223,-134.277,-13.184,-26.855,-50.781
1742645115.227,999.512,-13.184,-43.945,999.512
1742645115.231,208.984,-25.879,-39.062,205.566
1742645115.235,-1000.000,-21.973,-26.855,-1000.000
1742645115.239,-262.695,-9.277,-8.301,-193.359
1742645115.256,999.512,-10.742,15.625,999.512
1742645115.260,377.441,-29.785,-5.371,494.141
1742645115.264,-1000.000,-29.297,-8.301,-1000.000
1742645115.268,-439.941,-3.418,12.695,-517.090
1742645115.272,908.691,-2.930,-0.977,862.793
1742645115.276,999.512,-5.371,-15.625,999.512
1742645115.280,387.207,-5.859,-16.113,544.434
1742645115.283,-1000.000,-20.508,-12.207,-976.562
1742645115.287,-425.293,3.418,-3.906,-515.625
1742645115.291,962.891,16.602,0.977,925.781
1742645115.295,999.512,11.719,-1.465,999.512
1742645115.299,-122.559,3.418,-12.695,-79.590
1742645115.256,999.512,-10.742,15.625,999.512
1742645115.260,377.441,-29.785,-5.371,494.141
1742645115.264,-1000.000,-29.297,-8.301,-1000.000
1742645115.268,-439.941,-3.418,12.695,-517.090
1742645115.272,908.691,-2.930,-0.977,862.793
1742645115.276,999.512,-5.371,-15.625,999.512
1742645115.280,387.207,-5.859,-16.113,544.434
1742645115.283,-1000.000,-20.508,-12.207,-976.562
1742645115.287,-425.293,3.418,-3.906,-515.625
1742645115.291,962.891,16.602,0.977,925.781
1742645115.295,999.512,11.719,-1.465,999.512
1742645115.299,-122.559,3.418,-12.695,-79.590
1742645115.301,-1000.000,3.418,-18.555,-982.422
1742645115.305,338.379,18.555,-14.648,340.332
1742645115.309,999.512,6.836,-12.695,999.512
1742645115.313,147.949,-7.812,-1.953,173.828
1742645115.317,-1000.000,-3.906,8.789,-1000.000
1742645115.321,31.250,3.418,-0.977,101.074
1742645115.325,999.512,-3.906,-16.602,999.512
1742645115.328,-97.168,-19.531,-18.066,-90.820
1742645115.332,-1000.000,-14.160,-17.578,-951.660
1742645115.336,423.340,6.836,-16.113,459.961
1742645115.340,999.512,5.371,-17.090,999.512
1742645115.344,140.137,-16.602,-18.555,108.398
1742645115.301,-1000.000,3.418,-18.555,-982.422
1742645115.305,338.379,18.555,-14.648,340.332
1742645115.309,999.512,6.836,-12.695,999.512
1742645115.313,147.949,-7.812,-1.953,173.828
1742645115.317,-1000.000,-3.906,8.789,-1000.000
1742645115.321,31.250,3.418,-0.977,101.074
1742645115.325,999.512,-3.906,-16.602,999.512
1742645115.328,-97.168,-19.531,-18.066,-90.820
1742645115.332,-1000.000,-14.160,-17.578,-951.660
1742645115.336,423.340,6.836,-16.113,459.961
1742645115.340,999.512,5.371,-17.090,999.512
1742645115.344,140.137,-16.602,-18.555,108.398
1742645115.346,-1000.000,-23.926,-18.555,-1000.000
1742645115.350,-217.285,1.465,-5.371,-134.766
1742645115.354,999.512,15.137,8.301,999.512
1742645115.358,312.500,-7.812,5.371,412.109
1742645115.362,-1000.000,-19.043,6.836,-1000.000
1742645115.366,-460.449,7.324,0.488,-536.621
1742645115.370,999.512,22.461,-9.277,999.512
1742645115.373,533.691,-1.465,-11.719,641.113
1742645115.377,-900.391,-20.020,-1.465,-775.879
1742645115.381,-1000.000,-16.602,-6.836,-1000.000
1742645115.385,-28.809,-8.301,-19.531,-30.762
1742645115.389,999.512,-18.066,-17.578,999.512
1742645115.346,-1000.000,-23.926,-18.555,-1000.000
1742645115.350,-217.285,1.465,-5.371,-134.766
1742645115.354,999.512,15.137,8.301,999.512
1742645115.358,312.500,-7.812,5.371,412.109
1742645115.362,-1000.000,-19.043,6.836,-1000.000
1742645115.366,-460.449,7.324,0.488,-536.621
1742645115.370,999.512,22.461,-9.277,999.512
1742645115.373,533.691,-1.465,-11.719,641.113
1742645115.377,-900.391,-20.020,-1.465,-775.879
1742645115.381,-1000.000,-16.602,-6.836,-1000.000
1742645115.385,-28.809,-8.301,-19.531,-30.762
1742645115.389,999.512,-18.066,-17.578,999.512
1742645115.392,106.934,-44.434,-11.230,68.848
1742645115.396,-1000.000,-36.621,-9.277,-1000.000
1742645115.400,-198.730,-15.625,-7.812,-125.488
1742645115.404,999.512,-18.066,9.766,999.512
1742645115.408,38.086,-30.273,5.371,-31.250
1742645115.412,-1000.000,-20.996,-28.320,-1000.000
1742645115.416,165.527,-0.488,-41.504,166.504
1742645115.419,933.594,-16.113,-36.133,896.973
1742645115.423,-706.543,-40.039,-25.879,-659.180
1742645115.427,-1000.000,-22.949,-6.348,-1000.000
1742645115.431,388.672,4.883,10.254,360.840
1742645115.435,999.512,-1.465,12.207,999.512
1742645115.392,106.934,-44.434,-11.230,68.848
1742645115.396,-1000.000,-36.621,-9.277,-1000.000
1742645115.400,-198.730,-15.625,-7.812,-125.488
1742645115.404,999.512,-18.066,9.766,999.512
1742645115.408,38.086,-30.273,5.371,-31.250
1742645115.412,-1000.000,-20.996,-28.320,-1000.000
1742645115.416,165.527,-0.488,-41.504,166.504
1742645115.419,933.594,-16.113,-36.133,896.973
1742645115.423,-706.543,-40.039,-25.879,-659.180
1742645115.427,-1000.000,-22.949,-6.348,-1000.000
1742645115.431,388.672,4.883,10.254,360.840
1742645115.435,999.512,-1.465,12.207,999.512
1742645115.436,-330.566,-22.461,10.742,-313.477
1742645115.440,-1000.000,-17.090,3.906,-1000.000
1742645115.444,-205.078,0.977,-5.859,-191.895
1742645115.448,999.512,9.766,-6.836,999.512
1742645115.452,265.625,-15.137,1.953,312.988
1742645115.456,-1000.000,-17.090,6.348,-1000.000
1742645115.460,-531.250,12.207,9.766,-656.738
1742645115.463,999.512,18.555,17.090,869.629
1742645115.467,711.426,5.859,-3.906,798.828
1742645115.471,-958.496,-17.578,-11.230,-793.457
1742645115.475,-743.164,0.977,-4.883,-837.402
1742645115.479,999.512,30.762,-7.812,853.027
1742645115.481,434.082,2.930,1.953,507.812
1742645115.485,-1000.000,-10.742,-1.953,-1000.000
1742645115.489,-315.430,15.625,1.953,-380.859
1742645115.493,999.512,21.973,21.484,999.512
1742645115.497,228.516,0.488,16.113,224.121
1742645115.501,-1000.000,-13.184,8.789,-1000.000
1742645115.505,-245.117,5.859,6.836,-195.312
1742645115.508,999.512,9.766,2.930,999.512
1742645115.512,201.172,-16.113,15.137,129.883
1742645115.516,-1000.000,-15.137,27.832,-1000.000
1742645115.520,-254.883,17.578,37.598,-218.262
1742645115.524,999.512,14.160,39.551,999.512
1742645115.481,434.082,2.930,1.953,507.812
1742645115.485,-1000.000,-10.742,-1.953,-1000.000
1742645115.489,-315.430,15.625,1.953,-380.859
1742645115.493,999.512,21.973,21.484,999.512
1742645115.497,228.516,0.488,16.113,224.121
1742645115.501,-1000.000,-13.184,8.789,-1000.000
1742645115.505,-245.117,5.859,6.836,-195.312
1742645115.508,999.512,9.766,2.930,999.512
1742645115.512,201.172,-16.113,15.137,129.883
1742645115.516,-1000.000,-15.137,27.832,-1000.000
1742645115.520,-254.883,17.578,37.598,-218.262
1742645115.524,999.512,14.160,39.551,999.512
1742645115.526,433.105,-10.742,41.992,522.461
1742645115.530,-1000.000,-18.066,31.738,-938.477
1742645115.534,-799.805,-6.836,17.090,-887.695
1742645115.538,605.469,3.906,22.949,462.402
1742645115.542,999.512,3.906,20.996,999.512
1742645115.546,180.664,-11.719,22.461,182.617
1742645115.550,-1000.000,-27.832,19.531,-1000.000
1742645115.553,-269.531,-8.789,19.531,-268.066
1742645115.557,999.512,8.301,18.555,999.512
1742645115.561,305.176,-21.484,18.555,387.695
1742645115.565,-1000.000,-30.762,26.855,-1000.000
1742645115.569,-268.555,6.348,17.578,-219.238
1742645115.526,433.105,-10.742,41.992,522.461
1742645115.530,-1000.000,-18.066,31.738,-938.477
1742645115.534,-799.805,-6.836,17.090,-887.695
1742645115.538,605.469,3.906,22.949,462.402
1742645115.542,999.512,3.906,20.996,999.512
1742645115.546,180.664,-11.719,22.461,182.617
1742645115.550,-1000.000,-27.832,19.531,-1000.000
1742645115.553,-269.531,-8.789,19.531,-268.066
1742645115.557,999.512,8.301,18.555,999.512
1742645115.561,305.176,-21.484,18.555,387.695
1742645115.565,-1000.000,-30.762,26.855,-1000.000
1742645115.569,-268.555,6.348,17.578,-219.238
1742645115.586,999.512,12.695,10.254,999.512
1742645115.590,191.406,-18.555,18.066,101.562
1742645115.594,-1000.000,-25.879,16.602,-1000.000
1742645115.598,-44.922,-3.906,12.207,11.719
1742645115.602,999.512,-4.395,17.578,999.512
1742645115.606,248.535,-28.809,1.465,312.012
1742645115.610,-1000.000,-36.133,-10.742,-1000.000
1742645115.613,-344.727,-8.301,-11.719,-400.879
1742645115.617,999.512,-1.465,-20.508,999.512
1742645115.621,508.301,-21.484,-21.973,613.770
1742645115.625,-1000.000,-27.344,-20.020,-897.461
1742645115.629,-801.270,-16.113,-17.578,-881.836
1742645115.586,999.512,12.695,10.254,999.512
1742645115.590,191.406,-18.555,18.066,101.562
1742645115.594,-1000.000,-25.879,16.602,-1000.000
1742645115.598,-44.922,-3.906,12.207,11.719
1742645115.602,999.512,-4.395,17.578,999.512
1742645115.606,248.535,-28.809,1.465,312.012
1742645115.610,-1000.000,-36.133,-10.742,-1000.000
1742645115.613,-344.727,-8.301,-11.719,-400.879
1742645115.617,999.512,-1.465,-20.508,999.512
1742645115.621,508.301,-21.484,-21.973,613.770
1742645115.625,-1000.000,-27.344,-20.020,-897.461
1742645115.629,-801.270,-16.113,-17.578,-881.836
1742645115.631,794.922,-2.441,-8.789,625.000
1742645115.635,914.551,-13.184,-11.719,964.355
1742645115.639,-663.574,-23.926,-20.020,-511.719
1742645115.643,-1000.000,-11.719,-17.578,-1000.000
1742645115.647,496.582,3.906,-10.742,408.691
1742645115.651,999.512,-6.348,-12.695,999.512
1742645115.655,-537.109,-30.762,-18.066,-437.012
1742645115.658,-1000.000,-24.902,-10.742,-1000.000
1742645115.662,566.406,-5.859,-16.113,524.902
1742645115.666,710.449,-13.672,-22.949,731.934
1742645115.670,-1000.000,-23.926,-22.461,-1000.000
1742645115.674,-525.879,-6.348,-26.367,-570.312
1742645115.631,794.922,-2.441,-8.789,625.000
1742645115.635,914.551,-13.184,-11.719,964.355
1742645115.639,-663.574,-23.926,-20.020,-511.719
1742645115.643,-1000.000,-11.719,-17.578,-1000.000
1742645115.647,496.582,3.906,-10.742,408.691
1742645115.651,999.512,-6.348,-12.695,999.512
1742645115.655,-537.109,-30.762,-18.066,-437.012
1742645115.658,-1000.000,-24.902,-10.742,-1000.000
1742645115.662,566.406,-5.859,-16.113,524.902
1742645115.666,710.449,-13.672,-22.949,731.934
1742645115.670,-1000.000,-23.926,-22.461,-1000.000
1742645115.674,-525.879,-6.348,-26.367,-570.312
1742645115.677,999.512,-2.441,-15.625,999.512
1742645115.681,631.348,-27.344,-9.277,711.914
1742645115.685,-900.391,-38.574,-16.113,-785.156
1742645115.689,-1000.000,-19.531,-22.461,-1000.000
1742645115.693,421.875,-3.906,-19.531,395.508
1742645115.697,999.512,-16.113,-23.926,999.512
1742645115.701,-290.527,-30.762,-37.109,-227.539
1742645115.704,-1000.000,-24.902,-34.180,-1000.000
1742645115.708,-197.754,-15.137,-31.738,-161.133
1742645115.712,999.512,-17.090,-30.762,999.512
1742645115.716,805.176,-25.391,-28.809,854.004
1742645115.720,-553.711,-32.227,-35.156,-411.133
1742645115.677,999.512,-2.441,-15.625,999.512
1742645115.681,631.348,-27.344,-9.277,711.914
1742645115.685,-900.391,-38.574,-16.113,-785.156
1742645115.689,-1000.000,-19.531,-22.461,-1000.000
1742645115.693,421.875,-3.906,-19.531,395.508
1742645115.697,999.512,-16.113,-23.926,999.512
1742645115.701,-290.527,-30.762,-37.109,-227.539
1742645115.704,-1000.000,-24.902,-34.180,-1000.000
1742645115.708,-197.754,-15.137,-31.738,-161.133
1742645115.712,999.512,-17.090,-30.762,999.512
1742645115.716,805.176,-25.391,-28.809,854.004
1742645115.720,-553.711,-32.227,-35.156,-411.133
1742645115.721,-1000.000,-34.180,-33.203,-1000.000
1742645115.725,-54.688,-22.949,-31.250,-37.598
1742645115.729,999.512,-20.508,-33.691,999.512
1742645115.733,205.078,-36.621,-29.297,196.777
1742645115.737,-1000.000,-39.551,-26.367,-1000.000
1742645115.741,-258.789,-11.230,-35.645,-239.746
1742645115.745,999.512,-1.953,-23.926,999.512
1742645115.748,225.586,-31.738,-2.930,239.258
1742645115.752,-1000.000,-40.527,-12.695,-1000.000
1742645115.756,-242.188,-16.602,-22.949,-170.898
1742645115.760,999.512,-5.859,-25.879,999.512
1742645115.764,113.770,-27.344,-34.180,15.137
1742645115.721,-1000.000,-34.180,-33.203,-1000.000
1742645115.725,-54.688,-22.949,-31.250,-37.598
1742645115.729,999.512,-20.508,-33.691,999.512
1742645115.733,205.078,-36.621,-29.297,196.777
1742645115.737,-1000.000,-39.551,-26.367,-1000.000
1742645115.741,-258.789,-11.230,-35.645,-239.746
1742645115.745,999.512,-1.953,-23.926,999.512
1742645115.748,225.586,-31.738,-2.930,239.258
1742645115.752,-1000.000,-40.527,-12.695,-1000.000
1742645115.756,-242.188,-16.602,-22.949,-170.898
1742645115.760,999.512,-5.859,-25.879,999.512
1742645115.764,113.770,-27.344,-34.180,15.137
1742645115.766,-1000.000,-40.527,-33.203,-1000.000
1742645115.770,19.531,-24.902,-31.738,88.379
1742645115.774,999.512,-20.020,-41.992,999.512
1742645115.778,162.109,-40.527,-50.293,106.445
1742645115.782,-1000.000,-37.109,-40.039,-1000.000
1742645115.786,-238.281,-15.625,-28.320,-187.988
1742645115.790,999.512,-9.766,-39.062,999.512
1742645115.793,294.922,-26.855,-42.969,368.652
1742645115.797,-1000.000,-41.016,-44.434,-1000.000
1742645115.801,-980.469,-25.391,-49.805,-990.723
1742645115.805,370.117,-9.766,-40.039,315.918
1742645115.809,999.512,-19.531,-27.832,999.512
1742645115.811,-143.555,-28.320,-31.250,-126.465
1742645115.815,-1000.000,-19.531,-33.203,-1000.000
1742645115.819,-130.859,-9.766,-45.898,-84.473
1742645115.823,999.512,-7.812,-52.246,999.512
1742645115.827,183.105,-22.949,-47.852,107.910
1742645115.831,-1000.000,-25.879,-59.082,-1000.000
1742645115.835,-138.672,-13.184,-62.012,-79.102
1742645115.838,999.512,-20.020,-62.988,999.512
1742645115.842,-274.902,-35.156,-58.594,-323.242
1742645115.846,-1000.000,-32.715,-53.223,-1000.000
1742645115.850,270.996,-17.090,-52.734,296.387
1742645115.854,999.512,-18.555,-56.641,999.512
1742645115.856,-237.305,-37.109,-64.453,-250.977
1742645115.860,-1000.000,-41.504,-65.430,-1000.000
1742645115.864,-37.109,-21.484,-57.129,-20.996
1742645115.868,999.512,-15.137,-54.199,999.512
1742645115.872,199.707,-39.062,-70.801,173.828
1742645115.876,-1000.000,-43.457,-80.078,-1000.000
1742645115.880,-272.949,-16.602,-70.801,-294.434
1742645115.883,999.512,-6.348,-72.754,999.512
1742645115.887,461.426,-34.668,-81.055,532.715
1742645115.891,-1000.000,-56.641,-78.613,-1000.000
1742645115.895,-749.023,-30.762,-85.938,-823.730
1742645115.899,886.230,-15.137,-88.867,729.980
1742645115.856,-237.305,-37.109,-64.453,-250.977
1742645115.860,-1000.000,-41.504,-65.430,-1000.000
1742645115.864,-37.109,-21.484,-57.129,-20.996
1742645115.868,999.512,-15.137,-54.199,999.512
1742645115.872,199.707,-39.062,-70.801,173.828
1742645115.876,-1000.000,-43.457,-80.078,-1000.000
1742645115.880,-272.949,-16.602,-70.801,-294.434
1742645115.883,999.512,-6.348,-72.754,999.512
1742645115.887,461.426,-34.668,-81.055,532.715
1742645115.891,-1000.000,-56.641,-78.613,-1000.000
1742645115.895,-749.023,-30.762,-85.938,-823.730
1742645115.899,886.230,-15.137,-88.867,729.980
1742645115.901,781.738,-45.410,-83.496,846.191
1742645115.905,-901.855,-70.312,-82.520,-745.117
1742645115.909,-852.051,-44.434,-83.984,-910.156
1742645115.913,901.367,-15.137,-84.961,779.785
1742645115.917,484.375,-37.598,-75.195,550.293
1742645115.921,-1000.000,-54.688,-77.637,-1000.000
1742645115.925,-282.227,-38.086,-94.727,-279.785
1742645115.928,999.512,-33.691,-88.867,999.512
1742645115.932,210.938,-55.664,-90.820,166.992
1742645115.936,-1000.000,-62.500,-99.609,-1000.000
1742645115.940,-263.184,-48.340,-98.145,-282.227
1742645115.944,999.512,-44.922,-96.680,999.512
1742645115.901,781.738,-45.410,-83.496,846.191
1742645115.905,-901.855,-70.312,-82.520,-745.117
1742645115.909,-852.051,-44.434,-83.984,-910.156
1742645115.913,901.367,-15.137,-84.961,779.785
1742645115.917,484.375,-37.598,-75.195,550.293
1742645115.921,-1000.000,-54.688,-77.637,-1000.000
1742645115.925,-282.227,-38.086,-94.727,-279.785
1742645115.928,999.512,-33.691,-88.867,999.512
1742645115.932,210.938,-55.664,-90.820,166.992
1742645115.936,-1000.000,-62.500,-99.609,-1000.000
1742645115.940,-263.184,-48.340,-98.145,-282.227
1742645115.944,999.512,-44.922,-96.680,999.512
1742645115.947,287.109,-56.152,-89.844,365.234
1742645115.951,-1000.000,-57.129,-83.008,-1000.000
1742645115.955,-839.355,-44.434,-78.125,-866.211
1742645115.959,556.641,-31.738,-83.496,478.027
1742645115.963,999.512,-28.809,-85.449,999.512
1742645115.967,-54.199,-48.340,-84.961,-16.113
1742645115.971,-1000.000,-61.523,-96.191,-1000.000
1742645115.974,-379.883,-38.574,-91.309,-465.820
1742645115.978,999.512,-22.949,-75.684,999.512
1742645115.982,447.754,-40.527,-72.266,560.059
1742645115.986,-1000.000,-45.898,-61.523,-1000.000
1742645115.990,-734.375,-38.086,-64.941,-813.477
1742645115.947,287.109,-56.152,-89.844,365.234
1742645115.951,-1000.000,-57.129,-83.008,-1000.000
1742645115.955,-839.355,-44.434,-78.125,-866.211
1742645115.959,556.641,-31.738,-83.496,478.027
1742645115.963,999.512,-28.809,-85.449,999.512
1742645115.967,-54.199,-48.340,-84.961,-16.113
1742645115.971,-1000.000,-61.523,-96.191,-1000.000
1742645115.974,-379.883,-38.574,-91.309,-465.820
1742645115.978,999.512,-22.949,-75.684,999.512
1742645115.982,447.754,-40.527,-72.266,560.059
1742645115.986,-1000.000,-45.898,-61.523,-1000.000
1742645115.990,-734.375,-38.086,-64.941,-813.477
1742645116.007,933.105,-28.809,-70.801,779.785
1742645116.011,579.102,-53.223,-76.660,679.199
1742645116.015,-1000.000,-63.965,-95.703,-1000.000
1742645116.019,-524.414,-28.320,-95.215,-608.398
1742645116.023,999.512,-20.020,-94.238,999.512
1742645116.027,287.598,-54.199,-98.633,324.219
1742645116.031,-1000.000,-61.035,-101.562,-1000.000
1742645116.034,-290.527,-31.250,-91.797,-342.773
1742645116.038,999.512,-25.391,-85.938,999.512
1742645116.042,274.902,-54.688,-81.543,328.125
1742645116.046,-1000.000,-63.965,-66.895,-1000.000
1742645116.050,-460.938,-40.527,-65.430,-544.922
1742645116.007,933.105,-28.809,-70.801,779.785
1742645116.011,579.102,-53.223,-76.660,679.199
1742645116.015,-1000.000,-63.965,-95.703,-1000.000
1742645116.019,-524.414,-28.320,-95.215,-608.398
1742645116.023,999.512,-20.020,-94.238,999.512
1742645116.027,287.598,-54.199,-98.633,324.219
1742645116.031,-1000.000,-61.035,-101.562,-1000.000
1742645116.034,-290.527,-31.250,-91.797,-342.773
1742645116.038,999.512,-25.391,-85.938,999.512
1742645116.042,274.902,-54.688,-81.543,328.125
1742645116.046,-1000.000,-63.965,-66.895,-1000.000
1742645116.050,-460.938,-40.527,-65.430,-544.922
1742645116.051,999.512,-27.832,-59.082,999.512
1742645116.055,591.797,-40.039,-58.594,671.875
1742645116.059,-873.047,-50.781,-58.594,-770.020
1742645116.063,-1000.000,-39.551,-61.035,-1000.000
1742645116.067,34.180,-24.902,-71.289,5.859
1742645116.071,999.512,-25.879,-80.078,999.512
1742645116.075,191.895,-36.621,-87.891,140.625
1742645116.078,-1000.000,-38.574,-83.496,-1000.000
1742645116.082,-606.934,-34.180,-51.758,-741.699
1742645116.086,903.809,-14.648,-43.457,688.477
1742645116.090,926.758,-21.484,-56.152,953.125
1742645116.094,-484.375,-46.875,-54.199,-433.105
1742645116.051,999.512,-27.832,-59.082,999.512
1742645116.055,591.797,-40.039,-58.594,671.875
1742645116.059,-873.047,-50.781,-58.594,-770.020
1742645116.063,-1000.000,-39.551,-61.035,-1000.000
1742645116.067,34.180,-24.902,-71.289,5.859
1742645116.071,999.512,-25.879,-80.078,999.512
1742645116.075,191.895,-36.621,-87.891,140.625
1742645116.078,-1000.000,-38.574,-83.496,-1000.000
1742645116.082,-606.934,-34.180,-51.758,-741.699
1742645116.086,903.809,-14.648,-43.457,688.477
1742645116.090,926.758,-21.484,-56.152,953.125
1742645116.094,-484.375,-46.875,-54.199,-433.105
1742645116.096,-1000.000,-40.527,-61.035,-1000.000
1742645116.100,-28.320,-18.066,-63.965,-6.836
1742645116.104,999.512,-18.555,-52.246,999.512
1742645116.108,-352.051,-33.203,-42.969,-389.648
1742645116.112,-1000.000,-24.414,-43.457,-1000.000
1742645116.116,506.836,3.418,-47.363,455.566
1742645116.120,810.547,-13.672,-48.828,783.691
1742645116.123,-893.555,-51.270,-57.129,-834.961
1742645116.127,-988.281,-33.691,-66.895,-1000.000
1742645116.131,622.070,-11.230,-67.383,528.320
1742645116.135,926.270,-27.344,-70.312,908.203
1742645116.139,-618.652,-51.758,-73.242,-563.965
1742645116.096,-1000.000,-40.527,-61.035,-1000.000
1742645116.100,-28.320,-18.066,-63.965,-6.836
1742645116.104,999.512,-18.555,-52.246,999.512
1742645116.108,-352.051,-33.203,-42.969,-389.648
1742645116.112,-1000.000,-24.414,-43.457,-1000.000
1742645116.116,506.836,3.418,-47.363,455.566
1742645116.120,810.547,-13.672,-48.828,783.691
1742645116.123,-893.555,-51.270,-57.129,-834.961
1742645116.127,-988.281,-33.691,-66.895,-1000.000
1742645116.131,622.070,-11.230,-67.383,528.320
1742645116.135,926.270,-27.344,-70.312,908.203
1742645116.139,-618.652,-51.758,-73.242,-563.965
1742645116.141,-1000.000,-47.363,-72.754,-1000.000
1742645116.145,105.957,-38.574,-74.219,80.566
1742645116.149,999.512,-41.504,-83.008,999.512
1742645116.153,133.301,-46.875,-79.590,86.914
1742645116.157,-1000.000,-48.828,-63.965,-1000.000
1742645116.161,-265.625,-47.852,-65.430,-276.367
1742645116.165,999.512,-33.691,-57.617,999.512
1742645116.168,548.340,4.883,-15.137,654.785
1742645116.172,-1000.000,20.020,10.254,-877.441
1742645116.176,-671.875,33.691,9.277,-751.953
1742645116.180,947.266,51.270,8.789,805.176
1742645116.184,862.793,30.273,7.324,920.898
1742645116.141,-1000.000,-47.363,-72.754,-1000.000
1742645116.145,105.957,-38.574,-74.219,80.566
1742645116.149,999.512,-41.504,-83.008,999.512
1742645116.153,133.301,-46.875,-79.590,86.914
1742645116.157,-1000.000,-48.828,-63.965,-1000.000
1742645116.161,-265.625,-47.852,-65.430,-276.367
1742645116.165,999.512,-33.691,-57.617,999.512
1742645116.168,548.340,4.883,-15.137,654.785
1742645116.172,-1000.000,20.020,10.254,-877.441
1742645116.176,-671.875,33.691,9.277,-751.953
1742645116.180,947.266,51.270,8.789,805.176
1742645116.184,862.793,30.273,7.324,920.898
1742645116.186,-679.688,-0.488,-5.371,-541.992
1742645116.190,-1000.000,7.324,-19.043,-1000.000
1742645116.194,533.203,26.367,-13.672,474.609
1742645116.198,882.812,6.836,-6.348,909.180
1742645116.202,-915.527,-9.766,-8.789,-795.410
1742645116.206,-528.809,16.602,-0.977,-578.125
1742645116.210,999.512,27.832,0.977,999.512
1742645116.213,334.473,-7.324,-13.672,402.344
1742645116.217,-1000.000,-28.809,-20.020,-1000.000
1742645116.221,-541.992,-2.930,-16.602,-586.914
1742645116.225,999.512,15.625,-18.066,940.918
1742645116.229,708.496,-10.254,-26.367,796.387
1742645116.232,-769.043,-30.762,-29.785,-623.535
1742645116.236,-1000.000,-24.414,-42.480,-1000.000
1742645116.240,41.016,-6.836,-51.270,49.316
1742645116.244,999.512,-8.789,-47.363,999.512
1742645116.248,103.027,-30.273,-44.922,66.895
1742645116.252,-1000.000,-34.668,-43.457,-1000.000
1742645116.256,-245.117,-18.066,-47.852,-220.703
1742645116.259,999.512,-18.066,-43.945,999.512
1742645116.263,209.473,-42.480,-39.551,158.203
1742645116.267,-1000.000,-45.898,-37.109,-1000.000
1742645116.271,-97.656,-22.949,-32.227,-40.527
1742645116.275,999.512,-30.273,-29.785,999.512
1742645116.232,-769.043,-30.762,-29.785,-623.535
1742645116.236,-1000.000,-24.414,-42.480,-1000.000
1742645116.240,41.016,-6.836,-51.270,49.316
1742645116.244,999.512,-8.789,-47.363,999.512
1742645116.248,103.027,-30.273,-44.922,66.895
1742645116.252,-1000.000,-34.668,-43.457,-1000.000
1742645116.256,-245.117,-18.066,-47.852,-220.703
1742645116.259,999.512,-18.066,-43.945,999.512
1742645116.263,209.473,-42.480,-39.551,158.203
1742645116.267,-1000.000,-45.898,-37.109,-1000.000
1742645116.271,-97.656,-22.949,-32.227,-40.527
1742645116.275,999.512,-30.273,-29.785,999.512
1742645116.276,-395.996,-60.059,-35.156,-406.250
1742645116.280,-1000.000,-53.223,-43.457,-1000.000
1742645116.284,467.285,-30.762,-38.574,443.848
1742645116.288,999.512,-42.480,-31.250,999.512
1742645116.292,-305.176,-61.523,-27.344,-283.691
1742645116.296,-1000.000,-59.570,-21.973,-1000.000
1742645116.300,-22.949,-50.293,-18.066,-0.977
1742645116.303,999.512,-50.293,-17.090,999.512
1742645116.307,160.645,-59.570,-18.555,110.840
1742645116.311,-1000.000,-59.082,-21.484,-1000.000
1742645116.315,-275.879,-38.086,-22.461,-325.195
1742645116.319,999.512,-29.785,-26.855,999.512
1742645116.276,-395.996,-60.059,-35.156,-406.250
1742645116.280,-1000.000,-53.223,-43.457,-1000.000
1742645116.284,467.285,-30.762,-38.574,443.848
1742645116.288,999.512,-42.480,-31.250,999.512
1742645116.292,-305.176,-61.523,-27.344,-283.691
1742645116.296,-1000.000,-59.570,-21.973,-1000.000
1742645116.300,-22.949,-50.293,-18.066,-0.977
1742645116.303,999.512,-50.293,-17.090,999.512
1742645116.307,160.645,-59.570,-18.555,110.840
1742645116.311,-1000.000,-59.082,-21.484,-1000.000
1742645116.315,-275.879,-38.086,-22.461,-325.195
1742645116.319,999.512,-29.785,-26.855,999.512
1742645116.321,389.648,-70.801,-36.621,483.887
1742645116.325,-1000.000,-111.328,-70.801,-1000.000
1742645116.329,-750.000,-104.980,-85.938,-833.984
1742645116.333,809.570,-86.426,-82.520,647.461
1742645116.337,952.637,-90.332,-80.566,968.262
1742645116.341,-727.051,-106.934,-70.312,-602.051
1742645116.345,-790.039,-86.914,-67.871,-829.102
1742645116.348,999.512,-60.547,-64.941,905.762
1742645116.352,377.930,-83.008,-62.988,429.199
1742645116.356,-1000.000,-84.473,-69.824,-1000.000
1742645116.360,-256.836,-52.246,-57.617,-214.844
1742645116.364,999.512,-54.688,-39.062,999.512
1742645116.321,389.648,-70.801,-36.621,483.887
1742645116.325,-1000.000,-111.328,-70.801,-1000.000
1742645116.329,-750.000,-104.980,-85.938,-833.984
1742645116.333,809.570,-86.426,-82.520,647.461
1742645116.337,952.637,-90.332,-80.566,968.262
1742645116.341,-727.051,-106.934,-70.312,-602.051
1742645116.345,-790.039,-86.914,-67.871,-829.102
1742645116.348,999.512,-60.547,-64.941,905.762
1742645116.352,377.930,-83.008,-62.988,429.199
1742645116.356,-1000.000,-84.473,-69.824,-1000.000
1742645116.360,-256.836,-52.246,-57.617,-214.844
1742645116.364,999.512,-54.688,-39.062,999.512
1742645116.381,205.566,-83.984,-40.039,143.555
1742645116.385,-1000.000,-80.566,-37.109,-1000.000
1742645116.389,-275.879,-43.457,-31.250,-315.918
1742645116.393,999.512,-35.645,-29.785,999.512
1742645116.397,400.879,-61.035,-21.484,480.469
1742645116.401,-1000.000,-66.406,-20.996,-974.121
1742645116.405,-920.898,-53.711,-25.391,-960.938
1742645116.408,548.828,-41.504,-15.625,427.734
1742645116.412,999.512,-54.199,-7.812,999.512
1742645116.416,-375.488,-70.801,-16.602,-333.496
1742645116.420,-1000.000,-62.988,-18.066,-1000.000
1742645116.424,-9.277,-43.457,-9.277,7.324
1742645116.381,205.566,-83.984,-40.039,143.555
1742645116.385,-1000.000,-80.566,-37.109,-1000.000
1742645116.389,-275.879,-43.457,-31.250,-315.918
1742645116.393,999.512,-35.645,-29.785,999.512
1742645116.397,400.879,-61.035,-21.484,480.469
1742645116.401,-1000.000,-66.406,-20.996,-974.121
1742645116.405,-920.898,-53.711,-25.391,-960.938
1742645116.408,548.828,-41.504,-15.625,427.734
1742645116.412,999.512,-54.199,-7.812,999.512
1742645116.416,-375.488,-70.801,-16.602,-333.496
1742645116.420,-1000.000,-62.988,-18.066,-1000.000
1742645116.424,-9.277,-43.457,-9.277,7.324
1742645116.426,999.512,-38.086,-6.836,999.512
1742645116.430,7.812,-53.711,-8.789,-37.109
1742645116.434,-1000.000,-43.945,-5.859,-1000.000
1742645116.438,200.195,-15.625,-3.906,205.078
1742645116.442,999.512,-29.785,1.953,973.145
1742645116.446,-714.844,-48.340,8.789,-661.621
1742645116.450,-757.324,-34.180,6.348,-775.391
1742645116.453,979.004,-24.902,5.859,870.117
1742645116.457,801.758,-41.016,7.812,836.426
1742645116.461,-854.004,-55.176,7.324,-733.887
1742645116.465,-861.328,-29.297,12.207,-900.391
1742645116.469,805.664,0.000,22.949,675.781
1742645116.426,999.512,-38.086,-6.836,999.512
1742645116.430,7.812,-53.711,-8.789,-37.109
1742645116.434,-1000.000,-43.945,-5.859,-1000.000
1742645116.438,200.195,-15.625,-3.906,205.078
1742645116.442,999.512,-29.785,1.953,973.145
1742645116.446,-714.844,-48.340,8.789,-661.621
1742645116.450,-757.324,-34.180,6.348,-775.391
1742645116.453,979.004,-24.902,5.859,870.117
1742645116.457,801.758,-41.016,7.812,836.426
1742645116.461,-854.004,-55.176,7.324,-733.887
1742645116.465,-861.328,-29.297,12.207,-900.391
1742645116.469,805.664,0.000,22.949,675.781
1742645116.471,874.023,-17.090,14.648,907.227
1742645116.475,-655.762,-40.527,7.812,-548.340
1742645116.479,-1000.000,-23.926,14.648,-1000.000
1742645116.483,121.094,-4.883,15.137,65.918
1742645116.487,999.512,-2.441,19.043,999.512
1742645116.491,175.781,-14.160,24.414,112.793
1742645116.495,-1000.000,-27.832,19.531,-1000.000
1742645116.498,-401.367,-13.184,14.160,-502.930
1742645116.502,999.512,0.488,21.973,999.512
1742645116.506,472.168,-20.996,30.762,565.430
1742645116.510,-1000.000,-32.715,29.785,-1000.000
1742645116.514,-437.012,-2.441,29.785,-517.578
1742645116.471,874.023,-17.090,14.648,907.227
1742645116.475,-655.762,-40.527,7.812,-548.340
1742645116.479,-1000.000,-23.926,14.648,-1000.000
1742645116.483,121.094,-4.883,15.137,65.918
1742645116.487,999.512,-2.441,19.043,999.512
1742645116.491,175.781,-14.160,24.414,112.793
1742645116.495,-1000.000,-27.832,19.531,-1000.000
1742645116.498,-401.367,-13.184,14.160,-502.930
1742645116.502,999.512,0.488,21.973,999.512
1742645116.506,472.168,-20.996,30.762,565.430
1742645116.510,-1000.000,-32.715,29.785,-1000.000
1742645116.514,-437.012,-2.441,29.785,-517.578
1742645116.517,999.512,14.160,28.809,999.512
1742645116.521,243.164,-13.672,21.973,232.910
1742645116.525,-1000.000,-15.137,11.719,-1000.000
1742645116.529,-234.375,5.859,9.766,-174.316
1742645116.533,999.512,8.789,13.672,999.512
1742645116.537,233.398,-9.766,13.184,244.141
1742645116.541,-1000.000,-14.160,17.090,-1000.000
1742645116.544,-410.156,0.977,16.113,-480.957
1742645116.548,999.512,9.277,20.508,999.512
1742645116.552,461.914,-7.812,34.180,541.504
1742645116.556,-998.535,-15.625,28.809,-913.574
1742645116.560,-1000.000,-5.371,19.531,-1000.000
1742645116.517,999.512,14.160,28.809,999.512
1742645116.521,243.164,-13.672,21.973,232.910
1742645116.525,-1000.000,-15.137,11.719,-1000.000
1742645116.529,-234.375,5.859,9.766,-174.316
1742645116.533,999.512,8.789,13.672,999.512
1742645116.537,233.398,-9.766,13.184,244.141
1742645116.541,-1000.000,-14.160,17.090,-1000.000
1742645116.544,-410.156,0.977,16.113,-480.957
1742645116.548,999.512,9.277,20.508,999.512
1742645116.552,461.914,-7.812,34.180,541.504
1742645116.556,-998.535,-15.625,28.809,-913.574
1742645116.560,-1000.000,-5.371,19.531,-1000.000
1742645116.561,240.723,0.977,11.719,181.641
1742645116.565,999.512,-5.859,8.789,999.512
1742645116.569,46.875,-14.648,17.090,-19.043
1742645116.573,-1000.000,-2.930,20.508,-1000.000
1742645116.577,-246.582,19.531,24.902,-235.840
1742645116.581,999.512,28.809,32.227,999.512
1742645116.585,344.238,0.488,38.086,425.293
1742645116.588,-1000.000,-17.578,36.133,-1000.000
1742645116.592,-595.703,11.719,24.902,-695.801
1742645116.596,999.512,25.391,17.090,911.621
1742645116.600,532.715,1.953,19.531,623.535
1742645116.604,-1000.000,-16.113,19.531,-1000.000
1742645116.561,240.723,0.977,11.719,181.641
1742645116.565,999.512,-5.859,8.789,999.512
1742645116.569,46.875,-14.648,17.090,-19.043
1742645116.573,-1000.000,-2.930,20.508,-1000.000
1742645116.577,-246.582,19.531,24.902,-235.840
1742645116.581,999.512,28.809,32.227,999.512
1742645116.585,344.238,0.488,38.086,425.293
1742645116.588,-1000.000,-17.578,36.133,-1000.000
1742645116.592,-595.703,11.719,24.902,-695.801
1742645116.596,999.512,25.391,17.090,911.621
1742645116.600,532.715,1.953,19.531,623.535
1742645116.604,-1000.000,-16.113,19.531,-1000.000
1742645116.606,-433.594,10.742,25.391,-503.906
1742645116.610,999.512,29.297,40.527,999.512
1742645116.614,272.461,1.465,39.551,319.824
1742645116.618,-1000.000,-0.488,33.691,-1000.000
1742645116.622,-270.020,31.250,34.180,-272.461
1742645116.626,999.512,36.621,33.203,999.512
1742645116.630,396.484,4.883,34.668,449.219
1742645116.633,-1000.000,-10.742,38.086,-1000.000
1742645116.637,-835.449,8.301,41.992,-888.672
1742645116.641,584.473,24.414,37.598,487.793
1742645116.645,999.512,13.184,27.832,999.512
1742645116.649,-3.906,-13.672,32.715,-5.859
1742645116.606,-433.594,10.742,25.391,-503.906
1742645116.610,999.512,29.297,40.527,999.512
1742645116.614,272.461,1.465,39.551,319.824
1742645116.618,-1000.000,-0.488,33.691,-1000.000
1742645116.622,-270.020,31.250,34.180,-272.461
1742645116.626,999.512,36.621,33.203,999.512
1742645116.630,396.484,4.883,34.668,449.219
1742645116.633,-1000.000,-10.742,38.086,-1000.000
1742645116.637,-835.449,8.301,41.992,-888.672
1742645116.641,584.473,24.414,37.598,487.793
1742645116.645,999.512,13.184,27.832,999.512
1742645116.649,-3.906,-13.672,32.715,-5.859
1742645116.651,-1000.000,-13.672,31.738,-1000.000
1742645116.655,-257.812,9.277,30.273,-323.242
1742645116.659,999.512,20.996,31.250,999.512
1742645116.663,690.918,5.859,24.902,759.277
1742645116.667,-826.172,-10.254,20.996,-677.246
1742645116.671,-987.793,3.906,22.949,-1000.000
1742645116.675,472.168,11.230,23.926,384.277
1742645116.678,999.512,5.371,25.879,999.512
1742645116.682,-251.953,-19.043,20.020,-224.609
1742645116.686,-852.051,20.508,40.039,-873.047
1742645116.690,945.801,86.426,78.613,825.684
1742645116.694,574.219,61.035,91.309,634.766
1742645116.651,-1000.000,-13.672,31.738,-1000.000
1742645116.655,-257.812,9.277,30.273,-323.242
1742645116.659,999.512,20.996,31.250,999.512
1742645116.663,690.918,5.859,24.902,759.277
1742645116.667,-826.172,-10.254,20.996,-677.246
1742645116.671,-987.793,3.906,22.949,-1000.000
1742645116.675,472.168,11.230,23.926,384.277
1742645116.678,999.512,5.371,25.879,999.512
1742645116.682,-251.953,-19.043,20.020,-224.609
1742645116.686,-852.051,20.508,40.039,-873.047
1742645116.690,945.801,86.426,78.613,825.684
1742645116.694,574.219,61.035,91.309,634.766
1742645116.696,-1000.000,45.410,95.215,-1000.000
1742645116.700,-336.426,73.242,93.262,-392.090
1742645116.704,999.512,85.449,86.914,999.512
1742645116.708,383.301,51.758,82.520,446.777
1742645116.712,-1000.000,34.180,79.590,-1000.000
1742645116.716,-316.406,66.895,71.289,-367.676
1742645116.720,999.512,71.777,73.730,999.512
1742645116.723,444.824,35.156,73.242,526.367
1742645116.727,-1000.000,18.555,67.383,-971.191
1742645116.731,-787.598,42.480,65.918,-859.863
1742645116.735,697.754,60.059,69.336,573.242
1742645116.739,999.512,40.039,67.871,999.512
1742645116.696,-1000.000,45.410,95.215,-1000.000
1742645116.700,-336.426,73.242,93.262,-392.090
1742645116.704,999.512,85.449,86.914,999.512
1742645116.708,383.301,51.758,82.520,446.777
1742645116.712,-1000.000,34.180,79.590,-1000.000
1742645116.716,-316.406,66.895,71.289,-367.676
1742645116.720,999.512,71.777,73.730,999.512
1742645116.723,444.824,35.156,73.242,526.367
1742645116.727,-1000.000,18.555,67.383,-971.191
1742645116.731,-787.598,42.480,65.918,-859.863
1742645116.735,697.754,60.059,69.336,573.242
1742645116.739,999.512,40.039,67.871,999.512
1742645117.221,106.934,-43.945,-6.836,-2.441
1742645117.225,-1000.000,-45.898,-18.555,-1000.000
1742645117.229,-101.074,-22.949,-20.996,-57.617
1742645117.233,999.512,-14.648,-17.090,999.512
1742645117.237,138.672,-38.086,-17.090,66.895
1742645117.241,-1000.000,-36.133,-12.695,-1000.000
1742645117.245,-146.973,-13.184,-14.648,-85.938
1742645117.248,999.512,-23.438,-21.484,999.512
1742645117.252,130.859,-43.945,-17.090,71.777
1742645117.256,-1000.000,-43.457,-16.602,-1000.000
1742645117.260,-252.930,-15.625,-13.184,-279.785
1742645117.264,999.512,-4.395,4.395,999.512
1742645116.756,-179.688,14.648,54.688,-150.391
1742645116.760,-1000.000,9.766,42.480,-1000.000
1742645116.764,-196.289,29.785,41.992,-167.969
1742645116.768,999.512,36.621,41.016,999.512
1742645116.772,283.691,17.090,41.992,353.027
1742645116.776,-1000.000,19.531,47.852,-1000.000
1742645116.780,-235.840,37.109,49.805,-188.477
1742645116.783,999.512,31.250,38.086,999.512
1742645116.787,21.973,11.719,24.414,-71.777
1742645116.791,-1000.000,6.836,25.879,-1000.000
1742645116.795,208.496,26.367,29.785,240.234
1742645116.799,999.512,31.738,28.320,999.512
1742645116.756,-179.688,14.648,54.688,-150.391
1742645116.760,-1000.000,9.766,42.480,-1000.000
1742645116.764,-196.289,29.785,41.992,-167.969
1742645116.768,999.512,36.621,41.016,999.512
1742645116.772,283.691,17.090,41.992,353.027
1742645116.776,-1000.000,19.531,47.852,-1000.000
1742645116.780,-235.840,37.109,49.805,-188.477
1742645116.783,999.512,31.250,38.086,999.512
1742645116.787,21.973,11.719,24.414,-71.777
1742645116.791,-1000.000,6.836,25.879,-1000.000
1742645116.795,208.496,26.367,29.785,240.234
1742645116.799,999.512,31.738,28.320,999.512
1742645116.802,-67.871,11.719,26.855,-92.285
1742645116.806,-1000.000,9.277,21.484,-1000.000
1742645116.810,87.402,34.180,22.461,97.656
1742645116.814,999.512,32.227,32.715,999.512
1742645116.818,173.340,2.930,28.809,133.789
1742645116.822,-1000.000,-3.418,17.090,-1000.000
1742645116.826,-272.461,17.578,22.461,-270.996
1742645116.829,999.512,20.020,24.902,999.512
1742645116.833,559.570,-0.488,19.531,663.574
1742645116.837,-1000.000,-10.254,21.973,-897.461
1742645116.841,-529.297,15.137,23.926,-611.816
1742645116.845,999.512,24.902,22.949,999.512
1742645116.802,-67.871,11.719,26.855,-92.285
1742645116.806,-1000.000,9.277,21.484,-1000.000
1742645116.810,87.402,34.180,22.461,97.656
1742645116.814,999.512,32.227,32.715,999.512
1742645116.818,173.340,2.930,28.809,133.789
1742645116.822,-1000.000,-3.418,17.090,-1000.000
1742645116.826,-272.461,17.578,22.461,-270.996
1742645116.829,999.512,20.020,24.902,999.512
1742645116.833,559.570,-0.488,19.531,663.574
1742645116.837,-1000.000,-10.254,21.973,-897.461
1742645116.841,-529.297,15.137,23.926,-611.816
1742645116.845,999.512,24.902,22.949,999.512
1742645116.846,657.715,-5.371,20.020,781.738
1742645116.850,-1000.000,-20.020,14.648,-864.258
1742645116.854,-424.316,13.672,18.555,-496.094
1742645116.858,999.512,27.344,27.344,999.512
1742645116.862,182.129,0.000,25.391,242.188
1742645116.866,-1000.000,-2.930,23.438,-1000.000
1742645116.870,-244.141,22.461,25.391,-197.754
1742645116.873,999.512,10.742,20.508,999.512
1742645116.877,203.125,-21.484,14.648,143.066
1742645116.881,-1000.000,-19.043,16.113,-1000.000
1742645116.885,-238.281,4.395,16.602,-192.871
1742645116.889,999.512,13.184,14.648,999.512
1742645116.846,657.715,-5.371,20.020,781.738
1742645116.850,-1000.000,-20.020,14.648,-864.258
1742645116.854,-424.316,13.672,18.555,-496.094
1742645116.858,999.512,27.344,27.344,999.512
1742645116.862,182.129,0.000,25.391,242.188
1742645116.866,-1000.000,-2.930,23.438,-1000.000
1742645116.870,-244.141,22.461,25.391,-197.754
1742645116.873,999.512,10.742,20.508,999.512
1742645116.877,203.125,-21.484,14.648,143.066
1742645116.881,-1000.000,-19.043,16.113,-1000.000
1742645116.885,-238.281,4.395,16.602,-192.871
1742645116.889,999.512,13.184,14.648,999.512
1742645116.891,307.617,-8.789,16.602,380.371
1742645116.895,-1000.000,-27.832,14.648,-1000.000
1742645116.899,-416.504,0.488,18.555,-497.559
1742645116.903,978.516,15.137,20.020,929.688
1742645116.907,999.512,-6.836,20.020,999.512
1742645116.911,-184.570,-13.672,17.090,-148.438
1742645116.915,-1000.000,-13.184,11.719,-1000.000
1742645116.918,-61.035,-0.977,12.207,-23.926
1742645116.922,999.512,-5.371,7.812,999.512
1742645116.926,169.922,-23.438,16.113,112.305
1742645116.930,-1000.000,-10.254,25.879,-1000.000
1742645116.934,31.250,14.160,28.809,99.121
1742645116.891,307.617,-8.789,16.602,380.371
1742645116.895,-1000.000,-27.832,14.648,-1000.000
1742645116.899,-416.504,0.488,18.555,-497.559
1742645116.903,978.516,15.137,20.020,929.688
1742645116.907,999.512,-6.836,20.020,999.512
1742645116.911,-184.570,-13.672,17.090,-148.438
1742645116.915,-1000.000,-13.184,11.719,-1000.000
1742645116.918,-61.035,-0.977,12.207,-23.926
1742645116.922,999.512,-5.371,7.812,999.512
1742645116.926,169.922,-23.438,16.113,112.305
1742645116.930,-1000.000,-10.254,25.879,-1000.000
1742645116.934,31.250,14.160,28.809,99.121
1742645116.936,999.512,10.254,28.809,999.512
1742645116.940,-307.617,-13.672,26.855,-302.734
1742645116.944,-985.840,-5.859,22.461,-948.242
1742645116.948,663.086,18.555,20.996,605.469
1742645116.952,999.512,14.160,20.020,999.512
1742645116.956,-572.754,-13.184,20.508,-510.254
1742645116.960,-781.738,0.000,26.367,-796.875
1742645116.963,893.555,17.578,29.297,798.340
1742645116.967,973.145,-13.184,22.949,965.820
1742645116.971,-463.867,-27.832,24.414,-409.180
1742645116.975,-1000.000,-9.277,26.855,-1000.000
1742645116.979,83.496,2.930,21.973,72.754
1742645116.981,999.512,-1.953,16.113,999.512
1742645116.985,189.453,-18.555,8.301,183.594
1742645116.989,-1000.000,-26.367,8.301,-1000.000
1742645116.993,-267.090,-4.883,14.160,-259.766
1742645116.997,999.512,1.465,23.926,999.512
1742645117.001,713.379,-14.648,37.109,816.895
1742645117.005,-866.699,-33.691,41.504,-648.438
1742645117.008,-808.105,-16.113,34.668,-863.281
1742645117.012,916.504,4.883,33.691,775.391
1742645117.016,714.844,-19.531,38.574,793.457
1742645117.020,-1000.000,-33.203,39.551,-876.465
1742645117.024,-605.957,-15.625,31.250,-656.738
1742645116.981,999.512,-1.953,16.113,999.512
1742645116.985,189.453,-18.555,8.301,183.594
1742645116.989,-1000.000,-26.367,8.301,-1000.000
1742645116.993,-267.090,-4.883,14.160,-259.766
1742645116.997,999.512,1.465,23.926,999.512
1742645117.001,713.379,-14.648,37.109,816.895
1742645117.005,-866.699,-33.691,41.504,-648.438
1742645117.008,-808.105,-16.113,34.668,-863.281
1742645117.012,916.504,4.883,33.691,775.391
1742645117.016,714.844,-19.531,38.574,793.457
1742645117.020,-1000.000,-33.203,39.551,-876.465
1742645117.024,-605.957,-15.625,31.250,-656.738
1742645117.027,999.512,7.324,29.785,999.512
1742645117.031,508.789,-13.184,33.203,581.055
1742645117.035,-1000.000,-35.645,28.320,-1000.000
1742645117.039,-357.910,-1.953,21.973,-406.250
1742645117.043,999.512,9.277,26.855,999.512
1742645117.047,797.852,-10.742,33.691,849.609
1742645117.051,-609.863,-27.344,24.902,-499.023
1742645117.054,-1000.000,-26.367,20.508,-1000.000
1742645117.058,107.910,-6.836,23.926,88.867
1742645117.062,999.512,-8.301,15.137,999.512
1742645117.066,190.918,-29.785,11.719,187.988
1742645117.070,-1000.000,-36.621,16.602,-1000.000
1742645117.027,999.512,7.324,29.785,999.512
1742645117.031,508.789,-13.184,33.203,581.055
1742645117.035,-1000.000,-35.645,28.320,-1000.000
1742645117.039,-357.910,-1.953,21.973,-406.250
1742645117.043,999.512,9.277,26.855,999.512
1742645117.047,797.852,-10.742,33.691,849.609
1742645117.051,-609.863,-27.344,24.902,-499.023
1742645117.054,-1000.000,-26.367,20.508,-1000.000
1742645117.058,107.910,-6.836,23.926,88.867
1742645117.062,999.512,-8.301,15.137,999.512
1742645117.066,190.918,-29.785,11.719,187.988
1742645117.070,-1000.000,-36.621,16.602,-1000.000
1742645117.086,-298.828,-16.602,11.719,-347.168
1742645117.090,999.512,-7.812,7.812,999.512
1742645117.094,593.750,-23.926,9.766,698.730
1742645117.098,-930.664,-41.992,7.324,-758.301
1742645117.102,-956.543,-31.738,8.789,-994.629
1742645117.106,543.945,-4.883,8.301,439.941
1742645117.110,999.512,-17.578,5.859,999.512
1742645117.113,-365.723,-41.016,0.000,-312.500
1742645117.117,-1000.000,-43.945,-16.113,-1000.000
1742645117.121,423.340,-44.922,-40.039,381.348
1742645117.125,999.512,-56.152,-46.875,999.512
1742645117.129,-464.844,-86.426,-45.898,-454.102
1742645117.086,-298.828,-16.602,11.719,-347.168
1742645117.090,999.512,-7.812,7.812,999.512
1742645117.094,593.750,-23.926,9.766,698.730
1742645117.098,-930.664,-41.992,7.324,-758.301
1742645117.102,-956.543,-31.738,8.789,-994.629
1742645117.106,543.945,-4.883,8.301,439.941
1742645117.110,999.512,-17.578,5.859,999.512
1742645117.113,-365.723,-41.016,0.000,-312.500
1742645117.117,-1000.000,-43.945,-16.113,-1000.000
1742645117.121,423.340,-44.922,-40.039,381.348
1742645117.125,999.512,-56.152,-46.875,999.512
1742645117.129,-464.844,-86.426,-45.898,-454.102
1742645117.131,-1000.000,-75.195,-49.805,-1000.000
1742645117.135,595.215,-50.781,-48.340,536.133
1742645117.139,974.121,-51.758,-42.969,954.590
1742645117.143,-651.367,-60.059,-43.457,-591.309
1742645117.147,-1000.000,-51.758,-44.922,-1000.000
1742645117.151,418.945,-39.551,-40.039,384.277
1742645117.155,999.512,-43.945,-36.621,999.512
1742645117.158,31.250,-57.129,-34.668,13.184
1742645117.162,-1000.000,-69.336,-40.039,-1000.000
1742645117.166,-257.812,-48.828,-43.457,-301.758
1742645117.170,999.512,-27.344,-37.109,999.512
1742645117.174,481.934,-47.363,-30.273,573.730
1742645117.131,-1000.000,-75.195,-49.805,-1000.000
1742645117.135,595.215,-50.781,-48.340,536.133
1742645117.139,974.121,-51.758,-42.969,954.590
1742645117.143,-651.367,-60.059,-43.457,-591.309
1742645117.147,-1000.000,-51.758,-44.922,-1000.000
1742645117.151,418.945,-39.551,-40.039,384.277
1742645117.155,999.512,-43.945,-36.621,999.512
1742645117.158,31.250,-57.129,-34.668,13.184
1742645117.162,-1000.000,-69.336,-40.039,-1000.000
1742645117.166,-257.812,-48.828,-43.457,-301.758
1742645117.170,999.512,-27.344,-37.109,999.512
1742645117.174,481.934,-47.363,-30.273,573.730
1742645117.176,-962.402,-62.500,-26.367,-848.145
1742645117.180,-1000.000,-42.480,-27.832,-1000.000
1742645117.184,241.211,-24.902,-30.762,189.941
1742645117.188,999.512,-28.809,-29.297,999.512
1742645117.192,50.293,-47.852,-25.879,9.277
1742645117.196,-1000.000,-46.387,-26.367,-1000.000
1742645117.200,-210.449,-31.250,-20.996,-173.828
1742645117.203,999.512,-25.391,-12.695,999.512
1742645117.207,251.953,-48.340,-15.625,305.664
1742645117.211,-1000.000,-62.500,-18.555,-1000.000
1742645117.215,-247.070,-28.320,-14.160,-198.242
1742645117.219,999.512,-23.926,-8.301,999.512
1742645117.176,-962.402,-62.500,-26.367,-848.145
1742645117.180,-1000.000,-42.480,-27.832,-1000.000
1742645117.184,241.211,-24.902,-30.762,189.941
1742645117.188,999.512,-28.809,-29.297,999.512
1742645117.192,50.293,-47.852,-25.879,9.277
1742645117.196,-1000.000,-46.387,-26.367,-1000.000
1742645117.200,-210.449,-31.250,-20.996,-173.828
1742645117.203,999.512,-25.391,-12.695,999.512
1742645117.207,251.953,-48.340,-15.625,305.664
1742645117.211,-1000.000,-62.500,-18.555,-1000.000
1742645117.215,-247.070,-28.320,-14.160,-198.242
1742645117.219,999.512,-23.926,-8.301,999.512
1742645117.266,249.023,-31.250,1.953,291.992
1742645117.270,-1000.000,-72.266,-36.133,-1000.000
1742645117.274,-761.719,-82.520,-67.871,-842.773
1742645117.278,843.262,-65.430,-70.312,651.855
1742645117.282,714.355,-86.426,-65.918,791.992
1742645117.286,-1000.000,-108.887,-66.406,-912.109
1742645117.290,-555.176,-76.172,-66.406,-631.836
1742645117.293,999.512,-61.035,-70.801,999.512
1742645117.297,258.301,-94.727,-69.824,228.027
1742645117.301,-1000.000,-102.539,-66.406,-1000.000
1742645117.305,-237.793,-73.730,-70.801,-174.316
1742645117.309,999.512,-68.848,-70.801,999.512
1742645117.266,249.023,-31.250,1.953,291.992
1742645117.270,-1000.000,-72.266,-36.133,-1000.000
1742645117.274,-761.719,-82.520,-67.871,-842.773
1742645117.278,843.262,-65.430,-70.312,651.855
1742645117.282,714.355,-86.426,-65.918,791.992
1742645117.286,-1000.000,-108.887,-66.406,-912.109
1742645117.290,-555.176,-76.172,-66.406,-631.836
1742645117.293,999.512,-61.035,-70.801,999.512
1742645117.297,258.301,-94.727,-69.824,228.027
1742645117.301,-1000.000,-102.539,-66.406,-1000.000
1742645117.305,-237.793,-73.730,-70.801,-174.316
1742645117.309,999.512,-68.848,-70.801,999.512
1742645117.312,203.125,-88.379,-68.848,127.930
1742645117.316,-1000.000,-98.633,-69.336,-1000.000
1742645117.320,-361.816,-80.078,-69.336,-435.059
1742645117.324,999.512,-62.012,-66.895,999.512
1742645117.328,433.105,-80.078,-66.895,473.145
1742645117.332,-1000.000,-77.148,-62.012,-996.094
1742645117.336,-964.355,-58.594,-61.035,-1000.000
1742645117.339,465.332,-58.105,-64.941,323.730
1742645117.343,999.512,-66.406,-66.895,999.512
1742645117.347,-318.359,-82.031,-66.406,-299.316
1742645117.351,-1000.000,-74.707,-59.082,-1000.000
1742645117.355,75.195,-54.688,-55.176,49.805
1742645117.312,203.125,-88.379,-68.848,127.930
1742645117.316,-1000.000,-98.633,-69.336,-1000.000
1742645117.320,-361.816,-80.078,-69.336,-435.059
1742645117.324,999.512,-62.012,-66.895,999.512
1742645117.328,433.105,-80.078,-66.895,473.145
1742645117.332,-1000.000,-77.148,-62.012,-996.094
1742645117.336,-964.355,-58.594,-61.035,-1000.000
1742645117.339,465.332,-58.105,-64.941,323.730
1742645117.343,999.512,-66.406,-66.895,999.512
1742645117.347,-318.359,-82.031,-66.406,-299.316
1742645117.351,-1000.000,-74.707,-59.082,-1000.000
1742645117.355,75.195,-54.688,-55.176,49.805
1742645117.312,203.125,-88.379,-68.848,127.930
1742645117.316,-1000.000,-98.633,-69.336,-1000.000
1742645117.320,-361.816,-80.078,-69.336,-435.059
1742645117.324,999.512,-62.012,-66.895,999.512
1742645117.328,433.105,-80.078,-66.895,473.145
1742645117.332,-1000.000,-77.148,-62.012,-996.094
1742645117.336,-964.355,-58.594,-61.035,-1000.000
1742645117.339,465.332,-58.105,-64.941,323.730
1742645117.343,999.512,-66.406,-66.895,999.512
1742645117.347,-318.359,-82.031,-66.406,-299.316
1742645117.351,-1000.000,-74.707,-59.082,-1000.000
1742645117.355,75.195,-54.688,-55.176,49.805
1742645117.356,999.512,-53.223,-53.223,999.512
1742645117.360,37.598,-78.125,-62.012,-25.879
1742645117.364,-1000.000,-84.961,-73.730,-1000.000
1742645117.368,76.660,-58.105,-71.777,87.891
1742645117.372,999.512,-62.012,-66.895,999.512
1742645117.376,-595.215,-82.520,-64.453,-574.707
1742645117.380,-779.785,-65.430,-63.477,-806.641
1742645117.383,999.512,-54.688,-67.383,922.852
1742645117.387,551.270,-82.031,-62.500,593.750
1742645117.391,-1000.000,-84.473,-55.664,-1000.000
1742645117.395,-650.879,-50.781,-51.270,-731.934
1742645117.399,977.539,-43.945,-50.293,840.820
1742645117.356,999.512,-53.223,-53.223,999.512
1742645117.360,37.598,-78.125,-62.012,-25.879
1742645117.364,-1000.000,-84.961,-73.730,-1000.000
1742645117.368,76.660,-58.105,-71.777,87.891
1742645117.372,999.512,-62.012,-66.895,999.512
1742645117.376,-595.215,-82.520,-64.453,-574.707
1742645117.380,-779.785,-65.430,-63.477,-806.641
1742645117.383,999.512,-54.688,-67.383,922.852
1742645117.387,551.270,-82.031,-62.500,593.750
1742645117.391,-1000.000,-84.473,-55.664,-1000.000
1742645117.395,-650.879,-50.781,-51.270,-731.934
1742645117.399,977.539,-43.945,-50.293,840.820
1742645117.401,764.160,-66.895,-46.387,804.199
1742645117.405,-728.516,-79.102,-38.574,-635.254
1742645117.409,-1000.000,-62.988,-42.969,-1000.000
1742645117.413,35.645,-43.457,-52.246,-0.488
1742645117.417,999.512,-44.922,-50.293,999.512
1742645117.421,198.242,-65.918,-48.828,182.617
1742645117.425,-1000.000,-71.289,-49.316,-1000.000
1742645117.428,-320.312,-49.316,-42.480,-397.461
1742645117.432,999.512,-37.109,-34.668,999.512
1742645117.436,312.988,-58.105,-32.227,382.324
1742645117.440,-1000.000,-69.336,-38.574,-1000.000
1742645117.444,-306.641,-42.480,-44.434,-366.699
1742645117.401,764.160,-66.895,-46.387,804.199
1742645117.405,-728.516,-79.102,-38.574,-635.254
1742645117.409,-1000.000,-62.988,-42.969,-1000.000
1742645117.413,35.645,-43.457,-52.246,-0.488
1742645117.417,999.512,-44.922,-50.293,999.512
1742645117.421,198.242,-65.918,-48.828,182.617
1742645117.425,-1000.000,-71.289,-49.316,-1000.000
1742645117.428,-320.312,-49.316,-42.480,-397.461
1742645117.432,999.512,-37.109,-34.668,999.512
1742645117.436,312.988,-58.105,-32.227,382.324
1742645117.440,-1000.000,-69.336,-38.574,-1000.000
1742645117.444,-306.641,-42.480,-44.434,-366.699
1742645117.446,999.512,-34.668,-39.062,999.512
1742645117.450,200.195,-57.617,-34.668,116.211
1742645117.454,-1000.000,-56.152,-34.180,-1000.000
1742645117.458,-190.430,-36.133,-31.250,-115.234
1742645117.462,999.512,-35.645,-29.785,999.512
1742645117.466,219.727,-55.176,-33.691,166.992
1742645117.470,-1000.000,-69.336,-43.457,-1000.000
1742645117.473,-378.906,-43.945,-43.945,-435.059
1742645117.477,999.512,-19.531,-35.645,999.512
1742645117.481,498.535,-47.852,-34.180,579.102
1742645117.485,-906.250,-65.430,-34.180,-816.895
1742645117.489,-1000.000,-55.664,-39.062,-1000.000
1742645117.446,999.512,-34.668,-39.062,999.512
1742645117.450,200.195,-57.617,-34.668,116.211
1742645117.454,-1000.000,-56.152,-34.180,-1000.000
1742645117.458,-190.430,-36.133,-31.250,-115.234
1742645117.462,999.512,-35.645,-29.785,999.512
1742645117.466,219.727,-55.176,-33.691,166.992
1742645117.470,-1000.000,-69.336,-43.457,-1000.000
1742645117.473,-378.906,-43.945,-43.945,-435.059
1742645117.477,999.512,-19.531,-35.645,999.512
1742645117.481,498.535,-47.852,-34.180,579.102
1742645117.485,-906.250,-65.430,-34.180,-816.895
1742645117.489,-1000.000,-55.664,-39.062,-1000.000
1742645117.506,-105.469,-35.156,-37.109,-86.914
1742645117.510,999.512,-33.691,-35.645,999.512
1742645117.514,208.008,-51.270,-40.527,140.625
1742645117.518,-1000.000,-53.223,-37.109,-1000.000
1742645117.522,-577.637,-34.668,-42.969,-671.387
1742645117.526,879.395,-23.438,-47.363,736.328
1742645117.530,999.512,-36.621,-38.574,999.512
1742645117.533,-292.480,-52.246,-38.574,-264.160
1742645117.537,-1000.000,-51.758,-41.504,-1000.000
1742645117.541,-80.566,-34.180,-38.574,-57.617
1742645117.545,999.512,-22.461,-32.227,999.512
1742645117.549,206.055,-41.504,-33.203,170.410
1742645117.506,-105.469,-35.156,-37.109,-86.914
1742645117.510,999.512,-33.691,-35.645,999.512
1742645117.514,208.008,-51.270,-40.527,140.625
1742645117.518,-1000.000,-53.223,-37.109,-1000.000
1742645117.522,-577.637,-34.668,-42.969,-671.387
1742645117.526,879.395,-23.438,-47.363,736.328
1742645117.530,999.512,-36.621,-38.574,999.512
1742645117.533,-292.480,-52.246,-38.574,-264.160
1742645117.537,-1000.000,-51.758,-41.504,-1000.000
1742645117.541,-80.566,-34.180,-38.574,-57.617
1742645117.545,999.512,-22.461,-32.227,999.512
1742645117.549,206.055,-41.504,-33.203,170.410
1742645117.551,-1000.000,-50.781,-38.086,-1000.000
1742645117.555,-242.676,-33.203,-34.180,-186.523
1742645117.559,999.512,-29.297,-30.762,999.512
1742645117.563,49.316,-44.434,-33.203,-40.039
1742645117.567,-1000.000,-50.781,-33.203,-1000.000
1742645117.571,98.145,-29.785,-28.809,120.605
1742645117.575,999.512,-26.367,-32.227,999.512
1742645117.578,-146.973,-51.758,-33.203,-180.664
1742645117.582,-1000.000,-53.223,-37.109,-1000.000
1742645117.586,-128.418,-28.320,-37.109,-90.820
1742645117.590,999.512,-17.090,-30.762,999.512
1742645117.594,218.750,-40.527,-27.832,198.730
1742645117.551,-1000.000,-50.781,-38.086,-1000.000
1742645117.555,-242.676,-33.203,-34.180,-186.523
1742645117.559,999.512,-29.297,-30.762,999.512
1742645117.563,49.316,-44.434,-33.203,-40.039
1742645117.567,-1000.000,-50.781,-33.203,-1000.000
1742645117.571,98.145,-29.785,-28.809,120.605
1742645117.575,999.512,-26.367,-32.227,999.512
1742645117.578,-146.973,-51.758,-33.203,-180.664
1742645117.582,-1000.000,-53.223,-37.109,-1000.000
1742645117.586,-128.418,-28.320,-37.109,-90.820
1742645117.590,999.512,-17.090,-30.762,999.512
1742645117.594,218.750,-40.527,-27.832,198.730
1742645117.596,-1000.000,-13.184,0.488,-1000.000
1742645117.600,-270.996,45.410,32.715,-329.102
1742645117.604,999.512,53.223,47.852,999.512
1742645117.608,395.020,29.297,54.688,490.234
1742645117.612,-1000.000,19.531,50.293,-1000.000
1742645117.616,-459.473,39.062,38.086,-581.543
1742645117.620,999.512,45.410,33.691,999.512
1742645117.623,470.215,19.531,30.273,561.523
1742645117.627,-1000.000,2.441,20.508,-1000.000
1742645117.631,-447.266,23.438,21.484,-533.691
1742645117.635,999.512,34.668,22.949,999.512
1742645117.639,272.461,5.371,20.020,311.523
1742645117.596,-1000.000,-13.184,0.488,-1000.000
1742645117.600,-270.996,45.410,32.715,-329.102
1742645117.604,999.512,53.223,47.852,999.512
1742645117.608,395.020,29.297,54.688,490.234
1742645117.612,-1000.000,19.531,50.293,-1000.000
1742645117.616,-459.473,39.062,38.086,-581.543
1742645117.620,999.512,45.410,33.691,999.512
1742645117.623,470.215,19.531,30.273,561.523
1742645117.627,-1000.000,2.441,20.508,-1000.000
1742645117.631,-447.266,23.438,21.484,-533.691
1742645117.635,999.512,34.668,22.949,999.512
1742645117.639,272.461,5.371,20.020,311.523
1742645117.641,-1000.000,-3.906,13.184,-1000.000
1742645117.645,-264.648,21.973,8.789,-275.391
1742645117.649,999.512,21.484,9.766,999.512
1742645117.653,307.617,-4.395,7.324,357.910
1742645117.657,-1000.000,-20.020,0.488,-1000.000
1742645117.661,-355.469,-6.836,-7.812,-424.316
1742645117.665,999.512,5.859,-6.348,999.512
1742645117.668,385.254,-18.066,-9.277,454.102
1742645117.672,-1000.000,-36.133,-11.230,-1000.000
1742645117.676,-972.168,-22.949,-14.160,-991.211
1742645117.680,479.004,2.930,-15.137,393.066
1742645117.684,999.512,-9.277,-16.602,999.512
1742645117.641,-1000.000,-3.906,13.184,-1000.000
1742645117.645,-264.648,21.973,8.789,-275.391
1742645117.649,999.512,21.484,9.766,999.512
1742645117.653,307.617,-4.395,7.324,357.910
1742645117.657,-1000.000,-20.020,0.488,-1000.000
1742645117.661,-355.469,-6.836,-7.812,-424.316
1742645117.665,999.512,5.859,-6.348,999.512
1742645117.668,385.254,-18.066,-9.277,454.102
1742645117.672,-1000.000,-36.133,-11.230,-1000.000
1742645117.676,-972.168,-22.949,-14.160,-991.211
1742645117.680,479.004,2.930,-15.137,393.066
1742645117.684,999.512,-9.277,-16.602,999.512
1742645117.686,-426.758,-37.109,-26.367,-382.812
1742645117.690,-1000.000,-27.832,-31.738,-1000.000
1742645117.694,46.387,-12.695,-31.250,21.973
1742645117.698,999.512,-22.949,-30.762,999.512
1742645117.702,102.539,-43.945,-32.227,54.199
1742645117.706,-1000.000,-39.062,-42.969,-1000.000
1742645117.710,-174.805,-15.625,-41.504,-121.582
1742645117.713,999.512,-13.672,-33.691,999.512
1742645117.717,-193.848,-39.551,-34.668,-253.906
1742645117.721,-1000.000,-35.156,-35.645,-1000.000
1742645117.725,343.750,-9.766,-25.879,339.844
1742645117.729,999.512,-21.484,-21.973,967.773
1742645117.731,-530.273,-48.340,-32.227,-505.859
1742645117.735,-1000.000,-41.992,-34.668,-1000.000
1742645117.739,57.617,-20.508,-34.668,49.805
1742645117.743,999.512,-23.926,-30.762,999.512
1742645117.747,175.781,-50.293,-31.250,124.023
1742645117.751,-1000.000,-49.805,-36.133,-1000.000
1742645117.755,-272.461,-32.715,-38.086,-306.641
1742645117.758,999.512,-33.203,-41.992,999.512
1742645117.762,473.145,-50.293,-41.016,546.875
1742645117.766,-1000.000,-68.359,-41.016,-918.945
1742645117.770,-904.297,-48.828,-42.480,-963.867
1742645117.774,579.590,-28.320,-35.156,436.035
1742645117.731,-530.273,-48.340,-32.227,-505.859
1742645117.735,-1000.000,-41.992,-34.668,-1000.000
1742645117.739,57.617,-20.508,-34.668,49.805
1742645117.743,999.512,-23.926,-30.762,999.512
1742645117.747,175.781,-50.293,-31.250,124.023
1742645117.751,-1000.000,-49.805,-36.133,-1000.000
1742645117.755,-272.461,-32.715,-38.086,-306.641
1742645117.758,999.512,-33.203,-41.992,999.512
1742645117.762,473.145,-50.293,-41.016,546.875
1742645117.766,-1000.000,-68.359,-41.016,-918.945
1742645117.770,-904.297,-48.828,-42.480,-963.867
1742645117.774,579.590,-28.320,-35.156,436.035
1742645117.791,999.512,-35.645,-25.879,999.512
1742645117.795,-354.980,-52.734,-29.785,-317.871
1742645117.799,-1000.000,-48.340,-32.715,-1000.000
1742645117.803,339.355,-29.297,-27.832,286.621
1742645117.807,999.512,-37.598,-27.832,999.512
1742645117.811,-672.852,-61.035,-32.227,-605.957
1742645117.815,-708.496,-52.246,-37.598,-737.793
1742645117.818,999.512,-34.668,-37.109,999.512
1742645117.822,371.094,-57.129,-37.598,426.270
1742645117.826,-1000.000,-74.707,-41.016,-1000.000
1742645117.830,-374.023,-46.875,-41.016,-433.105
1742645117.834,999.512,-32.715,-43.945,999.512
1742645117.791,999.512,-35.645,-25.879,999.512
1742645117.795,-354.980,-52.734,-29.785,-317.871
1742645117.799,-1000.000,-48.340,-32.715,-1000.000
1742645117.803,339.355,-29.297,-27.832,286.621
1742645117.807,999.512,-37.598,-27.832,999.512
1742645117.811,-672.852,-61.035,-32.227,-605.957
1742645117.815,-708.496,-52.246,-37.598,-737.793
1742645117.818,999.512,-34.668,-37.109,999.512
1742645117.822,371.094,-57.129,-37.598,426.270
1742645117.826,-1000.000,-74.707,-41.016,-1000.000
1742645117.830,-374.023,-46.875,-41.016,-433.105
1742645117.834,999.512,-32.715,-43.945,999.512
1742645117.837,416.016,-57.617,-38.574,490.723
1742645117.841,-1000.000,-69.336,-40.039,-999.512
1742645117.845,-876.465,-57.617,-43.457,-924.805
1742645117.849,541.992,-44.434,-37.598,443.359
1742645117.853,999.512,-53.223,-42.480,999.512
1742645117.857,-63.477,-68.848,-49.805,-55.176
1742645117.861,-1000.000,-65.430,-50.293,-1000.000
1742645117.864,-242.188,-51.758,-55.664,-270.508
1742645117.868,999.512,-45.898,-50.781,999.512
1742645117.872,313.965,-65.430,-51.270,393.555
1742645117.876,-1000.000,-75.195,-58.105,-1000.000
1742645117.880,-455.566,-61.035,-62.988,-551.270
1742645117.837,416.016,-57.617,-38.574,490.723
1742645117.841,-1000.000,-69.336,-40.039,-999.512
1742645117.845,-876.465,-57.617,-43.457,-924.805
1742645117.849,541.992,-44.434,-37.598,443.359
1742645117.853,999.512,-53.223,-42.480,999.512
1742645117.857,-63.477,-68.848,-49.805,-55.176
1742645117.861,-1000.000,-65.430,-50.293,-1000.000
1742645117.864,-242.188,-51.758,-55.664,-270.508
1742645117.868,999.512,-45.898,-50.781,999.512
1742645117.872,313.965,-65.430,-51.270,393.555
1742645117.876,-1000.000,-75.195,-58.105,-1000.000
1742645117.880,-455.566,-61.035,-62.988,-551.270
1742645117.881,999.512,-45.898,-65.918,999.512
1742645117.885,500.488,-68.848,-66.895,592.773
1742645117.889,-1000.000,-90.332,-66.406,-1000.000
1742645117.893,-443.359,-61.035,-63.477,-505.859
1742645117.897,999.512,-50.781,-65.918,999.512
1742645117.901,381.836,-75.195,-64.941,451.172
1742645117.905,-1000.000,-87.402,-74.219,-1000.000
1742645117.908,-630.859,-60.547,-73.242,-677.734
1742645117.912,999.512,-35.156,-57.129,944.336
1742645117.916,565.918,-60.547,-53.711,621.094
1742645117.920,-1000.000,-73.242,-48.828,-1000.000
1742645117.924,-707.031,-55.664,-48.828,-763.184
1742645117.881,999.512,-45.898,-65.918,999.512
1742645117.885,500.488,-68.848,-66.895,592.773
1742645117.889,-1000.000,-90.332,-66.406,-1000.000
1742645117.893,-443.359,-61.035,-63.477,-505.859
1742645117.897,999.512,-50.781,-65.918,999.512
1742645117.901,381.836,-75.195,-64.941,451.172
1742645117.905,-1000.000,-87.402,-74.219,-1000.000
1742645117.908,-630.859,-60.547,-73.242,-677.734
1742645117.912,999.512,-35.156,-57.129,944.336
1742645117.916,565.918,-60.547,-53.711,621.094
1742645117.920,-1000.000,-73.242,-48.828,-1000.000
1742645117.924,-707.031,-55.664,-48.828,-763.184
1742645117.926,952.637,-52.246,-52.734,830.566
1742645117.930,719.238,-71.289,-51.270,787.598
1742645117.934,-819.336,-82.031,-53.711,-702.637
1742645117.938,-1000.000,-69.336,-56.152,-1000.000
1742645117.942,190.430,-59.082,-55.664,168.945
1742645117.946,999.512,-68.848,-62.988,999.512
1742645117.950,-21.973,-91.797,-71.777,-7.812
1742645117.953,-1000.000,-99.121,-71.777,-1000.000
1742645117.957,-271.973,-76.660,-74.707,-340.332
1742645117.961,999.512,-66.895,-76.172,999.512
1742645117.965,499.023,-85.449,-72.754,619.141
1742645117.969,-1000.000,-100.098,-72.266,-914.551
1742645117.971,-781.250,-83.496,-75.684,-845.703
1742645117.975,916.992,-68.848,-81.543,803.711
1742645117.979,472.656,-87.891,-82.031,537.598
1742645117.983,-1000.000,-104.980,-78.613,-1000.000
1742645117.987,-446.289,-83.984,-89.355,-510.254
1742645117.991,999.512,-74.707,-96.680,999.512
1742645117.995,344.727,-104.980,-94.238,397.461
1742645117.998,-1000.000,-122.070,-93.750,-1000.000
1742645118.002,-465.820,-104.492,-97.168,-520.996
1742645118.006,999.512,-89.844,-99.609,999.512
1742645118.010,589.844,-104.980,-97.656,652.344
1742645118.014,-931.641,-118.164,-102.539,-828.613
1742645117.971,-781.250,-83.496,-75.684,-845.703
1742645117.975,916.992,-68.848,-81.543,803.711
1742645117.979,472.656,-87.891,-82.031,537.598
1742645117.983,-1000.000,-104.980,-78.613,-1000.000
1742645117.987,-446.289,-83.984,-89.355,-510.254
1742645117.991,999.512,-74.707,-96.680,999.512
1742645117.995,344.727,-104.980,-94.238,397.461
1742645117.998,-1000.000,-122.070,-93.750,-1000.000
1742645118.002,-465.820,-104.492,-97.168,-520.996
1742645118.006,999.512,-89.844,-99.609,999.512
1742645118.010,589.844,-104.980,-97.656,652.344
1742645118.014,-931.641,-118.164,-102.539,-828.613
1742645118.016,-1000.000,-106.445,-100.586,-1000.000
1742645118.020,328.613,-92.285,-96.191,292.480
1742645118.024,999.512,-97.168,-96.680,999.512
1742645118.028,28.320,-112.793,-96.191,-7.812
1742645118.032,-1000.000,-114.258,-96.680,-1000.000
1742645118.036,-237.305,-90.820,-93.262,-223.145
1742645118.040,999.512,-82.520,-87.891,999.512
1742645118.043,204.590,-109.863,-90.332,184.082
1742645118.047,-1000.000,-111.328,-88.379,-1000.000
1742645118.051,-135.254,-75.195,-86.426,-62.012
1742645118.055,999.512,-68.359,-87.891,999.512
1742645118.059,101.562,-99.121,-92.285,20.996
1742645118.016,-1000.000,-106.445,-100.586,-1000.000
1742645118.020,328.613,-92.285,-96.191,292.480
1742645118.024,999.512,-97.168,-96.680,999.512
1742645118.028,28.320,-112.793,-96.191,-7.812
1742645118.032,-1000.000,-114.258,-96.680,-1000.000
1742645118.036,-237.305,-90.820,-93.262,-223.145
1742645118.040,999.512,-82.520,-87.891,999.512
1742645118.043,204.590,-109.863,-90.332,184.082
1742645118.047,-1000.000,-111.328,-88.379,-1000.000
1742645118.051,-135.254,-75.195,-86.426,-62.012
1742645118.055,999.512,-68.359,-87.891,999.512
1742645118.059,101.562,-99.121,-92.285,20.996
1742645118.061,-1000.000,-105.957,-90.820,-1000.000
1742645118.065,-63.477,-79.590,-81.055,-19.043
1742645118.069,999.512,-75.684,-81.055,999.512
1742645118.073,-125.488,-90.332,-78.613,-157.715
1742645118.077,-1000.000,-83.496,-70.312,-1000.000
1742645118.081,100.098,-67.383,-69.824,116.211
1742645118.085,999.512,-67.871,-67.383,999.512
1742645118.088,85.449,-79.590,-64.941,43.945
1742645118.092,-1000.000,-78.613,-65.430,-1000.000
1742645118.096,-262.207,-49.316,-60.059,-275.391
1742645118.100,999.512,-38.086,-55.664,999.512
1742645118.104,476.562,-64.941,-56.152,552.246
1742645118.109,-920.410,-73.730,-57.129,-824.707
1742645118.113,-1000.000,-48.828,-57.129,-1000.000
1742645118.117,-14.648,-29.297,-60.059,-44.434
