timestamps,TP9,AF7,AF8,TP10
1743150845.414,999.512,999.512,329.102,999.512
1743150845.418,384.766,499.023,-707.520,319.336
1743150845.422,-949.707,-881.348,-983.887,-973.145
1743150845.426,-1000.000,-1000.000,-213.379,-1000.000
1743150845.430,-236.328,-268.066,653.320,-243.652
1743150845.434,999.512,999.512,794.434,999.512
1743150845.438,732.910,876.465,-148.926,626.465
1743150845.441,-612.305,-427.734,-976.562,-738.281
1743150845.445,-1000.000,-1000.000,-316.406,-1000.000
1743150845.449,-564.941,-635.254,631.348,-374.512
1743150845.453,977.539,863.281,682.617,999.512
1743150845.457,660.156,830.566,-327.148,581.543
1743150845.457,660.156,830.566,-327.148,581.543
1743150845.698,999.512,999.512,-251.465,999.512
1743150845.702,355.957,429.688,-1000.000,227.539
1743150845.706,-1000.000,-1000.000,-622.070,-1000.000
1743150845.710,-571.289,-765.137,481.445,-484.375
1743150845.714,836.914,658.691,983.887,868.164
1743150845.718,999.512,999.512,450.684,999.512
1743150845.722,508.789,608.887,-531.250,381.348
1743150845.725,-854.004,-717.773,-890.625,-971.191
1743150845.729,-1000.000,-1000.000,-19.043,-1000.000
1743150845.733,53.711,-85.938,690.430,254.395
1743150845.737,999.512,999.512,26.855,999.512
1743150845.741,383.301,453.125,-856.934,252.441
1743150845.788,-202.148,-310.547,732.422,-219.727
1743150845.792,999.512,977.539,715.820,999.512
1743150845.796,895.996,999.512,-419.434,744.629
1743150845.800,-410.156,-268.555,-1000.000,-610.840
1743150845.804,-1000.000,-1000.000,-361.328,-1000.000
1743150845.808,-177.734,-175.293,748.535,-188.477
1743150845.812,999.512,999.512,860.840,999.512
1743150845.815,999.512,999.512,-270.020,911.621
1743150845.819,-131.348,-64.453,-1000.000,-347.656
1743150845.823,-1000.000,-1000.000,-468.262,-1000.000
1743150845.827,-425.293,-512.695,531.250,-310.547
1743150845.831,872.070,820.312,650.879,942.383
1743150846.028,-1000.000,-1000.000,-757.324,-1000.000
1743150846.032,-647.461,-666.992,235.840,-459.961
1743150846.036,707.031,704.590,535.156,856.934
1743150846.040,999.512,999.512,-402.344,999.512
1743150846.044,173.828,162.598,-1000.000,149.414
1743150846.048,-1000.000,-1000.000,-665.039,-1000.000
1743150846.052,-888.672,-979.004,338.379,-658.691
1743150846.055,438.965,288.574,811.523,707.031
1743150846.059,999.512,999.512,89.355,999.512
1743150846.063,145.996,145.020,-920.410,174.316
1743150846.067,-1000.000,-1000.000,-729.492,-1000.000
1743150846.071,-1000.000,-1000.000,375.000,-857.422
1743150846.253,347.168,408.691,-790.039,209.473
1743150846.257,-958.496,-928.711,-756.836,-1000.000
1743150846.261,-1000.000,-1000.000,469.727,-1000.000
1743150846.265,-64.453,-168.457,999.512,-13.184
1743150846.269,999.512,999.512,582.520,999.512
1743150846.273,664.551,850.586,-463.379,417.969
1743150846.277,-682.617,-462.402,-866.699,-895.996
1743150846.280,-1000.000,-1000.000,-214.355,-1000.000
1743150846.284,-211.914,-200.684,766.113,-225.586
1743150846.288,999.512,999.512,924.805,999.512
1743150846.292,804.688,876.465,-133.301,584.473
1743150846.296,-545.898,-440.430,-780.273,-797.852
1743150846.345,915.039,883.301,813.477,958.984
1743150846.349,999.512,999.512,-202.637,999.512
1743150846.353,100.586,167.480,-1000.000,-34.180
1743150846.357,-1000.000,-1000.000,-645.996,-1000.000
1743150846.361,-790.527,-909.180,300.781,-610.840
1743150846.365,551.270,401.855,719.727,728.027
1743150846.369,999.512,999.512,-41.016,999.512
1743150846.372,177.246,162.109,-1000.000,139.648
1743150846.376,-1000.000,-1000.000,-878.906,-1000.000
1743150846.380,-819.336,-948.242,134.766,-676.270
1743150846.384,540.039,343.262,786.133,689.941
1743150846.388,999.512,999.512,23.926,999.512
1743150846.913,999.512,999.512,-1000.000,999.512
1743150846.917,825.195,929.199,-1000.000,329.590
1743150846.921,-415.039,-239.746,-1000.000,-923.340
1743150846.925,-1000.000,-1000.000,-1000.000,-1000.000
1743150846.929,-509.277,-626.953,-1000.000,-408.691
1743150846.933,828.125,708.008,-996.582,999.512
1743150846.937,999.512,999.512,-947.266,797.852
1743150846.940,-199.707,-22.461,-1000.000,-755.859
1743150846.944,-985.840,-1000.000,-231.934,-979.492
1743150846.948,505.859,168.945,999.512,470.215
1743150846.952,999.512,999.512,715.332,999.512
1743150846.956,118.164,122.559,-586.426,113.770
1743150847.663,-1000.000,-1000.000,115.234,-1000.000
1743150847.667,-197.754,-160.645,849.609,-127.930
1743150847.671,968.750,963.379,980.469,974.121
1743150847.675,999.512,999.512,348.145,999.512
1743150847.679,-20.996,178.711,-260.742,185.059
1743150847.683,-1000.000,-1000.000,16.602,-1000.000
1743150847.687,-1000.000,-1000.000,425.781,-635.742
1743150847.690,-40.039,67.383,483.398,777.344
1743150847.694,999.512,999.512,-96.680,999.512
1743150847.698,-257.812,-27.832,-759.277,-150.391
1743150847.702,-1000.000,-1000.000,68.848,-1000.000
1743150847.706,-148.926,-161.621,983.887,-3.906
1743150847.753,467.285,261.230,109.375,528.320
1743150847.757,-1000.000,-1000.000,89.355,-1000.000
1743150847.761,-345.703,-445.801,731.445,-256.836
1743150847.765,999.512,965.332,999.512,999.512
1743150847.769,954.590,986.328,188.477,937.012
1743150847.773,930.664,920.410,-790.039,939.453
1743150847.777,976.074,980.469,-257.812,973.633
1743150847.780,966.309,967.773,647.949,966.797
1743150847.784,966.309,964.844,970.703,966.797
1743150847.788,966.309,906.738,516.602,966.797
1743150847.792,966.309,999.512,-390.625,966.797
1743150847.796,966.309,198.730,-401.367,966.797
1743150847.903,469.238,454.590,-663.086,382.324
1743150847.907,-1000.000,-1000.000,-348.145,-1000.000
1743150847.911,-324.219,-467.285,486.816,-250.488
1743150847.915,999.512,995.117,834.473,999.512
1743150847.919,948.730,976.074,132.324,942.871
1743150847.923,933.105,921.875,-569.824,937.988
1743150847.927,978.027,988.281,-259.277,977.539
1743150847.930,952.148,933.105,354.004,951.660
1743150847.934,925.781,969.238,828.613,928.711
1743150847.938,999.512,966.797,87.402,999.512
1743150847.942,18.066,-262.695,-989.258,9.766
1743150847.946,-1000.000,-1000.000,-832.031,-1000.000
1743150848.458,-1000.000,-1000.000,-799.805,-1000.000
1743150848.462,-990.723,-1000.000,185.059,-870.605
1743150848.466,268.555,145.996,937.012,437.012
1743150848.470,999.512,999.512,494.141,999.512
1743150848.474,122.559,171.875,-524.414,120.117
1743150848.478,-993.652,-979.004,-678.711,-997.070
1743150848.482,-1000.000,-1000.000,314.941,-1000.000
1743150848.485,-394.043,-494.629,696.777,-298.340
1743150848.489,999.512,999.512,292.480,999.512
1743150848.493,429.688,537.598,-428.711,280.273
1743150848.497,-937.500,-887.207,-761.230,-996.094
1743150848.501,-1000.000,-1000.000,-70.312,-1000.000
1743150849.538,-975.098,-998.047,-926.758,-970.215
1743150849.542,-1000.000,-1000.000,-231.934,-1000.000
1743150849.546,78.613,224.121,459.473,18.066
1743150849.550,999.512,999.512,400.391,999.512
1743150849.554,827.148,951.660,-395.020,562.012
1743150849.558,-396.973,-143.066,-628.418,-731.934
1743150849.562,-1000.000,-1000.000,-4.883,-1000.000
1743150849.565,-444.336,-499.023,569.336,-449.219
1743150849.569,879.395,839.844,655.762,948.242
1743150849.573,999.512,999.512,57.617,909.180
1743150849.577,-106.934,6.836,-307.617,-455.566
1743150849.581,-1000.000,-1000.000,125.488,-1000.000
1743150850.094,-1000.000,-1000.000,-569.824,-1000.000
1743150850.098,-665.039,-795.410,-54.199,-521.484
1743150850.102,692.871,538.086,289.062,793.945
1743150850.106,999.512,999.512,-120.117,999.512
1743150850.110,273.926,381.348,-664.551,193.848
1743150850.114,-1000.000,-1000.000,-59.570,-1000.000
1743150850.118,-281.250,-381.836,770.996,-240.723
1743150850.121,986.816,963.867,950.195,993.164
1743150850.125,999.512,999.512,448.242,999.512
1743150850.129,153.809,147.461,-173.340,134.277
1743150850.133,-1000.000,-998.047,-100.098,-1000.000
1743150850.137,-1000.000,-1000.000,411.621,-1000.000
1743150850.753,938.965,933.594,-647.949,940.918
1743150850.757,985.352,989.258,-244.629,987.305
1743150850.761,917.969,912.598,206.543,907.227
1743150850.765,999.512,999.512,92.285,999.512
1743150850.769,882.324,813.965,-371.582,748.535
1743150850.773,-492.188,-586.426,-568.359,-663.574
1743150850.777,-1000.000,-1000.000,-256.348,-1000.000
1743150850.780,-933.105,-934.570,119.629,-936.523
1743150850.784,-1000.000,-1000.000,154.785,-1000.000
1743150850.788,-994.141,-995.117,-325.684,-995.117
1743150850.792,-956.055,-954.590,-615.723,-954.590
1743150850.796,-1000.000,-1000.000,-233.398,-1000.000
1743150850.796,-1000.000,-1000.000,-233.398,-1000.000
1743150852.403,-941.406,-881.836,-443.359,-1000.000
1743150852.407,-1000.000,-1000.000,225.586,-1000.000
1743150852.411,-94.238,-203.125,535.156,116.211
1743150852.415,999.512,999.512,118.164,999.512
1743150852.419,400.391,449.219,-431.641,249.512
1743150852.423,-909.668,-892.090,-222.168,-965.332
1743150852.427,-1000.000,-1000.000,338.867,-1000.000
1743150852.430,-366.211,-459.961,318.848,-273.438
1743150852.434,999.512,977.051,-59.570,999.512
1743150852.438,680.664,853.516,-522.461,448.242
1743150852.442,-742.188,-546.875,-611.816,-908.691
1743150852.446,-1000.000,-1000.000,-171.387,-1000.000
1743150853.707,999.512,999.512,-81.543,999.512
1743150853.711,87.891,122.559,-613.281,-126.465
1743150853.715,-1000.000,-1000.000,-369.629,-1000.000
1743150853.719,-1000.000,-1000.000,-104.980,-1000.000
1743150853.723,-198.242,-248.047,51.758,15.625
1743150853.727,999.512,999.512,-215.332,999.512
1743150853.731,601.562,739.746,-578.125,360.352
1743150853.734,-807.129,-640.625,-571.777,-979.492
1743150853.738,-1000.000,-1000.000,-134.766,-1000.000
1743150853.742,-48.340,-171.875,352.051,139.648
1743150853.746,999.512,999.512,71.777,999.512
1743150853.750,435.547,500.977,-534.668,264.648
1743150856.814,969.238,999.512,-90.820,708.984
1743150856.818,-286.133,-194.824,-360.352,-666.016
1743150856.822,-1000.000,-1000.000,211.914,-1000.000
1743150856.826,-127.441,-145.508,861.328,5.859
1743150856.830,963.867,963.379,759.766,992.188
1743150856.834,999.512,999.512,105.957,999.512
1743150856.838,394.531,473.633,-252.930,272.461
1743150856.841,-906.250,-860.840,-137.207,-978.516
1743150856.845,-1000.000,-1000.000,187.500,-1000.000
1743150856.849,-223.145,-206.055,415.527,-145.508
1743150856.853,999.512,999.512,209.961,999.512
1743150856.857,886.230,962.402,-136.230,615.723
1743150856.857,886.230,962.402,-136.230,615.723
1743150856.857,886.230,962.402,-136.230,615.723
1743150856.904,-128.418,-214.355,549.805,106.934
1743150856.908,999.512,999.512,156.250,999.512
1743150856.912,162.109,174.316,-599.121,86.914
1743150856.916,-1000.000,-1000.000,-391.113,-1000.000
1743150856.920,-1000.000,-1000.000,149.902,-1000.000
1743150856.924,-23.926,-22.949,669.922,112.305
1743150856.928,999.512,999.512,362.793,999.512
1743150856.931,149.414,164.551,-591.797,135.742
1743150856.935,-1000.000,-1000.000,-672.363,-1000.000
1743150856.939,-1000.000,-1000.000,-1.465,-1000.000
1743150856.943,-92.773,-149.902,582.031,67.871
1743150856.947,999.512,999.512,184.082,999.512
1743150856.948,709.473,891.602,-458.984,410.156
1743150856.952,-630.371,-380.371,-594.238,-880.371
1743150856.956,-1000.000,-1000.000,-294.434,-1000.000
1743150856.960,-155.273,-196.777,319.824,-160.156
1743150856.964,960.938,948.730,240.234,991.211
1743150856.968,999.512,999.512,-258.301,999.512
1743150856.972,174.805,214.844,-268.066,9.766
1743150856.975,-1000.000,-990.234,173.340,-1000.000
1743150856.979,-1000.000,-1000.000,535.156,-1000.000
1743150856.983,28.809,-115.723,491.211,274.414
1743150856.987,999.512,999.512,-180.176,974.609
1743150856.991,-144.043,-3.906,-697.754,-501.953
1743150856.948,709.473,891.602,-458.984,410.156
1743150856.952,-630.371,-380.371,-594.238,-880.371
1743150856.956,-1000.000,-1000.000,-294.434,-1000.000
1743150856.960,-155.273,-196.777,319.824,-160.156
1743150856.964,960.938,948.730,240.234,991.211
1743150856.968,999.512,999.512,-258.301,999.512
1743150856.972,174.805,214.844,-268.066,9.766
1743150856.975,-1000.000,-990.234,173.340,-1000.000
1743150856.979,-1000.000,-1000.000,535.156,-1000.000
1743150856.983,28.809,-115.723,491.211,274.414
1743150856.987,999.512,999.512,-180.176,974.609
1743150856.991,-144.043,-3.906,-697.754,-501.953
1743150857.007,-1000.000,-1000.000,-234.863,-1000.000
1743150857.011,-177.246,-232.422,495.605,-186.035
1743150857.015,999.512,983.398,516.113,999.512
1743150857.019,999.512,999.512,-113.770,935.547
1743150857.023,-28.809,60.059,-677.246,-308.105
1743150857.027,-1000.000,-1000.000,-259.766,-1000.000
1743150857.031,-228.027,-286.133,427.734,-210.938
1743150857.034,999.512,999.512,191.895,999.512
1743150857.038,939.453,999.512,-478.516,761.230
1743150857.042,-299.805,-211.426,-744.141,-564.941
1743150857.046,-1000.000,-1000.000,-304.199,-1000.000
1743150857.050,-511.230,-646.484,233.398,-357.422
1743150857.007,-1000.000,-1000.000,-234.863,-1000.000
1743150857.011,-177.246,-232.422,495.605,-186.035
1743150857.015,999.512,983.398,516.113,999.512
1743150857.019,999.512,999.512,-113.770,935.547
1743150857.023,-28.809,60.059,-677.246,-308.105
1743150857.027,-1000.000,-1000.000,-259.766,-1000.000
1743150857.031,-228.027,-286.133,427.734,-210.938
1743150857.034,999.512,999.512,191.895,999.512
1743150857.038,939.453,999.512,-478.516,761.230
1743150857.042,-299.805,-211.426,-744.141,-564.941
1743150857.046,-1000.000,-1000.000,-304.199,-1000.000
1743150857.050,-511.230,-646.484,233.398,-357.422
1743150857.037,802.246,669.434,388.184,892.090
1743150857.041,999.512,999.512,-125.977,999.512
1743150857.045,186.035,171.387,-660.645,93.750
1743150857.049,-1000.000,-1000.000,-220.215,-1000.000
1743150857.053,-830.078,-904.297,459.473,-596.191
1743150857.057,524.902,404.297,703.613,714.355
1743150857.061,999.512,999.512,94.727,999.512
1743150857.064,119.629,206.055,-554.199,105.469
1743150857.068,-996.582,-968.262,-397.461,-1000.000
1743150857.072,-1000.000,-1000.000,-0.977,-1000.000
1743150857.076,-267.090,-260.742,416.992,-141.113
1743150857.080,999.512,999.512,151.855,999.512
1743150857.037,802.246,669.434,388.184,892.090
1743150857.041,999.512,999.512,-125.977,999.512
1743150857.045,186.035,171.387,-660.645,93.750
1743150857.049,-1000.000,-1000.000,-220.215,-1000.000
1743150857.053,-830.078,-904.297,459.473,-596.191
1743150857.057,524.902,404.297,703.613,714.355
1743150857.061,999.512,999.512,94.727,999.512
1743150857.064,119.629,206.055,-554.199,105.469
1743150857.068,-996.582,-968.262,-397.461,-1000.000
1743150857.072,-1000.000,-1000.000,-0.977,-1000.000
1743150857.076,-267.090,-260.742,416.992,-141.113
1743150857.080,999.512,999.512,151.855,999.512
1743150857.098,430.664,484.375,-375.488,273.926
1743150857.102,-1000.000,-946.777,-251.465,-1000.000
1743150857.106,-1000.000,-1000.000,344.238,-810.547
1743150857.110,291.504,165.039,797.363,536.621
1743150857.114,999.512,999.512,309.082,999.512
1743150857.118,974.609,999.512,-225.586,691.406
1743150857.122,-128.906,-2.930,-214.844,-552.734
1743150857.125,-1000.000,-1000.000,29.297,-1000.000
1743150857.129,-235.352,-253.418,575.684,-154.785
1743150857.133,999.512,999.512,314.941,999.512
1743150857.137,427.734,509.277,-356.445,273.438
1743150857.141,-927.734,-880.371,-359.863,-993.164
1743150857.098,430.664,484.375,-375.488,273.926
1743150857.102,-1000.000,-946.777,-251.465,-1000.000
1743150857.106,-1000.000,-1000.000,344.238,-810.547
1743150857.110,291.504,165.039,797.363,536.621
1743150857.114,999.512,999.512,309.082,999.512
1743150857.118,974.609,999.512,-225.586,691.406
1743150857.122,-128.906,-2.930,-214.844,-552.734
1743150857.125,-1000.000,-1000.000,29.297,-1000.000
1743150857.129,-235.352,-253.418,575.684,-154.785
1743150857.133,999.512,999.512,314.941,999.512
1743150857.137,427.734,509.277,-356.445,273.438
1743150857.141,-927.734,-880.371,-359.863,-993.164
1743150857.142,-1000.000,-1000.000,123.535,-1000.000
1743150857.146,-228.516,-207.031,600.098,-198.242
1743150857.150,999.512,999.512,473.145,999.512
1743150857.154,792.969,920.410,-197.754,584.961
1743150857.158,-562.500,-366.211,-357.910,-784.668
1743150857.162,-1000.000,-1000.000,229.004,-1000.000
1743150857.166,-228.516,-229.004,784.180,-159.668
1743150857.169,999.512,999.512,660.156,999.512
1743150857.173,428.711,474.121,-238.770,312.012
1743150857.177,-927.734,-896.973,-637.695,-972.168
1743150857.181,-1000.000,-1000.000,104.004,-1000.000
1743150857.185,-195.801,-228.516,686.035,-205.078
1743150857.203,999.512,971.191,469.727,999.512
1743150857.207,999.512,999.512,-126.465,860.352
1743150857.211,-142.578,-53.711,-439.453,-407.227
1743150857.215,-1000.000,-1000.000,-41.504,-1000.000
1743150857.219,-807.129,-891.113,460.938,-564.453
1743150857.223,483.398,368.652,718.750,765.625
1743150857.227,999.512,999.512,237.793,999.512
1743150857.230,117.188,169.922,-549.316,-43.457
1743150857.234,-1000.000,-1000.000,-358.887,-1000.000
1743150857.238,-673.828,-805.176,270.020,-441.895
1743150857.242,703.613,557.129,573.242,878.418
1743150857.246,999.512,999.512,61.035,999.512
1743150857.232,152.832,140.625,-502.930,87.891
1743150857.236,-1000.000,-1000.000,-218.750,-1000.000
1743150857.240,-1000.000,-1000.000,282.715,-779.297
1743150857.244,154.785,56.152,538.086,521.973
1743150857.248,999.512,999.512,29.785,999.512
1743150857.252,525.879,747.070,-418.457,317.871
1743150857.256,-805.176,-550.781,-16.602,-979.004
1743150857.259,-1000.000,-1000.000,452.148,-1000.000
1743150857.263,-158.203,-226.074,556.152,166.016
1743150857.267,999.512,999.512,165.527,999.512
1743150857.271,230.469,327.637,-323.242,160.645
1743150857.275,-1000.000,-978.516,-320.312,-1000.000
1743150857.769,999.512,999.512,-368.164,999.512
1743150857.773,172.852,175.781,-683.594,-23.926
1743150857.777,-1000.000,-1000.000,-163.086,-1000.000
1743150857.781,-745.117,-865.234,257.324,-509.766
1743150857.785,624.512,479.980,368.164,797.852
1743150857.789,999.512,999.512,110.352,999.512
1743150857.793,769.531,873.047,-325.684,518.555
1743150857.796,-483.887,-323.242,-396.484,-788.574
1743150857.800,-1000.000,-1000.000,-40.527,-1000.000
1743150857.804,-196.777,-183.105,430.176,-63.965
1743150857.808,999.512,999.512,127.441,999.512
1743150857.812,961.914,999.512,-345.703,637.695
1743150857.279,-1000.000,-1000.000,185.059,-1000.000
1743150857.283,-152.344,-215.332,643.555,54.199
1743150857.287,999.512,999.512,300.293,999.512
1743150857.291,749.023,886.230,-279.785,497.559
1743150857.295,-658.203,-472.168,-419.434,-913.574
1743150857.299,-1000.000,-1000.000,134.277,-1000.000
1743150857.303,100.586,29.785,869.629,293.945
1743150857.306,999.512,999.512,340.820,999.512
1743150857.310,189.941,285.645,-531.738,132.812
1743150857.314,-992.676,-962.891,-518.555,-1000.000
1743150857.318,-1000.000,-1000.000,39.062,-1000.000
1743150857.322,-220.703,-200.684,565.430,-217.285
1743150857.279,-1000.000,-1000.000,185.059,-1000.000
1743150857.283,-152.344,-215.332,643.555,54.199
1743150857.287,999.512,999.512,300.293,999.512
1743150857.291,749.023,886.230,-279.785,497.559
1743150857.295,-658.203,-472.168,-419.434,-913.574
1743150857.299,-1000.000,-1000.000,134.277,-1000.000
1743150857.303,100.586,29.785,869.629,293.945
1743150857.306,999.512,999.512,340.820,999.512
1743150857.310,189.941,285.645,-531.738,132.812
1743150857.314,-992.676,-962.891,-518.555,-1000.000
1743150857.318,-1000.000,-1000.000,39.062,-1000.000
1743150857.322,-220.703,-200.684,565.430,-217.285
1743150857.279,-1000.000,-1000.000,185.059,-1000.000
1743150857.283,-152.344,-215.332,643.555,54.199
1743150857.287,999.512,999.512,300.293,999.512
1743150857.291,749.023,886.230,-279.785,497.559
1743150857.295,-658.203,-472.168,-419.434,-913.574
1743150857.299,-1000.000,-1000.000,134.277,-1000.000
1743150857.303,100.586,29.785,869.629,293.945
1743150857.306,999.512,999.512,340.820,999.512
1743150857.310,189.941,285.645,-531.738,132.812
1743150857.314,-992.676,-962.891,-518.555,-1000.000
1743150857.318,-1000.000,-1000.000,39.062,-1000.000
1743150857.322,-220.703,-200.684,565.430,-217.285
1743150857.322,999.512,994.141,394.043,999.512
1743150857.326,992.676,999.512,-269.043,735.352
1743150857.330,-256.348,-84.961,-394.043,-630.859
1743150857.334,-1000.000,-1000.000,3.418,-1000.000
1743150857.338,-148.926,-291.016,472.656,-97.656
1743150857.342,940.430,885.254,556.152,992.676
1743150857.346,999.512,999.512,-15.625,999.512
1743150857.349,146.484,180.664,-431.152,-113.770
1743150857.353,-1000.000,-1000.000,-161.133,-1000.000
1743150857.357,-830.566,-1000.000,273.438,-568.848
1743150857.361,559.082,278.809,444.336,847.168
1743150857.365,999.512,999.512,-77.148,995.605
1743150857.384,-81.543,12.695,-667.480,-330.078
1743150857.388,-1000.000,-1000.000,-284.180,-1000.000
1743150857.392,-469.238,-545.898,374.023,-334.473
1743150857.396,890.137,824.707,548.828,999.512
1743150857.400,999.512,999.512,-155.762,913.086
1743150857.404,-114.258,56.641,-566.406,-377.441
1743150857.408,-1000.000,-1000.000,-168.945,-1000.000
1743150857.411,-979.492,-1000.000,101.074,-729.004
1743150857.415,205.566,96.191,300.781,550.781
1743150857.419,999.512,999.512,-133.301,999.512
1743150857.423,130.371,130.859,-622.559,79.102
1743150857.427,-1000.000,-1000.000,-405.762,-1000.000
1743150857.384,-81.543,12.695,-667.480,-330.078
1743150857.388,-1000.000,-1000.000,-284.180,-1000.000
1743150857.392,-469.238,-545.898,374.023,-334.473
1743150857.396,890.137,824.707,548.828,999.512
1743150857.400,999.512,999.512,-155.762,913.086
1743150857.404,-114.258,56.641,-566.406,-377.441
1743150857.408,-1000.000,-1000.000,-168.945,-1000.000
1743150857.411,-979.492,-1000.000,101.074,-729.004
1743150857.415,205.566,96.191,300.781,550.781
1743150857.419,999.512,999.512,-133.301,999.512
1743150857.423,130.371,130.859,-622.559,79.102
1743150857.427,-1000.000,-1000.000,-405.762,-1000.000
1743150857.412,-1000.000,-1000.000,12.695,-1000.000
1743150857.416,-119.629,-215.332,417.969,87.891
1743150857.420,999.512,999.512,99.609,999.512
1743150857.424,293.457,426.758,-592.773,199.707
1743150857.428,-1000.000,-1000.000,-488.281,-1000.000
1743150857.432,-903.320,-957.520,114.258,-693.848
1743150857.436,442.383,401.367,493.652,684.082
1743150857.439,999.512,999.512,-55.664,999.512
1743150857.443,131.348,125.000,-935.059,107.910
1743150857.447,-1000.000,-1000.000,-930.664,-1000.000
1743150857.451,-1000.000,-1000.000,-309.082,-992.676
1743150857.455,-76.660,-176.758,3.418,186.035
1743150857.473,999.512,999.512,-462.891,999.512
1743150857.477,405.762,500.488,-921.387,229.492
1743150857.481,-894.043,-847.656,-870.117,-962.402
1743150857.485,-1000.000,-1000.000,-591.797,-1000.000
1743150857.489,-429.199,-491.211,-238.281,-300.293
1743150857.493,852.051,811.035,-33.691,950.195
1743150857.497,999.512,999.512,-437.012,999.512
1743150857.500,203.613,205.566,-728.027,10.742
1743150857.504,-1000.000,-1000.000,-311.035,-1000.000
1743150857.508,-267.090,-402.832,182.617,-229.004
1743150857.512,999.512,956.055,162.109,999.512
1743150857.516,999.512,999.512,-457.031,841.309
1743150857.473,999.512,999.512,-462.891,999.512
1743150857.477,405.762,500.488,-921.387,229.492
1743150857.481,-894.043,-847.656,-870.117,-962.402
1743150857.485,-1000.000,-1000.000,-591.797,-1000.000
1743150857.489,-429.199,-491.211,-238.281,-300.293
1743150857.493,852.051,811.035,-33.691,950.195
1743150857.497,999.512,999.512,-437.012,999.512
1743150857.500,203.613,205.566,-728.027,10.742
1743150857.504,-1000.000,-1000.000,-311.035,-1000.000
1743150857.508,-267.090,-402.832,182.617,-229.004
1743150857.512,999.512,956.055,162.109,999.512
1743150857.516,999.512,999.512,-457.031,841.309
1743150857.517,-115.234,-43.457,-767.578,-439.941
1743150857.521,-1000.000,-1000.000,-287.598,-1000.000
1743150857.525,-591.309,-730.957,-40.039,-381.836
1743150857.529,766.602,620.605,-310.547,935.547
1743150857.533,999.512,999.512,-741.211,999.512
1743150857.537,83.496,97.168,-850.098,-181.152
1743150857.541,-1000.000,-1000.000,-197.754,-1000.000
1743150857.544,-216.797,-214.355,671.387,-164.062
1743150857.548,999.512,999.512,529.785,999.512
1743150857.552,999.512,999.512,-330.566,930.176
1743150857.556,-8.301,50.293,-504.395,-266.602
1743150857.560,-1000.000,-1000.000,23.926,-1000.000
1743150857.564,-575.684,-734.375,539.062,-404.785
1743150857.568,771.973,601.074,735.840,875.000
1743150857.572,999.512,999.512,223.145,999.512
1743150857.576,151.367,182.617,-197.754,116.699
1743150857.580,-1000.000,-1000.000,-15.137,-1000.000
1743150857.584,-1000.000,-1000.000,239.746,-856.934
1743150857.588,95.703,64.941,481.934,452.148
1743150857.591,999.512,999.512,56.641,999.512
1743150857.595,159.668,154.297,-502.441,91.797
1743150857.599,-1000.000,-1000.000,-213.379,-1000.000
1743150857.603,-1000.000,-1000.000,397.949,-826.660
1743150857.607,190.918,72.266,752.930,480.469
1743150857.607,999.512,999.512,361.328,999.512
1743150857.611,208.496,305.176,-193.359,150.879
1743150857.615,-1000.000,-960.938,-36.133,-1000.000
1743150857.619,-1000.000,-1000.000,407.227,-1000.000
1743150857.623,-41.016,-74.219,733.398,145.996
1743150857.627,999.512,999.512,474.609,999.512
1743150857.631,714.844,969.727,-68.359,401.367
1743150857.634,-642.578,-257.812,7.324,-879.395
1743150857.638,-1000.000,-1000.000,309.082,-1000.000
1743150857.642,-1000.000,-1000.000,413.086,-855.469
1743150857.646,158.203,48.340,239.746,560.547
1743150857.650,999.512,999.512,-152.344,884.766
1743150857.654,-192.871,-51.270,-264.648,-630.859
1743150857.658,-1000.000,-1000.000,203.613,-1000.000
1743150857.662,-216.309,-246.582,848.633,-61.523
1743150857.666,999.512,999.512,681.641,999.512
1743150857.670,421.387,507.812,-203.613,263.184
1743150857.674,-928.223,-878.906,-308.105,-983.398
1743150857.678,-1000.000,-1000.000,359.375,-1000.000
1743150857.681,-231.445,-225.098,650.391,-228.027
1743150857.685,999.512,999.512,577.148,999.512
1743150857.689,748.047,862.305,-35.645,544.922
1743150857.693,-601.074,-454.590,-478.027,-803.711
1743150857.697,-1000.000,-1000.000,-73.730,-1000.000
1743150857.697,-662.598,-783.203,330.566,-453.613
1743150857.701,636.719,480.957,336.914,858.887
1743150857.705,999.512,999.512,-140.625,999.512
1743150857.709,170.410,183.594,-433.594,-57.617
1743150857.713,-1000.000,-1000.000,-104.492,-1000.000
1743150857.717,-234.863,-227.539,491.211,-226.074
1743150857.721,999.512,999.512,629.883,999.512
1743150857.724,962.891,999.512,-199.219,819.336
1743150857.728,-242.676,-129.395,-877.441,-479.492
1743150857.732,-1000.000,-1000.000,-433.594,-1000.000
1743150857.736,-555.176,-633.301,233.398,-401.855
1743150857.740,765.625,693.848,296.875,891.602
1743150857.697,-662.598,-783.203,330.566,-453.613
1743150857.701,636.719,480.957,336.914,858.887
1743150857.705,999.512,999.512,-140.625,999.512
1743150857.709,170.410,183.594,-433.594,-57.617
1743150857.713,-1000.000,-1000.000,-104.492,-1000.000
1743150857.717,-234.863,-227.539,491.211,-226.074
1743150857.721,999.512,999.512,629.883,999.512
1743150857.724,962.891,999.512,-199.219,819.336
1743150857.728,-242.676,-129.395,-877.441,-479.492
1743150857.732,-1000.000,-1000.000,-433.594,-1000.000
1743150857.736,-555.176,-633.301,233.398,-401.855
1743150857.740,765.625,693.848,296.875,891.602
1743150857.789,-497.559,-285.645,-291.504,-907.227
1743150857.793,-985.352,-1000.000,257.812,-751.465
1743150857.797,522.949,362.793,874.023,727.539
1743150857.801,999.512,999.512,417.969,999.512
1743150857.805,191.895,265.625,-250.000,158.691
1743150857.809,-996.582,-966.309,-40.039,-1000.000
1743150857.813,-1000.000,-1000.000,442.383,-1000.000
1743150857.816,-57.617,-94.238,712.402,120.117
1743150857.820,999.512,999.512,298.828,999.512
1743150857.824,391.113,462.402,-406.738,233.398
1743150857.828,-917.969,-882.812,-390.137,-982.422
1743150857.832,-1000.000,-1000.000,119.141,-1000.000
1743150857.789,-497.559,-285.645,-291.504,-907.227
1743150857.793,-985.352,-1000.000,257.812,-751.465
1743150857.797,522.949,362.793,874.023,727.539
1743150857.801,999.512,999.512,417.969,999.512
1743150857.805,191.895,265.625,-250.000,158.691
1743150857.809,-996.582,-966.309,-40.039,-1000.000
1743150857.813,-1000.000,-1000.000,442.383,-1000.000
1743150857.816,-57.617,-94.238,712.402,120.117
1743150857.820,999.512,999.512,298.828,999.512
1743150857.824,391.113,462.402,-406.738,233.398
1743150857.828,-917.969,-882.812,-390.137,-982.422
1743150857.832,-1000.000,-1000.000,119.141,-1000.000
1743150857.849,-201.172,-186.523,660.645,-154.785
1743150857.853,999.512,991.211,615.234,999.512
1743150857.857,999.512,999.512,2.930,783.203
1743150857.861,-187.988,-73.242,-229.492,-531.738
1743150857.865,-1000.000,-1000.000,97.168,-1000.000
1743150857.869,-209.473,-207.031,662.109,-201.660
1743150857.873,999.512,999.512,607.422,999.512
1743150857.876,842.285,925.293,-170.898,633.301
1743150857.880,-478.516,-333.496,-487.305,-731.934
1743150857.884,-1000.000,-1000.000,34.180,-1000.000
1743150857.888,-258.301,-333.984,690.430,-224.609
1743150857.892,975.586,930.664,629.883,999.512
1743150857.849,-201.172,-186.523,660.645,-154.785
1743150857.853,999.512,991.211,615.234,999.512
1743150857.857,999.512,999.512,2.930,783.203
1743150857.861,-187.988,-73.242,-229.492,-531.738
1743150857.865,-1000.000,-1000.000,97.168,-1000.000
1743150857.869,-209.473,-207.031,662.109,-201.660
1743150857.873,999.512,999.512,607.422,999.512
1743150857.876,842.285,925.293,-170.898,633.301
1743150857.880,-478.516,-333.496,-487.305,-731.934
1743150857.884,-1000.000,-1000.000,34.180,-1000.000
1743150857.888,-258.301,-333.984,690.430,-224.609
1743150857.892,975.586,930.664,629.883,999.512
1743150857.892,999.512,999.512,-98.633,870.605
1743150857.896,-130.371,-29.785,-542.480,-408.203
1743150857.900,-1000.000,-1000.000,-198.730,-1000.000
1743150857.904,-572.754,-690.918,325.195,-379.883
1743150857.908,749.512,620.117,595.703,871.582
1743150857.912,999.512,999.512,288.086,999.512
1743150857.916,187.012,374.512,-97.656,132.324
1743150857.919,-972.656,-887.695,185.059,-1000.000
1743150857.923,-1000.000,-1000.000,444.824,-1000.000
1743150857.927,-260.254,-247.559,519.531,-164.551
1743150857.931,999.512,999.512,257.812,999.512
1743150857.935,381.348,496.582,-178.223,249.023
1743150858.408,869.141,822.266,381.836,945.312
1743150858.412,999.512,999.512,-24.414,999.512
1743150858.416,212.891,208.496,-294.434,80.566
1743150858.420,-1000.000,-1000.000,83.496,-1000.000
1743150858.424,-382.324,-441.406,593.750,-281.250
1743150858.428,961.914,923.828,805.664,999.512
1743150858.432,999.512,999.512,98.145,992.676
1743150858.435,-10.742,49.316,-652.344,-181.641
1743150858.439,-1000.000,-1000.000,-302.734,-1000.000
1743150858.443,-628.906,-778.809,431.152,-440.430
1743150858.447,720.703,554.688,665.039,848.633
1743150858.451,999.512,999.512,155.273,999.512
1743150857.892,999.512,999.512,-98.633,870.605
1743150857.896,-130.371,-29.785,-542.480,-408.203
1743150857.900,-1000.000,-1000.000,-198.730,-1000.000
1743150857.904,-572.754,-690.918,325.195,-379.883
1743150857.908,749.512,620.117,595.703,871.582
1743150857.912,999.512,999.512,288.086,999.512
1743150857.916,187.012,374.512,-97.656,132.324
1743150857.919,-972.656,-887.695,185.059,-1000.000
1743150857.923,-1000.000,-1000.000,444.824,-1000.000
1743150857.927,-260.254,-247.559,519.531,-164.551
1743150857.931,999.512,999.512,257.812,999.512
1743150857.935,381.348,496.582,-178.223,249.023
1743150857.892,999.512,999.512,-98.633,870.605
1743150857.896,-130.371,-29.785,-542.480,-408.203
1743150857.900,-1000.000,-1000.000,-198.730,-1000.000
1743150857.904,-572.754,-690.918,325.195,-379.883
1743150857.908,749.512,620.117,595.703,871.582
1743150857.912,999.512,999.512,288.086,999.512
1743150857.916,187.012,374.512,-97.656,132.324
1743150857.919,-972.656,-887.695,185.059,-1000.000
1743150857.923,-1000.000,-1000.000,444.824,-1000.000
1743150857.927,-260.254,-247.559,519.531,-164.551
1743150857.931,999.512,999.512,257.812,999.512
1743150857.935,381.348,496.582,-178.223,249.023
1743150857.939,-1000.000,-986.816,-81.055,-1000.000
1743150857.943,-910.156,-1000.000,423.828,-678.223
1743150857.947,451.172,332.031,836.914,695.801
1743150857.951,999.512,999.512,406.250,999.512
1743150857.955,167.480,168.457,-225.586,183.105
1743150857.959,-1000.000,-1000.000,85.938,-1000.000
1743150857.963,-903.320,-907.715,709.473,-706.543
1743150857.966,416.992,408.203,702.637,661.621
1743150857.970,999.512,999.512,115.234,999.512
1743150857.974,127.930,122.070,-497.070,134.277
1743150857.978,-1000.000,-1000.000,-407.227,-1000.000
1743150857.982,-1000.000,-1000.000,292.480,-1000.000
1743150857.939,-1000.000,-986.816,-81.055,-1000.000
1743150857.943,-910.156,-1000.000,423.828,-678.223
1743150857.947,451.172,332.031,836.914,695.801
1743150857.951,999.512,999.512,406.250,999.512
1743150857.955,167.480,168.457,-225.586,183.105
1743150857.959,-1000.000,-1000.000,85.938,-1000.000
1743150857.963,-903.320,-907.715,709.473,-706.543
1743150857.966,416.992,408.203,702.637,661.621
1743150857.970,999.512,999.512,115.234,999.512
1743150857.974,127.930,122.070,-497.070,134.277
1743150857.978,-1000.000,-1000.000,-407.227,-1000.000
1743150857.982,-1000.000,-1000.000,292.480,-1000.000
1743150857.982,-121.094,-220.215,706.543,95.215
1743150857.986,999.512,999.512,323.730,999.512
1743150857.990,535.156,700.684,-265.137,347.168
1743150857.994,-845.215,-678.711,-266.113,-956.055
1743150857.998,-1000.000,-1000.000,191.406,-1000.000
1743150858.002,-106.934,-152.344,804.688,13.672
1743150858.006,999.512,999.512,593.262,999.512
1743150858.009,790.527,902.344,-227.051,584.961
1743150858.013,-535.156,-383.789,-515.137,-746.582
1743150858.017,-1000.000,-1000.000,-35.645,-1000.000
1743150858.021,-229.004,-224.609,776.855,-185.059
1743150858.025,999.512,999.512,845.215,999.512
1743150858.029,518.555,612.793,-100.586,385.742
1743150858.033,-873.535,-784.180,-614.258,-940.918
1743150858.037,-1000.000,-1000.000,59.082,-1000.000
1743150858.041,-169.922,-159.180,648.926,-163.086
1743150858.045,966.309,959.473,510.742,999.512
1743150858.049,999.512,999.512,-112.793,999.512
1743150858.053,89.844,171.387,-530.762,-104.492
1743150858.056,-1000.000,-1000.000,-391.602,-1000.000
1743150858.060,-1000.000,-1000.000,-16.113,-877.930
1743150858.064,5.859,-78.613,179.688,347.168
1743150858.068,999.512,999.512,-211.914,999.512
1743150858.072,318.848,450.195,-461.914,184.570
1743150858.073,-1000.000,-1000.000,-124.023,-1000.000
1743150858.077,-522.461,-583.984,388.672,-381.836
1743150858.081,878.906,862.793,627.441,953.125
1743150858.085,999.512,999.512,-119.629,999.512
1743150858.089,196.289,207.031,-573.730,36.621
1743150858.093,-1000.000,-1000.000,-81.543,-1000.000
1743150858.097,-527.344,-521.973,427.734,-375.488
1743150858.100,869.629,864.746,452.637,952.148
1743150858.104,999.512,999.512,-236.816,999.512
1743150858.108,27.344,99.609,-784.180,-105.469
1743150858.112,-1000.000,-1000.000,-455.078,-1000.000
1743150858.116,-1000.000,-1000.000,103.516,-899.414
1743150858.073,-1000.000,-1000.000,-124.023,-1000.000
1743150858.077,-522.461,-583.984,388.672,-381.836
1743150858.081,878.906,862.793,627.441,953.125
1743150858.085,999.512,999.512,-119.629,999.512
1743150858.089,196.289,207.031,-573.730,36.621
1743150858.093,-1000.000,-1000.000,-81.543,-1000.000
1743150858.097,-527.344,-521.973,427.734,-375.488
1743150858.100,869.629,864.746,452.637,952.148
1743150858.104,999.512,999.512,-236.816,999.512
1743150858.108,27.344,99.609,-784.180,-105.469
1743150858.112,-1000.000,-1000.000,-455.078,-1000.000
1743150858.116,-1000.000,-1000.000,103.516,-899.414
1743150858.119,54.199,-29.785,357.910,312.988
1743150858.123,999.512,999.512,15.625,999.512
1743150858.127,381.836,501.465,-386.719,209.473
1743150858.131,-919.434,-848.633,-253.418,-1000.000
1743150858.135,-1000.000,-1000.000,86.914,-1000.000
1743150858.139,-144.531,-187.012,545.410,12.207
1743150858.143,999.512,999.512,259.277,999.512
1743150858.146,313.965,389.160,-478.027,192.383
1743150858.150,-999.512,-958.008,-466.309,-1000.000
1743150858.154,-1000.000,-1000.000,136.719,-1000.000
1743150858.158,-16.113,-99.609,646.973,153.809
1743150858.162,999.512,999.512,346.680,999.512
1743150858.162,398.438,497.070,-255.371,225.586
1743150858.166,-909.668,-863.281,-312.012,-987.305
1743150858.170,-1000.000,-1000.000,194.824,-1000.000
1743150858.174,-171.875,-164.551,629.395,-89.355
1743150858.178,960.938,959.473,386.230,999.512
1743150858.182,999.512,999.512,-68.848,999.512
1743150858.186,159.668,160.156,-178.711,-55.176
1743150858.189,-1000.000,-1000.000,102.051,-1000.000
1743150858.193,-983.887,-983.887,389.160,-959.961
1743150858.197,-975.586,-975.098,180.176,-992.676
1743150858.201,-993.164,-996.094,-315.430,-980.957
1743150858.205,-959.961,-955.078,-471.680,-977.051
1743150858.162,398.438,497.070,-255.371,225.586
1743150858.166,-909.668,-863.281,-312.012,-987.305
1743150858.170,-1000.000,-1000.000,194.824,-1000.000
1743150858.174,-171.875,-164.551,629.395,-89.355
1743150858.178,960.938,959.473,386.230,999.512
1743150858.182,999.512,999.512,-68.848,999.512
1743150858.186,159.668,160.156,-178.711,-55.176
1743150858.189,-1000.000,-1000.000,102.051,-1000.000
1743150858.193,-983.887,-983.887,389.160,-959.961
1743150858.197,-975.586,-975.098,180.176,-992.676
1743150858.201,-993.164,-996.094,-315.430,-980.957
1743150858.205,-959.961,-955.078,-471.680,-977.051
1743150858.224,-1000.000,-1000.000,-98.633,-1000.000
1743150858.228,7.812,-35.156,334.473,118.164
1743150858.232,999.512,999.512,377.441,999.512
1743150858.236,999.512,999.512,-267.090,999.512
1743150858.240,238.770,236.328,-645.020,176.270
1743150858.244,-1000.000,-1000.000,-90.332,-1000.000
1743150858.248,-227.539,-217.773,522.461,-233.398
1743150858.251,999.512,999.512,435.059,999.512
1743150858.255,999.512,999.512,-237.305,847.168
1743150858.259,-114.746,32.227,-532.715,-424.805
1743150858.263,-1000.000,-1000.000,-99.609,-1000.000
1743150858.267,-477.051,-610.352,415.527,-319.824
1743150858.224,-1000.000,-1000.000,-98.633,-1000.000
1743150858.228,7.812,-35.156,334.473,118.164
1743150858.232,999.512,999.512,377.441,999.512
1743150858.236,999.512,999.512,-267.090,999.512
1743150858.240,238.770,236.328,-645.020,176.270
1743150858.244,-1000.000,-1000.000,-90.332,-1000.000
1743150858.248,-227.539,-217.773,522.461,-233.398
1743150858.251,999.512,999.512,435.059,999.512
1743150858.255,999.512,999.512,-237.305,847.168
1743150858.259,-114.746,32.227,-532.715,-424.805
1743150858.263,-1000.000,-1000.000,-99.609,-1000.000
1743150858.267,-477.051,-610.352,415.527,-319.824
1743150858.267,836.426,738.770,638.184,903.320
1743150858.271,999.512,999.512,145.996,999.512
1743150858.275,169.922,206.543,-328.125,184.082
1743150858.279,-1000.000,-1000.000,-130.371,-1000.000
1743150858.283,-989.258,-1000.000,302.246,-805.664
1743150858.287,250.977,186.035,719.727,532.715
1743150858.291,999.512,999.512,275.391,999.512
1743150858.294,274.902,405.762,-397.461,167.480
1743150858.298,-948.730,-883.301,-399.902,-1000.000
1743150858.302,-1000.000,-1000.000,-29.297,-1000.000
1743150858.306,-223.145,-234.375,350.586,-16.602
1743150858.310,999.512,999.512,134.277,999.512
1743150858.267,836.426,738.770,638.184,903.320
1743150858.271,999.512,999.512,145.996,999.512
1743150858.275,169.922,206.543,-328.125,184.082
1743150858.279,-1000.000,-1000.000,-130.371,-1000.000
1743150858.283,-989.258,-1000.000,302.246,-805.664
1743150858.287,250.977,186.035,719.727,532.715
1743150858.291,999.512,999.512,275.391,999.512
1743150858.294,274.902,405.762,-397.461,167.480
1743150858.298,-948.730,-883.301,-399.902,-1000.000
1743150858.302,-1000.000,-1000.000,-29.297,-1000.000
1743150858.306,-223.145,-234.375,350.586,-16.602
1743150858.310,999.512,999.512,134.277,999.512
1743150858.314,184.082,196.777,-501.465,178.223
1743150858.318,-1000.000,-1000.000,-523.926,-1000.000
1743150858.322,-1000.000,-1000.000,141.113,-973.633
1743150858.326,64.453,-7.812,604.004,277.344
1743150858.330,999.512,999.512,250.977,999.512
1743150858.334,999.512,999.512,-250.000,854.004
1743150858.338,32.227,159.180,-148.438,-323.242
1743150858.341,-1000.000,-1000.000,110.352,-1000.000
1743150858.345,-1000.000,-1000.000,384.766,-973.145
1743150858.349,-13.184,-114.746,222.168,335.449
1743150858.353,999.512,999.512,-274.902,962.891
1743150858.357,-147.949,1.465,-402.344,-519.043
1743150858.314,184.082,196.777,-501.465,178.223
1743150858.318,-1000.000,-1000.000,-523.926,-1000.000
1743150858.322,-1000.000,-1000.000,141.113,-973.633
1743150858.326,64.453,-7.812,604.004,277.344
1743150858.330,999.512,999.512,250.977,999.512
1743150858.334,999.512,999.512,-250.000,854.004
1743150858.338,32.227,159.180,-148.438,-323.242
1743150858.341,-1000.000,-1000.000,110.352,-1000.000
1743150858.345,-1000.000,-1000.000,384.766,-973.145
1743150858.349,-13.184,-114.746,222.168,335.449
1743150858.353,999.512,999.512,-274.902,962.891
1743150858.357,-147.949,1.465,-402.344,-519.043
1743150858.358,-1000.000,-1000.000,6.836,-1000.000
1743150858.362,-214.355,-212.891,522.461,-189.941
1743150858.366,999.512,999.512,595.215,999.512
1743150858.370,812.500,925.293,-111.328,588.379
1743150858.374,-533.691,-354.492,-387.207,-777.344
1743150858.378,-1000.000,-1000.000,151.855,-1000.000
1743150858.382,-229.004,-229.492,608.887,-216.797
1743150858.385,999.512,999.512,536.621,999.512
1743150858.389,440.430,483.398,-302.734,326.660
1743150858.393,-904.785,-875.488,-682.129,-963.867
1743150858.397,-1000.000,-1000.000,-66.895,-1000.000
1743150858.401,-395.508,-475.098,346.191,-278.809
1743150858.358,-1000.000,-1000.000,6.836,-1000.000
1743150858.362,-214.355,-212.891,522.461,-189.941
1743150858.366,999.512,999.512,595.215,999.512
1743150858.370,812.500,925.293,-111.328,588.379
1743150858.374,-533.691,-354.492,-387.207,-777.344
1743150858.378,-1000.000,-1000.000,151.855,-1000.000
1743150858.382,-229.004,-229.492,608.887,-216.797
1743150858.385,999.512,999.512,536.621,999.512
1743150858.389,440.430,483.398,-302.734,326.660
1743150858.393,-904.785,-875.488,-682.129,-963.867
1743150858.397,-1000.000,-1000.000,-66.895,-1000.000
1743150858.401,-395.508,-475.098,346.191,-278.809
1743150858.447,163.086,152.344,-355.957,187.988
1743150858.451,-1000.000,-1000.000,-95.703,-1000.000
1743150858.455,-967.285,-1000.000,438.477,-753.418
1743150858.459,287.598,166.504,686.523,578.125
1743150858.463,999.512,999.512,282.715,999.512
1743150858.467,692.383,905.273,-147.461,413.574
1743150858.471,-617.676,-285.156,25.879,-912.598
1743150858.474,-1000.000,-1000.000,446.289,-1000.000
1743150858.478,-101.562,-229.980,550.293,145.020
1743150858.482,999.512,999.512,127.441,999.512
1743150858.486,330.566,426.270,-171.875,185.059
1743150858.490,-958.496,-929.199,-100.586,-1000.000
1743150858.494,-1000.000,-1000.000,228.027,-1000.000
1743150858.498,-250.488,-245.605,570.312,-104.004
1743150858.502,999.512,999.512,387.207,999.512
1743150858.506,495.117,576.660,-211.426,313.965
1743150858.510,-940.430,-880.859,-417.480,-1000.000
1743150858.514,-1000.000,-1000.000,216.797,-984.863
1743150858.518,109.863,119.141,770.996,286.621
1743150858.521,999.512,999.512,235.352,999.512
1743150858.525,321.777,355.469,-463.379,212.402
1743150858.529,-936.035,-916.504,-386.719,-973.145
1743150858.533,-1000.000,-1000.000,100.098,-1000.000
1743150858.537,-189.453,-205.566,433.105,-201.660
1743150858.494,-1000.000,-1000.000,228.027,-1000.000
1743150858.498,-250.488,-245.605,570.312,-104.004
1743150858.502,999.512,999.512,387.207,999.512
1743150858.506,495.117,576.660,-211.426,313.965
1743150858.510,-940.430,-880.859,-417.480,-1000.000
1743150858.514,-1000.000,-1000.000,216.797,-984.863
1743150858.518,109.863,119.141,770.996,286.621
1743150858.521,999.512,999.512,235.352,999.512
1743150858.525,321.777,355.469,-463.379,212.402
1743150858.529,-936.035,-916.504,-386.719,-973.145
1743150858.533,-1000.000,-1000.000,100.098,-1000.000
1743150858.537,-189.453,-205.566,433.105,-201.660
1743150858.538,979.004,960.938,416.016,999.512
1743150858.542,999.512,999.512,-66.406,954.590
1743150858.546,22.949,126.465,-274.414,-269.043
1743150858.550,-1000.000,-1000.000,120.117,-1000.000
1743150858.554,-431.641,-604.004,519.531,-254.883
1743150858.558,822.754,727.539,649.414,927.246
1743150858.562,999.512,999.512,187.012,999.512
1743150858.565,165.039,167.480,-226.562,-54.199
1743150858.569,-1000.000,-1000.000,23.926,-1000.000
1743150858.573,-802.246,-959.473,414.062,-529.785
1743150858.577,555.176,322.754,542.969,793.945
1743150858.581,999.512,999.512,138.184,999.512
1743150858.538,979.004,960.938,416.016,999.512
1743150858.542,999.512,999.512,-66.406,954.590
1743150858.546,22.949,126.465,-274.414,-269.043
1743150858.550,-1000.000,-1000.000,120.117,-1000.000
1743150858.554,-431.641,-604.004,519.531,-254.883
1743150858.558,822.754,727.539,649.414,927.246
1743150858.562,999.512,999.512,187.012,999.512
1743150858.565,165.039,167.480,-226.562,-54.199
1743150858.569,-1000.000,-1000.000,23.926,-1000.000
1743150858.573,-802.246,-959.473,414.062,-529.785
1743150858.577,555.176,322.754,542.969,793.945
1743150858.581,999.512,999.512,138.184,999.512
1743150858.597,165.527,150.879,-236.328,147.461
1743150858.601,-1000.000,-1000.000,-53.711,-1000.000
1743150858.605,-927.246,-1000.000,432.617,-684.570
1743150858.609,379.395,173.340,644.043,677.246
1743150858.613,999.512,999.512,76.172,999.512
1743150858.617,123.535,301.270,-225.586,100.098
1743150858.621,-998.535,-937.988,93.262,-1000.000
1743150858.624,-1000.000,-1000.000,275.391,-1000.000
1743150858.628,-261.719,-251.953,440.430,-67.383
1743150858.632,999.512,999.512,166.504,999.512
1743150858.636,276.855,387.695,-248.047,175.781
1743150858.640,-1000.000,-951.172,-88.379,-1000.000
1743150858.597,165.527,150.879,-236.328,147.461
1743150858.601,-1000.000,-1000.000,-53.711,-1000.000
1743150858.605,-927.246,-1000.000,432.617,-684.570
1743150858.609,379.395,173.340,644.043,677.246
1743150858.613,999.512,999.512,76.172,999.512
1743150858.617,123.535,301.270,-225.586,100.098
1743150858.621,-998.535,-937.988,93.262,-1000.000
1743150858.624,-1000.000,-1000.000,275.391,-1000.000
1743150858.628,-261.719,-251.953,440.430,-67.383
1743150858.632,999.512,999.512,166.504,999.512
1743150858.636,276.855,387.695,-248.047,175.781
1743150858.640,-1000.000,-951.172,-88.379,-1000.000
1743150858.643,-1000.000,-1000.000,263.672,-1000.000
1743150858.647,-149.902,-218.262,454.590,58.105
1743150858.651,999.512,999.512,136.719,999.512
1743150858.655,196.777,295.898,-549.316,189.453
1743150858.659,-1000.000,-1000.000,-643.066,-1000.000
1743150858.663,-967.285,-1000.000,5.859,-784.668
1743150858.667,304.199,233.398,557.617,561.523
1743150858.670,999.512,999.512,178.223,999.512
1743150858.674,125.488,143.066,-547.363,141.113
1743150858.678,-1000.000,-999.023,-474.609,-1000.000
1743150858.682,-1000.000,-1000.000,143.555,-1000.000
1743150858.686,-127.441,-198.730,563.477,28.320
1743150858.689,999.512,996.582,317.871,999.512
1743150858.693,999.512,999.512,-211.914,762.695
1743150858.697,-144.531,-37.109,-210.449,-519.043
1743150858.701,-1000.000,-1000.000,157.715,-1000.000
1743150858.705,-183.105,-186.035,516.602,-144.043
1743150858.709,999.512,999.512,477.051,999.512
1743150858.713,999.512,999.512,-76.172,885.742
1743150858.716,-106.934,-6.348,-416.992,-381.836
1743150858.720,-1000.000,-1000.000,-48.340,-1000.000
1743150858.724,-258.301,-378.418,522.461,-207.520
1743150858.728,989.258,932.617,492.188,999.512
1743150858.732,999.512,999.512,-133.789,891.113
1743150858.689,999.512,996.582,317.871,999.512
1743150858.693,999.512,999.512,-211.914,762.695
1743150858.697,-144.531,-37.109,-210.449,-519.043
1743150858.701,-1000.000,-1000.000,157.715,-1000.000
1743150858.705,-183.105,-186.035,516.602,-144.043
1743150858.709,999.512,999.512,477.051,999.512
1743150858.713,999.512,999.512,-76.172,885.742
1743150858.716,-106.934,-6.348,-416.992,-381.836
1743150858.720,-1000.000,-1000.000,-48.340,-1000.000
1743150858.724,-258.301,-378.418,522.461,-207.520
1743150858.728,989.258,932.617,492.188,999.512
1743150858.732,999.512,999.512,-133.789,891.113
1743150858.732,-106.934,-10.742,-480.957,-385.742
1743150858.736,-1000.000,-1000.000,5.859,-1000.000
1743150858.740,-317.383,-410.645,475.586,-206.543
1743150858.744,924.805,888.672,285.645,995.117
1743150858.748,999.512,999.512,-222.168,999.512
1743150858.752,187.500,215.332,-340.332,-79.102
1743150858.756,-1000.000,-1000.000,103.027,-1000.000
1743150858.759,-476.074,-526.367,501.465,-320.801
1743150858.763,900.879,866.699,327.637,982.422
1743150858.767,999.512,999.512,-261.719,999.512
1743150858.771,11.719,74.707,-441.895,-181.152
1743150858.775,-1000.000,-1000.000,-86.914,-1000.000
1743150858.779,-990.723,-1000.000,332.031,-751.953
1743150858.783,218.262,106.445,540.039,540.527
1743150858.787,999.512,999.512,121.582,999.512
1743150858.791,184.082,186.035,-406.738,138.184
1743150858.795,-1000.000,-1000.000,-245.605,-1000.000
1743150858.799,-757.812,-805.176,291.016,-565.918
1743150858.803,619.141,558.594,714.355,813.965
1743150858.806,999.512,999.512,121.582,999.512
1743150858.810,121.094,120.117,-707.031,30.762
1743150858.814,-994.629,-995.605,-507.812,-1000.000
1743150858.818,-1000.000,-1000.000,-10.254,-1000.000
1743150858.822,-263.672,-267.090,113.281,-126.465
1743150858.822,999.512,999.512,-209.961,999.512
1743150858.826,315.430,418.457,-676.270,205.078
1743150858.830,-1000.000,-958.984,-574.219,-1000.000
1743150858.834,-1000.000,-1000.000,-57.129,-995.605
1743150858.838,33.691,-50.781,309.082,188.965
1743150858.842,996.094,960.449,187.500,999.512
1743150858.846,999.512,999.512,-202.148,899.414
1743150858.849,136.719,235.840,-301.758,-246.094
1743150858.853,-1000.000,-1000.000,1.953,-1000.000
1743150858.857,-473.145,-645.996,393.555,-308.105
1743150858.861,952.148,807.129,328.125,999.512
1743150858.865,999.512,999.512,-95.703,699.707
1743150858.822,999.512,999.512,-209.961,999.512
1743150858.826,315.430,418.457,-676.270,205.078
1743150858.830,-1000.000,-958.984,-574.219,-1000.000
1743150858.834,-1000.000,-1000.000,-57.129,-995.605
1743150858.838,33.691,-50.781,309.082,188.965
1743150858.842,996.094,960.449,187.500,999.512
1743150858.846,999.512,999.512,-202.148,899.414
1743150858.849,136.719,235.840,-301.758,-246.094
1743150858.853,-1000.000,-1000.000,1.953,-1000.000
1743150858.857,-473.145,-645.996,393.555,-308.105
1743150858.861,952.148,807.129,328.125,999.512
1743150858.865,999.512,999.512,-95.703,699.707
1743150858.884,-281.250,-142.578,-205.566,-672.363
1743150858.888,-1000.000,-1000.000,90.820,-1000.000
1743150858.892,-353.027,-439.453,397.461,-261.230
1743150858.896,960.938,898.438,287.598,999.512
1743150858.900,999.512,999.512,-246.094,757.812
1743150858.904,-252.441,-107.910,-295.898,-581.543
1743150858.908,-1000.000,-1000.000,148.438,-1000.000
1743150858.911,-885.742,-1000.000,263.672,-624.512
1743150858.915,346.191,141.602,153.320,697.266
1743150858.919,999.512,999.512,-202.637,999.512
1743150858.923,133.301,150.391,-416.016,-85.938
1743150858.927,-1000.000,-1000.000,-85.449,-1000.000
1743150858.942,-989.746,-1000.000,248.047,-729.004
1743150858.946,263.184,119.141,284.180,587.891
1743150858.950,999.512,999.512,-71.777,999.512
1743150858.954,194.336,201.172,-473.633,91.797
1743150858.958,-1000.000,-1000.000,-353.516,-1000.000
1743150858.962,-407.715,-433.105,297.363,-309.082
1743150858.966,940.430,922.852,531.250,999.512
1743150858.969,999.512,999.512,-159.180,999.512
1743150858.973,24.902,47.363,-771.973,-136.719
1743150858.977,-1000.000,-1000.000,-483.887,-1000.000
1743150858.981,-968.750,-1000.000,156.738,-741.699
1743150858.985,258.301,118.652,424.316,550.293
1743150858.942,-989.746,-1000.000,248.047,-729.004
1743150858.946,263.184,119.141,284.180,587.891
1743150858.950,999.512,999.512,-71.777,999.512
1743150858.954,194.336,201.172,-473.633,91.797
1743150858.958,-1000.000,-1000.000,-353.516,-1000.000
1743150858.962,-407.715,-433.105,297.363,-309.082
1743150858.966,940.430,922.852,531.250,999.512
1743150858.969,999.512,999.512,-159.180,999.512
1743150858.973,24.902,47.363,-771.973,-136.719
1743150858.977,-1000.000,-1000.000,-483.887,-1000.000
1743150858.981,-968.750,-1000.000,156.738,-741.699
1743150858.985,258.301,118.652,424.316,550.293
1743150858.973,999.512,999.512,-26.855,999.512
1743150858.977,146.973,192.871,-504.395,145.508
1743150858.981,-1000.000,-1000.000,-240.723,-1000.000
1743150858.985,-1000.000,-1000.000,206.543,-878.418
1743150858.989,111.816,25.879,486.328,409.668
1743150858.993,999.512,999.512,157.715,999.512
1743150858.997,397.949,544.434,-328.613,220.215
1743150859.000,-894.043,-792.969,-284.668,-970.703
1743150859.004,-1000.000,-1000.000,-20.508,-1000.000
1743150859.008,-246.094,-234.863,370.605,-192.871
1743150859.012,999.512,999.512,186.035,999.512
1743150859.016,476.074,558.594,-387.207,303.711
1743150858.973,999.512,999.512,-26.855,999.512
1743150858.977,146.973,192.871,-504.395,145.508
1743150858.981,-1000.000,-1000.000,-240.723,-1000.000
1743150858.985,-1000.000,-1000.000,206.543,-878.418
1743150858.989,111.816,25.879,486.328,409.668
1743150858.993,999.512,999.512,157.715,999.512
1743150858.997,397.949,544.434,-328.613,220.215
1743150859.000,-894.043,-792.969,-284.668,-970.703
1743150859.004,-1000.000,-1000.000,-20.508,-1000.000
1743150859.008,-246.094,-234.863,370.605,-192.871
1743150859.012,999.512,999.512,186.035,999.512
1743150859.016,476.074,558.594,-387.207,303.711
1743150858.973,999.512,999.512,-26.855,999.512
1743150858.977,146.973,192.871,-504.395,145.508
1743150858.981,-1000.000,-1000.000,-240.723,-1000.000
1743150858.985,-1000.000,-1000.000,206.543,-878.418
1743150858.989,111.816,25.879,486.328,409.668
1743150858.993,999.512,999.512,157.715,999.512
1743150858.997,397.949,544.434,-328.613,220.215
1743150859.000,-894.043,-792.969,-284.668,-970.703
1743150859.004,-1000.000,-1000.000,-20.508,-1000.000
1743150859.008,-246.094,-234.863,370.605,-192.871
1743150859.012,999.512,999.512,186.035,999.512
1743150859.016,476.074,558.594,-387.207,303.711
1743150859.017,-915.527,-840.332,-429.199,-1000.000
1743150859.021,-1000.000,-1000.000,75.684,-1000.000
1743150859.025,-113.770,-185.547,519.531,52.246
1743150859.029,999.512,999.512,201.660,999.512
1743150859.033,614.258,814.453,-314.453,350.586
1743150859.037,-758.301,-521.484,-165.527,-948.730
1743150859.041,-1000.000,-1000.000,308.105,-1000.000
1743150859.044,-200.684,-218.750,620.605,-50.293
1743150859.048,999.512,999.512,214.355,999.512
1743150859.052,570.801,649.414,-451.172,368.164
1743150859.056,-818.359,-743.652,-393.066,-931.641
1743150859.060,-1000.000,-1000.000,145.996,-1000.000
1743150859.078,-184.082,-172.852,600.586,-171.875
1743150859.082,994.629,983.398,426.758,999.512
1743150859.086,999.512,999.512,-156.738,866.699
1743150859.090,-113.281,-18.066,-361.328,-418.945
1743150859.094,-1000.000,-1000.000,69.336,-1000.000
1743150859.098,-205.078,-205.078,711.426,-188.477
1743150859.102,999.512,999.512,609.863,999.512
1743150859.105,916.992,977.539,-229.980,735.352
1743150859.109,-356.934,-236.816,-541.992,-609.375
1743150859.113,-1000.000,-1000.000,10.254,-1000.000
1743150859.117,-269.043,-353.027,580.078,-216.309
1743150859.121,956.543,912.109,503.906,999.512
1743150859.107,999.512,999.512,-126.953,948.242
1743150859.111,-17.578,67.871,-431.641,-271.973
1743150859.115,-1000.000,-1000.000,24.902,-1000.000
1743150859.119,-511.719,-622.070,495.117,-356.934
1743150859.123,821.777,723.145,698.242,890.137
1743150859.127,999.512,999.512,273.926,999.512
1743150859.131,192.871,337.402,-237.305,140.137
1743150859.134,-972.168,-906.250,-120.117,-1000.000
1743150859.138,-1000.000,-1000.000,82.520,-1000.000
1743150859.142,-263.184,-264.648,309.570,-209.473
1743150859.146,999.512,999.512,143.066,999.512
1743150859.150,457.520,557.129,-310.547,295.898
1743150859.154,-937.500,-854.492,-268.555,-1000.000
1743150859.158,-1000.000,-1000.000,75.684,-1000.000
1743150859.162,-41.992,-140.137,411.133,204.590
1743150859.166,999.512,999.512,132.324,999.512
1743150859.170,310.547,367.676,-426.270,203.613
1743150859.174,-990.723,-959.961,-130.859,-1000.000
1743150859.178,-1000.000,-1000.000,456.055,-948.242
1743150859.181,1.953,-112.305,559.082,296.387
1743150859.185,999.512,999.512,180.664,999.512
1743150859.189,525.391,644.043,-294.434,350.098
1743150859.193,-819.824,-718.262,-210.449,-932.129
1743150859.197,-1000.000,-1000.000,240.234,-1000.000
1743150859.197,-161.621,-159.180,614.258,-17.578
1743150859.201,974.121,962.891,397.461,999.512
1743150859.205,999.512,999.512,-122.559,932.129
1743150859.209,78.125,190.430,-142.578,-238.281
1743150859.213,-1000.000,-1000.000,125.977,-1000.000
1743150859.217,-229.492,-230.469,540.527,-184.082
1743150859.221,999.512,999.512,432.617,999.512
1743150859.224,878.418,974.609,-276.855,685.547
1743150859.228,-406.738,-221.680,-627.930,-658.203
1743150859.232,-1000.000,-1000.000,-232.910,-1000.000
1743150859.236,-373.047,-486.328,350.098,-260.254
1743150859.240,915.527,847.656,356.445,999.512
1743150859.244,999.512,999.512,-211.914,920.410
1743150859.248,-71.289,15.625,-446.289,-353.027
1743150859.252,-1000.000,-1000.000,11.230,-1000.000
1743150859.256,-270.996,-360.352,415.527,-178.223
1743150859.260,928.223,903.809,500.488,956.543
1743150859.264,999.512,999.512,109.375,999.512
1743150859.268,456.055,587.402,-140.625,259.766
1743150859.271,-861.816,-733.398,-83.496,-966.797
1743150859.275,-1000.000,-1000.000,70.801,-1000.000
1743150859.279,-231.445,-291.504,233.398,-198.242
1743150859.283,999.512,999.512,-156.250,999.512
1743150859.287,218.750,318.359,-456.543,210.449
1743150859.244,999.512,999.512,-211.914,920.410
1743150859.248,-71.289,15.625,-446.289,-353.027
1743150859.252,-1000.000,-1000.000,11.230,-1000.000
1743150859.256,-270.996,-360.352,415.527,-178.223
1743150859.260,928.223,903.809,500.488,956.543
1743150859.264,999.512,999.512,109.375,999.512
1743150859.268,456.055,587.402,-140.625,259.766
1743150859.271,-861.816,-733.398,-83.496,-966.797
1743150859.275,-1000.000,-1000.000,70.801,-1000.000
1743150859.279,-231.445,-291.504,233.398,-198.242
1743150859.283,999.512,999.512,-156.250,999.512
1743150859.287,218.750,318.359,-456.543,210.449
1743150859.287,-1000.000,-1000.000,-272.949,-1000.000
1743150859.291,-890.625,-1000.000,164.062,-667.969
1743150859.295,425.781,269.043,517.090,695.801
1743150859.299,999.512,999.512,119.141,999.512
1743150859.303,131.348,131.348,-385.254,145.020
1743150859.307,-1000.000,-1000.000,-100.098,-1000.000
1743150859.311,-1000.000,-1000.000,250.977,-997.559
1743150859.314,-59.082,-101.074,184.082,232.910
1743150859.318,999.512,999.512,-390.625,999.512
1743150859.322,156.738,153.809,-963.867,12.695
1743150859.326,-1000.000,-1000.000,-615.234,-1000.000
1743150859.330,-1000.000,-1000.000,42.480,-1000.000
1743150859.348,-62.012,-188.965,252.930,131.836
1743150859.352,999.512,999.512,-66.895,999.512
1743150859.356,390.137,511.719,-439.453,202.637
1743150859.360,-918.457,-862.793,-436.035,-987.305
1743150859.364,-1000.000,-1000.000,-209.473,-1000.000
1743150859.368,-246.582,-239.746,77.148,-221.680
1743150859.372,999.512,999.512,-83.008,999.512
1743150859.375,382.812,470.703,-665.039,237.305
1743150859.379,-950.684,-902.832,-741.699,-1000.000
1743150859.383,-1000.000,-1000.000,-243.164,-1000.000
1743150859.387,-249.023,-234.863,276.855,-169.922
1743150859.391,999.512,999.512,-22.461,999.512
1743150859.348,-62.012,-188.965,252.930,131.836
1743150859.352,999.512,999.512,-66.895,999.512
1743150859.356,390.137,511.719,-439.453,202.637
1743150859.360,-918.457,-862.793,-436.035,-987.305
1743150859.364,-1000.000,-1000.000,-209.473,-1000.000
1743150859.368,-246.582,-239.746,77.148,-221.680
1743150859.372,999.512,999.512,-83.008,999.512
1743150859.375,382.812,470.703,-665.039,237.305
1743150859.379,-950.684,-902.832,-741.699,-1000.000
1743150859.383,-1000.000,-1000.000,-243.164,-1000.000
1743150859.387,-249.023,-234.863,276.855,-169.922
1743150859.391,999.512,999.512,-22.461,999.512
1743150859.392,570.312,669.922,-707.031,370.117
1743150859.396,-825.195,-708.984,-710.938,-938.965
1743150859.400,-1000.000,-1000.000,-249.512,-1000.000
1743150859.404,-165.039,-237.793,133.301,-182.129
1743150859.408,958.008,932.617,152.344,982.422
1743150859.412,999.512,999.512,-152.344,999.512
1743150859.416,154.785,151.855,-393.066,-15.137
1743150859.419,-1000.000,-1000.000,-355.957,-1000.000
1743150859.423,-955.078,-935.547,-240.723,-1000.000
1743150859.427,-1000.000,-1000.000,-115.234,-719.727
1743150859.431,83.984,-69.336,-272.461,528.809
1743150859.435,999.512,999.512,-317.871,999.512
1743150859.392,570.312,669.922,-707.031,370.117
1743150859.396,-825.195,-708.984,-710.938,-938.965
1743150859.400,-1000.000,-1000.000,-249.512,-1000.000
1743150859.404,-165.039,-237.793,133.301,-182.129
1743150859.408,958.008,932.617,152.344,982.422
1743150859.412,999.512,999.512,-152.344,999.512
1743150859.416,154.785,151.855,-393.066,-15.137
1743150859.419,-1000.000,-1000.000,-355.957,-1000.000
1743150859.423,-955.078,-935.547,-240.723,-1000.000
1743150859.427,-1000.000,-1000.000,-115.234,-719.727
1743150859.431,83.984,-69.336,-272.461,528.809
1743150859.435,999.512,999.512,-317.871,999.512
1743150859.439,928.711,944.824,103.027,934.082
1743150859.443,892.090,883.301,552.246,897.949
1743150859.447,999.512,999.512,506.836,999.512
1743150859.451,653.320,664.062,16.602,518.555
1743150859.455,-767.578,-766.602,-345.703,-845.703
1743150859.459,-1000.000,-1000.000,142.578,-1000.000
1743150859.463,-1000.000,-1000.000,610.352,-838.867
1743150859.466,36.621,-80.566,449.707,444.336
1743150859.470,999.512,999.512,-18.555,999.512
1743150859.474,15.137,117.188,-437.500,-170.898
1743150859.478,-1000.000,-1000.000,-318.359,-1000.000
1743150859.482,-1000.000,-1000.000,-6.348,-1000.000
1743150859.439,928.711,944.824,103.027,934.082
1743150859.443,892.090,883.301,552.246,897.949
1743150859.447,999.512,999.512,506.836,999.512
1743150859.451,653.320,664.062,16.602,518.555
1743150859.455,-767.578,-766.602,-345.703,-845.703
1743150859.459,-1000.000,-1000.000,142.578,-1000.000
1743150859.463,-1000.000,-1000.000,610.352,-838.867
1743150859.466,36.621,-80.566,449.707,444.336
1743150859.470,999.512,999.512,-18.555,999.512
1743150859.474,15.137,117.188,-437.500,-170.898
1743150859.478,-1000.000,-1000.000,-318.359,-1000.000
1743150859.482,-1000.000,-1000.000,-6.348,-1000.000
1743150859.482,-255.371,-250.977,102.051,-30.762
1743150859.486,999.512,999.512,-210.449,999.512
1743150859.490,249.023,378.418,-459.473,107.422
1743150859.494,-987.305,-912.598,-243.164,-1000.000
1743150859.498,-1000.000,-1000.000,-36.133,-1000.000
1743150859.502,-42.480,-83.984,409.180,122.559
1743150859.506,999.512,999.512,368.652,999.512
1743150859.509,652.344,748.535,-210.449,411.621
1743150859.513,-691.895,-585.449,-295.410,-891.602
1743150859.517,-1000.000,-1000.000,154.297,-1000.000
1743150859.521,-230.957,-229.004,574.219,-126.465
1743150859.525,999.512,999.512,262.207,999.512
1743150859.482,-255.371,-250.977,102.051,-30.762
1743150859.486,999.512,999.512,-210.449,999.512
1743150859.490,249.023,378.418,-459.473,107.422
1743150859.494,-987.305,-912.598,-243.164,-1000.000
1743150859.498,-1000.000,-1000.000,-36.133,-1000.000
1743150859.502,-42.480,-83.984,409.180,122.559
1743150859.506,999.512,999.512,368.652,999.512
1743150859.509,652.344,748.535,-210.449,411.621
1743150859.513,-691.895,-585.449,-295.410,-891.602
1743150859.517,-1000.000,-1000.000,154.297,-1000.000
1743150859.521,-230.957,-229.004,574.219,-126.465
1743150859.525,999.512,999.512,262.207,999.512
1743150859.529,401.855,475.098,-256.348,248.535
1743150859.533,-958.984,-906.250,-205.566,-1000.000
1743150859.537,-1000.000,-1000.000,382.324,-1000.000
1743150859.541,-75.195,-148.438,852.051,79.590
1743150859.545,999.512,999.512,361.816,999.512
1743150859.549,846.191,999.512,-320.801,571.777
1743150859.553,-513.184,-260.742,-236.816,-799.316
1743150859.556,-1000.000,-1000.000,59.082,-1000.000
1743150859.560,-1000.000,-1000.000,190.918,-1000.000
1743150859.564,-328.613,-400.391,29.297,-215.820
1743150859.568,999.512,968.262,-238.281,999.512
1743150859.572,966.309,981.445,-248.047,949.219
1743150859.572,936.523,933.594,117.188,943.848
1743150859.576,907.715,907.715,346.680,908.203
1743150859.580,999.512,999.512,217.773,999.512
1743150859.584,261.719,326.172,-149.414,219.727
1743150859.588,-965.332,-940.430,-326.660,-987.305
1743150859.592,-1000.000,-1000.000,282.227,-1000.000
1743150859.596,-577.148,-592.773,702.148,-409.668
1743150859.599,899.902,847.656,489.746,999.512
1743150859.603,929.199,999.512,-79.102,722.656
1743150859.607,-468.750,-357.422,-458.496,-661.133
1743150859.611,-1000.000,-1000.000,-32.715,-1000.000
1743150859.615,-767.090,-872.070,467.773,-552.246
1743150859.572,936.523,933.594,117.188,943.848
1743150859.576,907.715,907.715,346.680,908.203
1743150859.580,999.512,999.512,217.773,999.512
1743150859.584,261.719,326.172,-149.414,219.727
1743150859.588,-965.332,-940.430,-326.660,-987.305
1743150859.592,-1000.000,-1000.000,282.227,-1000.000
1743150859.596,-577.148,-592.773,702.148,-409.668
1743150859.599,899.902,847.656,489.746,999.512
1743150859.603,929.199,999.512,-79.102,722.656
1743150859.607,-468.750,-357.422,-458.496,-661.133
1743150859.611,-1000.000,-1000.000,-32.715,-1000.000
1743150859.615,-767.090,-872.070,467.773,-552.246
1743150859.619,511.719,356.934,565.430,771.484
1743150859.623,999.512,999.512,67.871,999.512
1743150859.627,118.164,148.926,-390.137,-46.387
1743150859.631,-1000.000,-1000.000,-33.203,-1000.000
1743150859.635,-994.629,-1000.000,444.336,-752.930
1743150859.639,250.977,168.945,802.246,552.246
1743150859.643,999.512,999.512,557.129,999.512
1743150859.646,146.973,187.988,-128.906,161.133
1743150859.650,-1000.000,-1000.000,-163.086,-1000.000
1743150859.654,-1000.000,-1000.000,382.324,-890.137
1743150859.658,124.023,17.578,912.109,424.805
1743150859.662,999.512,999.512,394.043,999.512
1743150859.619,511.719,356.934,565.430,771.484
1743150859.623,999.512,999.512,67.871,999.512
1743150859.627,118.164,148.926,-390.137,-46.387
1743150859.631,-1000.000,-1000.000,-33.203,-1000.000
1743150859.635,-994.629,-1000.000,444.336,-752.930
1743150859.639,250.977,168.945,802.246,552.246
1743150859.643,999.512,999.512,557.129,999.512
1743150859.646,146.973,187.988,-128.906,161.133
1743150859.650,-1000.000,-1000.000,-163.086,-1000.000
1743150859.654,-1000.000,-1000.000,382.324,-890.137
1743150859.658,124.023,17.578,912.109,424.805
1743150859.662,999.512,999.512,394.043,999.512
1743150859.662,126.465,136.230,-641.602,49.316
1743150859.666,-1000.000,-1000.000,-593.262,-1000.000
1743150859.670,-1000.000,-1000.000,-58.594,-1000.000
1743150859.674,-193.848,-193.359,155.762,-136.230
1743150859.678,999.512,999.512,-86.914,999.512
1743150859.682,949.707,951.660,-355.957,940.918
1743150859.686,954.590,876.953,-91.309,955.566
1743150859.689,906.250,999.512,141.602,908.691
1743150859.693,999.512,193.359,96.680,999.512
1743150859.697,677.246,-1000.000,-82.520,698.730
1743150859.701,-766.113,-984.863,-471.191,-719.238
1743150859.705,-1000.000,-911.133,-405.273,-1000.000
1743150859.662,126.465,136.230,-641.602,49.316
1743150859.666,-1000.000,-1000.000,-593.262,-1000.000
1743150859.670,-1000.000,-1000.000,-58.594,-1000.000
1743150859.674,-193.848,-193.359,155.762,-136.230
1743150859.678,999.512,999.512,-86.914,999.512
1743150859.682,949.707,951.660,-355.957,940.918
1743150859.686,954.590,876.953,-91.309,955.566
1743150859.689,906.250,999.512,141.602,908.691
1743150859.693,999.512,193.359,96.680,999.512
1743150859.697,677.246,-1000.000,-82.520,698.730
1743150859.701,-766.113,-984.863,-471.191,-719.238
1743150859.705,-1000.000,-911.133,-405.273,-1000.000
1743150859.723,-1000.000,-1000.000,179.199,-1000.000
1743150859.727,-310.547,-273.926,530.273,-186.523
1743150859.731,999.512,999.512,256.836,999.512
1743150859.735,520.508,648.926,-272.949,354.004
1743150859.739,-872.559,-740.234,-376.465,-946.289
1743150859.743,-1000.000,-1000.000,169.922,-1000.000
1743150859.747,-240.234,-230.469,478.027,-221.680
1743150859.750,999.512,999.512,24.414,999.512
1743150859.754,482.422,562.012,-523.926,333.984
1743150859.758,-875.488,-812.012,-653.320,-955.078
1743150859.762,-1000.000,-1000.000,-203.125,-1000.000
1743150859.766,-518.066,-615.234,114.746,-363.770
1743150859.723,-1000.000,-1000.000,179.199,-1000.000
1743150859.727,-310.547,-273.926,530.273,-186.523
1743150859.731,999.512,999.512,256.836,999.512
1743150859.735,520.508,648.926,-272.949,354.004
1743150859.739,-872.559,-740.234,-376.465,-946.289
1743150859.743,-1000.000,-1000.000,169.922,-1000.000
1743150859.747,-240.234,-230.469,478.027,-221.680
1743150859.750,999.512,999.512,24.414,999.512
1743150859.754,482.422,562.012,-523.926,333.984
1743150859.758,-875.488,-812.012,-653.320,-955.078
1743150859.762,-1000.000,-1000.000,-203.125,-1000.000
1743150859.766,-518.066,-615.234,114.746,-363.770
1743150859.768,800.781,695.312,-29.785,933.594
1743150859.772,999.512,999.512,-417.480,999.512
1743150859.776,158.203,200.684,-612.305,-95.215
1743150859.780,-1000.000,-1000.000,-92.773,-1000.000
1743150859.784,-433.105,-507.812,398.438,-263.672
1743150859.788,901.855,867.676,420.410,956.055
1743150859.792,999.512,999.512,-45.410,999.512
1743150859.795,171.387,153.809,-454.102,137.695
1743150859.799,-1000.000,-1000.000,-293.945,-1000.000
1743150859.803,-1000.000,-1000.000,116.699,-783.691
1743150859.807,198.242,31.250,319.336,545.898
1743150859.811,999.512,999.512,-38.086,999.512
1743150859.814,170.898,171.387,-494.141,167.969
1743150859.818,-1000.000,-1000.000,-227.539,-1000.000
1743150859.822,-888.672,-978.027,320.312,-669.434
1743150859.826,408.203,261.230,552.246,687.500
1743150859.830,999.512,999.512,127.441,999.512
1743150859.834,421.875,628.906,-362.793,244.629
1743150859.838,-892.578,-680.176,-52.734,-1000.000
1743150859.841,-1000.000,-1000.000,294.434,-991.211
1743150859.845,-14.160,-168.945,420.898,229.492
1743150859.849,999.512,999.512,214.355,999.512
1743150859.853,783.203,895.508,-17.578,449.219
1743150859.857,-520.020,-398.438,104.980,-841.309
1743150859.814,170.898,171.387,-494.141,167.969
1743150859.818,-1000.000,-1000.000,-227.539,-1000.000
1743150859.822,-888.672,-978.027,320.312,-669.434
1743150859.826,408.203,261.230,552.246,687.500
1743150859.830,999.512,999.512,127.441,999.512
1743150859.834,421.875,628.906,-362.793,244.629
1743150859.838,-892.578,-680.176,-52.734,-1000.000
1743150859.841,-1000.000,-1000.000,294.434,-991.211
1743150859.845,-14.160,-168.945,420.898,229.492
1743150859.849,999.512,999.512,214.355,999.512
1743150859.853,783.203,895.508,-17.578,449.219
1743150859.857,-520.020,-398.438,104.980,-841.309
1743150859.857,-1000.000,-1000.000,270.996,-1000.000
1743150859.861,-228.516,-227.539,443.359,-176.758
1743150859.865,999.512,999.512,58.594,999.512
1743150859.869,439.941,541.504,-500.977,291.504
1743150859.873,-934.082,-863.281,-460.449,-1000.000
1743150859.877,-1000.000,-1000.000,38.574,-1000.000
1743150859.881,-128.906,-137.695,368.164,33.203
1743150859.884,999.512,999.512,3.906,999.512
1743150859.888,736.328,810.547,-487.793,501.465
1743150859.892,-611.328,-509.766,-457.520,-821.289
1743150859.896,-1000.000,-1000.000,-14.160,-1000.000
1743150859.900,-158.203,-193.848,395.996,-170.898
1743150859.904,966.309,950.684,316.406,999.512
1743150859.908,999.512,999.512,-136.230,999.512
1743150859.912,172.852,225.098,-191.406,-123.535
1743150859.916,-1000.000,-1000.000,206.543,-1000.000
1743150859.920,-459.961,-553.711,503.906,-286.133
1743150859.924,902.832,846.680,551.270,989.746
1743150859.928,999.512,999.512,104.004,999.512
1743150859.931,73.242,133.789,-293.945,-143.066
1743150859.935,-1000.000,-1000.000,62.988,-1000.000
1743150859.939,-516.113,-646.484,453.613,-328.613
1743150859.943,842.285,735.352,535.645,942.871
1743150859.947,999.512,999.512,56.152,999.512
1743150859.904,966.309,950.684,316.406,999.512
1743150859.908,999.512,999.512,-136.230,999.512
1743150859.912,172.852,225.098,-191.406,-123.535
1743150859.916,-1000.000,-1000.000,206.543,-1000.000
1743150859.920,-459.961,-553.711,503.906,-286.133
1743150859.924,902.832,846.680,551.270,989.746
1743150859.928,999.512,999.512,104.004,999.512
1743150859.931,73.242,133.789,-293.945,-143.066
1743150859.935,-1000.000,-1000.000,62.988,-1000.000
1743150859.939,-516.113,-646.484,453.613,-328.613
1743150859.943,842.285,735.352,535.645,942.871
1743150859.947,999.512,999.512,56.152,999.512
1743150859.947,178.711,197.266,-436.035,-3.418
1743150859.951,-1000.000,-1000.000,4.883,-1000.000
1743150859.955,-258.301,-354.980,579.590,-179.688
1743150859.959,999.512,999.512,696.289,999.512
1743150859.963,953.125,969.727,308.105,947.754
1743150859.967,934.570,928.711,130.859,939.453
1743150859.971,981.934,915.039,476.562,982.910
1743150859.974,895.996,999.512,710.938,895.508
1743150859.978,999.512,187.012,657.715,999.512
1743150859.982,319.824,-1000.000,410.156,363.281
1743150859.986,-1000.000,-979.004,168.457,-981.934
1743150859.990,-947.754,-917.969,427.246,-980.957
1743150859.947,178.711,197.266,-436.035,-3.418
1743150859.951,-1000.000,-1000.000,4.883,-1000.000
1743150859.955,-258.301,-354.980,579.590,-179.688
1743150859.959,999.512,999.512,696.289,999.512
1743150859.963,953.125,969.727,308.105,947.754
1743150859.967,934.570,928.711,130.859,939.453
1743150859.971,981.934,915.039,476.562,982.910
1743150859.974,895.996,999.512,710.938,895.508
1743150859.978,999.512,187.012,657.715,999.512
1743150859.982,319.824,-1000.000,410.156,363.281
1743150859.986,-1000.000,-979.004,168.457,-981.934
1743150859.990,-947.754,-917.969,427.246,-980.957
1743150859.995,-1000.000,-1000.000,851.562,-1000.000
1743150859.999,-242.188,-192.871,999.512,-20.996
1743150860.003,999.512,999.512,664.062,999.512
1743150860.007,162.109,157.715,84.473,58.594
1743150860.011,-1000.000,-1000.000,271.484,-1000.000
1743150860.015,-1000.000,-1000.000,831.543,-1000.000
1743150860.019,-255.371,-255.859,828.613,-210.938
1743150860.022,999.512,999.512,135.742,999.512
1743150860.026,155.273,170.410,-578.125,4.395
1743150860.030,-1000.000,-1000.000,-398.438,-1000.000
1743150860.034,-1000.000,-1000.000,304.199,-1000.000
1743150860.038,-268.066,-253.418,560.059,-247.559
1743150859.995,-1000.000,-1000.000,851.562,-1000.000
1743150859.999,-242.188,-192.871,999.512,-20.996
1743150860.003,999.512,999.512,664.062,999.512
1743150860.007,162.109,157.715,84.473,58.594
1743150860.011,-1000.000,-1000.000,271.484,-1000.000
1743150860.015,-1000.000,-1000.000,831.543,-1000.000
1743150860.019,-255.371,-255.859,828.613,-210.938
1743150860.022,999.512,999.512,135.742,999.512
1743150860.026,155.273,170.410,-578.125,4.395
1743150860.030,-1000.000,-1000.000,-398.438,-1000.000
1743150860.034,-1000.000,-1000.000,304.199,-1000.000
1743150860.038,-268.066,-253.418,560.059,-247.559
1743150860.037,999.512,999.512,244.629,999.512
1743150860.041,550.781,753.418,-269.531,349.121
1743150860.045,-854.004,-635.254,-302.246,-985.352
1743150860.049,-1000.000,-1000.000,174.805,-1000.000
1743150860.053,-132.324,-55.176,573.730,-40.039
1743150860.057,999.512,999.512,323.730,999.512
1743150860.061,877.441,999.512,-183.105,590.820
1743150860.064,-401.855,-84.473,-426.270,-717.285
1743150860.068,-1000.000,-1000.000,-413.574,-1000.000
1743150860.072,-806.641,-923.340,-2.930,-566.406
1743150860.076,514.648,343.262,56.152,848.145
1743150860.080,999.512,999.512,-453.125,931.641
1743150860.565,-214.844,-301.758,189.941,-195.801
1743150860.569,999.512,947.266,11.230,999.512
1743150860.573,999.512,999.512,-253.418,847.168
1743150860.577,-109.375,18.066,-348.145,-457.031
1743150860.581,-1000.000,-1000.000,-42.969,-1000.000
1743150860.585,-234.375,-239.258,411.621,-142.578
1743150860.589,999.512,999.512,258.301,999.512
1743150860.592,619.629,733.398,-494.141,429.199
1743150860.596,-775.391,-638.672,-658.203,-909.180
1743150860.600,-1000.000,-1000.000,-108.887,-1000.000
1743150860.604,-192.383,-178.223,467.773,-196.289
1743150860.608,999.512,999.512,403.809,999.512
1743150860.099,-137.207,-7.812,-659.668,-457.520
1743150860.103,-1000.000,-1000.000,-174.316,-1000.000
1743150860.107,-211.914,-293.945,354.004,-177.246
1743150860.111,962.891,945.801,370.117,999.512
1743150860.115,999.512,999.512,-156.738,999.512
1743150860.119,225.586,224.121,-235.352,-82.031
1743150860.123,-1000.000,-1000.000,264.648,-1000.000
1743150860.126,-346.191,-443.848,497.070,-233.887
1743150860.130,977.539,920.898,333.496,999.512
1743150860.134,999.512,999.512,-219.727,964.844
1743150860.138,-34.180,33.691,-585.938,-229.004
1743150860.142,-1000.000,-1000.000,-231.445,-1000.000
1743150860.099,-137.207,-7.812,-659.668,-457.520
1743150860.103,-1000.000,-1000.000,-174.316,-1000.000
1743150860.107,-211.914,-293.945,354.004,-177.246
1743150860.111,962.891,945.801,370.117,999.512
1743150860.115,999.512,999.512,-156.738,999.512
1743150860.119,225.586,224.121,-235.352,-82.031
1743150860.123,-1000.000,-1000.000,264.648,-1000.000
1743150860.126,-346.191,-443.848,497.070,-233.887
1743150860.130,977.539,920.898,333.496,999.512
1743150860.134,999.512,999.512,-219.727,964.844
1743150860.138,-34.180,33.691,-585.938,-229.004
1743150860.142,-1000.000,-1000.000,-231.445,-1000.000
1743150860.142,-872.070,-974.121,233.887,-635.742
1743150860.146,401.367,252.441,365.234,674.316
1743150860.150,999.512,999.512,-66.895,999.512
1743150860.154,192.871,196.289,-531.738,137.207
1743150860.158,-1000.000,-1000.000,-218.750,-1000.000
1743150860.162,-419.434,-452.148,468.262,-304.688
1743150860.166,915.527,899.414,783.691,971.680
1743150860.169,999.512,999.512,123.047,999.512
1743150860.173,153.809,143.066,-569.336,65.430
1743150860.177,-1000.000,-1000.000,-293.945,-1000.000
1743150860.181,-1000.000,-1000.000,229.004,-998.535
1743150860.185,-68.848,-188.477,561.523,150.391
1743150860.189,999.512,999.512,239.746,999.512
1743150860.193,553.223,701.172,-257.812,330.566
1743150860.197,-819.336,-667.480,-201.172,-971.191
1743150860.201,-1000.000,-1000.000,214.844,-1000.000
1743150860.205,-108.887,-189.941,560.059,73.730
1743150860.209,999.512,999.512,322.266,999.512
1743150860.213,561.523,732.910,-223.145,349.609
1743150860.216,-807.129,-634.277,-453.613,-925.293
1743150860.220,-1000.000,-1000.000,-107.422,-1000.000
1743150860.224,-195.801,-178.711,401.855,-203.613
1743150860.228,999.512,999.512,334.961,999.512
1743150860.232,975.098,999.512,-219.238,734.863
1743150860.189,999.512,999.512,239.746,999.512
1743150860.193,553.223,701.172,-257.812,330.566
1743150860.197,-819.336,-667.480,-201.172,-971.191
1743150860.201,-1000.000,-1000.000,214.844,-1000.000
1743150860.205,-108.887,-189.941,560.059,73.730
1743150860.209,999.512,999.512,322.266,999.512
1743150860.213,561.523,732.910,-223.145,349.609
1743150860.216,-807.129,-634.277,-453.613,-925.293
1743150860.220,-1000.000,-1000.000,-107.422,-1000.000
1743150860.224,-195.801,-178.711,401.855,-203.613
1743150860.228,999.512,999.512,334.961,999.512
1743150860.232,975.098,999.512,-219.238,734.863
1743150860.232,-270.508,-132.324,-503.906,-613.281
1743150860.236,-1000.000,-1000.000,-112.793,-1000.000
1743150860.240,-190.430,-180.664,437.012,-182.129
1743150860.244,999.512,999.512,360.840,999.512
1743150860.248,968.750,999.512,-251.953,684.082
1743150860.252,-273.438,-56.641,-347.168,-659.668
1743150860.256,-1000.000,-1000.000,84.473,-1000.000
1743150860.259,-244.141,-358.887,273.438,-210.938
1743150860.263,999.512,965.332,2.930,999.512
1743150860.267,977.539,999.512,-444.336,730.469
1743150860.271,-278.320,-174.805,-500.488,-619.141
1743150860.275,-1000.000,-1000.000,31.738,-1000.000
1743150860.280,-221.680,-351.562,461.426,-190.918
1743150860.284,981.934,923.340,568.848,999.512
1743150860.288,999.512,999.512,51.270,936.523
1743150860.292,-57.129,22.949,-570.801,-309.082
1743150860.296,-1000.000,-1000.000,-200.684,-1000.000
1743150860.300,-201.172,-223.633,516.602,-207.031
1743150860.304,999.512,999.512,666.992,999.512
1743150860.307,980.469,999.512,-177.734,829.102
1743150860.311,-251.953,-183.105,-797.852,-470.703
1743150860.315,-1000.000,-1000.000,-316.406,-1000.000
1743150860.319,-857.422,-963.867,291.504,-622.559
1743150860.323,384.766,215.332,340.820,675.293
1743150860.322,999.512,999.512,-167.969,999.512
1743150860.326,148.926,147.461,-691.406,85.938
1743150860.330,-1000.000,-1000.000,-506.348,-1000.000
1743150860.334,-1000.000,-1000.000,-49.316,-852.539
1743150860.338,164.551,107.910,203.125,441.895
1743150860.342,999.512,999.512,-212.891,999.512
1743150860.346,270.508,426.270,-690.430,153.809
1743150860.349,-952.637,-876.953,-614.258,-1000.000
1743150860.353,-1000.000,-1000.000,-263.672,-1000.000
1743150860.357,-251.953,-229.980,103.516,-155.762
1743150860.361,999.512,999.512,-187.500,999.512
1743150860.365,618.652,737.305,-639.160,382.812
1743150860.322,999.512,999.512,-167.969,999.512
1743150860.326,148.926,147.461,-691.406,85.938
1743150860.330,-1000.000,-1000.000,-506.348,-1000.000
1743150860.334,-1000.000,-1000.000,-49.316,-852.539
1743150860.338,164.551,107.910,203.125,441.895
1743150860.342,999.512,999.512,-212.891,999.512
1743150860.346,270.508,426.270,-690.430,153.809
1743150860.349,-952.637,-876.953,-614.258,-1000.000
1743150860.353,-1000.000,-1000.000,-263.672,-1000.000
1743150860.357,-251.953,-229.980,103.516,-155.762
1743150860.361,999.512,999.512,-187.500,999.512
1743150860.365,618.652,737.305,-639.160,382.812
1743150860.369,-779.785,-636.230,-557.129,-957.520
1743150860.373,-1000.000,-1000.000,-165.039,-1000.000
1743150860.377,-213.867,-219.727,147.949,-40.527
1743150860.381,999.512,999.512,-104.004,999.512
1743150860.385,602.539,696.777,-543.945,379.883
1743150860.389,-811.035,-699.707,-350.098,-974.121
1743150860.393,-1000.000,-1000.000,177.734,-1000.000
1743150860.396,-70.801,-114.746,315.430,119.141
1743150860.400,999.512,999.512,-177.246,999.512
1743150860.404,786.133,863.281,-584.473,538.574
1743150860.408,-532.715,-425.781,-437.012,-773.926
1743150860.412,-1000.000,-1000.000,-24.414,-1000.000
1743150860.369,-779.785,-636.230,-557.129,-957.520
1743150860.373,-1000.000,-1000.000,-165.039,-1000.000
1743150860.377,-213.867,-219.727,147.949,-40.527
1743150860.381,999.512,999.512,-104.004,999.512
1743150860.385,602.539,696.777,-543.945,379.883
1743150860.389,-811.035,-699.707,-350.098,-974.121
1743150860.393,-1000.000,-1000.000,177.734,-1000.000
1743150860.396,-70.801,-114.746,315.430,119.141
1743150860.400,999.512,999.512,-177.246,999.512
1743150860.404,786.133,863.281,-584.473,538.574
1743150860.408,-532.715,-425.781,-437.012,-773.926
1743150860.412,-1000.000,-1000.000,-24.414,-1000.000
1743150860.427,-173.828,-227.539,302.246,-170.898
1743150860.431,994.629,965.332,218.262,999.512
1743150860.435,999.512,999.512,-268.066,878.418
1743150860.439,-82.031,12.207,-415.527,-395.020
1743150860.443,-1000.000,-1000.000,-64.941,-1000.000
1743150860.447,-224.609,-258.789,257.812,-215.332
1743150860.451,999.512,999.512,168.457,999.512
1743150860.454,885.254,952.637,-529.785,720.703
1743150860.458,-397.461,-289.062,-772.461,-624.512
1743150860.462,-1000.000,-1000.000,-167.969,-1000.000
1743150860.466,-444.824,-574.707,236.816,-303.711
1743150860.470,838.867,739.258,196.777,926.758
1743150860.427,-173.828,-227.539,302.246,-170.898
1743150860.431,994.629,965.332,218.262,999.512
1743150860.435,999.512,999.512,-268.066,878.418
1743150860.439,-82.031,12.207,-415.527,-395.020
1743150860.443,-1000.000,-1000.000,-64.941,-1000.000
1743150860.447,-224.609,-258.789,257.812,-215.332
1743150860.451,999.512,999.512,168.457,999.512
1743150860.454,885.254,952.637,-529.785,720.703
1743150860.458,-397.461,-289.062,-772.461,-624.512
1743150860.462,-1000.000,-1000.000,-167.969,-1000.000
1743150860.466,-444.824,-574.707,236.816,-303.711
1743150860.470,838.867,739.258,196.777,926.758
1743150860.473,999.512,999.512,-280.273,999.512
1743150860.477,205.078,187.012,-540.039,54.688
1743150860.481,-1000.000,-1000.000,-106.934,-1000.000
1743150860.485,-658.691,-779.297,238.770,-441.406
1743150860.489,721.680,565.918,255.859,875.000
1743150860.493,999.512,999.512,-7.812,999.512
1743150860.497,266.113,383.789,-312.988,176.270
1743150860.500,-948.242,-884.277,-303.223,-1000.000
1743150860.504,-1000.000,-1000.000,-2.930,-1000.000
1743150860.508,-111.816,-171.875,359.863,118.164
1743150860.512,999.512,999.512,93.750,999.512
1743150860.516,939.941,950.684,-177.734,916.992
1743150860.473,999.512,999.512,-280.273,999.512
1743150860.477,205.078,187.012,-540.039,54.688
1743150860.481,-1000.000,-1000.000,-106.934,-1000.000
1743150860.485,-658.691,-779.297,238.770,-441.406
1743150860.489,721.680,565.918,255.859,875.000
1743150860.493,999.512,999.512,-7.812,999.512
1743150860.497,266.113,383.789,-312.988,176.270
1743150860.500,-948.242,-884.277,-303.223,-1000.000
1743150860.504,-1000.000,-1000.000,-2.930,-1000.000
1743150860.508,-111.816,-171.875,359.863,118.164
1743150860.512,999.512,999.512,93.750,999.512
1743150860.516,939.941,950.684,-177.734,916.992
1743150860.517,951.172,945.312,25.391,969.238
1743150860.521,944.336,950.195,298.828,932.129
1743150860.525,950.195,944.336,488.281,975.586
1743150860.529,999.512,999.512,65.918,957.520
1743150860.533,-218.262,-174.316,-391.113,-335.449
1743150860.537,-1000.000,-1000.000,-163.086,-1000.000
1743150860.541,-1000.000,-1000.000,366.211,-1000.000
1743150860.544,-283.691,-286.133,464.355,-144.043
1743150860.548,999.512,999.512,-121.582,999.512
1743150860.552,171.387,247.559,-612.793,151.855
1743150860.556,-1000.000,-1000.000,-474.609,-1000.000
1743150860.560,-1000.000,-1000.000,12.695,-1000.000
1743150860.607,982.910,999.512,-275.879,743.652
1743150860.611,-254.395,-120.605,-419.922,-593.750
1743150860.615,-1000.000,-1000.000,53.711,-1000.000
1743150860.619,-156.738,-220.703,401.855,-151.855
1743150860.623,959.961,942.383,402.344,962.402
1743150860.627,999.512,999.512,-229.004,999.512
1743150860.631,343.750,438.965,-514.648,254.883
1743150860.634,-985.352,-901.367,-85.938,-1000.000
1743150860.638,-1000.000,-1000.000,96.191,-793.945
1743150860.642,201.172,20.020,278.809,625.000
1743150860.646,999.512,999.512,228.027,999.512
1743150860.650,906.738,925.293,331.543,903.809
1743150860.607,982.910,999.512,-275.879,743.652
1743150860.611,-254.395,-120.605,-419.922,-593.750
1743150860.615,-1000.000,-1000.000,53.711,-1000.000
1743150860.619,-156.738,-220.703,401.855,-151.855
1743150860.623,959.961,942.383,402.344,962.402
1743150860.627,999.512,999.512,-229.004,999.512
1743150860.631,343.750,438.965,-514.648,254.883
1743150860.634,-985.352,-901.367,-85.938,-1000.000
1743150860.638,-1000.000,-1000.000,96.191,-793.945
1743150860.642,201.172,20.020,278.809,625.000
1743150860.646,999.512,999.512,228.027,999.512
1743150860.650,906.738,925.293,331.543,903.809
1743150860.654,978.027,966.309,894.043,992.188
1743150860.658,913.574,919.922,964.844,908.691
1743150860.662,999.512,999.512,979.492,999.512
1743150860.666,835.449,864.746,637.207,766.602
1743150860.670,-562.012,-519.043,62.988,-636.719
1743150860.674,-1000.000,-1000.000,502.930,-1000.000
1743150860.678,-1000.000,-1000.000,995.117,-1000.000
1743150860.681,-292.480,-322.266,999.023,-199.707
1743150860.685,999.512,999.512,707.520,999.512
1743150860.689,137.695,175.293,154.785,-63.965
1743150860.693,-1000.000,-1000.000,344.727,-1000.000
1743150860.697,-972.656,-976.562,849.609,-951.172
1743150860.712,-975.586,-973.145,906.250,-989.258
1743150860.716,-1000.000,-1000.000,429.199,-1000.000
1743150860.720,-943.848,-940.430,-151.367,-942.383
1743150860.724,-1000.000,-1000.000,-57.617,-1000.000
1743150860.728,-819.824,-728.027,329.102,-750.977
1743150860.732,502.930,604.004,669.434,575.195
1743150860.736,999.512,999.512,484.863,999.512
1743150860.739,461.426,603.516,-295.410,281.738
1743150860.743,-832.031,-681.641,-607.910,-930.664
1743150860.747,-1000.000,-1000.000,-39.551,-1000.000
1743150860.751,-304.688,-390.137,394.043,-251.953
1743150860.755,999.512,999.512,84.961,999.512
1743150860.744,423.340,522.949,-411.621,242.676
1743150860.748,-940.918,-899.902,-430.176,-1000.000
1743150860.752,-1000.000,-1000.000,133.301,-1000.000
1743150860.756,-174.805,-166.016,544.922,-176.758
1743150860.760,963.379,959.961,321.777,999.512
1743150860.764,999.512,999.512,-197.266,996.094
1743150860.768,177.734,189.941,-265.625,-111.328
1743150860.771,-1000.000,-1000.000,-67.383,-1000.000
1743150860.775,-945.801,-1000.000,319.336,-700.195
1743150860.779,413.086,207.520,426.758,733.887
1743150860.783,999.512,999.512,-111.328,975.098
1743150860.787,-141.602,-37.598,-507.812,-427.246
1743150860.744,423.340,522.949,-411.621,242.676
1743150860.748,-940.918,-899.902,-430.176,-1000.000
1743150860.752,-1000.000,-1000.000,133.301,-1000.000
1743150860.756,-174.805,-166.016,544.922,-176.758
1743150860.760,963.379,959.961,321.777,999.512
1743150860.764,999.512,999.512,-197.266,996.094
1743150860.768,177.734,189.941,-265.625,-111.328
1743150860.771,-1000.000,-1000.000,-67.383,-1000.000
1743150860.775,-945.801,-1000.000,319.336,-700.195
1743150860.779,413.086,207.520,426.758,733.887
1743150860.783,999.512,999.512,-111.328,975.098
1743150860.787,-141.602,-37.598,-507.812,-427.246
1743150860.788,-1000.000,-1000.000,-157.227,-1000.000
1743150860.792,-354.980,-443.359,479.004,-269.531
1743150860.796,947.754,896.973,698.242,999.512
1743150860.800,999.512,999.512,-68.359,922.363
1743150860.804,-99.121,9.766,-727.051,-347.168
1743150860.808,-1000.000,-1000.000,-116.211,-1000.000
1743150860.812,-456.055,-504.395,559.570,-333.496
1743150860.815,919.434,889.648,446.777,999.512
1743150860.819,999.512,999.512,-290.527,868.652
1743150860.823,-217.285,-149.902,-752.930,-447.754
1743150860.827,-1000.000,-1000.000,-235.352,-1000.000
1743150860.831,-596.191,-739.258,385.254,-416.504
1743150860.847,707.031,539.062,495.605,846.680
1743150860.851,999.512,999.512,-82.031,999.512
1743150860.855,317.871,419.434,-431.152,202.637
1743150860.859,-934.082,-878.906,-249.512,-1000.000
1743150860.863,-1000.000,-1000.000,-11.719,-1000.000
1743150860.867,-100.098,-105.469,467.773,75.195
1743150860.871,999.512,999.512,196.289,999.512
1743150860.874,164.551,160.645,-708.008,142.090
1743150860.878,-1000.000,-1000.000,-675.781,-1000.000
1743150860.882,-1000.000,-1000.000,-32.715,-1000.000
1743150860.886,-39.551,-133.301,349.609,167.969
1743150860.890,999.512,999.512,29.785,999.512
1743150860.847,707.031,539.062,495.605,846.680
1743150860.851,999.512,999.512,-82.031,999.512
1743150860.855,317.871,419.434,-431.152,202.637
1743150860.859,-934.082,-878.906,-249.512,-1000.000
1743150860.863,-1000.000,-1000.000,-11.719,-1000.000
1743150860.867,-100.098,-105.469,467.773,75.195
1743150860.871,999.512,999.512,196.289,999.512
1743150860.874,164.551,160.645,-708.008,142.090
1743150860.878,-1000.000,-1000.000,-675.781,-1000.000
1743150860.882,-1000.000,-1000.000,-32.715,-1000.000
1743150860.886,-39.551,-133.301,349.609,167.969
1743150860.890,999.512,999.512,29.785,999.512
1743150860.892,295.898,330.078,-573.242,178.711
1743150860.896,-961.914,-957.520,-523.438,-1000.000
1743150860.900,-1000.000,-1000.000,-35.645,-1000.000
1743150860.904,-179.688,-178.223,229.004,-53.223
1743150860.908,971.680,963.867,-166.016,999.512
1743150860.912,999.512,999.512,-675.781,928.711
1743150860.916,144.531,232.910,-456.055,-245.117
1743150860.919,-1000.000,-1000.000,4.883,-1000.000
1743150860.923,-275.391,-478.516,106.934,-203.613
1743150860.927,999.512,999.512,-183.594,999.512
1743150860.931,707.031,802.246,-542.969,483.887
1743150860.935,-669.922,-597.168,-625.000,-870.605
1743150860.939,-1000.000,-1000.000,-183.105,-1000.000
1743150860.943,-200.684,-279.785,225.586,-208.496
1743150860.947,985.352,943.359,67.871,999.512
1743150860.951,999.512,999.512,-488.281,876.465
1743150860.955,-126.465,-40.039,-659.180,-439.453
1743150860.959,-1000.000,-1000.000,-176.758,-1000.000
1743150860.963,-126.953,-137.207,229.980,-123.535
1743150860.966,999.512,999.512,-30.762,999.512
1743150860.970,830.566,886.230,-724.609,646.973
1743150860.974,-476.562,-404.785,-948.730,-700.195
1743150860.978,-1000.000,-1000.000,-555.664,-1000.000
1743150860.982,-625.000,-742.676,-276.855,-398.926
1743150860.939,-1000.000,-1000.000,-183.105,-1000.000
1743150860.943,-200.684,-279.785,225.586,-208.496
1743150860.947,985.352,943.359,67.871,999.512
1743150860.951,999.512,999.512,-488.281,876.465
1743150860.955,-126.465,-40.039,-659.180,-439.453
1743150860.959,-1000.000,-1000.000,-176.758,-1000.000
1743150860.963,-126.953,-137.207,229.980,-123.535
1743150860.966,999.512,999.512,-30.762,999.512
1743150860.970,830.566,886.230,-724.609,646.973
1743150860.974,-476.562,-404.785,-948.730,-700.195
1743150860.978,-1000.000,-1000.000,-555.664,-1000.000
1743150860.982,-625.000,-742.676,-276.855,-398.926
1743150860.983,680.664,537.109,-433.594,859.863
1743150860.987,999.512,999.512,-765.625,999.512
1743150860.991,175.293,183.105,-854.004,169.922
1743150860.995,-1000.000,-1000.000,-484.375,-1000.000
1743150860.999,-867.676,-944.824,-68.848,-679.199
1743150861.003,450.195,328.125,184.082,684.082
1743150861.007,999.512,999.512,-166.016,999.512
1743150861.010,320.312,388.672,-749.023,218.750
1743150861.014,-1000.000,-986.328,-644.043,-1000.000
1743150861.018,-888.184,-991.699,-85.938,-665.039
1743150861.022,463.867,323.730,121.094,709.961
1743150861.026,999.512,999.512,-321.777,999.512
1743150861.029,343.750,391.113,-518.555,210.449
1743150861.033,-954.102,-916.504,-171.875,-1000.000
1743150861.037,-1000.000,-1000.000,156.738,-928.223
1743150861.041,159.668,46.387,427.246,430.664
1743150861.045,999.512,999.512,43.945,999.512
1743150861.049,909.668,920.410,-459.961,902.832
1743150861.053,962.891,956.543,-163.574,974.121
1743150861.056,967.285,974.609,225.586,965.332
1743150861.060,903.320,846.191,567.383,907.227
1743150861.064,999.512,999.512,263.184,999.512
1743150861.068,186.035,185.059,-304.199,152.344
1743150861.072,-1000.000,-1000.000,303.711,-1000.000
1743150861.073,-1000.000,-1000.000,979.492,-1000.000
1743150861.077,-266.113,-320.801,977.539,-229.980
1743150861.081,999.512,999.512,836.914,999.512
1743150861.085,572.754,713.379,305.664,402.344
1743150861.089,-823.242,-683.594,21.484,-933.594
1743150861.093,-1000.000,-1000.000,477.051,-1000.000
1743150861.097,-225.098,-219.238,981.934,-197.266
1743150861.100,999.512,999.512,724.121,999.512
1743150861.104,154.785,155.273,-330.078,154.297
1743150861.108,-1000.000,-1000.000,-782.715,-1000.000
1743150861.112,-1000.000,-1000.000,-15.137,-1000.000
1743150861.116,-663.574,-712.402,516.602,-482.910
1743150861.132,748.535,649.414,320.801,966.797
1743150861.136,999.512,999.512,-92.285,861.328
1743150861.140,-190.430,27.832,-260.254,-517.090
1743150861.144,-1000.000,-1000.000,-150.391,-1000.000
1743150861.148,-990.234,-1000.000,31.738,-806.641
1743150861.152,182.129,180.664,385.742,487.305
1743150861.156,999.512,999.512,127.930,999.512
1743150861.159,111.816,150.879,-464.844,-118.652
1743150861.163,-1000.000,-1000.000,-274.902,-1000.000
1743150861.167,-880.859,-986.816,206.543,-647.461
1743150861.171,431.641,273.438,385.254,675.781
1743150861.175,999.512,999.512,20.020,999.512
1743150861.132,748.535,649.414,320.801,966.797
1743150861.136,999.512,999.512,-92.285,861.328
1743150861.140,-190.430,27.832,-260.254,-517.090
1743150861.144,-1000.000,-1000.000,-150.391,-1000.000
1743150861.148,-990.234,-1000.000,31.738,-806.641
1743150861.152,182.129,180.664,385.742,487.305
1743150861.156,999.512,999.512,127.930,999.512
1743150861.159,111.816,150.879,-464.844,-118.652
1743150861.163,-1000.000,-1000.000,-274.902,-1000.000
1743150861.167,-880.859,-986.816,206.543,-647.461
1743150861.171,431.641,273.438,385.254,675.781
1743150861.175,999.512,999.512,20.020,999.512
1743150861.162,166.504,156.738,-395.996,119.141
1743150861.166,-1000.000,-1000.000,-172.363,-1000.000
1743150861.170,-897.949,-987.305,324.707,-687.988
1743150861.174,395.508,250.000,497.070,655.762
1743150861.178,999.512,999.512,-4.883,999.512
1743150861.182,380.859,646.973,-318.848,186.523
1743150861.186,-952.148,-716.797,-228.027,-1000.000
1743150861.189,-1000.000,-1000.000,-175.781,-994.141
1743150861.193,-952.148,-936.523,-146.484,-968.262
1743150861.197,-1000.000,-1000.000,-453.125,-1000.000
1743150861.201,-930.176,-929.199,-787.598,-933.105
1743150861.205,-1000.000,-1000.000,-531.250,-1000.000
1743150861.162,166.504,156.738,-395.996,119.141
1743150861.166,-1000.000,-1000.000,-172.363,-1000.000
1743150861.170,-897.949,-987.305,324.707,-687.988
1743150861.174,395.508,250.000,497.070,655.762
1743150861.178,999.512,999.512,-4.883,999.512
1743150861.182,380.859,646.973,-318.848,186.523
1743150861.186,-952.148,-716.797,-228.027,-1000.000
1743150861.189,-1000.000,-1000.000,-175.781,-994.141
1743150861.193,-952.148,-936.523,-146.484,-968.262
1743150861.197,-1000.000,-1000.000,-453.125,-1000.000
1743150861.201,-930.176,-929.199,-787.598,-933.105
1743150861.205,-1000.000,-1000.000,-531.250,-1000.000
1743150861.224,-332.520,-358.887,-83.008,-288.574
1743150861.228,931.641,931.152,-95.215,937.500
1743150861.232,999.512,999.512,-506.836,999.512
1743150861.236,750.000,835.449,-865.234,469.238
1743150861.240,-619.141,-478.516,-658.691,-937.988
1743150861.244,-1000.000,-1000.000,-114.746,-1000.000
1743150861.248,102.051,34.668,91.797,312.012
1743150861.251,999.512,999.512,-258.301,999.512
1743150861.255,264.648,270.508,-853.027,160.156
1743150861.259,-963.867,-967.773,-880.371,-998.535
1743150861.263,-1000.000,-1000.000,-300.781,-1000.000
1743150861.267,-183.105,-182.617,23.926,-136.230
1743150861.224,-332.520,-358.887,-83.008,-288.574
1743150861.228,931.641,931.152,-95.215,937.500
1743150861.232,999.512,999.512,-506.836,999.512
1743150861.236,750.000,835.449,-865.234,469.238
1743150861.240,-619.141,-478.516,-658.691,-937.988
1743150861.244,-1000.000,-1000.000,-114.746,-1000.000
1743150861.248,102.051,34.668,91.797,312.012
1743150861.251,999.512,999.512,-258.301,999.512
1743150861.255,264.648,270.508,-853.027,160.156
1743150861.259,-963.867,-967.773,-880.371,-998.535
1743150861.263,-1000.000,-1000.000,-300.781,-1000.000
1743150861.267,-183.105,-182.617,23.926,-136.230
1743150861.267,999.512,999.512,-79.102,999.512
1743150861.271,949.707,950.195,-219.727,943.359
1743150861.275,938.965,939.941,-104.980,943.848
1743150861.279,981.934,985.352,-87.891,977.051
1743150861.283,895.020,888.672,112.793,899.902
1743150861.287,999.512,999.512,345.703,999.512
1743150861.291,344.238,427.246,-22.949,249.023
1743150861.294,-991.211,-958.008,-319.824,-1000.000
1743150861.298,-979.004,-985.840,-67.871,-1000.000
1743150861.302,-1000.000,-1000.000,308.105,-903.320
1743150861.306,21.484,-54.688,370.117,412.598
1743150861.310,999.512,999.512,-109.863,999.512
1743150861.267,999.512,999.512,-79.102,999.512
1743150861.271,949.707,950.195,-219.727,943.359
1743150861.275,938.965,939.941,-104.980,943.848
1743150861.279,981.934,985.352,-87.891,977.051
1743150861.283,895.020,888.672,112.793,899.902
1743150861.287,999.512,999.512,345.703,999.512
1743150861.291,344.238,427.246,-22.949,249.023
1743150861.294,-991.211,-958.008,-319.824,-1000.000
1743150861.298,-979.004,-985.840,-67.871,-1000.000
1743150861.302,-1000.000,-1000.000,308.105,-903.320
1743150861.306,21.484,-54.688,370.117,412.598
1743150861.310,999.512,999.512,-109.863,999.512
1743150861.314,54.688,127.441,-391.602,-218.750
1743150861.318,-1000.000,-1000.000,64.453,-1000.000
1743150861.322,-475.586,-569.336,545.410,-326.172
1743150861.326,867.188,804.688,544.922,956.055
1743150861.330,999.512,999.512,-78.125,999.512
1743150861.334,112.793,144.043,-361.328,-106.934
1743150861.338,-1000.000,-1000.000,148.438,-1000.000
1743150861.341,-1000.000,-1000.000,453.613,-849.121
1743150861.345,83.984,-27.832,428.223,425.293
1743150861.349,999.512,999.512,-6.836,999.512
1743150861.353,196.777,198.730,-511.230,46.875
1743150861.357,-1000.000,-1000.000,-233.398,-1000.000
1743150861.314,54.688,127.441,-391.602,-218.750
1743150861.318,-1000.000,-1000.000,64.453,-1000.000
1743150861.322,-475.586,-569.336,545.410,-326.172
1743150861.326,867.188,804.688,544.922,956.055
1743150861.330,999.512,999.512,-78.125,999.512
1743150861.334,112.793,144.043,-361.328,-106.934
1743150861.338,-1000.000,-1000.000,148.438,-1000.000
1743150861.341,-1000.000,-1000.000,453.613,-849.121
1743150861.345,83.984,-27.832,428.223,425.293
1743150861.349,999.512,999.512,-6.836,999.512
1743150861.353,196.777,198.730,-511.230,46.875
1743150861.357,-1000.000,-1000.000,-233.398,-1000.000
1743150861.357,-693.848,-806.641,372.070,-492.676
1743150861.361,697.266,554.688,498.535,844.238
1743150861.365,999.512,999.512,26.855,999.512
1743150861.369,171.875,161.133,-396.484,140.625
1743150861.373,-1000.000,-1000.000,-348.145,-1000.000
1743150861.377,-900.879,-961.914,297.852,-689.941
1743150861.381,420.410,319.824,687.500,673.828
1743150861.384,999.512,999.512,133.789,999.512
1743150861.388,125.488,121.582,-535.645,113.770
1743150861.392,-1000.000,-1000.000,-329.590,-1000.000
1743150861.396,-1000.000,-1000.000,394.043,-1000.000
1743150861.400,-161.133,-247.070,779.297,10.254
1743150861.404,999.512,999.512,478.027,999.512
1743150861.408,467.773,588.867,-131.836,263.672
1743150861.412,-887.695,-798.340,-19.043,-971.191
1743150861.416,-1000.000,-1000.000,439.453,-1000.000
1743150861.420,-232.422,-249.023,592.285,-228.516
1743150861.424,999.512,999.512,455.566,999.512
1743150861.428,695.312,801.758,-74.707,493.652
1743150861.431,-685.059,-545.898,-383.301,-867.188
1743150861.435,-1000.000,-1000.000,47.363,-1000.000
1743150861.439,-240.723,-311.035,578.613,-233.887
1743150861.443,999.512,999.512,468.750,999.512
1743150861.447,765.625,888.672,-167.969,552.246
1743150861.404,999.512,999.512,478.027,999.512
1743150861.408,467.773,588.867,-131.836,263.672
1743150861.412,-887.695,-798.340,-19.043,-971.191
1743150861.416,-1000.000,-1000.000,439.453,-1000.000
1743150861.420,-232.422,-249.023,592.285,-228.516
1743150861.424,999.512,999.512,455.566,999.512
1743150861.428,695.312,801.758,-74.707,493.652
1743150861.431,-685.059,-545.898,-383.301,-867.188
1743150861.435,-1000.000,-1000.000,47.363,-1000.000
1743150861.439,-240.723,-311.035,578.613,-233.887
1743150861.443,999.512,999.512,468.750,999.512
1743150861.447,765.625,888.672,-167.969,552.246
1743150861.447,-592.773,-434.570,-505.371,-818.359
1743150861.451,-1000.000,-1000.000,-104.492,-1000.000
1743150861.455,-291.504,-348.145,482.422,-230.469
1743150861.459,941.895,896.973,398.438,999.512
1743150861.463,999.512,999.512,-184.082,916.504
1743150861.467,-23.438,157.227,-339.844,-334.961
1743150861.471,-1000.000,-1000.000,45.410,-1000.000
1743150861.474,-420.410,-465.332,436.523,-300.293
1743150861.478,967.773,944.824,256.348,999.512
1743150861.482,987.305,999.512,-368.164,754.883
1743150861.486,-354.492,-245.117,-598.145,-619.141
1743150861.490,-1000.000,-1000.000,-144.043,-1000.000
1743150861.494,-1000.000,-1000.000,304.199,-832.031
1743150861.498,111.816,23.438,432.617,407.715
1743150861.502,999.512,999.512,59.570,999.512
1743150861.506,200.195,208.008,-410.645,84.473
1743150861.510,-1000.000,-1000.000,-159.668,-1000.000
1743150861.514,-474.121,-507.812,521.484,-361.328
1743150861.518,888.184,867.188,708.496,942.383
1743150861.521,999.512,999.512,20.020,999.512
1743150861.525,129.883,134.766,-621.094,20.020
1743150861.529,-996.582,-994.141,-428.711,-1000.000
1743150861.533,-1000.000,-1000.000,165.527,-1000.000
1743150861.537,-261.230,-265.625,354.980,-94.727
1743150861.494,-1000.000,-1000.000,304.199,-832.031
1743150861.498,111.816,23.438,432.617,407.715
1743150861.502,999.512,999.512,59.570,999.512
1743150861.506,200.195,208.008,-410.645,84.473
1743150861.510,-1000.000,-1000.000,-159.668,-1000.000
1743150861.514,-474.121,-507.812,521.484,-361.328
1743150861.518,888.184,867.188,708.496,942.383
1743150861.521,999.512,999.512,20.020,999.512
1743150861.525,129.883,134.766,-621.094,20.020
1743150861.529,-996.582,-994.141,-428.711,-1000.000
1743150861.533,-1000.000,-1000.000,165.527,-1000.000
1743150861.537,-261.230,-265.625,354.980,-94.727
1743150861.539,999.512,999.512,113.770,999.512
1743150861.543,235.352,348.145,-430.664,154.785
1743150861.547,-1000.000,-966.309,-463.379,-1000.000
1743150861.551,-1000.000,-1000.000,-45.410,-1000.000
1743150861.555,-259.277,-248.535,173.828,-190.430
1743150861.559,999.512,999.512,-12.695,999.512
1743150861.563,601.074,787.109,-503.906,375.977
1743150861.566,-793.945,-559.082,-651.855,-938.477
1743150861.570,-1000.000,-1000.000,-395.020,-1000.000
1743150861.574,-227.051,-316.406,71.289,-236.328
1743150861.578,999.512,999.512,196.777,999.512
1743150861.582,746.094,862.793,-380.859,482.422
1743150861.539,999.512,999.512,113.770,999.512
1743150861.543,235.352,348.145,-430.664,154.785
1743150861.547,-1000.000,-966.309,-463.379,-1000.000
1743150861.551,-1000.000,-1000.000,-45.410,-1000.000
1743150861.555,-259.277,-248.535,173.828,-190.430
1743150861.559,999.512,999.512,-12.695,999.512
1743150861.563,601.074,787.109,-503.906,375.977
1743150861.566,-793.945,-559.082,-651.855,-938.477
1743150861.570,-1000.000,-1000.000,-395.020,-1000.000
1743150861.574,-227.051,-316.406,71.289,-236.328
1743150861.578,999.512,999.512,196.777,999.512
1743150861.582,746.094,862.793,-380.859,482.422
1743150861.598,-627.441,-496.094,-576.660,-878.906
1743150861.602,-1000.000,-1000.000,-94.238,-1000.000
1743150861.606,-228.516,-221.680,260.254,-200.684
1743150861.610,999.512,999.512,138.184,999.512
1743150861.614,549.316,648.438,-405.273,355.957
1743150861.618,-881.836,-786.621,-437.988,-959.961
1743150861.622,-1000.000,-1000.000,-194.824,-1000.000
1743150861.625,-1000.000,-1000.000,-295.898,-809.082
1743150861.629,49.316,-26.367,-244.629,455.078
1743150861.633,999.512,999.512,-400.879,999.512
1743150861.637,203.613,206.543,-605.469,57.617
1743150861.641,-1000.000,-1000.000,-307.617,-1000.000
1743150861.598,-627.441,-496.094,-576.660,-878.906
1743150861.602,-1000.000,-1000.000,-94.238,-1000.000
1743150861.606,-228.516,-221.680,260.254,-200.684
1743150861.610,999.512,999.512,138.184,999.512
1743150861.614,549.316,648.438,-405.273,355.957
1743150861.618,-881.836,-786.621,-437.988,-959.961
1743150861.622,-1000.000,-1000.000,-194.824,-1000.000
1743150861.625,-1000.000,-1000.000,-295.898,-809.082
1743150861.629,49.316,-26.367,-244.629,455.078
1743150861.633,999.512,999.512,-400.879,999.512
1743150861.637,203.613,206.543,-605.469,57.617
1743150861.641,-1000.000,-1000.000,-307.617,-1000.000
1743150861.643,-535.645,-656.250,120.605,-355.957
1743150861.647,852.539,738.770,263.672,962.402
1743150861.651,999.512,999.512,-165.039,999.512
1743150861.655,186.523,200.195,-494.629,-51.270
1743150861.659,-1000.000,-1000.000,-123.535,-1000.000
1743150861.663,-430.664,-470.703,341.797,-285.645
1743150861.667,925.293,904.785,500.000,993.652
1743150861.670,999.512,999.512,17.090,999.512
1743150861.674,46.387,53.711,-549.316,-131.836
1743150861.678,-1000.000,-1000.000,-192.383,-1000.000
1743150861.682,-794.434,-950.195,449.219,-583.496
1743150861.686,533.691,298.340,721.680,749.512
1743150861.689,999.512,999.512,216.797,999.512
1743150861.693,195.312,191.406,-340.332,71.289
1743150861.697,-1000.000,-1000.000,16.602,-1000.000
1743150861.701,-549.805,-645.508,575.684,-392.578
1743150861.705,834.473,730.469,692.871,906.250
1743150861.709,999.512,999.512,257.324,999.512
1743150861.713,202.637,341.309,-125.000,145.996
1743150861.716,-1000.000,-968.750,-139.648,-1000.000
1743150861.720,-995.605,-1000.000,112.305,-984.375
1743150861.724,-967.285,-955.566,120.605,-973.145
1743150861.728,-1000.000,-1000.000,-444.824,-1000.000
1743150861.732,-929.688,-929.199,-831.543,-932.617
1743150861.732,-1000.000,-1000.000,-629.395,-1000.000
1743150861.736,-361.328,-377.441,8.301,-312.500
1743150861.740,985.840,979.004,549.805,999.512
1743150861.744,973.145,977.051,223.145,966.309
1743150861.748,927.734,927.246,-246.094,932.129
1743150861.752,992.188,988.281,-120.117,991.211
1743150861.756,901.367,895.020,250.977,904.785
1743150861.759,999.512,999.512,452.148,999.512
1743150861.763,703.613,392.578,-13.672,735.352
1743150861.767,-737.305,-996.094,-681.641,-691.895
1743150861.771,-1000.000,-947.266,-570.801,-1000.000
1743150861.775,-1000.000,-1000.000,36.621,-1000.000
1743150861.779,-340.332,-479.004,429.688,-290.527
1743150861.783,999.512,965.820,385.254,999.512
1743150861.787,830.078,977.051,-180.176,609.863
1743150861.791,-525.391,-347.168,-478.027,-763.184
1743150861.795,-1000.000,-1000.000,-125.977,-1000.000
1743150861.799,-185.059,-174.805,503.906,-196.777
1743150861.803,999.512,999.512,575.684,999.512
1743150861.806,982.422,999.512,-134.277,766.113
1743150861.810,-220.703,-75.684,-384.766,-551.758
1743150861.814,-1000.000,-1000.000,51.758,-1000.000
1743150861.818,-470.215,-589.355,481.445,-330.078
1743150861.822,876.953,778.809,497.070,996.094
1743150861.822,999.512,999.512,-66.895,911.133
1743150861.826,-151.855,-57.129,-425.781,-394.043
1743150861.830,-1000.000,-1000.000,-31.738,-1000.000
1743150861.834,-1000.000,-1000.000,120.605,-776.367
1743150861.838,59.570,20.020,-70.801,454.590
1743150861.842,999.512,999.512,-267.578,999.512
1743150861.846,404.297,652.832,-444.336,216.309
1743150861.849,-893.066,-672.363,-508.301,-987.793
1743150861.853,-1000.000,-1000.000,-278.320,-1000.000
1743150861.857,-235.840,-213.379,243.652,-80.078
1743150861.861,999.512,999.512,229.492,999.512
1743150861.865,688.965,790.039,-150.391,382.812
1743150861.865,688.965,790.039,-150.391,382.812
1743150861.869,-696.289,-566.406,-31.738,-955.566
1743150861.873,-1000.000,-1000.000,283.691,-1000.000
1743150861.877,-215.332,-224.609,309.082,7.324
1743150861.881,999.512,999.512,48.340,999.512
1743150861.885,254.395,314.453,-318.848,178.711
1743150861.889,-1000.000,-990.234,-10.254,-1000.000
1743150861.893,-1000.000,-1000.000,487.793,-1000.000
1743150861.896,-80.566,-175.781,408.691,175.293
1743150861.900,999.512,999.512,-127.441,999.512
1743150861.904,146.973,219.727,-655.762,126.465
1743150861.908,-1000.000,-1000.000,-484.863,-1000.000
1743150861.912,-1000.000,-1000.000,-67.383,-1000.000
1743150861.869,-696.289,-566.406,-31.738,-955.566
1743150861.873,-1000.000,-1000.000,283.691,-1000.000
1743150861.877,-215.332,-224.609,309.082,7.324
1743150861.881,999.512,999.512,48.340,999.512
1743150861.885,254.395,314.453,-318.848,178.711
1743150861.889,-1000.000,-990.234,-10.254,-1000.000
1743150861.893,-1000.000,-1000.000,487.793,-1000.000
1743150861.896,-80.566,-175.781,408.691,175.293
1743150861.900,999.512,999.512,-127.441,999.512
1743150861.904,146.973,219.727,-655.762,126.465
1743150861.908,-1000.000,-1000.000,-484.863,-1000.000
1743150861.912,-1000.000,-1000.000,-67.383,-1000.000
1743150861.928,-254.395,-305.176,138.184,-210.938
1743150861.932,999.512,999.512,-8.789,999.512
1743150861.936,750.000,872.070,-438.477,484.863
1743150861.940,-644.531,-486.328,-375.977,-912.109
1743150861.944,-1000.000,-1000.000,118.652,-1000.000
1743150861.948,-69.336,-99.121,633.789,57.617
1743150861.952,999.512,999.512,524.414,999.512
1743150861.955,728.027,806.152,-222.168,501.953
1743150861.959,-594.238,-485.840,-479.980,-813.477
1743150861.963,-1000.000,-1000.000,-70.312,-1000.000
1743150861.967,-362.793,-454.102,314.453,-262.207
1743150861.971,999.512,962.891,79.102,999.512
1743150861.974,748.535,895.996,-531.250,520.020
1743150861.978,-664.062,-497.070,-729.980,-855.469
1743150861.982,-1000.000,-1000.000,-241.699,-1000.000
1743150861.986,-155.273,-152.344,340.820,-151.855
1743150861.990,960.449,964.844,176.758,974.121
1743150861.994,999.512,999.512,-344.238,999.512
1743150861.998,203.613,199.219,-489.746,145.996
1743150862.001,-1000.000,-1000.000,-284.668,-1000.000
1743150862.005,-932.617,-1000.000,120.605,-679.199
1743150862.009,370.605,158.691,328.125,689.941
1743150862.013,999.512,999.512,-53.711,999.512
1743150862.017,190.918,187.012,-467.773,85.449
1743150862.017,-1000.000,-1000.000,-256.348,-1000.000
1743150862.021,-631.348,-767.578,242.188,-439.941
1743150862.025,764.160,606.445,466.309,901.367
1743150862.029,999.512,999.512,-139.160,999.512
1743150862.033,195.801,190.918,-627.441,81.055
1743150862.037,-1000.000,-1000.000,-146.973,-1000.000
1743150862.041,-671.387,-670.898,295.898,-496.094
1743150862.044,729.980,724.121,454.102,876.465
1743150862.048,999.512,999.512,-20.996,999.512
1743150862.052,99.609,125.000,-747.070,-42.969
1743150862.056,-1000.000,-1000.000,-434.570,-1000.000
1743150862.060,-1000.000,-1000.000,109.375,-889.160
1743150862.017,-1000.000,-1000.000,-256.348,-1000.000
1743150862.021,-631.348,-767.578,242.188,-439.941
1743150862.025,764.160,606.445,466.309,901.367
1743150862.029,999.512,999.512,-139.160,999.512
1743150862.033,195.801,190.918,-627.441,81.055
1743150862.037,-1000.000,-1000.000,-146.973,-1000.000
1743150862.041,-671.387,-670.898,295.898,-496.094
1743150862.044,729.980,724.121,454.102,876.465
1743150862.048,999.512,999.512,-20.996,999.512
1743150862.052,99.609,125.000,-747.070,-42.969
1743150862.056,-1000.000,-1000.000,-434.570,-1000.000
1743150862.060,-1000.000,-1000.000,109.375,-889.160
1743150862.064,66.895,-19.531,275.391,328.613
1743150862.068,999.512,999.512,71.289,999.512
1743150862.072,620.605,747.070,-245.605,381.836
1743150862.076,-753.906,-609.863,-179.199,-958.008
1743150862.080,-1000.000,-1000.000,236.328,-1000.000
1743150862.084,34.180,1.953,794.434,205.078
1743150862.088,999.512,999.512,574.219,999.512
1743150862.091,395.508,452.148,-216.309,245.605
1743150862.095,-907.715,-879.395,-213.379,-977.051
1743150862.099,-1000.000,-1000.000,132.812,-1000.000
1743150862.103,-219.727,-206.055,379.883,-125.000
1743150862.107,999.512,999.512,321.777,999.512
1743150862.064,66.895,-19.531,275.391,328.613
1743150862.068,999.512,999.512,71.289,999.512
1743150862.072,620.605,747.070,-245.605,381.836
1743150862.076,-753.906,-609.863,-179.199,-958.008
1743150862.080,-1000.000,-1000.000,236.328,-1000.000
1743150862.084,34.180,1.953,794.434,205.078
1743150862.088,999.512,999.512,574.219,999.512
1743150862.091,395.508,452.148,-216.309,245.605
1743150862.095,-907.715,-879.395,-213.379,-977.051
1743150862.099,-1000.000,-1000.000,132.812,-1000.000
1743150862.103,-219.727,-206.055,379.883,-125.000
1743150862.107,999.512,999.512,321.777,999.512
1743150862.107,875.000,944.336,-216.797,618.164
1743150862.111,-450.195,-324.707,-83.984,-764.160
1743150862.115,-1000.000,-1000.000,552.734,-1000.000
1743150862.119,-115.723,-155.762,852.051,50.781
1743150862.123,990.723,971.680,670.410,999.512
1743150862.127,999.512,999.512,203.613,934.082
1743150862.131,15.625,134.277,229.492,-282.227
1743150862.134,-1000.000,-1000.000,728.027,-1000.000
1743150862.138,-1000.000,-1000.000,837.402,-1000.000
1743150862.142,-268.066,-307.617,619.141,-252.930
1743150862.146,999.512,999.512,450.684,999.512
1743150862.150,703.125,847.656,389.648,385.254
1743150862.107,875.000,944.336,-216.797,618.164
1743150862.111,-450.195,-324.707,-83.984,-764.160
1743150862.115,-1000.000,-1000.000,552.734,-1000.000
1743150862.119,-115.723,-155.762,852.051,50.781
1743150862.123,990.723,971.680,670.410,999.512
1743150862.127,999.512,999.512,203.613,934.082
1743150862.131,15.625,134.277,229.492,-282.227
1743150862.134,-1000.000,-1000.000,728.027,-1000.000
1743150862.138,-1000.000,-1000.000,837.402,-1000.000
1743150862.142,-268.066,-307.617,619.141,-252.930
1743150862.146,999.512,999.512,450.684,999.512
1743150862.150,703.125,847.656,389.648,385.254
1743150862.154,-740.723,-565.430,426.270,-996.094
1743150862.158,-1000.000,-1000.000,625.488,-1000.000
1743150862.162,-951.660,-926.758,637.207,-969.727
1743150862.166,-948.730,-959.473,-91.797,-952.637
1743150862.170,-1000.000,-1000.000,-520.020,-1000.000
1743150862.174,-717.285,-96.680,19.531,-771.973
1743150862.178,684.570,999.512,781.250,582.031
1743150862.181,999.512,907.227,727.051,999.512
1743150862.185,944.336,999.512,-123.535,752.930
1743150862.189,-191.895,-103.516,-607.910,-471.191
1743150862.193,-1000.000,-1000.000,-336.914,-1000.000
1743150862.197,-872.559,-964.844,195.312,-669.434
1743150862.154,-740.723,-565.430,426.270,-996.094
1743150862.158,-1000.000,-1000.000,625.488,-1000.000
1743150862.162,-951.660,-926.758,637.207,-969.727
1743150862.166,-948.730,-959.473,-91.797,-952.637
1743150862.170,-1000.000,-1000.000,-520.020,-1000.000
1743150862.174,-717.285,-96.680,19.531,-771.973
1743150862.178,684.570,999.512,781.250,582.031
1743150862.181,999.512,907.227,727.051,999.512
1743150862.185,944.336,999.512,-123.535,752.930
1743150862.189,-191.895,-103.516,-607.910,-471.191
1743150862.193,-1000.000,-1000.000,-336.914,-1000.000
1743150862.197,-872.559,-964.844,195.312,-669.434
1743150862.199,362.793,220.215,425.293,611.816
1743150862.203,999.512,999.512,102.051,999.512
1743150862.207,164.551,167.969,-376.953,154.785
1743150862.211,-1000.000,-1000.000,-199.707,-1000.000
1743150862.215,-921.875,-990.234,369.141,-769.531
1743150862.219,373.535,247.559,727.051,579.102
1743150862.223,999.512,999.512,289.551,999.512
1743150862.226,238.770,339.355,-432.129,171.875
1743150862.230,-987.793,-932.129,-535.645,-1000.000
1743150862.234,-1000.000,-1000.000,59.570,-998.535
1743150862.238,1.465,-104.004,637.695,229.004
1743150862.242,999.512,999.512,213.867,999.512
1743150862.244,168.457,173.828,-569.336,170.898
1743150862.248,-1000.000,-1000.000,-460.938,-1000.000
1743150862.252,-1000.000,-1000.000,285.156,-869.141
1743150862.256,200.195,112.305,799.316,424.316
1743150862.260,999.512,999.512,278.809,999.512
1743150862.264,826.660,973.633,-450.684,559.082
1743150862.268,-415.039,-132.324,-379.395,-722.656
1743150862.271,-1000.000,-1000.000,-162.598,-1000.000
1743150862.275,-209.473,-325.195,249.512,-205.566
1743150862.279,999.512,999.512,264.160,999.512
1743150862.283,795.410,919.922,-344.238,592.285
1743150862.287,-559.082,-411.621,-480.957,-784.668
1743150862.244,168.457,173.828,-569.336,170.898
1743150862.248,-1000.000,-1000.000,-460.938,-1000.000
1743150862.252,-1000.000,-1000.000,285.156,-869.141
1743150862.256,200.195,112.305,799.316,424.316
1743150862.260,999.512,999.512,278.809,999.512
1743150862.264,826.660,973.633,-450.684,559.082
1743150862.268,-415.039,-132.324,-379.395,-722.656
1743150862.271,-1000.000,-1000.000,-162.598,-1000.000
1743150862.275,-209.473,-325.195,249.512,-205.566
1743150862.279,999.512,999.512,264.160,999.512
1743150862.283,795.410,919.922,-344.238,592.285
1743150862.287,-559.082,-411.621,-480.957,-784.668
1743150862.287,-1000.000,-1000.000,32.227,-1000.000
1743150862.291,-202.148,-187.500,519.531,-154.297
1743150862.295,999.512,999.512,413.086,999.512
1743150862.299,866.699,961.914,-321.289,666.504
1743150862.303,-450.684,-260.742,-605.469,-701.172
1743150862.307,-1000.000,-1000.000,-55.176,-1000.000
1743150862.311,-213.379,-211.426,506.348,-199.219
1743150862.314,999.512,999.512,321.289,999.512
1743150862.318,750.977,821.777,-485.352,588.379
1743150862.322,-592.773,-488.281,-942.383,-772.461
1743150862.326,-1000.000,-1000.000,-619.141,-1000.000
1743150862.330,-401.367,-483.887,4.395,-260.742
1743150862.348,852.539,799.316,258.301,924.805
1743150862.352,999.512,999.512,-185.547,999.512
1743150862.356,241.211,319.336,-425.293,195.312
1743150862.360,-1000.000,-964.844,-91.309,-1000.000
1743150862.364,-1000.000,-1000.000,234.375,-861.328
1743150862.368,140.625,82.031,524.414,469.238
1743150862.372,999.512,999.512,151.367,999.512
1743150862.375,157.227,151.367,-627.930,93.262
1743150862.379,-1000.000,-1000.000,-370.605,-1000.000
1743150862.383,-1000.000,-1000.000,157.227,-766.113
1743150862.387,200.195,49.805,250.000,564.453
1743150862.391,999.512,999.512,-92.773,999.512
1743150862.348,852.539,799.316,258.301,924.805
1743150862.352,999.512,999.512,-185.547,999.512
1743150862.356,241.211,319.336,-425.293,195.312
1743150862.360,-1000.000,-964.844,-91.309,-1000.000
1743150862.364,-1000.000,-1000.000,234.375,-861.328
1743150862.368,140.625,82.031,524.414,469.238
1743150862.372,999.512,999.512,151.367,999.512
1743150862.375,157.227,151.367,-627.930,93.262
1743150862.379,-1000.000,-1000.000,-370.605,-1000.000
1743150862.383,-1000.000,-1000.000,157.227,-766.113
1743150862.387,200.195,49.805,250.000,564.453
1743150862.391,999.512,999.512,-92.773,999.512
1743150862.392,145.508,178.223,-667.969,167.969
1743150862.396,-1000.000,-1000.000,-537.109,-1000.000
1743150862.400,-1000.000,-1000.000,43.457,-862.793
1743150862.404,112.793,36.133,241.699,434.082
1743150862.408,999.512,999.512,-174.316,999.512
1743150862.412,885.254,990.234,-536.621,626.465
1743150862.416,-322.754,-104.492,-360.840,-644.531
1743150862.419,-1000.000,-1000.000,10.254,-1000.000
1743150862.423,-254.395,-442.383,140.625,-183.594
1743150862.427,999.512,923.340,-132.812,999.512
1743150862.431,889.648,999.512,-475.098,613.281
