timestamps,TP9,AF7,AF8,TP10
1743153816.269,999.512,36.133,-2.441,999.512
1743153816.273,615.234,11.719,5.371,435.547
1743153816.277,-753.906,-3.418,18.066,-901.367
1743153816.281,-1000.000,19.531,18.555,-1000.000
1743153816.285,-88.379,21.973,41.016,122.070
1743153816.289,996.094,20.996,43.945,999.512
1743153816.293,999.512,26.855,29.785,923.340
1743153816.296,63.965,-1.953,36.621,-177.734
1743153816.300,-1000.000,-11.719,24.902,-1000.000
1743153816.304,-459.961,34.180,20.996,-282.715
1743153816.308,868.164,44.922,22.461,949.707
1743153816.312,999.512,23.926,22.461,999.512
1743153816.313,202.148,-10.742,8.301,97.168
1743153816.317,-1000.000,-31.738,0.488,-1000.000
1743153816.321,-715.332,25.879,0.977,-427.734
1743153816.325,669.434,45.898,-1.953,885.254
1743153816.329,999.512,18.066,22.461,999.512
1743153816.333,152.832,-1.953,36.133,172.363
1743153816.337,-1000.000,-20.996,21.484,-1000.000
1743153816.340,-1000.000,-2.930,6.836,-738.770
1743153816.344,180.176,26.367,12.207,601.074
1743153816.348,999.512,15.625,21.484,999.512
1743153816.352,173.828,-26.855,17.090,151.855
1743153816.356,-1000.000,-26.367,-4.395,-1000.000
1743153816.313,202.148,-10.742,8.301,97.168
1743153816.317,-1000.000,-31.738,0.488,-1000.000
1743153816.321,-715.332,25.879,0.977,-427.734
1743153816.325,669.434,45.898,-1.953,885.254
1743153816.329,999.512,18.066,22.461,999.512
1743153816.333,152.832,-1.953,36.133,172.363
1743153816.337,-1000.000,-20.996,21.484,-1000.000
1743153816.340,-1000.000,-2.930,6.836,-738.770
1743153816.344,180.176,26.367,12.207,601.074
1743153816.348,999.512,15.625,21.484,999.512
1743153816.352,173.828,-26.855,17.090,151.855
1743153816.356,-1000.000,-26.367,-4.395,-1000.000
1743153816.360,-886.230,31.738,-5.859,-605.957
1743153816.364,440.430,65.430,20.996,749.023
1743153816.368,999.512,37.598,29.785,999.512
1743153816.372,177.734,-12.695,20.508,164.062
1743153816.376,-1000.000,-39.551,23.438,-1000.000
1743153816.380,-807.617,-2.930,35.645,-575.684
1743153816.384,555.176,42.480,42.969,786.621
1743153816.387,999.512,22.949,20.508,999.512
1743153816.391,127.930,-22.949,-16.602,89.355
1743153816.395,-1000.000,-16.113,-0.488,-1000.000
1743153816.399,-1000.000,-9.766,43.945,-1000.000
1743153816.403,-132.812,-3.418,65.918,96.191
1743153816.360,-886.230,31.738,-5.859,-605.957
1743153816.364,440.430,65.430,20.996,749.023
1743153816.368,999.512,37.598,29.785,999.512
1743153816.372,177.734,-12.695,20.508,164.062
1743153816.376,-1000.000,-39.551,23.438,-1000.000
1743153816.380,-807.617,-2.930,35.645,-575.684
1743153816.384,555.176,42.480,42.969,786.621
1743153816.387,999.512,22.949,20.508,999.512
1743153816.391,127.930,-22.949,-16.602,89.355
1743153816.395,-1000.000,-16.113,-0.488,-1000.000
1743153816.399,-1000.000,-9.766,43.945,-1000.000
1743153816.403,-132.812,-3.418,65.918,96.191
1743153816.404,999.512,35.156,52.734,999.512
1743153816.408,493.652,6.836,41.504,310.059
1743153816.412,-867.188,-18.555,53.711,-958.008
1743153816.416,-1000.000,11.719,48.828,-1000.000
1743153816.420,-221.191,30.273,41.992,-119.629
1743153816.424,999.512,31.250,31.250,999.512
1743153816.428,796.875,-1.953,11.230,543.457
1743153816.431,-551.758,-35.156,-5.859,-791.016
1743153816.435,-1000.000,-7.812,-4.883,-1000.000
1743153816.439,-203.613,44.434,25.391,-200.195
1743153816.443,981.445,37.598,51.270,999.512
1743153816.447,999.512,0.488,42.969,855.957
1743153816.404,999.512,35.156,52.734,999.512
1743153816.408,493.652,6.836,41.504,310.059
1743153816.412,-867.188,-18.555,53.711,-958.008
1743153816.416,-1000.000,11.719,48.828,-1000.000
1743153816.420,-221.191,30.273,41.992,-119.629
1743153816.424,999.512,31.250,31.250,999.512
1743153816.428,796.875,-1.953,11.230,543.457
1743153816.431,-551.758,-35.156,-5.859,-791.016
1743153816.435,-1000.000,-7.812,-4.883,-1000.000
1743153816.439,-203.613,44.434,25.391,-200.195
1743153816.443,981.445,37.598,51.270,999.512
1743153816.447,999.512,0.488,42.969,855.957
1743153816.404,999.512,35.156,52.734,999.512
1743153816.408,493.652,6.836,41.504,310.059
1743153816.412,-867.188,-18.555,53.711,-958.008
1743153816.416,-1000.000,11.719,48.828,-1000.000
1743153816.420,-221.191,30.273,41.992,-119.629
1743153816.424,999.512,31.250,31.250,999.512
1743153816.428,796.875,-1.953,11.230,543.457
1743153816.431,-551.758,-35.156,-5.859,-791.016
1743153816.435,-1000.000,-7.812,-4.883,-1000.000
1743153816.439,-203.613,44.434,25.391,-200.195
1743153816.443,981.445,37.598,51.270,999.512
1743153816.447,999.512,0.488,42.969,855.957
1743153816.449,-58.105,-19.531,27.344,-407.227
1743153816.453,-1000.000,-12.207,16.602,-1000.000
1743153816.457,-326.172,23.438,9.277,-256.348
1743153816.461,949.707,32.715,12.207,999.512
1743153816.465,999.512,0.977,14.160,901.367
1743153816.469,-6.836,-13.672,2.930,-354.980
1743153816.473,-1000.000,-4.395,-12.695,-1000.000
1743153816.476,-299.805,25.879,-3.906,-250.977
1743153816.480,999.512,34.180,21.484,999.512
1743153816.484,987.305,-6.836,31.250,729.004
1743153816.488,-244.141,-34.668,28.320,-605.469
1743153816.492,-1000.000,-13.184,31.250,-1000.000
1743153816.449,-58.105,-19.531,27.344,-407.227
1743153816.453,-1000.000,-12.207,16.602,-1000.000
1743153816.457,-326.172,23.438,9.277,-256.348
1743153816.461,949.707,32.715,12.207,999.512
1743153816.465,999.512,0.977,14.160,901.367
1743153816.469,-6.836,-13.672,2.930,-354.980
1743153816.473,-1000.000,-4.395,-12.695,-1000.000
1743153816.476,-299.805,25.879,-3.906,-250.977
1743153816.480,999.512,34.180,21.484,999.512
1743153816.484,987.305,-6.836,31.250,729.004
1743153816.488,-244.141,-34.668,28.320,-605.469
1743153816.492,-1000.000,-13.184,31.250,-1000.000
1743153816.494,-437.012,25.391,23.438,-326.172
1743153816.498,850.586,35.645,0.000,923.828
1743153816.502,999.512,10.254,-11.719,999.512
1743153816.506,189.941,-6.836,1.953,15.625
1743153816.510,-1000.000,12.207,9.766,-1000.000
1743153816.514,-851.562,49.805,11.230,-615.234
1743153816.518,491.699,61.523,20.996,722.168
1743153816.521,999.512,51.758,18.066,999.512
1743153816.525,138.672,44.434,8.301,66.406
1743153816.529,-1000.000,43.457,4.883,-1000.000
1743153816.533,-1000.000,71.289,20.508,-925.293
1743153816.537,30.762,97.656,44.434,302.246
1743153816.494,-437.012,25.391,23.438,-326.172
1743153816.498,850.586,35.645,0.000,923.828
1743153816.502,999.512,10.254,-11.719,999.512
1743153816.506,189.941,-6.836,1.953,15.625
1743153816.510,-1000.000,12.207,9.766,-1000.000
1743153816.514,-851.562,49.805,11.230,-615.234
1743153816.518,491.699,61.523,20.996,722.168
1743153816.521,999.512,51.758,18.066,999.512
1743153816.525,138.672,44.434,8.301,66.406
1743153816.529,-1000.000,43.457,4.883,-1000.000
1743153816.533,-1000.000,71.289,20.508,-925.293
1743153816.537,30.762,97.656,44.434,302.246
1743153816.494,-437.012,25.391,23.438,-326.172
1743153816.498,850.586,35.645,0.000,923.828
1743153816.502,999.512,10.254,-11.719,999.512
1743153816.506,189.941,-6.836,1.953,15.625
1743153816.510,-1000.000,12.207,9.766,-1000.000
1743153816.514,-851.562,49.805,11.230,-615.234
1743153816.518,491.699,61.523,20.996,722.168
1743153816.521,999.512,51.758,18.066,999.512
1743153816.525,138.672,44.434,8.301,66.406
1743153816.529,-1000.000,43.457,4.883,-1000.000
1743153816.533,-1000.000,71.289,20.508,-925.293
1743153816.537,30.762,97.656,44.434,302.246
1743153816.554,999.512,92.285,45.898,999.512
1743153816.558,212.402,77.637,25.391,165.039
1743153816.562,-1000.000,88.379,0.488,-1000.000
1743153816.566,-1000.000,133.789,-7.812,-973.633
1743153816.570,-1.465,174.316,-9.277,239.258
1743153816.574,999.512,184.570,-16.602,999.512
1743153816.578,784.668,204.590,-11.230,491.211
1743153816.581,-489.258,207.031,-42.480,-731.934
1743153816.585,-1000.000,186.523,-54.199,-1000.000
1743153816.589,-324.219,222.656,-26.367,-243.164
1743153816.593,900.391,240.234,-37.109,974.609
1743153816.597,999.512,210.449,-16.602,999.512
1743153816.554,999.512,92.285,45.898,999.512
1743153816.558,212.402,77.637,25.391,165.039
1743153816.562,-1000.000,88.379,0.488,-1000.000
1743153816.566,-1000.000,133.789,-7.812,-973.633
1743153816.570,-1.465,174.316,-9.277,239.258
1743153816.574,999.512,184.570,-16.602,999.512
1743153816.578,784.668,204.590,-11.230,491.211
1743153816.581,-489.258,207.031,-42.480,-731.934
1743153816.585,-1000.000,186.523,-54.199,-1000.000
1743153816.589,-324.219,222.656,-26.367,-243.164
1743153816.593,900.391,240.234,-37.109,974.609
1743153816.597,999.512,210.449,-16.602,999.512
1743153816.599,206.543,195.312,39.551,-36.133
1743153816.603,-1000.000,170.410,53.711,-1000.000
1743153816.607,-553.223,184.570,53.223,-375.000
1743153816.611,854.492,181.641,19.531,978.027
1743153816.615,999.512,159.180,-22.461,975.586
1743153816.619,58.594,137.695,-19.531,-234.863
1743153816.623,-1000.000,124.023,-6.348,-1000.000
1743153816.626,-238.770,140.625,22.461,-202.148
1743153816.630,999.512,116.211,35.645,999.512
1743153816.634,929.688,36.133,17.090,691.406
1743153816.638,-345.215,25.391,-2.930,-647.461
1743153816.642,-1000.000,35.645,-1.953,-1000.000
1743153816.599,206.543,195.312,39.551,-36.133
1743153816.603,-1000.000,170.410,53.711,-1000.000
1743153816.607,-553.223,184.570,53.223,-375.000
1743153816.611,854.492,181.641,19.531,978.027
1743153816.615,999.512,159.180,-22.461,975.586
1743153816.619,58.594,137.695,-19.531,-234.863
1743153816.623,-1000.000,124.023,-6.348,-1000.000
1743153816.626,-238.770,140.625,22.461,-202.148
1743153816.630,999.512,116.211,35.645,999.512
1743153816.634,929.688,36.133,17.090,691.406
1743153816.638,-345.215,25.391,-2.930,-647.461
1743153816.642,-1000.000,35.645,-1.953,-1000.000
1743153816.599,206.543,195.312,39.551,-36.133
1743153816.603,-1000.000,170.410,53.711,-1000.000
1743153816.607,-553.223,184.570,53.223,-375.000
1743153816.611,854.492,181.641,19.531,978.027
1743153816.615,999.512,159.180,-22.461,975.586
1743153816.619,58.594,137.695,-19.531,-234.863
1743153816.623,-1000.000,124.023,-6.348,-1000.000
1743153816.626,-238.770,140.625,22.461,-202.148
1743153816.630,999.512,116.211,35.645,999.512
1743153816.634,929.688,36.133,17.090,691.406
1743153816.638,-345.215,25.391,-2.930,-647.461
1743153816.642,-1000.000,35.645,-1.953,-1000.000
1743153816.645,-174.805,21.484,2.930,-155.762
1743153816.649,961.426,24.902,2.441,981.934
1743153816.653,999.512,10.254,2.441,999.512
1743153816.657,231.934,-37.109,25.879,92.773
1743153816.661,-1000.000,-52.734,14.160,-1000.000
1743153816.665,-461.426,-10.742,-29.297,-303.711
1743153816.669,896.973,-10.742,-4.395,977.539
1743153816.672,999.512,-50.781,18.555,999.512
1743153816.676,176.270,-117.676,6.348,16.602
1743153816.680,-1000.000,-132.324,2.441,-1000.000
1743153816.684,-771.973,-76.172,9.277,-511.719
1743153816.688,594.727,-48.340,9.766,808.105
1743153816.645,-174.805,21.484,2.930,-155.762
1743153816.649,961.426,24.902,2.441,981.934
1743153816.653,999.512,10.254,2.441,999.512
1743153816.657,231.934,-37.109,25.879,92.773
1743153816.661,-1000.000,-52.734,14.160,-1000.000
1743153816.665,-461.426,-10.742,-29.297,-303.711
1743153816.669,896.973,-10.742,-4.395,977.539
1743153816.672,999.512,-50.781,18.555,999.512
1743153816.676,176.270,-117.676,6.348,16.602
1743153816.680,-1000.000,-132.324,2.441,-1000.000
1743153816.684,-771.973,-76.172,9.277,-511.719
1743153816.688,594.727,-48.340,9.766,808.105
1743153816.689,999.512,-70.312,4.395,999.512
1743153816.693,163.086,-107.910,45.898,170.898
1743153816.697,-1000.000,-114.746,93.750,-1000.000
1743153816.701,-940.430,-91.797,74.219,-710.938
1743153816.705,325.195,-77.148,51.270,621.094
1743153816.709,999.512,-73.242,64.941,999.512
1743153816.713,375.488,-104.492,38.574,269.043
1743153816.716,-900.879,-135.254,-4.395,-987.305
1743153816.720,-1000.000,-113.281,4.883,-1000.000
1743153816.724,-183.105,-90.820,34.668,62.988
1743153816.728,999.512,-80.566,73.730,999.512
1743153816.732,700.195,-91.797,98.633,468.750
1743153816.689,999.512,-70.312,4.395,999.512
1743153816.693,163.086,-107.910,45.898,170.898
1743153816.697,-1000.000,-114.746,93.750,-1000.000
1743153816.701,-940.430,-91.797,74.219,-710.938
1743153816.705,325.195,-77.148,51.270,621.094
1743153816.709,999.512,-73.242,64.941,999.512
1743153816.713,375.488,-104.492,38.574,269.043
1743153816.716,-900.879,-135.254,-4.395,-987.305
1743153816.720,-1000.000,-113.281,4.883,-1000.000
1743153816.724,-183.105,-90.820,34.668,62.988
1743153816.728,999.512,-80.566,73.730,999.512
1743153816.732,700.195,-91.797,98.633,468.750
1743153816.734,-667.480,-107.422,83.008,-861.328
1743153816.738,-1000.000,-93.750,46.387,-1000.000
1743153816.742,-214.355,-86.914,36.133,-52.246
1743153816.746,999.512,-76.172,23.438,999.512
1743153816.750,783.203,-87.402,25.879,560.547
1743153816.754,-599.121,-104.004,68.848,-830.078
1743153816.758,-1000.000,-77.148,84.473,-1000.000
1743153816.761,-96.191,-44.434,67.383,138.672
1743153816.765,999.512,-53.711,41.992,999.512
1743153816.769,405.273,-104.492,29.785,265.625
1743153816.773,-919.922,-107.910,19.531,-972.168
1743153816.777,-1000.000,-76.172,52.246,-1000.000
1743153817.244,960.938,-2.930,35.156,719.727
1743153817.248,-294.922,-31.738,-4.883,-620.117
1743153817.252,-1000.000,-16.113,-15.625,-1000.000
1743153817.256,-177.734,18.555,21.484,-163.574
1743153817.260,999.512,24.902,55.176,999.512
1743153817.264,999.512,-9.766,53.711,857.422
1743153817.268,-106.934,-46.387,54.688,-406.738
1743153817.271,-1000.000,-34.668,75.195,-1000.000
1743153817.275,-289.062,-5.371,71.289,-208.008
1743153817.279,948.242,-4.883,66.406,999.512
1743153817.283,999.512,-27.832,82.031,991.211
1743153817.287,81.543,-59.082,85.449,-155.762
1743153816.779,-197.754,-57.129,83.496,-137.695
1743153816.783,999.512,-59.082,75.195,999.512
1743153816.787,999.512,-65.918,51.758,821.289
1743153816.791,-150.879,-55.664,41.504,-454.590
1743153816.795,-1000.000,-63.477,54.688,-1000.000
1743153816.799,-193.848,-43.945,67.383,-183.594
1743153816.803,998.047,-29.785,59.570,999.512
1743153816.806,999.512,-46.387,37.598,911.621
1743153816.810,-34.668,-78.613,42.969,-304.688
1743153816.814,-1000.000,-95.215,42.480,-1000.000
1743153816.818,-519.531,-37.109,22.949,-347.656
1743153816.822,819.824,13.184,39.062,899.902
1743153816.779,-197.754,-57.129,83.496,-137.695
1743153816.783,999.512,-59.082,75.195,999.512
1743153816.787,999.512,-65.918,51.758,821.289
1743153816.791,-150.879,-55.664,41.504,-454.590
1743153816.795,-1000.000,-63.477,54.688,-1000.000
1743153816.799,-193.848,-43.945,67.383,-183.594
1743153816.803,998.047,-29.785,59.570,999.512
1743153816.806,999.512,-46.387,37.598,911.621
1743153816.810,-34.668,-78.613,42.969,-304.688
1743153816.814,-1000.000,-95.215,42.480,-1000.000
1743153816.818,-519.531,-37.109,22.949,-347.656
1743153816.822,819.824,13.184,39.062,899.902
1743153816.779,-197.754,-57.129,83.496,-137.695
1743153816.783,999.512,-59.082,75.195,999.512
1743153816.787,999.512,-65.918,51.758,821.289
1743153816.791,-150.879,-55.664,41.504,-454.590
1743153816.795,-1000.000,-63.477,54.688,-1000.000
1743153816.799,-193.848,-43.945,67.383,-183.594
1743153816.803,998.047,-29.785,59.570,999.512
1743153816.806,999.512,-46.387,37.598,911.621
1743153816.810,-34.668,-78.613,42.969,-304.688
1743153816.814,-1000.000,-95.215,42.480,-1000.000
1743153816.818,-519.531,-37.109,22.949,-347.656
1743153816.822,819.824,13.184,39.062,899.902
1743153816.825,999.512,0.488,64.941,999.512
1743153816.829,177.734,-45.410,52.246,148.438
1743153816.833,-1000.000,-55.664,43.945,-1000.000
1743153816.837,-899.414,-18.555,51.758,-651.367
1743153816.841,394.531,-8.301,48.828,671.875
1743153816.845,999.512,-25.391,43.457,999.512
1743153816.849,595.215,-42.969,28.320,416.016
1743153816.852,-702.637,-52.734,28.320,-841.309
1743153816.856,-1000.000,-36.133,46.387,-1000.000
1743153816.860,-247.070,-3.906,51.270,-227.051
1743153816.864,970.215,6.348,54.688,999.512
1743153816.868,999.512,-9.277,58.594,842.285
1743153816.825,999.512,0.488,64.941,999.512
1743153816.829,177.734,-45.410,52.246,148.438
1743153816.833,-1000.000,-55.664,43.945,-1000.000
1743153816.837,-899.414,-18.555,51.758,-651.367
1743153816.841,394.531,-8.301,48.828,671.875
1743153816.845,999.512,-25.391,43.457,999.512
1743153816.849,595.215,-42.969,28.320,416.016
1743153816.852,-702.637,-52.734,28.320,-841.309
1743153816.856,-1000.000,-36.133,46.387,-1000.000
1743153816.860,-247.070,-3.906,51.270,-227.051
1743153816.864,970.215,6.348,54.688,999.512
1743153816.868,999.512,-9.277,58.594,842.285
1743153816.825,999.512,0.488,64.941,999.512
1743153816.829,177.734,-45.410,52.246,148.438
1743153816.833,-1000.000,-55.664,43.945,-1000.000
1743153816.837,-899.414,-18.555,51.758,-651.367
1743153816.841,394.531,-8.301,48.828,671.875
1743153816.845,999.512,-25.391,43.457,999.512
1743153816.849,595.215,-42.969,28.320,416.016
1743153816.852,-702.637,-52.734,28.320,-841.309
1743153816.856,-1000.000,-36.133,46.387,-1000.000
1743153816.860,-247.070,-3.906,51.270,-227.051
1743153816.864,970.215,6.348,54.688,999.512
1743153816.868,999.512,-9.277,58.594,842.285
1743153816.869,-104.980,-18.555,45.898,-430.664
1743153816.873,-1000.000,0.000,40.039,-1000.000
1743153816.877,-204.102,38.574,61.035,-186.523
1743153816.881,999.512,33.691,67.383,999.512
1743153816.885,937.500,5.371,60.547,649.414
1743153816.889,-325.684,-22.461,46.387,-680.664
1743153816.893,-1000.000,-10.742,-15.137,-1000.000
1743153816.896,-228.516,24.902,-22.461,-203.613
1743153816.900,979.492,25.391,42.480,999.512
1743153816.904,999.512,-1.465,73.730,862.793
1743153816.908,-61.035,-27.832,76.172,-396.484
1743153816.912,-1000.000,-11.230,72.754,-1000.000
1743153816.869,-104.980,-18.555,45.898,-430.664
1743153816.873,-1000.000,0.000,40.039,-1000.000
1743153816.877,-204.102,38.574,61.035,-186.523
1743153816.881,999.512,33.691,67.383,999.512
1743153816.885,937.500,5.371,60.547,649.414
1743153816.889,-325.684,-22.461,46.387,-680.664
1743153816.893,-1000.000,-10.742,-15.137,-1000.000
1743153816.896,-228.516,24.902,-22.461,-203.613
1743153816.900,979.492,25.391,42.480,999.512
1743153816.904,999.512,-1.465,73.730,862.793
1743153816.908,-61.035,-27.832,76.172,-396.484
1743153816.912,-1000.000,-11.230,72.754,-1000.000
1743153816.929,-257.324,42.480,60.059,-201.172
1743153816.933,962.402,50.293,56.641,999.512
1743153816.937,999.512,24.414,55.176,996.582
1743153816.941,118.164,-22.461,27.344,-130.371
1743153816.945,-1000.000,-30.762,18.555,-1000.000
1743153816.949,-382.324,35.156,31.738,-259.766
1743153816.953,929.688,42.969,28.320,995.605
1743153816.956,999.512,5.371,34.180,999.512
1743153816.960,104.492,-4.395,61.035,-102.539
1743153816.964,-1000.000,10.254,62.988,-1000.000
1743153816.968,-759.277,43.945,44.922,-527.344
1743153816.972,590.820,55.176,25.391,802.734
1743153816.929,-257.324,42.480,60.059,-201.172
1743153816.933,962.402,50.293,56.641,999.512
1743153816.937,999.512,24.414,55.176,996.582
1743153816.941,118.164,-22.461,27.344,-130.371
1743153816.945,-1000.000,-30.762,18.555,-1000.000
1743153816.949,-382.324,35.156,31.738,-259.766
1743153816.953,929.688,42.969,28.320,995.605
1743153816.956,999.512,5.371,34.180,999.512
1743153816.960,104.492,-4.395,61.035,-102.539
1743153816.964,-1000.000,10.254,62.988,-1000.000
1743153816.968,-759.277,43.945,44.922,-527.344
1743153816.972,590.820,55.176,25.391,802.734
1743153816.929,-257.324,42.480,60.059,-201.172
1743153816.933,962.402,50.293,56.641,999.512
1743153816.937,999.512,24.414,55.176,996.582
1743153816.941,118.164,-22.461,27.344,-130.371
1743153816.945,-1000.000,-30.762,18.555,-1000.000
1743153816.949,-382.324,35.156,31.738,-259.766
1743153816.953,929.688,42.969,28.320,995.605
1743153816.956,999.512,5.371,34.180,999.512
1743153816.960,104.492,-4.395,61.035,-102.539
1743153816.964,-1000.000,10.254,62.988,-1000.000
1743153816.968,-759.277,43.945,44.922,-527.344
1743153816.972,590.820,55.176,25.391,802.734
1743153816.974,999.512,22.949,3.906,999.512
1743153816.978,194.336,-22.949,17.090,23.438
1743153816.982,-1000.000,-42.480,49.316,-1000.000
1743153816.986,-588.867,14.160,47.852,-399.414
1743153816.990,799.316,60.547,40.039,897.949
1743153816.994,999.512,34.180,41.992,999.512
1743153816.998,195.312,-4.883,38.086,159.668
1743153817.001,-991.699,-14.160,43.457,-1000.000
1743153817.005,-1000.000,16.602,45.410,-988.770
1743153817.009,-65.918,38.086,19.043,201.172
1743153817.013,999.512,31.250,5.371,999.512
1743153817.017,212.402,-8.789,15.137,164.551
1743153816.974,999.512,22.949,3.906,999.512
1743153816.978,194.336,-22.949,17.090,23.438
1743153816.982,-1000.000,-42.480,49.316,-1000.000
1743153816.986,-588.867,14.160,47.852,-399.414
1743153816.990,799.316,60.547,40.039,897.949
1743153816.994,999.512,34.180,41.992,999.512
1743153816.998,195.312,-4.883,38.086,159.668
1743153817.001,-991.699,-14.160,43.457,-1000.000
1743153817.005,-1000.000,16.602,45.410,-988.770
1743153817.009,-65.918,38.086,19.043,201.172
1743153817.013,999.512,31.250,5.371,999.512
1743153817.017,212.402,-8.789,15.137,164.551
1743153816.974,999.512,22.949,3.906,999.512
1743153816.978,194.336,-22.949,17.090,23.438
1743153816.982,-1000.000,-42.480,49.316,-1000.000
1743153816.986,-588.867,14.160,47.852,-399.414
1743153816.990,799.316,60.547,40.039,897.949
1743153816.994,999.512,34.180,41.992,999.512
1743153816.998,195.312,-4.883,38.086,159.668
1743153817.001,-991.699,-14.160,43.457,-1000.000
1743153817.005,-1000.000,16.602,45.410,-988.770
1743153817.009,-65.918,38.086,19.043,201.172
1743153817.013,999.512,31.250,5.371,999.512
1743153817.017,212.402,-8.789,15.137,164.551
1743153817.019,-1000.000,-8.789,28.809,-1000.000
1743153817.023,-1000.000,17.578,33.203,-813.477
1743153817.027,186.035,34.180,29.297,488.281
1743153817.031,999.512,47.363,31.250,999.512
1743153817.035,363.770,19.531,29.297,247.070
1743153817.039,-960.938,4.395,23.926,-1000.000
1743153817.043,-1000.000,28.320,29.785,-873.535
1743153817.046,132.324,53.223,30.762,447.754
1743153817.050,999.512,27.832,21.484,999.512
1743153817.054,143.066,-35.156,14.648,130.859
1743153817.058,-1000.000,-24.414,2.930,-1000.000
1743153817.062,-1000.000,36.133,11.230,-963.379
1743153817.019,-1000.000,-8.789,28.809,-1000.000
1743153817.023,-1000.000,17.578,33.203,-813.477
1743153817.027,186.035,34.180,29.297,488.281
1743153817.031,999.512,47.363,31.250,999.512
1743153817.035,363.770,19.531,29.297,247.070
1743153817.039,-960.938,4.395,23.926,-1000.000
1743153817.043,-1000.000,28.320,29.785,-873.535
1743153817.046,132.324,53.223,30.762,447.754
1743153817.050,999.512,27.832,21.484,999.512
1743153817.054,143.066,-35.156,14.648,130.859
1743153817.058,-1000.000,-24.414,2.930,-1000.000
1743153817.062,-1000.000,36.133,11.230,-963.379
1743153817.019,-1000.000,-8.789,28.809,-1000.000
1743153817.023,-1000.000,17.578,33.203,-813.477
1743153817.027,186.035,34.180,29.297,488.281
1743153817.031,999.512,47.363,31.250,999.512
1743153817.035,363.770,19.531,29.297,247.070
1743153817.039,-960.938,4.395,23.926,-1000.000
1743153817.043,-1000.000,28.320,29.785,-873.535
1743153817.046,132.324,53.223,30.762,447.754
1743153817.050,999.512,27.832,21.484,999.512
1743153817.054,143.066,-35.156,14.648,130.859
1743153817.058,-1000.000,-24.414,2.930,-1000.000
1743153817.062,-1000.000,36.133,11.230,-963.379
1743153817.079,-12.207,58.105,27.832,234.863
1743153817.083,999.512,53.711,36.621,999.512
1743153817.087,602.539,25.391,46.387,391.113
1743153817.091,-741.699,5.371,59.082,-895.020
1743153817.095,-1000.000,-1.953,68.359,-1000.000
1743153817.099,-221.680,4.883,73.242,-118.164
1743153817.103,999.512,22.949,69.824,999.512
1743153817.106,716.309,-4.395,40.527,483.887
1743153817.110,-661.621,-34.180,18.555,-859.375
1743153817.114,-1000.000,-15.625,12.207,-1000.000
1743153817.118,-192.383,31.250,31.250,-145.508
1743153817.122,999.512,24.414,59.570,999.512
1743153817.079,-12.207,58.105,27.832,234.863
1743153817.083,999.512,53.711,36.621,999.512
1743153817.087,602.539,25.391,46.387,391.113
1743153817.091,-741.699,5.371,59.082,-895.020
1743153817.095,-1000.000,-1.953,68.359,-1000.000
1743153817.099,-221.680,4.883,73.242,-118.164
1743153817.103,999.512,22.949,69.824,999.512
1743153817.106,716.309,-4.395,40.527,483.887
1743153817.110,-661.621,-34.180,18.555,-859.375
1743153817.114,-1000.000,-15.625,12.207,-1000.000
1743153817.118,-192.383,31.250,31.250,-145.508
1743153817.122,999.512,24.414,59.570,999.512
1743153817.109,955.078,-25.391,71.777,714.844
1743153817.113,-294.922,-42.969,83.008,-605.957
1743153817.117,-1000.000,-34.180,86.426,-1000.000
1743153817.121,-236.816,-10.254,100.586,-202.148
1743153817.125,975.586,-3.906,106.445,999.512
1743153817.129,999.512,-29.785,80.566,902.344
1743153817.133,-50.293,-34.668,62.012,-324.219
1743153817.136,-1000.000,-25.391,51.758,-1000.000
1743153817.140,-698.242,-10.254,41.992,-473.633
1743153817.144,630.371,10.742,38.574,820.801
1743153817.148,999.512,-15.625,58.594,999.512
1743153817.152,145.020,-47.852,81.055,63.477
1743153817.109,955.078,-25.391,71.777,714.844
1743153817.113,-294.922,-42.969,83.008,-605.957
1743153817.117,-1000.000,-34.180,86.426,-1000.000
1743153817.121,-236.816,-10.254,100.586,-202.148
1743153817.125,975.586,-3.906,106.445,999.512
1743153817.129,999.512,-29.785,80.566,902.344
1743153817.133,-50.293,-34.668,62.012,-324.219
1743153817.136,-1000.000,-25.391,51.758,-1000.000
1743153817.140,-698.242,-10.254,41.992,-473.633
1743153817.144,630.371,10.742,38.574,820.801
1743153817.148,999.512,-15.625,58.594,999.512
1743153817.152,145.020,-47.852,81.055,63.477
1743153817.154,-1000.000,-41.016,74.219,-1000.000
1743153817.158,-1000.000,-23.926,39.551,-878.418
1743153817.162,82.031,0.977,25.879,379.395
1743153817.166,999.512,1.465,65.430,999.512
1743153817.170,220.703,-38.574,79.102,174.316
1743153817.174,-1000.000,-41.504,56.641,-1000.000
1743153817.178,-1000.000,-10.254,37.598,-800.781
1743153817.181,205.078,7.324,45.410,525.391
1743153817.185,999.512,8.789,55.664,999.512
1743153817.189,139.648,-32.715,54.199,122.070
1743153817.193,-1000.000,-59.082,33.203,-1000.000
1743153817.197,-1000.000,-36.621,34.180,-940.430
1743153817.199,8.789,-1.953,61.523,295.898
1743153817.203,999.512,4.395,39.551,999.512
1743153817.207,173.828,-10.742,-6.836,130.859
1743153817.211,-1000.000,-18.555,-9.277,-1000.000
1743153817.215,-1000.000,-31.250,27.832,-1000.000
1743153817.219,-116.211,-11.719,55.664,90.332
1743153817.223,999.512,7.812,44.922,999.512
1743153817.226,609.863,-35.156,22.461,396.484
1743153817.230,-754.395,-56.641,36.621,-888.184
1743153817.234,-1000.000,-16.113,24.414,-1000.000
1743153817.238,-195.312,20.996,1.465,-207.031
1743153817.242,999.512,28.809,31.738,999.512
1743153817.199,8.789,-1.953,61.523,295.898
1743153817.203,999.512,4.395,39.551,999.512
1743153817.207,173.828,-10.742,-6.836,130.859
1743153817.211,-1000.000,-18.555,-9.277,-1000.000
1743153817.215,-1000.000,-31.250,27.832,-1000.000
1743153817.219,-116.211,-11.719,55.664,90.332
1743153817.223,999.512,7.812,44.922,999.512
1743153817.226,609.863,-35.156,22.461,396.484
1743153817.230,-754.395,-56.641,36.621,-888.184
1743153817.234,-1000.000,-16.113,24.414,-1000.000
1743153817.238,-195.312,20.996,1.465,-207.031
1743153817.242,999.512,28.809,31.738,999.512
1743153817.304,-1000.000,-64.941,62.012,-1000.000
1743153817.308,-410.156,-30.762,67.871,-249.512
1743153817.312,899.414,-12.207,101.074,961.426
1743153817.316,999.512,-13.184,119.141,999.512
1743153817.320,212.402,-41.992,90.820,130.371
1743153817.324,-1000.000,-79.102,62.988,-1000.000
1743153817.328,-625.000,-38.086,69.824,-410.645
1743153817.331,770.020,7.324,65.918,912.109
1743153817.335,999.512,-12.207,87.891,999.512
1743153817.339,172.363,-53.223,81.055,114.746
1743153817.343,-1000.000,-67.383,77.148,-1000.000
1743153817.347,-924.316,-24.414,95.215,-682.129
1743153817.364,378.418,19.043,77.148,655.762
1743153817.368,999.512,-12.695,62.500,999.512
1743153817.372,184.570,-54.688,56.152,163.086
1743153817.376,-1000.000,-41.992,53.223,-1000.000
1743153817.380,-1000.000,-9.277,50.781,-862.305
1743153817.384,115.723,13.184,29.785,431.152
1743153817.388,999.512,6.836,31.738,999.512
1743153817.391,322.266,-31.250,23.926,220.215
1743153817.395,-942.871,-41.504,11.719,-1000.000
1743153817.399,-1000.000,-16.113,28.809,-1000.000
1743153817.403,-162.598,17.090,40.527,29.297
1743153817.407,999.512,8.789,64.941,999.512
1743153817.394,628.906,-34.180,75.195,421.387
1743153817.398,-748.047,-34.180,52.246,-900.879
1743153817.402,-1000.000,0.000,49.805,-1000.000
1743153817.406,-182.617,23.438,44.922,-41.992
1743153817.410,999.512,24.414,17.578,999.512
1743153817.414,980.469,-4.395,17.090,754.883
1743153817.418,-224.609,-22.461,3.418,-517.090
1743153817.421,-1000.000,-14.160,-28.320,-1000.000
1743153817.425,-424.805,2.930,-20.996,-298.828
1743153817.429,888.184,25.391,12.695,994.141
1743153817.433,999.512,-0.488,45.410,943.848
1743153817.437,-12.207,-37.598,53.711,-290.527
1743153817.394,628.906,-34.180,75.195,421.387
1743153817.398,-748.047,-34.180,52.246,-900.879
1743153817.402,-1000.000,0.000,49.805,-1000.000
1743153817.406,-182.617,23.438,44.922,-41.992
1743153817.410,999.512,24.414,17.578,999.512
1743153817.414,980.469,-4.395,17.090,754.883
1743153817.418,-224.609,-22.461,3.418,-517.090
1743153817.421,-1000.000,-14.160,-28.320,-1000.000
1743153817.425,-424.805,2.930,-20.996,-298.828
1743153817.429,888.184,25.391,12.695,994.141
1743153817.433,999.512,-0.488,45.410,943.848
1743153817.437,-12.207,-37.598,53.711,-290.527
1743153817.440,-1000.000,-25.391,43.945,-1000.000
1743153817.444,-420.898,11.719,20.996,-269.043
1743153817.448,887.695,34.180,8.301,974.609
1743153817.452,999.512,14.648,4.883,999.512
1743153817.456,169.434,-5.371,-0.977,-65.430
1743153817.460,-1000.000,-6.348,29.785,-1000.000
1743153817.464,-373.047,23.438,46.875,-259.277
1743153817.467,945.312,36.621,16.113,999.512
1743153817.471,999.512,2.441,12.695,999.512
1743153817.475,100.586,-20.508,-0.977,-109.375
1743153817.479,-1000.000,-26.367,6.348,-1000.000
1743153817.483,-611.816,16.113,41.992,-401.367
1743153817.440,-1000.000,-25.391,43.945,-1000.000
1743153817.444,-420.898,11.719,20.996,-269.043
1743153817.448,887.695,34.180,8.301,974.609
1743153817.452,999.512,14.648,4.883,999.512
1743153817.456,169.434,-5.371,-0.977,-65.430
1743153817.460,-1000.000,-6.348,29.785,-1000.000
1743153817.464,-373.047,23.438,46.875,-259.277
1743153817.467,945.312,36.621,16.113,999.512
1743153817.471,999.512,2.441,12.695,999.512
1743153817.475,100.586,-20.508,-0.977,-109.375
1743153817.479,-1000.000,-26.367,6.348,-1000.000
1743153817.483,-611.816,16.113,41.992,-401.367
1743153817.484,757.812,55.176,25.391,889.160
1743153817.488,999.512,39.062,15.625,999.512
1743153817.492,154.785,11.230,25.879,110.840
1743153817.496,-1000.000,-3.906,26.367,-1000.000
1743153817.500,-1000.000,-3.906,7.324,-834.961
1743153817.504,145.020,29.297,-4.395,443.359
1743153817.508,999.512,46.875,1.465,999.512
1743153817.511,412.598,9.766,4.395,270.020
1743153817.515,-882.812,-10.742,13.672,-966.309
1743153817.519,-1000.000,16.602,35.156,-1000.000
1743153817.523,-244.629,53.711,51.270,-74.219
1743153817.527,999.512,69.336,25.879,999.512
1743153817.484,757.812,55.176,25.391,889.160
1743153817.488,999.512,39.062,15.625,999.512
1743153817.492,154.785,11.230,25.879,110.840
1743153817.496,-1000.000,-3.906,26.367,-1000.000
1743153817.500,-1000.000,-3.906,7.324,-834.961
1743153817.504,145.020,29.297,-4.395,443.359
1743153817.508,999.512,46.875,1.465,999.512
1743153817.511,412.598,9.766,4.395,270.020
1743153817.515,-882.812,-10.742,13.672,-966.309
1743153817.519,-1000.000,16.602,35.156,-1000.000
1743153817.523,-244.629,53.711,51.270,-74.219
1743153817.527,999.512,69.336,25.879,999.512
1743153817.544,460.938,31.738,-10.254,308.105
1743153817.548,-949.707,16.113,11.719,-1000.000
1743153817.552,-1000.000,62.988,41.504,-952.637
1743153817.556,44.434,96.191,42.480,305.664
1743153817.560,999.512,84.961,18.555,999.512
1743153817.564,561.523,70.312,6.348,344.238
1743153817.568,-775.391,69.824,25.879,-910.645
1743153817.571,-1000.000,88.379,20.996,-1000.000
1743153817.575,-212.891,121.094,15.625,-211.914
1743153817.579,999.512,145.996,13.672,999.512
1743153817.583,903.320,147.949,7.812,656.250
1743153817.587,-399.414,139.160,-3.906,-691.895
1743153817.589,-1000.000,175.781,-7.324,-1000.000
1743153817.593,-183.105,227.051,-27.832,-183.105
1743153817.597,999.512,233.398,-78.125,999.512
1743153817.601,999.512,208.496,-78.125,778.320
1743153817.605,-206.055,171.387,-22.949,-534.180
1743153817.609,-1000.000,181.641,0.977,-1000.000
1743153817.613,-190.430,222.168,-14.648,-188.477
1743153817.616,999.512,220.215,-4.883,999.512
1743153817.620,999.512,191.895,17.090,889.160
1743153817.624,-76.660,151.367,40.039,-348.633
1743153817.628,-1000.000,145.020,33.691,-1000.000
1743153817.632,-644.531,170.410,20.996,-451.172
1743153817.589,-1000.000,175.781,-7.324,-1000.000
1743153817.593,-183.105,227.051,-27.832,-183.105
1743153817.597,999.512,233.398,-78.125,999.512
1743153817.601,999.512,208.496,-78.125,778.320
1743153817.605,-206.055,171.387,-22.949,-534.180
1743153817.609,-1000.000,181.641,0.977,-1000.000
1743153817.613,-190.430,222.168,-14.648,-188.477
1743153817.616,999.512,220.215,-4.883,999.512
1743153817.620,999.512,191.895,17.090,889.160
1743153817.624,-76.660,151.367,40.039,-348.633
1743153817.628,-1000.000,145.020,33.691,-1000.000
1743153817.632,-644.531,170.410,20.996,-451.172
1743153817.618,689.941,150.879,30.762,848.145
1743153817.622,999.512,118.164,15.137,999.512
1743153817.626,184.082,89.844,9.766,25.391
1743153817.630,-1000.000,47.363,18.066,-1000.000
1743153817.634,-784.180,55.664,2.930,-540.527
1743153817.638,585.449,76.172,1.465,795.898
1743153817.642,999.512,20.996,5.859,999.512
1743153817.645,153.320,-65.918,-15.137,114.258
1743153817.649,-1000.000,-78.125,-27.832,-1000.000
1743153817.653,-1000.000,-30.762,-11.719,-791.504
1743153817.657,208.984,-12.207,-6.348,518.066
1743153817.661,999.512,-40.039,-10.742,999.512
1743153817.618,689.941,150.879,30.762,848.145
1743153817.622,999.512,118.164,15.137,999.512
1743153817.626,184.082,89.844,9.766,25.391
1743153817.630,-1000.000,47.363,18.066,-1000.000
1743153817.634,-784.180,55.664,2.930,-540.527
1743153817.638,585.449,76.172,1.465,795.898
1743153817.642,999.512,20.996,5.859,999.512
1743153817.645,153.320,-65.918,-15.137,114.258
1743153817.649,-1000.000,-78.125,-27.832,-1000.000
1743153817.653,-1000.000,-30.762,-11.719,-791.504
1743153817.657,208.984,-12.207,-6.348,518.066
1743153817.661,999.512,-40.039,-10.742,999.512
1743153817.663,211.426,-84.473,-18.066,170.410
1743153817.667,-1000.000,-83.008,-29.297,-1000.000
1743153817.671,-1000.000,-72.266,-37.109,-959.473
1743153817.675,-2.441,-72.266,-18.555,250.000
1743153817.679,999.512,-60.059,18.555,999.512
1743153817.683,702.148,-81.055,15.625,490.723
1743153817.687,-624.023,-96.191,1.465,-833.496
1743153817.690,-1000.000,-81.055,19.043,-1000.000
1743153817.694,-214.355,-73.730,51.758,-16.113
1743153817.698,999.512,-70.801,33.691,999.512
1743153817.702,480.469,-92.285,0.977,312.012
1743153817.706,-912.109,-99.121,2.930,-1000.000
1743153817.753,-1000.000,-65.918,-0.488,-1000.000
1743153817.757,-84.961,-39.062,2.930,112.793
1743153817.761,999.512,-66.895,20.996,999.512
1743153817.765,755.371,-88.867,34.180,523.438
1743153817.769,-577.637,-79.102,33.691,-780.762
1743153817.773,-1000.000,-78.613,31.250,-1000.000
1743153817.777,-187.500,-57.129,33.691,-173.340
1743153817.780,999.512,-30.273,23.926,999.512
1743153817.784,980.469,-41.504,3.906,741.211
1743153817.788,-259.766,-64.941,9.277,-581.055
1743153817.792,-1000.000,-70.801,15.625,-1000.000
1743153817.796,-178.223,-33.691,28.809,-187.988
1743153817.753,-1000.000,-65.918,-0.488,-1000.000
1743153817.757,-84.961,-39.062,2.930,112.793
1743153817.761,999.512,-66.895,20.996,999.512
1743153817.765,755.371,-88.867,34.180,523.438
1743153817.769,-577.637,-79.102,33.691,-780.762
1743153817.773,-1000.000,-78.613,31.250,-1000.000
1743153817.777,-187.500,-57.129,33.691,-173.340
1743153817.780,999.512,-30.273,23.926,999.512
1743153817.784,980.469,-41.504,3.906,741.211
1743153817.788,-259.766,-64.941,9.277,-581.055
1743153817.792,-1000.000,-70.801,15.625,-1000.000
1743153817.796,-178.223,-33.691,28.809,-187.988
1743153817.758,999.512,-16.113,41.992,999.512
1743153817.762,999.512,-51.758,24.902,862.305
1743153817.766,-106.934,-69.824,0.977,-406.738
1743153817.770,-1000.000,-55.664,2.930,-1000.000
1743153817.774,-276.367,-17.090,25.879,-195.801
1743153817.778,938.477,0.977,12.695,982.910
1743153817.782,999.512,-19.043,6.348,999.512
1743153817.785,204.102,-64.453,20.508,36.621
1743153817.789,-1000.000,-83.496,7.812,-1000.000
1743153817.793,-785.156,-38.574,11.719,-547.363
1743153817.797,582.520,-16.113,21.484,783.691
1743153817.801,999.512,-21.484,20.996,999.512
1743153817.758,999.512,-16.113,41.992,999.512
1743153817.762,999.512,-51.758,24.902,862.305
1743153817.766,-106.934,-69.824,0.977,-406.738
1743153817.770,-1000.000,-55.664,2.930,-1000.000
1743153817.774,-276.367,-17.090,25.879,-195.801
1743153817.778,938.477,0.977,12.695,982.910
1743153817.782,999.512,-19.043,6.348,999.512
1743153817.785,204.102,-64.453,20.508,36.621
1743153817.789,-1000.000,-83.496,7.812,-1000.000
1743153817.793,-785.156,-38.574,11.719,-547.363
1743153817.797,582.520,-16.113,21.484,783.691
1743153817.801,999.512,-21.484,20.996,999.512
1743153817.758,999.512,-16.113,41.992,999.512
1743153817.762,999.512,-51.758,24.902,862.305
1743153817.766,-106.934,-69.824,0.977,-406.738
1743153817.770,-1000.000,-55.664,2.930,-1000.000
1743153817.774,-276.367,-17.090,25.879,-195.801
1743153817.778,938.477,0.977,12.695,982.910
1743153817.782,999.512,-19.043,6.348,999.512
1743153817.785,204.102,-64.453,20.508,36.621
1743153817.789,-1000.000,-83.496,7.812,-1000.000
1743153817.793,-785.156,-38.574,11.719,-547.363
1743153817.797,582.520,-16.113,21.484,783.691
1743153817.801,999.512,-21.484,20.996,999.512
1743153817.814,148.926,-36.621,50.781,150.879
1743153817.818,-1000.000,-50.781,40.527,-1000.000
1743153817.822,-1000.000,-23.438,2.441,-824.707
1743153817.826,143.066,-3.906,-3.418,466.309
1743153817.830,999.512,-27.832,20.996,999.512
1743153817.834,412.598,-90.332,33.203,279.785
1743153817.838,-883.301,-86.426,6.836,-962.891
1743153817.841,-1000.000,-45.410,-22.461,-1000.000
1743153817.845,-240.234,-28.809,-12.207,-65.918
1743153817.849,999.512,-25.879,14.648,999.512
1743153817.853,452.637,-60.059,-5.859,292.969
1743153817.857,-916.992,-67.871,-8.301,-1000.000
1743153817.814,148.926,-36.621,50.781,150.879
1743153817.818,-1000.000,-50.781,40.527,-1000.000
1743153817.822,-1000.000,-23.438,2.441,-824.707
1743153817.826,143.066,-3.906,-3.418,466.309
1743153817.830,999.512,-27.832,20.996,999.512
1743153817.834,412.598,-90.332,33.203,279.785
1743153817.838,-883.301,-86.426,6.836,-962.891
1743153817.841,-1000.000,-45.410,-22.461,-1000.000
1743153817.845,-240.234,-28.809,-12.207,-65.918
1743153817.849,999.512,-25.879,14.648,999.512
1743153817.853,452.637,-60.059,-5.859,292.969
1743153817.857,-916.992,-67.871,-8.301,-1000.000
1743153817.859,-1000.000,-38.086,14.648,-1000.000
1743153817.863,-205.566,-12.695,-2.441,-10.254
1743153817.867,999.512,-9.766,-33.691,999.512
1743153817.871,611.328,-44.922,-22.949,416.016
1743153817.875,-785.156,-79.590,-6.348,-935.059
1743153817.879,-1000.000,-39.551,-26.855,-1000.000
1743153817.883,-161.621,-6.836,-10.254,54.199
1743153817.886,999.512,-5.371,29.785,999.512
1743153817.890,601.562,-44.434,34.180,418.457
1743153817.894,-774.414,-73.730,16.113,-880.371
1743153817.898,-1000.000,-25.879,-14.160,-1000.000
1743153817.902,-227.051,10.742,-21.973,-213.867
1743153817.859,-1000.000,-38.086,14.648,-1000.000
1743153817.863,-205.566,-12.695,-2.441,-10.254
1743153817.867,999.512,-9.766,-33.691,999.512
1743153817.871,611.328,-44.922,-22.949,416.016
1743153817.875,-785.156,-79.590,-6.348,-935.059
1743153817.879,-1000.000,-39.551,-26.855,-1000.000
1743153817.883,-161.621,-6.836,-10.254,54.199
1743153817.886,999.512,-5.371,29.785,999.512
1743153817.890,601.562,-44.434,34.180,418.457
1743153817.894,-774.414,-73.730,16.113,-880.371
1743153817.898,-1000.000,-25.879,-14.160,-1000.000
1743153817.902,-227.051,10.742,-21.973,-213.867
1743153817.919,999.512,-16.113,3.418,999.512
1743153817.923,946.777,-49.805,34.180,727.539
1743153817.927,-306.641,-40.039,20.996,-603.027
1743153817.931,-1000.000,-22.949,-3.906,-1000.000
1743153817.935,-323.730,8.301,-14.160,-220.703
1743153817.939,908.203,25.391,-12.207,969.727
1743153817.943,999.512,1.465,5.859,999.512
1743153817.946,143.555,-29.297,9.766,-4.883
1743153817.950,-1000.000,-34.668,23.926,-1000.000
1743153817.954,-1000.000,-38.574,27.832,-864.258
1743153817.958,82.520,8.789,6.348,391.113
1743153817.962,999.512,42.969,0.977,999.512
1743153817.919,999.512,-16.113,3.418,999.512
1743153817.923,946.777,-49.805,34.180,727.539
1743153817.927,-306.641,-40.039,20.996,-603.027
1743153817.931,-1000.000,-22.949,-3.906,-1000.000
1743153817.935,-323.730,8.301,-14.160,-220.703
1743153817.939,908.203,25.391,-12.207,969.727
1743153817.943,999.512,1.465,5.859,999.512
1743153817.946,143.555,-29.297,9.766,-4.883
1743153817.950,-1000.000,-34.668,23.926,-1000.000
1743153817.954,-1000.000,-38.574,27.832,-864.258
1743153817.958,82.520,8.789,6.348,391.113
1743153817.962,999.512,42.969,0.977,999.512
1743153817.949,165.527,-9.277,12.695,109.375
1743153817.953,-1000.000,-28.809,19.043,-1000.000
1743153817.957,-994.629,2.930,4.883,-751.953
1743153817.961,259.766,31.250,-19.043,573.730
1743153817.965,999.512,15.137,-29.297,999.512
1743153817.969,122.559,-18.555,0.977,112.793
1743153817.973,-1000.000,-10.254,23.438,-1000.000
1743153817.976,-1000.000,2.930,-1.465,-1000.000
1743153817.980,-235.352,14.648,-14.648,-5.371
1743153817.984,999.512,33.691,5.371,999.512
1743153817.988,199.219,-18.066,33.203,151.855
1743153817.992,-1000.000,-53.711,56.641,-1000.000
1743153817.994,-1000.000,-30.273,82.031,-1000.000
1743153817.998,-125.000,-2.441,103.516,78.125
1743153818.002,999.512,-19.531,82.520,999.512
1743153818.006,345.703,-64.941,58.105,208.496
1743153818.010,-948.730,-58.594,73.730,-1000.000
1743153818.014,-1000.000,-43.457,110.352,-1000.000
1743153818.018,-248.535,-38.086,124.023,-163.574
1743153818.021,999.512,-30.273,127.441,999.512
1743153818.025,607.422,-65.430,133.789,398.926
1743153818.029,-788.086,-92.773,147.461,-942.383
1743153818.033,-1000.000,-76.172,171.387,-1000.000
1743153818.037,-204.102,-42.480,217.285,-68.848
1743153818.508,966.309,78.125,144.531,966.797
1743153818.512,966.309,50.293,98.145,966.797
1743153818.516,966.309,67.383,101.074,966.797
1743153818.520,966.309,75.684,141.113,967.285
1743153818.524,966.309,52.734,172.852,967.285
1743153818.528,966.309,77.148,177.734,966.797
1743153818.532,973.633,86.914,145.020,974.121
1743153818.535,895.996,75.684,114.746,897.461
1743153818.539,999.512,68.848,95.215,999.512
1743153818.543,317.871,48.828,133.301,320.312
1743153818.547,-1000.000,64.941,220.703,-1000.000
1743153818.551,-1000.000,88.379,207.031,-1000.000
1743153818.038,999.512,-36.621,236.328,999.512
1743153818.042,858.398,-70.312,232.910,622.070
1743153818.046,-463.867,-94.727,274.414,-706.543
1743153818.050,-1000.000,-62.500,266.602,-1000.000
1743153818.054,-154.297,-45.410,215.820,-124.512
1743153818.058,965.820,-66.406,233.398,997.559
1743153818.062,999.512,-63.965,323.730,999.512
1743153818.065,216.309,-66.895,340.332,38.574
1743153818.069,-1000.000,-68.359,271.973,-1000.000
1743153818.073,-665.527,-27.344,295.898,-417.480
1743153818.077,730.957,-30.273,325.684,912.598
1743153818.081,999.512,-53.223,284.668,999.512
1743153818.038,999.512,-36.621,236.328,999.512
1743153818.042,858.398,-70.312,232.910,622.070
1743153818.046,-463.867,-94.727,274.414,-706.543
1743153818.050,-1000.000,-62.500,266.602,-1000.000
1743153818.054,-154.297,-45.410,215.820,-124.512
1743153818.058,965.820,-66.406,233.398,997.559
1743153818.062,999.512,-63.965,323.730,999.512
1743153818.065,216.309,-66.895,340.332,38.574
1743153818.069,-1000.000,-68.359,271.973,-1000.000
1743153818.073,-665.527,-27.344,295.898,-417.480
1743153818.077,730.957,-30.273,325.684,912.598
1743153818.081,999.512,-53.223,284.668,999.512
1743153818.038,999.512,-36.621,236.328,999.512
1743153818.042,858.398,-70.312,232.910,622.070
1743153818.046,-463.867,-94.727,274.414,-706.543
1743153818.050,-1000.000,-62.500,266.602,-1000.000
1743153818.054,-154.297,-45.410,215.820,-124.512
1743153818.058,965.820,-66.406,233.398,997.559
1743153818.062,999.512,-63.965,323.730,999.512
1743153818.065,216.309,-66.895,340.332,38.574
1743153818.069,-1000.000,-68.359,271.973,-1000.000
1743153818.073,-665.527,-27.344,295.898,-417.480
1743153818.077,730.957,-30.273,325.684,912.598
1743153818.081,999.512,-53.223,284.668,999.512
1743153818.098,172.363,-63.965,252.441,24.414
1743153818.102,-1000.000,-73.730,239.746,-1000.000
1743153818.106,-497.070,-21.973,213.867,-280.762
1743153818.110,848.633,18.555,236.816,940.430
1743153818.114,999.512,13.184,304.688,999.512
1743153818.118,454.102,-43.945,272.949,387.207
1743153818.122,-833.496,-80.566,239.746,-883.789
1743153818.125,-1000.000,-33.203,194.824,-1000.000
1743153818.129,-329.102,17.090,201.660,-221.191
1743153818.133,880.371,-2.441,310.059,937.012
1743153818.137,999.512,-43.945,334.961,999.512
1743153818.141,458.984,-36.621,328.125,526.855
1743153818.143,-917.480,8.789,325.684,-826.660
1743153818.147,-1000.000,99.609,342.285,-1000.000
1743153818.151,-948.242,92.773,394.043,-944.336
1743153818.155,-952.637,55.176,389.160,-955.078
1743153818.159,-1000.000,55.176,299.316,-1000.000
1743153818.163,-220.703,39.062,251.465,-170.898
1743153818.167,999.512,65.430,263.672,999.512
1743153818.170,883.789,83.008,280.273,876.465
1743153818.174,999.512,84.961,306.641,999.512
1743153818.178,276.367,66.406,277.344,331.543
1743153818.182,-1000.000,44.434,275.391,-1000.000
1743153818.186,-1000.000,47.363,298.340,-786.621
1743153818.143,-917.480,8.789,325.684,-826.660
1743153818.147,-1000.000,99.609,342.285,-1000.000
1743153818.151,-948.242,92.773,394.043,-944.336
1743153818.155,-952.637,55.176,389.160,-955.078
1743153818.159,-1000.000,55.176,299.316,-1000.000
1743153818.163,-220.703,39.062,251.465,-170.898
1743153818.167,999.512,65.430,263.672,999.512
1743153818.170,883.789,83.008,280.273,876.465
1743153818.174,999.512,84.961,306.641,999.512
1743153818.178,276.367,66.406,277.344,331.543
1743153818.182,-1000.000,44.434,275.391,-1000.000
1743153818.186,-1000.000,47.363,298.340,-786.621
1743153818.189,224.609,52.734,279.785,608.887
1743153818.193,999.512,36.621,250.000,999.512
1743153818.197,904.785,28.320,275.391,907.227
1743153818.201,969.727,46.387,347.656,981.934
1743153818.205,900.879,42.969,339.355,898.926
1743153818.209,999.512,32.715,350.098,999.512
1743153818.213,235.352,-24.902,390.625,302.734
1743153818.216,-991.699,-25.391,373.047,-995.117
1743153818.220,-1000.000,-39.062,337.891,-1000.000
1743153818.224,-189.941,-95.703,312.012,33.203
1743153818.228,999.512,-66.406,369.141,999.512
1743153818.232,949.707,-40.039,308.105,925.293
1743153818.189,224.609,52.734,279.785,608.887
1743153818.193,999.512,36.621,250.000,999.512
1743153818.197,904.785,28.320,275.391,907.227
1743153818.201,969.727,46.387,347.656,981.934
1743153818.205,900.879,42.969,339.355,898.926
1743153818.209,999.512,32.715,350.098,999.512
1743153818.213,235.352,-24.902,390.625,302.734
1743153818.216,-991.699,-25.391,373.047,-995.117
1743153818.220,-1000.000,-39.062,337.891,-1000.000
1743153818.224,-189.941,-95.703,312.012,33.203
1743153818.228,999.512,-66.406,369.141,999.512
1743153818.232,949.707,-40.039,308.105,925.293
1743153818.234,938.965,-41.504,367.676,954.590
1743153818.238,979.492,-35.645,596.680,970.703
1743153818.242,937.500,-56.152,615.723,963.867
1743153818.246,956.543,-56.152,535.645,906.250
1743153818.250,999.512,-73.242,428.711,999.512
1743153818.254,-175.781,-105.469,384.766,152.832
1743153818.258,-1000.000,-62.988,327.148,-1000.000
1743153818.261,-150.879,-50.781,297.363,92.285
1743153818.265,999.512,-111.816,354.492,999.512
1743153818.269,888.672,-112.305,371.094,913.086
1743153818.273,999.512,-76.172,258.789,958.984
1743153818.277,196.289,-64.941,205.566,968.750
1743153818.234,938.965,-41.504,367.676,954.590
1743153818.238,979.492,-35.645,596.680,970.703
1743153818.242,937.500,-56.152,615.723,963.867
1743153818.246,956.543,-56.152,535.645,906.250
1743153818.250,999.512,-73.242,428.711,999.512
1743153818.254,-175.781,-105.469,384.766,152.832
1743153818.258,-1000.000,-62.988,327.148,-1000.000
1743153818.261,-150.879,-50.781,297.363,92.285
1743153818.265,999.512,-111.816,354.492,999.512
1743153818.269,888.672,-112.305,371.094,913.086
1743153818.273,999.512,-76.172,258.789,958.984
1743153818.277,196.289,-64.941,205.566,968.750
1743153818.234,938.965,-41.504,367.676,954.590
1743153818.238,979.492,-35.645,596.680,970.703
1743153818.242,937.500,-56.152,615.723,963.867
1743153818.246,956.543,-56.152,535.645,906.250
1743153818.250,999.512,-73.242,428.711,999.512
1743153818.254,-175.781,-105.469,384.766,152.832
1743153818.258,-1000.000,-62.988,327.148,-1000.000
1743153818.261,-150.879,-50.781,297.363,92.285
1743153818.265,999.512,-111.816,354.492,999.512
1743153818.269,888.672,-112.305,371.094,913.086
1743153818.273,999.512,-76.172,258.789,958.984
1743153818.277,196.289,-64.941,205.566,968.750
1743153818.280,-1000.000,-31.738,260.254,966.797
1743153818.284,-915.039,-14.648,282.227,978.027
1743153818.288,368.652,-62.500,266.113,900.391
1743153818.292,999.512,-118.652,254.395,999.512
1743153818.296,172.363,-126.953,208.496,593.750
1743153818.300,-1000.000,-96.191,146.484,-1000.000
1743153818.304,-501.465,-41.992,191.895,-367.676
1743153818.307,929.688,-18.555,191.406,999.512
1743153818.311,998.047,-48.340,159.668,955.078
1743153818.315,918.945,-72.754,194.336,936.523
1743153818.319,962.402,-42.969,194.336,955.078
1743153818.323,934.082,-21.973,149.902,943.359
1743153818.339,999.512,-38.086,173.828,999.512
1743153818.343,-111.816,-73.730,165.039,-145.508
1743153818.347,-1000.000,-44.434,66.895,-1000.000
1743153818.351,-1000.000,-8.301,63.965,-1000.000
1743153818.355,-317.871,-20.020,172.852,-270.508
1743153818.359,999.023,0.488,180.664,999.512
1743153818.363,967.285,5.859,98.633,971.191
1743153818.366,931.152,-41.016,56.152,912.109
1743153818.370,976.074,-67.383,36.133,891.113
1743153818.374,904.297,-34.668,-2.930,908.691
1743153818.378,999.512,-29.785,40.039,999.512
1743153818.382,175.781,-72.266,74.707,79.102
1743153818.339,999.512,-38.086,173.828,999.512
1743153818.343,-111.816,-73.730,165.039,-145.508
1743153818.347,-1000.000,-44.434,66.895,-1000.000
1743153818.351,-1000.000,-8.301,63.965,-1000.000
1743153818.355,-317.871,-20.020,172.852,-270.508
1743153818.359,999.023,0.488,180.664,999.512
1743153818.363,967.285,5.859,98.633,971.191
1743153818.366,931.152,-41.016,56.152,912.109
1743153818.370,976.074,-67.383,36.133,891.113
1743153818.374,904.297,-34.668,-2.930,908.691
1743153818.378,999.512,-29.785,40.039,999.512
1743153818.382,175.781,-72.266,74.707,79.102
1743153818.369,-1000.000,-96.191,31.250,-1000.000
1743153818.373,-982.422,-101.562,8.301,-971.191
1743153818.377,-974.121,-142.090,-41.992,-980.469
1743153818.381,-1000.000,-183.594,-86.914,-1000.000
1743153818.385,-937.500,-180.176,-85.449,-938.965
1743153818.389,-1000.000,-163.574,-60.547,-1000.000
1743153818.393,-221.191,-163.086,-11.230,-205.566
1743153818.396,999.512,-164.551,0.488,999.512
1743153818.400,950.195,-178.223,-69.824,948.730
1743153818.404,938.965,-204.102,-148.926,940.918
1743153818.408,973.145,-228.516,-108.887,973.145
1743153818.412,976.562,-217.285,-12.207,977.539
1743153818.369,-1000.000,-96.191,31.250,-1000.000
1743153818.373,-982.422,-101.562,8.301,-971.191
1743153818.377,-974.121,-142.090,-41.992,-980.469
1743153818.381,-1000.000,-183.594,-86.914,-1000.000
1743153818.385,-937.500,-180.176,-85.449,-938.965
1743153818.389,-1000.000,-163.574,-60.547,-1000.000
1743153818.393,-221.191,-163.086,-11.230,-205.566
1743153818.396,999.512,-164.551,0.488,999.512
1743153818.400,950.195,-178.223,-69.824,948.730
1743153818.404,938.965,-204.102,-148.926,940.918
1743153818.408,973.145,-228.516,-108.887,973.145
1743153818.412,976.562,-217.285,-12.207,977.539
1743153818.428,924.805,-198.242,-10.254,919.434
1743153818.432,985.352,-179.199,-97.656,999.512
1743153818.436,933.594,-174.805,-74.707,829.102
1743153818.440,-405.273,-187.012,-17.090,-509.766
1743153818.444,-1000.000,-180.664,-47.852,-1000.000
1743153818.448,-1000.000,-180.176,-57.617,-1000.000
1743153818.452,-210.938,-158.691,-77.637,-125.488
1743153818.455,999.512,-157.715,-95.703,999.512
1743153818.459,947.754,-178.711,-41.504,938.477
1743153818.463,940.430,-162.109,15.625,946.777
1743153818.467,972.656,-169.434,-7.324,972.168
1743153818.471,966.309,-153.320,-47.852,966.797
1743153818.428,924.805,-198.242,-10.254,919.434
1743153818.432,985.352,-179.199,-97.656,999.512
1743153818.436,933.594,-174.805,-74.707,829.102
1743153818.440,-405.273,-187.012,-17.090,-509.766
1743153818.444,-1000.000,-180.664,-47.852,-1000.000
1743153818.448,-1000.000,-180.176,-57.617,-1000.000
1743153818.452,-210.938,-158.691,-77.637,-125.488
1743153818.455,999.512,-157.715,-95.703,999.512
1743153818.459,947.754,-178.711,-41.504,938.477
1743153818.463,940.430,-162.109,15.625,946.777
1743153818.467,972.656,-169.434,-7.324,972.168
1743153818.471,966.309,-153.320,-47.852,966.797
1743153818.428,924.805,-198.242,-10.254,919.434
1743153818.432,985.352,-179.199,-97.656,999.512
1743153818.436,933.594,-174.805,-74.707,829.102
1743153818.440,-405.273,-187.012,-17.090,-509.766
1743153818.444,-1000.000,-180.664,-47.852,-1000.000
1743153818.448,-1000.000,-180.176,-57.617,-1000.000
1743153818.452,-210.938,-158.691,-77.637,-125.488
1743153818.455,999.512,-157.715,-95.703,999.512
1743153818.459,947.754,-178.711,-41.504,938.477
1743153818.463,940.430,-162.109,15.625,946.777
1743153818.467,972.656,-169.434,-7.324,972.168
1743153818.471,966.309,-153.320,-47.852,966.797
1743153818.473,966.309,-149.414,-13.672,966.797
1743153818.477,966.309,-151.367,25.879,966.797
1743153818.481,966.309,-80.078,85.938,966.797
1743153818.485,966.309,-14.160,119.141,967.285
1743153818.489,966.309,19.531,74.219,966.797
1743153818.493,966.309,36.133,41.016,966.797
1743153818.497,966.309,21.484,93.750,966.797
1743153818.500,966.309,8.301,171.387,966.797
1743153818.504,966.309,5.859,147.949,966.797
1743153818.508,966.309,26.855,133.789,966.797
1743153818.512,966.309,39.551,170.898,966.797
1743153818.516,966.309,65.918,176.270,966.797
1743153818.473,966.309,-149.414,-13.672,966.797
1743153818.477,966.309,-151.367,25.879,966.797
1743153818.481,966.309,-80.078,85.938,966.797
1743153818.485,966.309,-14.160,119.141,967.285
1743153818.489,966.309,19.531,74.219,966.797
1743153818.493,966.309,36.133,41.016,966.797
1743153818.497,966.309,21.484,93.750,966.797
1743153818.500,966.309,8.301,171.387,966.797
1743153818.504,966.309,5.859,147.949,966.797
1743153818.508,966.309,26.855,133.789,966.797
1743153818.512,966.309,39.551,170.898,966.797
1743153818.516,966.309,65.918,176.270,966.797
1743153818.473,966.309,-149.414,-13.672,966.797
1743153818.477,966.309,-151.367,25.879,966.797
1743153818.481,966.309,-80.078,85.938,966.797
1743153818.485,966.309,-14.160,119.141,967.285
1743153818.489,966.309,19.531,74.219,966.797
1743153818.493,966.309,36.133,41.016,966.797
1743153818.497,966.309,21.484,93.750,966.797
1743153818.500,966.309,8.301,171.387,966.797
1743153818.504,966.309,5.859,147.949,966.797
1743153818.508,966.309,26.855,133.789,966.797
1743153818.512,966.309,39.551,170.898,966.797
1743153818.516,966.309,65.918,176.270,966.797
1743153818.565,-962.402,64.941,145.996,-962.402
1743153818.569,-1000.000,58.594,110.352,-1000.000
1743153818.573,-1000.000,69.336,61.523,-1000.000
1743153818.577,-1000.000,80.078,68.359,-1000.000
1743153818.581,-1000.000,79.590,131.836,-1000.000
1743153818.585,-1000.000,69.824,136.230,-1000.000
1743153818.589,-1000.000,75.195,137.207,-1000.000
1743153818.592,-1000.000,79.590,155.273,-1000.000
1743153818.596,-1000.000,65.918,132.812,-1000.000
1743153818.600,-1000.000,44.434,123.047,-1000.000
1743153818.604,-1000.000,43.945,135.254,-1000.000
1743153818.608,-1000.000,62.012,95.215,-1000.000
1743153818.565,-962.402,64.941,145.996,-962.402
1743153818.569,-1000.000,58.594,110.352,-1000.000
1743153818.573,-1000.000,69.336,61.523,-1000.000
1743153818.577,-1000.000,80.078,68.359,-1000.000
1743153818.581,-1000.000,79.590,131.836,-1000.000
1743153818.585,-1000.000,69.824,136.230,-1000.000
1743153818.589,-1000.000,75.195,137.207,-1000.000
1743153818.592,-1000.000,79.590,155.273,-1000.000
1743153818.596,-1000.000,65.918,132.812,-1000.000
1743153818.600,-1000.000,44.434,123.047,-1000.000
1743153818.604,-1000.000,43.945,135.254,-1000.000
1743153818.608,-1000.000,62.012,95.215,-1000.000
1743153818.565,-962.402,64.941,145.996,-962.402
1743153818.569,-1000.000,58.594,110.352,-1000.000
1743153818.573,-1000.000,69.336,61.523,-1000.000
1743153818.577,-1000.000,80.078,68.359,-1000.000
1743153818.581,-1000.000,79.590,131.836,-1000.000
1743153818.585,-1000.000,69.824,136.230,-1000.000
1743153818.589,-1000.000,75.195,137.207,-1000.000
1743153818.592,-1000.000,79.590,155.273,-1000.000
1743153818.596,-1000.000,65.918,132.812,-1000.000
1743153818.600,-1000.000,44.434,123.047,-1000.000
1743153818.604,-1000.000,43.945,135.254,-1000.000
1743153818.608,-1000.000,62.012,95.215,-1000.000
1743153818.624,-1000.000,55.176,42.480,-1000.000
1743153818.628,-1000.000,49.805,59.570,-1000.000
1743153818.632,-1000.000,66.895,146.973,-1000.000
1743153818.636,-1000.000,54.688,157.227,-1000.000
1743153818.640,-1000.000,63.965,117.676,-1000.000
1743153818.644,-1000.000,81.543,115.723,-1000.000
1743153818.648,-1000.000,94.727,59.082,-1000.000
1743153818.651,-1000.000,82.520,89.844,-1000.000
1743153818.655,-1000.000,37.598,149.902,-1000.000
1743153818.659,-1000.000,31.250,112.305,-1000.000
1743153818.663,-1000.000,43.945,91.309,-1000.000
1743153818.667,-1000.000,47.363,76.660,-1000.000
1743153818.653,-1000.000,36.621,85.449,-1000.000
1743153818.657,-1000.000,42.969,121.094,-1000.000
1743153818.661,-1000.000,67.383,64.941,-1000.000
1743153818.665,-1000.000,68.848,23.438,-1000.000
1743153818.669,-1000.000,43.457,83.008,-1000.000
1743153818.673,-1000.000,58.105,157.227,-1000.000
1743153818.677,-1000.000,61.523,149.414,-1000.000
1743153818.680,-1000.000,42.480,91.309,-1000.000
1743153818.684,-1000.000,41.016,102.539,-1000.000
1743153818.688,-1000.000,22.949,98.633,-1000.000
1743153818.692,-1000.000,25.879,44.922,-1000.000
1743153818.696,-1000.000,40.527,27.832,-1000.000
1743153818.653,-1000.000,36.621,85.449,-1000.000
1743153818.657,-1000.000,42.969,121.094,-1000.000
1743153818.661,-1000.000,67.383,64.941,-1000.000
1743153818.665,-1000.000,68.848,23.438,-1000.000
1743153818.669,-1000.000,43.457,83.008,-1000.000
1743153818.673,-1000.000,58.105,157.227,-1000.000
1743153818.677,-1000.000,61.523,149.414,-1000.000
1743153818.680,-1000.000,42.480,91.309,-1000.000
1743153818.684,-1000.000,41.016,102.539,-1000.000
1743153818.688,-1000.000,22.949,98.633,-1000.000
1743153818.692,-1000.000,25.879,44.922,-1000.000
1743153818.696,-1000.000,40.527,27.832,-1000.000
1743153818.653,-1000.000,36.621,85.449,-1000.000
1743153818.657,-1000.000,42.969,121.094,-1000.000
1743153818.661,-1000.000,67.383,64.941,-1000.000
1743153818.665,-1000.000,68.848,23.438,-1000.000
1743153818.669,-1000.000,43.457,83.008,-1000.000
1743153818.673,-1000.000,58.105,157.227,-1000.000
1743153818.677,-1000.000,61.523,149.414,-1000.000
1743153818.680,-1000.000,42.480,91.309,-1000.000
1743153818.684,-1000.000,41.016,102.539,-1000.000
1743153818.688,-1000.000,22.949,98.633,-1000.000
1743153818.692,-1000.000,25.879,44.922,-1000.000
1743153818.696,-1000.000,40.527,27.832,-1000.000
1743153818.699,-1000.000,56.152,70.801,-1000.000
1743153818.703,-1000.000,48.828,131.836,-1000.000
1743153818.707,-1000.000,31.250,167.480,-1000.000
1743153818.711,-1000.000,44.434,110.352,-1000.000
1743153818.715,-1000.000,40.527,100.098,-1000.000
1743153818.719,-1000.000,33.691,146.484,-1000.000
1743153818.723,-1000.000,62.012,123.047,-1000.000
1743153818.726,-1000.000,69.824,133.789,-1000.000
1743153818.730,-1000.000,35.645,135.742,-1000.000
1743153818.734,-948.730,37.109,143.555,-955.566
1743153818.738,-1000.000,62.500,139.160,-1000.000
1743153818.742,-880.859,74.707,103.516,-925.293
1743153818.699,-1000.000,56.152,70.801,-1000.000
1743153818.703,-1000.000,48.828,131.836,-1000.000
1743153818.707,-1000.000,31.250,167.480,-1000.000
1743153818.711,-1000.000,44.434,110.352,-1000.000
1743153818.715,-1000.000,40.527,100.098,-1000.000
1743153818.719,-1000.000,33.691,146.484,-1000.000
1743153818.723,-1000.000,62.012,123.047,-1000.000
1743153818.726,-1000.000,69.824,133.789,-1000.000
1743153818.730,-1000.000,35.645,135.742,-1000.000
1743153818.734,-948.730,37.109,143.555,-955.566
1743153818.738,-1000.000,62.500,139.160,-1000.000
1743153818.742,-880.859,74.707,103.516,-925.293
1743153818.745,507.812,77.637,153.809,422.363
1743153818.749,999.512,83.008,133.789,999.512
1743153818.753,899.902,150.391,145.508,902.832
1743153818.757,977.051,155.762,150.391,974.609
1743153818.761,966.309,107.910,93.262,967.285
1743153818.765,966.309,90.332,151.367,966.797
1743153818.769,966.309,71.289,167.969,966.797
1743153818.772,966.309,87.891,172.363,966.797
1743153818.776,966.309,144.043,211.426,966.797
1743153818.780,966.309,99.609,195.312,966.797
1743153818.784,966.309,20.508,179.688,967.285
1743153818.788,966.309,22.461,178.711,966.797
1743153818.790,966.309,41.992,141.602,966.797
1743153818.794,968.750,36.133,155.273,980.469
1743153818.798,901.855,32.715,227.051,896.973
1743153818.802,999.512,37.109,201.172,999.512
1743153818.806,206.055,7.324,111.328,547.363
1743153818.810,-1000.000,-40.039,132.324,-804.688
1743153818.814,-1000.000,-25.391,177.734,-1000.000
1743153818.817,-948.730,-9.277,111.328,-693.359
1743153818.821,346.680,-16.113,33.203,612.305
1743153818.825,999.512,-33.691,20.508,999.512
1743153818.829,900.391,-39.062,82.031,908.203
1743153818.833,975.098,-12.207,129.395,977.539
1743153818.865,956.055,-20.020,70.801,966.309
1743153818.869,920.898,-29.297,36.621,905.762
1743153818.873,999.512,-24.414,31.250,999.512
1743153818.877,23.438,-44.922,42.969,166.016
1743153818.881,-1000.000,-65.430,66.895,-1000.000
1743153818.885,-964.355,-62.500,95.703,-1000.000
1743153818.889,-992.676,-21.973,70.801,-923.340
1743153818.892,-971.680,1.953,-14.160,-845.703
1743153818.896,-996.582,-12.207,-36.621,-1000.000
1743153818.900,-1000.000,-14.160,20.020,-1000.000
1743153818.904,253.418,12.695,77.148,275.879
1743153818.908,999.512,28.320,75.195,999.512
1743153818.894,901.855,9.277,40.039,905.762
1743153818.898,969.727,-46.875,41.504,969.238
1743153818.902,980.957,-76.172,66.895,979.492
1743153818.906,906.250,-45.898,45.410,915.039
1743153818.910,999.512,4.395,18.555,999.512
1743153818.914,759.277,2.930,-5.371,813.477
1743153818.918,-663.086,-18.066,-0.488,-563.965
1743153818.921,-1000.000,-6.836,51.758,-1000.000
1743153818.925,-935.059,-15.137,58.594,-936.523
1743153818.929,-1000.000,-30.273,65.430,-1000.000
1743153818.933,-1000.000,-19.531,33.691,-998.047
1743153818.937,-938.965,2.930,-37.598,-941.895
1743153818.940,-1000.000,-1.953,-18.555,-1000.000
1743153818.944,-201.660,-1.953,20.996,-174.316
1743153818.948,999.512,16.602,36.133,999.512
1743153818.952,947.266,18.066,72.266,944.824
1743153818.956,940.430,3.418,52.734,943.359
1743153818.960,984.375,-28.809,57.129,982.910
1743153818.964,919.434,-27.832,62.012,924.316
1743153818.967,999.023,-17.578,9.766,992.188
1743153818.971,891.602,-34.180,-24.902,901.367
1743153818.975,-476.562,-9.277,-49.805,-431.152
1743153818.979,-1000.000,21.973,-18.555,-1000.000
1743153818.983,-873.047,8.789,55.664,-884.277
1743153818.984,-1000.000,-12.207,72.266,-1000.000
1743153818.988,-195.801,-20.996,79.590,-125.488
1743153818.992,999.512,-6.348,70.312,999.512
1743153818.996,946.289,16.602,44.434,938.965
1743153819.000,940.918,29.297,55.664,946.289
1743153819.004,972.656,21.484,32.715,971.680
1743153819.008,966.309,20.020,28.320,966.797
1743153819.011,966.309,-1.465,49.316,966.797
1743153819.015,966.309,-27.344,42.969,966.797
1743153819.019,966.309,-17.578,27.344,966.797
1743153819.023,966.309,3.906,-8.301,966.797
1743153819.027,966.309,10.742,1.465,966.797
1743153819.044,966.309,-3.418,67.383,966.797
1743153819.048,966.309,-12.695,82.520,966.797
1743153819.052,966.309,-5.371,49.805,967.285
1743153819.056,966.309,-8.789,23.438,966.797
1743153819.060,966.309,-2.930,61.035,966.797
1743153819.064,966.309,-5.859,98.633,966.797
1743153819.068,966.309,-2.930,82.520,966.797
1743153819.071,966.309,13.672,65.430,966.797
1743153819.075,966.309,4.395,41.016,966.797
1743153819.079,966.309,2.930,5.371,966.797
1743153819.083,966.309,-4.395,-32.227,966.797
1743153819.087,966.309,-18.066,11.719,967.285
1743153819.044,966.309,-3.418,67.383,966.797
1743153819.048,966.309,-12.695,82.520,966.797
1743153819.052,966.309,-5.371,49.805,967.285
1743153819.056,966.309,-8.789,23.438,966.797
1743153819.060,966.309,-2.930,61.035,966.797
1743153819.064,966.309,-5.859,98.633,966.797
1743153819.068,966.309,-2.930,82.520,966.797
1743153819.071,966.309,13.672,65.430,966.797
1743153819.075,966.309,4.395,41.016,966.797
1743153819.079,966.309,2.930,5.371,966.797
1743153819.083,966.309,-4.395,-32.227,966.797
1743153819.087,966.309,-18.066,11.719,967.285
1743153819.044,966.309,-3.418,67.383,966.797
1743153819.048,966.309,-12.695,82.520,966.797
1743153819.052,966.309,-5.371,49.805,967.285
1743153819.056,966.309,-8.789,23.438,966.797
1743153819.060,966.309,-2.930,61.035,966.797
1743153819.064,966.309,-5.859,98.633,966.797
1743153819.068,966.309,-2.930,82.520,966.797
1743153819.071,966.309,13.672,65.430,966.797
1743153819.075,966.309,4.395,41.016,966.797
1743153819.079,966.309,2.930,5.371,966.797
1743153819.083,966.309,-4.395,-32.227,966.797
1743153819.087,966.309,-18.066,11.719,967.285
1743153819.044,966.309,-3.418,67.383,966.797
1743153819.048,966.309,-12.695,82.520,966.797
1743153819.052,966.309,-5.371,49.805,967.285
1743153819.056,966.309,-8.789,23.438,966.797
1743153819.060,966.309,-2.930,61.035,966.797
1743153819.064,966.309,-5.859,98.633,966.797
1743153819.068,966.309,-2.930,82.520,966.797
1743153819.071,966.309,13.672,65.430,966.797
1743153819.075,966.309,4.395,41.016,966.797
1743153819.079,966.309,2.930,5.371,966.797
1743153819.083,966.309,-4.395,-32.227,966.797
1743153819.087,966.309,-18.066,11.719,967.285
1743153819.044,966.309,-3.418,67.383,966.797
1743153819.048,966.309,-12.695,82.520,966.797
1743153819.052,966.309,-5.371,49.805,967.285
1743153819.056,966.309,-8.789,23.438,966.797
1743153819.060,966.309,-2.930,61.035,966.797
1743153819.064,966.309,-5.859,98.633,966.797
1743153819.068,966.309,-2.930,82.520,966.797
1743153819.071,966.309,13.672,65.430,966.797
1743153819.075,966.309,4.395,41.016,966.797
1743153819.079,966.309,2.930,5.371,966.797
1743153819.083,966.309,-4.395,-32.227,966.797
1743153819.087,966.309,-18.066,11.719,967.285
1743153819.044,966.309,-3.418,67.383,966.797
1743153819.048,966.309,-12.695,82.520,966.797
1743153819.052,966.309,-5.371,49.805,967.285
1743153819.056,966.309,-8.789,23.438,966.797
1743153819.060,966.309,-2.930,61.035,966.797
1743153819.064,966.309,-5.859,98.633,966.797
1743153819.068,966.309,-2.930,82.520,966.797
1743153819.071,966.309,13.672,65.430,966.797
1743153819.075,966.309,4.395,41.016,966.797
1743153819.079,966.309,2.930,5.371,966.797
1743153819.083,966.309,-4.395,-32.227,966.797
1743153819.087,966.309,-18.066,11.719,967.285
1743153819.044,966.309,-3.418,67.383,966.797
1743153819.048,966.309,-12.695,82.520,966.797
1743153819.052,966.309,-5.371,49.805,967.285
1743153819.056,966.309,-8.789,23.438,966.797
1743153819.060,966.309,-2.930,61.035,966.797
1743153819.064,966.309,-5.859,98.633,966.797
1743153819.068,966.309,-2.930,82.520,966.797
1743153819.071,966.309,13.672,65.430,966.797
1743153819.075,966.309,4.395,41.016,966.797
1743153819.079,966.309,2.930,5.371,966.797
1743153819.083,966.309,-4.395,-32.227,966.797
1743153819.087,966.309,-18.066,11.719,967.285
1743153819.044,966.309,-3.418,67.383,966.797
1743153819.048,966.309,-12.695,82.520,966.797
1743153819.052,966.309,-5.371,49.805,967.285
1743153819.056,966.309,-8.789,23.438,966.797
1743153819.060,966.309,-2.930,61.035,966.797
1743153819.064,966.309,-5.859,98.633,966.797
1743153819.068,966.309,-2.930,82.520,966.797
1743153819.071,966.309,13.672,65.430,966.797
1743153819.075,966.309,4.395,41.016,966.797
1743153819.079,966.309,2.930,5.371,966.797
1743153819.083,966.309,-4.395,-32.227,966.797
1743153819.087,966.309,-18.066,11.719,967.285
1743153819.044,966.309,-3.418,67.383,966.797
1743153819.048,966.309,-12.695,82.520,966.797
1743153819.052,966.309,-5.371,49.805,967.285
1743153819.056,966.309,-8.789,23.438,966.797
1743153819.060,966.309,-2.930,61.035,966.797
1743153819.064,966.309,-5.859,98.633,966.797
1743153819.068,966.309,-2.930,82.520,966.797
1743153819.071,966.309,13.672,65.430,966.797
1743153819.075,966.309,4.395,41.016,966.797
1743153819.079,966.309,2.930,5.371,966.797
1743153819.083,966.309,-4.395,-32.227,966.797
1743153819.087,966.309,-18.066,11.719,967.285
1743153819.044,966.309,-3.418,67.383,966.797
1743153819.048,966.309,-12.695,82.520,966.797
1743153819.052,966.309,-5.371,49.805,967.285
1743153819.056,966.309,-8.789,23.438,966.797
1743153819.060,966.309,-2.930,61.035,966.797
1743153819.064,966.309,-5.859,98.633,966.797
1743153819.068,966.309,-2.930,82.520,966.797
1743153819.071,966.309,13.672,65.430,966.797
1743153819.075,966.309,4.395,41.016,966.797
1743153819.079,966.309,2.930,5.371,966.797
1743153819.083,966.309,-4.395,-32.227,966.797
1743153819.087,966.309,-18.066,11.719,967.285
1743153819.553,-953.125,52.734,-20.508,-944.336
1743153819.557,-1000.000,46.387,15.625,-1000.000
1743153819.561,-1000.000,85.449,37.109,-1000.000
1743153819.565,-1000.000,111.816,63.965,-1000.000
1743153819.569,-1000.000,89.355,58.594,-1000.000
1743153819.573,-1000.000,72.266,40.039,-1000.000
1743153819.577,-1000.000,71.777,26.367,-1000.000
1743153819.580,-981.445,79.102,15.137,-991.211
1743153819.584,-969.238,87.891,6.836,-952.148
1743153819.588,-1000.000,80.078,19.043,-1000.000
1743153819.592,74.707,83.496,6.348,-70.801
1743153819.596,999.512,96.191,7.812,999.512
1743153819.044,966.309,-3.418,67.383,966.797
1743153819.048,966.309,-12.695,82.520,966.797
1743153819.052,966.309,-5.371,49.805,967.285
1743153819.056,966.309,-8.789,23.438,966.797
1743153819.060,966.309,-2.930,61.035,966.797
1743153819.064,966.309,-5.859,98.633,966.797
1743153819.068,966.309,-2.930,82.520,966.797
1743153819.071,966.309,13.672,65.430,966.797
1743153819.075,966.309,4.395,41.016,966.797
1743153819.079,966.309,2.930,5.371,966.797
1743153819.083,966.309,-4.395,-32.227,966.797
1743153819.087,966.309,-18.066,11.719,967.285
1743153819.044,966.309,-3.418,67.383,966.797
1743153819.048,966.309,-12.695,82.520,966.797
1743153819.052,966.309,-5.371,49.805,967.285
1743153819.056,966.309,-8.789,23.438,966.797
1743153819.060,966.309,-2.930,61.035,966.797
1743153819.064,966.309,-5.859,98.633,966.797
1743153819.068,966.309,-2.930,82.520,966.797
1743153819.071,966.309,13.672,65.430,966.797
1743153819.075,966.309,4.395,41.016,966.797
1743153819.079,966.309,2.930,5.371,966.797
1743153819.083,966.309,-4.395,-32.227,966.797
1743153819.087,966.309,-18.066,11.719,967.285
1743153819.554,914.551,85.449,17.090,931.152
1743153819.558,959.961,94.727,43.945,950.684
1743153819.562,967.773,118.652,64.453,970.703
1743153819.566,966.309,112.793,36.133,966.797
1743153819.570,966.309,91.797,20.996,966.797
1743153819.574,966.309,87.891,56.641,967.285
1743153819.578,966.309,82.031,82.031,967.285
1743153819.581,966.309,67.871,66.406,967.285
1743153819.585,966.309,59.082,45.410,967.285
1743153819.589,966.309,75.195,37.598,967.285
1743153819.593,966.309,80.566,32.715,966.797
1743153819.597,966.309,83.008,32.715,966.797
1743153819.044,966.309,-3.418,67.383,966.797
1743153819.048,966.309,-12.695,82.520,966.797
1743153819.052,966.309,-5.371,49.805,967.285
1743153819.056,966.309,-8.789,23.438,966.797
1743153819.060,966.309,-2.930,61.035,966.797
1743153819.064,966.309,-5.859,98.633,966.797
1743153819.068,966.309,-2.930,82.520,966.797
1743153819.071,966.309,13.672,65.430,966.797
1743153819.075,966.309,4.395,41.016,966.797
1743153819.079,966.309,2.930,5.371,966.797
1743153819.083,966.309,-4.395,-32.227,966.797
1743153819.087,966.309,-18.066,11.719,967.285
1743153819.044,966.309,-3.418,67.383,966.797
1743153819.048,966.309,-12.695,82.520,966.797
1743153819.052,966.309,-5.371,49.805,967.285
1743153819.056,966.309,-8.789,23.438,966.797
1743153819.060,966.309,-2.930,61.035,966.797
1743153819.064,966.309,-5.859,98.633,966.797
1743153819.068,966.309,-2.930,82.520,966.797
1743153819.071,966.309,13.672,65.430,966.797
1743153819.075,966.309,4.395,41.016,966.797
1743153819.079,966.309,2.930,5.371,966.797
1743153819.083,966.309,-4.395,-32.227,966.797
1743153819.087,966.309,-18.066,11.719,967.285
1743153819.044,966.309,-3.418,67.383,966.797
1743153819.048,966.309,-12.695,82.520,966.797
1743153819.052,966.309,-5.371,49.805,967.285
1743153819.056,966.309,-8.789,23.438,966.797
1743153819.060,966.309,-2.930,61.035,966.797
1743153819.064,966.309,-5.859,98.633,966.797
1743153819.068,966.309,-2.930,82.520,966.797
1743153819.071,966.309,13.672,65.430,966.797
1743153819.075,966.309,4.395,41.016,966.797
1743153819.079,966.309,2.930,5.371,966.797
1743153819.083,966.309,-4.395,-32.227,966.797
1743153819.087,966.309,-18.066,11.719,967.285
1743153819.554,966.309,104.004,36.133,966.797
1743153819.558,966.309,80.078,35.645,966.797
1743153819.562,966.309,69.824,6.348,967.285
1743153819.566,966.309,66.406,-5.859,966.797
1743153819.570,966.309,56.152,65.918,966.797
1743153819.574,971.191,55.664,98.145,967.773
1743153819.578,944.336,63.477,22.949,964.355
1743153819.581,942.871,83.008,3.906,909.180
1743153819.585,999.512,74.219,43.945,999.512
1743153819.589,-148.926,41.504,31.738,133.789
1743153819.593,-1000.000,34.180,68.848,-1000.000
1743153819.597,-885.254,39.551,83.984,-926.758
1743153819.044,966.309,-3.418,67.383,966.797
1743153819.048,966.309,-12.695,82.520,966.797
1743153819.052,966.309,-5.371,49.805,967.285
1743153819.056,966.309,-8.789,23.438,966.797
1743153819.060,966.309,-2.930,61.035,966.797
1743153819.064,966.309,-5.859,98.633,966.797
1743153819.068,966.309,-2.930,82.520,966.797
1743153819.071,966.309,13.672,65.430,966.797
1743153819.075,966.309,4.395,41.016,966.797
1743153819.079,966.309,2.930,5.371,966.797
1743153819.083,966.309,-4.395,-32.227,966.797
1743153819.087,966.309,-18.066,11.719,967.285
1743153819.044,966.309,-3.418,67.383,966.797
1743153819.048,966.309,-12.695,82.520,966.797
1743153819.052,966.309,-5.371,49.805,967.285
1743153819.056,966.309,-8.789,23.438,966.797
1743153819.060,966.309,-2.930,61.035,966.797
1743153819.064,966.309,-5.859,98.633,966.797
1743153819.068,966.309,-2.930,82.520,966.797
1743153819.071,966.309,13.672,65.430,966.797
1743153819.075,966.309,4.395,41.016,966.797
1743153819.079,966.309,2.930,5.371,966.797
1743153819.083,966.309,-4.395,-32.227,966.797
1743153819.087,966.309,-18.066,11.719,967.285
1743153819.044,966.309,-3.418,67.383,966.797
1743153819.048,966.309,-12.695,82.520,966.797
1743153819.052,966.309,-5.371,49.805,967.285
1743153819.056,966.309,-8.789,23.438,966.797
1743153819.060,966.309,-2.930,61.035,966.797
1743153819.064,966.309,-5.859,98.633,966.797
1743153819.068,966.309,-2.930,82.520,966.797
1743153819.071,966.309,13.672,65.430,966.797
1743153819.075,966.309,4.395,41.016,966.797
1743153819.079,966.309,2.930,5.371,966.797
1743153819.083,966.309,-4.395,-32.227,966.797
1743153819.087,966.309,-18.066,11.719,967.285
1743153819.075,966.309,-22.461,68.359,966.797
1743153819.079,970.215,-4.395,61.035,976.562
1743153819.083,899.414,19.043,40.039,895.508
1743153819.087,999.512,9.277,54.688,999.512
1743153819.091,252.441,0.488,78.125,387.695
1743153819.095,-1000.000,-5.371,35.156,-987.793
1743153819.099,-994.629,11.230,-12.695,-1000.000
1743153819.102,-968.262,20.996,20.996,-957.031
1743153819.106,-1000.000,14.648,71.777,-1000.000
1743153819.110,-937.500,33.203,83.496,-939.453
1743153819.114,-1000.000,48.828,59.082,-1000.000
1743153819.118,-220.703,67.871,-1.953,-198.242
1743153819.075,966.309,-22.461,68.359,966.797
1743153819.079,970.215,-4.395,61.035,976.562
1743153819.083,899.414,19.043,40.039,895.508
1743153819.087,999.512,9.277,54.688,999.512
1743153819.091,252.441,0.488,78.125,387.695
1743153819.095,-1000.000,-5.371,35.156,-987.793
1743153819.099,-994.629,11.230,-12.695,-1000.000
1743153819.102,-968.262,20.996,20.996,-957.031
1743153819.106,-1000.000,14.648,71.777,-1000.000
1743153819.110,-937.500,33.203,83.496,-939.453
1743153819.114,-1000.000,48.828,59.082,-1000.000
1743153819.118,-220.703,67.871,-1.953,-198.242
1743153819.120,999.512,69.336,-29.297,999.512
1743153819.124,949.707,38.086,8.789,947.754
1743153819.128,938.965,11.719,5.859,941.406
1743153819.132,973.145,28.809,12.207,973.145
1743153819.136,970.215,45.410,33.691,971.680
1743153819.140,899.902,32.715,-12.695,899.902
1743153819.144,999.512,49.316,-39.062,999.512
1743153819.147,244.629,32.227,-11.230,271.973
1743153819.151,-1000.000,-2.441,-19.531,-1000.000
1743153819.155,-993.164,13.672,-20.508,-998.047
1743153819.159,-968.262,16.113,-5.371,-966.309
1743153819.163,-1000.000,-5.371,-3.418,-1000.000
1743153819.120,999.512,69.336,-29.297,999.512
1743153819.124,949.707,38.086,8.789,947.754
1743153819.128,938.965,11.719,5.859,941.406
1743153819.132,973.145,28.809,12.207,973.145
1743153819.136,970.215,45.410,33.691,971.680
1743153819.140,899.902,32.715,-12.695,899.902
1743153819.144,999.512,49.316,-39.062,999.512
1743153819.147,244.629,32.227,-11.230,271.973
1743153819.151,-1000.000,-2.441,-19.531,-1000.000
1743153819.155,-993.164,13.672,-20.508,-998.047
1743153819.159,-968.262,16.113,-5.371,-966.309
1743153819.163,-1000.000,-5.371,-3.418,-1000.000
1743153819.179,-926.270,8.301,2.441,-929.199
1743153819.183,-1000.000,8.789,12.695,-1000.000
1743153819.187,-495.117,19.531,42.480,-574.707
1743153819.191,918.457,33.691,57.617,848.145
1743153819.195,999.023,15.137,28.320,999.512
1743153819.199,916.992,24.902,-13.672,914.551
1743153819.203,980.957,25.391,-19.531,974.609
1743153819.206,903.320,16.602,13.672,917.480
1743153819.210,999.512,-8.789,33.691,999.512
1743153819.214,187.012,-37.109,12.695,75.195
1743153819.218,-1000.000,-34.180,40.039,-1000.000
1743153819.222,-998.047,-26.367,55.664,-984.863
1743153819.179,-926.270,8.301,2.441,-929.199
1743153819.183,-1000.000,8.789,12.695,-1000.000
1743153819.187,-495.117,19.531,42.480,-574.707
1743153819.191,918.457,33.691,57.617,848.145
1743153819.195,999.023,15.137,28.320,999.512
1743153819.199,916.992,24.902,-13.672,914.551
1743153819.203,980.957,25.391,-19.531,974.609
1743153819.206,903.320,16.602,13.672,917.480
1743153819.210,999.512,-8.789,33.691,999.512
1743153819.214,187.012,-37.109,12.695,75.195
1743153819.218,-1000.000,-34.180,40.039,-1000.000
1743153819.222,-998.047,-26.367,55.664,-984.863
1743153819.224,-916.016,-22.461,34.180,-927.246
1743153819.228,-1000.000,-20.020,-9.277,-1000.000
1743153819.232,-826.172,14.160,-24.414,-838.867
1743153819.236,585.938,42.969,20.508,545.410
1743153819.240,999.512,14.648,-1.465,999.512
1743153819.244,900.879,6.836,-8.789,904.297
1743153819.248,978.516,5.859,0.000,975.098
1743153819.251,904.785,13.184,16.602,908.691
1743153819.255,999.512,21.973,56.152,999.512
1743153819.259,170.410,4.395,-21.484,142.090
1743153819.263,-1000.000,4.883,-83.984,-1000.000
1743153819.267,-913.086,23.926,20.508,-912.598
1743153819.224,-916.016,-22.461,34.180,-927.246
1743153819.228,-1000.000,-20.020,-9.277,-1000.000
1743153819.232,-826.172,14.160,-24.414,-838.867
1743153819.236,585.938,42.969,20.508,545.410
1743153819.240,999.512,14.648,-1.465,999.512
1743153819.244,900.879,6.836,-8.789,904.297
1743153819.248,978.516,5.859,0.000,975.098
1743153819.251,904.785,13.184,16.602,908.691
1743153819.255,999.512,21.973,56.152,999.512
1743153819.259,170.410,4.395,-21.484,142.090
1743153819.263,-1000.000,4.883,-83.984,-1000.000
1743153819.267,-913.086,23.926,20.508,-912.598
1743153819.367,-1000.000,18.066,135.742,-1000.000
1743153819.371,-333.984,33.203,154.297,-288.574
1743153819.375,998.535,29.785,106.934,999.512
1743153819.379,967.773,12.695,62.988,961.914
1743153819.383,931.152,49.316,76.172,933.594
1743153819.387,913.086,60.547,115.234,915.527
1743153819.391,999.512,49.316,123.047,999.512
1743153819.394,187.012,6.348,101.562,157.715
1743153819.398,-1000.000,6.836,69.824,-1000.000
1743153819.402,-983.887,85.449,102.051,-979.980
1743153819.406,-973.145,97.168,131.836,-975.098
1743153819.410,-1000.000,82.031,81.543,-1000.000
1743153819.367,-1000.000,18.066,135.742,-1000.000
1743153819.371,-333.984,33.203,154.297,-288.574
1743153819.375,998.535,29.785,106.934,999.512
1743153819.379,967.773,12.695,62.988,961.914
1743153819.383,931.152,49.316,76.172,933.594
1743153819.387,913.086,60.547,115.234,915.527
1743153819.391,999.512,49.316,123.047,999.512
1743153819.394,187.012,6.348,101.562,157.715
1743153819.398,-1000.000,6.836,69.824,-1000.000
1743153819.402,-983.887,85.449,102.051,-979.980
1743153819.406,-973.145,97.168,131.836,-975.098
1743153819.410,-1000.000,82.031,81.543,-1000.000
1743153819.915,966.309,0.977,-11.719,966.797
1743153819.919,966.309,-22.949,24.414,966.797
1743153819.923,966.309,-26.367,-8.789,966.797
1743153819.927,966.309,-36.621,3.418,967.285
1743153819.931,966.309,-61.035,17.090,966.797
1743153819.935,966.309,-24.414,45.898,966.797
1743153819.939,966.309,21.484,60.059,966.797
1743153819.942,966.309,-9.277,10.254,966.797
1743153819.946,966.309,-46.875,-10.742,966.797
1743153819.950,966.309,-24.414,-5.371,966.797
1743153819.954,966.309,12.207,3.418,967.285
1743153819.958,970.703,-5.859,24.414,967.285
1743153819.553,-1000.000,86.914,82.031,-1000.000
1743153819.557,-950.684,68.848,119.629,-963.867
1743153819.561,-1000.000,65.918,108.887,-1000.000
1743153819.565,-898.926,90.820,84.961,-992.188
1743153819.569,479.492,128.418,58.105,307.617
1743153819.573,999.512,95.215,44.434,999.512
1743153819.577,899.902,50.781,71.777,904.785
1743153819.580,976.074,54.199,87.402,970.703
1743153819.584,966.309,51.758,63.477,967.285
1743153819.588,966.309,71.289,0.000,966.797
1743153819.592,966.309,84.473,-10.742,966.797
1743153819.596,966.309,88.379,41.016,966.797
1743153819.553,-1000.000,86.914,82.031,-1000.000
1743153819.557,-950.684,68.848,119.629,-963.867
1743153819.561,-1000.000,65.918,108.887,-1000.000
1743153819.565,-898.926,90.820,84.961,-992.188
1743153819.569,479.492,128.418,58.105,307.617
1743153819.573,999.512,95.215,44.434,999.512
1743153819.577,899.902,50.781,71.777,904.785
1743153819.580,976.074,54.199,87.402,970.703
1743153819.584,966.309,51.758,63.477,967.285
1743153819.588,966.309,71.289,0.000,966.797
1743153819.592,966.309,84.473,-10.742,966.797
1743153819.596,966.309,88.379,41.016,966.797
1743153819.553,-1000.000,86.914,82.031,-1000.000
1743153819.557,-950.684,68.848,119.629,-963.867
1743153819.561,-1000.000,65.918,108.887,-1000.000
1743153819.565,-898.926,90.820,84.961,-992.188
1743153819.569,479.492,128.418,58.105,307.617
1743153819.573,999.512,95.215,44.434,999.512
1743153819.577,899.902,50.781,71.777,904.785
1743153819.580,976.074,54.199,87.402,970.703
1743153819.584,966.309,51.758,63.477,967.285
1743153819.588,966.309,71.289,0.000,966.797
1743153819.592,966.309,84.473,-10.742,966.797
1743153819.596,966.309,88.379,41.016,966.797
1743153819.553,966.309,80.566,102.539,966.797
1743153819.557,966.309,81.055,130.371,966.797
1743153819.561,966.309,92.773,104.492,967.285
1743153819.565,966.309,78.613,41.016,966.797
1743153819.569,966.309,63.965,28.809,966.797
1743153819.573,966.309,68.359,46.875,966.797
1743153819.577,978.027,92.285,2.930,980.957
1743153819.580,893.066,84.473,-3.906,895.996
1743153819.584,999.512,73.730,28.320,999.512
1743153819.588,434.082,83.496,44.434,567.383
1743153819.592,-966.309,88.379,-3.906,-862.793
1743153819.596,-1000.000,80.078,-50.781,-1000.000
1743153819.553,966.309,80.566,102.539,966.797
1743153819.557,966.309,81.055,130.371,966.797
1743153819.561,966.309,92.773,104.492,967.285
1743153819.565,966.309,78.613,41.016,966.797
1743153819.569,966.309,63.965,28.809,966.797
1743153819.573,966.309,68.359,46.875,966.797
1743153819.577,978.027,92.285,2.930,980.957
1743153819.580,893.066,84.473,-3.906,895.996
1743153819.584,999.512,73.730,28.320,999.512
1743153819.588,434.082,83.496,44.434,567.383
1743153819.592,-966.309,88.379,-3.906,-862.793
1743153819.596,-1000.000,80.078,-50.781,-1000.000
1743153819.553,966.309,80.566,102.539,966.797
1743153819.557,966.309,81.055,130.371,966.797
1743153819.561,966.309,92.773,104.492,967.285
1743153819.565,966.309,78.613,41.016,966.797
1743153819.569,966.309,63.965,28.809,966.797
1743153819.573,966.309,68.359,46.875,966.797
1743153819.577,978.027,92.285,2.930,980.957
1743153819.580,893.066,84.473,-3.906,895.996
1743153819.584,999.512,73.730,28.320,999.512
1743153819.588,434.082,83.496,44.434,567.383
1743153819.592,-966.309,88.379,-3.906,-862.793
1743153819.596,-1000.000,80.078,-50.781,-1000.000
1743153819.555,-1000.000,28.320,48.340,-1000.000
1743153819.559,-222.168,78.125,-27.832,-118.652
1743153819.563,999.512,107.910,-86.426,999.512
1743153819.567,921.875,62.988,-8.789,898.438
1743153819.571,925.781,30.762,72.754,970.703
1743153819.575,999.512,22.949,47.852,889.160
1743153819.579,-229.004,23.438,13.672,-416.504
1743153819.582,-1000.000,25.879,37.598,-1000.000
1743153819.586,-938.965,34.668,37.598,-941.406
1743153819.590,-1000.000,67.383,3.906,-1000.000
1743153819.594,-1000.000,62.012,-59.082,-1000.000
1743153819.598,-1000.000,32.715,-56.641,-1000.000
1743153819.555,-1000.000,28.320,48.340,-1000.000
1743153819.559,-222.168,78.125,-27.832,-118.652
1743153819.563,999.512,107.910,-86.426,999.512
1743153819.567,921.875,62.988,-8.789,898.438
1743153819.571,925.781,30.762,72.754,970.703
1743153819.575,999.512,22.949,47.852,889.160
1743153819.579,-229.004,23.438,13.672,-416.504
1743153819.582,-1000.000,25.879,37.598,-1000.000
1743153819.586,-938.965,34.668,37.598,-941.406
1743153819.590,-1000.000,67.383,3.906,-1000.000
1743153819.594,-1000.000,62.012,-59.082,-1000.000
1743153819.598,-1000.000,32.715,-56.641,-1000.000
1743153819.555,-1000.000,28.320,48.340,-1000.000
1743153819.559,-222.168,78.125,-27.832,-118.652
1743153819.563,999.512,107.910,-86.426,999.512
1743153819.567,921.875,62.988,-8.789,898.438
1743153819.571,925.781,30.762,72.754,970.703
1743153819.575,999.512,22.949,47.852,889.160
1743153819.579,-229.004,23.438,13.672,-416.504
1743153819.582,-1000.000,25.879,37.598,-1000.000
1743153819.586,-938.965,34.668,37.598,-941.406
1743153819.590,-1000.000,67.383,3.906,-1000.000
1743153819.594,-1000.000,62.012,-59.082,-1000.000
1743153819.598,-1000.000,32.715,-56.641,-1000.000
1743153819.598,-1000.000,25.879,38.086,-1000.000
1743153819.602,-1000.000,5.859,49.805,-1000.000
1743153819.606,-1000.000,19.043,18.555,-1000.000
1743153819.610,-1000.000,36.133,8.301,-1000.000
1743153819.614,-1000.000,28.809,-2.930,-1000.000
1743153819.618,-1000.000,35.645,-41.504,-1000.000
1743153819.622,-1000.000,44.922,-19.043,-1000.000
1743153819.625,-1000.000,58.105,-20.020,-1000.000
1743153819.629,-1000.000,39.551,-10.254,-1000.000
1743153819.633,-1000.000,11.719,73.730,-1000.000
1743153819.637,-1000.000,22.949,67.383,-1000.000
1743153819.641,-1000.000,31.250,33.691,-1000.000
1743153819.598,-1000.000,25.879,38.086,-1000.000
1743153819.602,-1000.000,5.859,49.805,-1000.000
1743153819.606,-1000.000,19.043,18.555,-1000.000
1743153819.610,-1000.000,36.133,8.301,-1000.000
1743153819.614,-1000.000,28.809,-2.930,-1000.000
1743153819.618,-1000.000,35.645,-41.504,-1000.000
1743153819.622,-1000.000,44.922,-19.043,-1000.000
1743153819.625,-1000.000,58.105,-20.020,-1000.000
1743153819.629,-1000.000,39.551,-10.254,-1000.000
1743153819.633,-1000.000,11.719,73.730,-1000.000
1743153819.637,-1000.000,22.949,67.383,-1000.000
1743153819.641,-1000.000,31.250,33.691,-1000.000
1743153819.643,-1000.000,30.273,9.766,-1000.000
1743153819.647,-1000.000,37.109,-1.465,-1000.000
1743153819.651,-1000.000,39.551,32.227,-1000.000
1743153819.655,-1000.000,72.754,26.855,-1000.000
1743153819.659,-1000.000,92.285,19.531,-1000.000
1743153819.663,-1000.000,46.875,62.988,-1000.000
1743153819.667,-1000.000,5.371,78.613,-1000.000
1743153819.670,-1000.000,12.695,97.168,-1000.000
1743153819.674,-1000.000,43.457,86.914,-1000.000
1743153819.678,-1000.000,54.688,3.906,-1000.000
1743153819.682,-1000.000,52.734,-5.859,-1000.000
1743153819.686,-1000.000,54.688,57.129,-1000.000
1743153819.643,-1000.000,30.273,9.766,-1000.000
1743153819.647,-1000.000,37.109,-1.465,-1000.000
1743153819.651,-1000.000,39.551,32.227,-1000.000
1743153819.655,-1000.000,72.754,26.855,-1000.000
1743153819.659,-1000.000,92.285,19.531,-1000.000
1743153819.663,-1000.000,46.875,62.988,-1000.000
1743153819.667,-1000.000,5.371,78.613,-1000.000
1743153819.670,-1000.000,12.695,97.168,-1000.000
1743153819.674,-1000.000,43.457,86.914,-1000.000
1743153819.678,-1000.000,54.688,3.906,-1000.000
1743153819.682,-1000.000,52.734,-5.859,-1000.000
1743153819.686,-1000.000,54.688,57.129,-1000.000
1743153819.643,-1000.000,30.273,9.766,-1000.000
1743153819.647,-1000.000,37.109,-1.465,-1000.000
1743153819.651,-1000.000,39.551,32.227,-1000.000
1743153819.655,-1000.000,72.754,26.855,-1000.000
1743153819.659,-1000.000,92.285,19.531,-1000.000
1743153819.663,-1000.000,46.875,62.988,-1000.000
1743153819.667,-1000.000,5.371,78.613,-1000.000
1743153819.670,-1000.000,12.695,97.168,-1000.000
1743153819.674,-1000.000,43.457,86.914,-1000.000
1743153819.678,-1000.000,54.688,3.906,-1000.000
1743153819.682,-1000.000,52.734,-5.859,-1000.000
1743153819.686,-1000.000,54.688,57.129,-1000.000
1743153819.689,-1000.000,46.387,115.234,-1000.000
1743153819.693,-1000.000,26.855,94.727,-1000.000
1743153819.697,-1000.000,47.363,18.555,-1000.000
1743153819.701,-999.512,50.781,33.691,-999.512
1743153819.705,-939.941,30.762,44.922,-939.453
1743153819.709,-1000.000,50.293,-5.371,-1000.000
1743153819.713,-195.312,71.777,24.414,-199.219
1743153819.716,999.512,44.434,43.945,999.512
1743153819.720,946.777,33.691,-9.766,948.730
1743153819.724,939.941,41.016,-27.832,937.500
1743153819.728,912.109,13.184,51.270,917.969
1743153819.732,999.512,12.695,105.469,999.512
1743153819.689,-1000.000,46.387,115.234,-1000.000
1743153819.693,-1000.000,26.855,94.727,-1000.000
1743153819.697,-1000.000,47.363,18.555,-1000.000
1743153819.701,-999.512,50.781,33.691,-999.512
1743153819.705,-939.941,30.762,44.922,-939.453
1743153819.709,-1000.000,50.293,-5.371,-1000.000
1743153819.713,-195.312,71.777,24.414,-199.219
1743153819.716,999.512,44.434,43.945,999.512
1743153819.720,946.777,33.691,-9.766,948.730
1743153819.724,939.941,41.016,-27.832,937.500
1743153819.728,912.109,13.184,51.270,917.969
1743153819.732,999.512,12.695,105.469,999.512
1743153820.200,-1000.000,-85.938,12.695,-1000.000
1743153820.204,-1000.000,-83.984,45.898,-1000.000
1743153820.208,-1000.000,-82.520,6.348,-1000.000
1743153820.212,-1000.000,-87.891,-52.734,-1000.000
1743153820.216,-935.547,-93.750,-35.645,-927.246
1743153820.220,-1000.000,-96.191,-8.789,-1000.000
1743153820.224,-250.000,-76.172,17.090,-469.238
1743153820.227,999.512,-68.848,65.430,890.625
1743153820.231,921.875,-105.957,56.152,999.512
1743153820.235,999.512,-104.980,11.230,898.926
1743153820.239,-89.844,-98.633,-21.973,-312.500
1743153820.243,-1000.000,-85.938,-1.953,-1000.000
1743153819.733,159.668,9.277,40.039,119.629
1743153819.737,-1000.000,11.719,-64.453,-1000.000
1743153819.741,-979.980,32.227,-52.246,-976.074
1743153819.745,-975.098,23.438,44.922,-977.539
1743153819.749,-1000.000,14.160,60.059,-1000.000
1743153819.753,-1000.000,8.301,21.973,-998.047
1743153819.757,-937.500,26.367,-24.902,-941.895
1743153819.760,-1000.000,30.762,-47.363,-1000.000
1743153819.764,-219.238,20.020,-20.020,-175.781
1743153819.768,999.512,7.324,-4.395,999.512
1743153819.772,889.160,15.625,25.879,897.949
1743153819.776,999.512,21.973,8.301,999.512
1743153819.733,159.668,9.277,40.039,119.629
1743153819.737,-1000.000,11.719,-64.453,-1000.000
1743153819.741,-979.980,32.227,-52.246,-976.074
1743153819.745,-975.098,23.438,44.922,-977.539
1743153819.749,-1000.000,14.160,60.059,-1000.000
1743153819.753,-1000.000,8.301,21.973,-998.047
1743153819.757,-937.500,26.367,-24.902,-941.895
1743153819.760,-1000.000,30.762,-47.363,-1000.000
1743153819.764,-219.238,20.020,-20.020,-175.781
1743153819.768,999.512,7.324,-4.395,999.512
1743153819.772,889.160,15.625,25.879,897.949
1743153819.776,999.512,21.973,8.301,999.512
1743153819.779,167.969,-2.441,-40.527,58.594
1743153819.783,-1000.000,-0.977,-41.992,-1000.000
1743153819.787,-980.469,2.930,-55.176,-969.238
1743153819.791,-975.098,1.465,-21.484,-981.934
1743153819.795,-1000.000,12.207,28.320,-1000.000
1743153819.799,-1000.000,10.742,31.250,-1000.000
1743153819.803,-932.129,1.465,18.066,-940.430
1743153819.806,-1000.000,-13.184,-18.555,-1000.000
1743153819.810,-318.848,20.020,-68.359,-247.559
1743153819.814,999.512,36.621,-11.230,999.512
1743153819.818,967.285,7.812,61.523,960.449
1743153819.822,868.652,24.414,51.270,873.535
1743153819.824,999.512,31.738,6.836,999.512
1743153819.828,186.523,-26.367,-17.090,192.871
1743153819.832,-1000.000,-41.504,-18.066,-1000.000
1743153819.836,-983.887,-6.348,-14.160,-984.863
1743153819.840,-973.145,-0.977,-1.465,-972.656
1743153819.844,-1000.000,15.625,-12.207,-1000.000
1743153819.848,-1000.000,29.297,1.953,-1000.000
1743153819.851,-1000.000,0.977,58.105,-1000.000
1743153819.855,-937.500,-24.902,57.129,-936.035
1743153819.859,-1000.000,-24.902,-8.301,-1000.000
1743153819.863,-221.191,13.184,-78.125,-245.117
1743153819.867,999.512,24.902,-43.457,999.512
1743153819.824,999.512,31.738,6.836,999.512
1743153819.828,186.523,-26.367,-17.090,192.871
1743153819.832,-1000.000,-41.504,-18.066,-1000.000
1743153819.836,-983.887,-6.348,-14.160,-984.863
1743153819.840,-973.145,-0.977,-1.465,-972.656
1743153819.844,-1000.000,15.625,-12.207,-1000.000
1743153819.848,-1000.000,29.297,1.953,-1000.000
1743153819.851,-1000.000,0.977,58.105,-1000.000
1743153819.855,-937.500,-24.902,57.129,-936.035
1743153819.859,-1000.000,-24.902,-8.301,-1000.000
1743153819.863,-221.191,13.184,-78.125,-245.117
1743153819.867,999.512,24.902,-43.457,999.512
1743153819.869,950.195,-10.254,61.523,954.590
1743153819.873,938.965,-0.977,75.195,937.988
1743153819.877,973.145,30.273,16.602,974.609
1743153819.881,966.309,-9.277,-39.062,966.797
1743153819.885,966.309,-34.180,-41.992,966.797
1743153819.889,966.309,-9.766,27.832,966.797
1743153819.893,966.309,-11.230,66.895,966.797
1743153819.896,966.309,-21.973,41.992,966.797
1743153819.900,966.309,-19.531,12.207,966.797
1743153819.904,966.309,-20.020,-10.742,966.797
1743153819.908,966.309,-16.602,11.719,966.797
1743153819.912,966.309,5.859,-1.953,966.797
1743153820.438,966.309,-72.266,8.789,966.797
1743153820.442,966.309,-56.152,17.090,966.797
1743153820.446,966.309,-62.988,17.578,966.797
1743153820.450,966.309,-73.242,17.090,966.797
1743153820.454,966.309,-68.848,21.484,966.797
1743153820.458,966.309,-62.012,17.090,966.797
1743153820.462,966.309,-57.129,-20.508,967.285
1743153820.465,966.309,-69.336,-43.945,967.285
1743153820.469,966.309,-77.148,-24.902,966.797
1743153820.473,966.309,-89.844,-12.207,966.797
1743153820.477,966.309,-73.730,1.953,966.797
1743153820.481,966.309,-56.641,30.273,966.797
1743153819.974,947.754,-40.039,52.734,965.820
1743153819.978,937.012,-24.414,45.410,907.227
1743153819.982,999.512,-16.602,20.020,999.512
1743153819.986,-104.980,-27.832,-31.250,153.320
1743153819.990,-1000.000,-9.277,-42.969,-1000.000
1743153819.994,-1000.000,-21.484,51.758,-1000.000
1743153819.998,-311.035,-1.465,110.840,-215.332
1743153820.001,999.512,-0.977,37.109,999.512
1743153820.005,966.309,-22.949,6.348,954.102
1743153820.009,932.617,0.488,30.762,939.941
1743153820.013,966.309,7.812,4.395,966.797
1743153820.017,918.457,-29.297,49.805,917.969
1743153819.974,947.754,-40.039,52.734,965.820
1743153819.978,937.012,-24.414,45.410,907.227
1743153819.982,999.512,-16.602,20.020,999.512
1743153819.986,-104.980,-27.832,-31.250,153.320
1743153819.990,-1000.000,-9.277,-42.969,-1000.000
1743153819.994,-1000.000,-21.484,51.758,-1000.000
1743153819.998,-311.035,-1.465,110.840,-215.332
1743153820.001,999.512,-0.977,37.109,999.512
1743153820.005,966.309,-22.949,6.348,954.102
1743153820.009,932.617,0.488,30.762,939.941
1743153820.013,966.309,7.812,4.395,966.797
1743153820.017,918.457,-29.297,49.805,917.969
1743153820.019,999.512,-68.848,42.480,999.512
1743153820.023,25.391,-70.801,-43.457,56.641
1743153820.027,-1000.000,-49.316,-3.418,-1000.000
1743153820.031,-962.402,-6.348,52.734,-967.773
1743153820.035,-988.281,-10.742,34.180,-985.352
1743153820.039,-987.793,-32.715,52.246,-991.211
1743153820.043,-962.402,-47.852,49.316,-961.914
1743153820.046,-1000.000,-72.266,-20.508,-1000.000
1743153820.050,29.297,-58.594,-48.340,-6.348
1743153820.054,999.512,-36.133,22.461,999.512
1743153820.058,917.969,-11.230,79.102,926.758
1743153820.062,957.031,0.000,5.371,954.102
1743153820.019,999.512,-68.848,42.480,999.512
1743153820.023,25.391,-70.801,-43.457,56.641
1743153820.027,-1000.000,-49.316,-3.418,-1000.000
1743153820.031,-962.402,-6.348,52.734,-967.773
1743153820.035,-988.281,-10.742,34.180,-985.352
1743153820.039,-987.793,-32.715,52.246,-991.211
1743153820.043,-962.402,-47.852,49.316,-961.914
1743153820.046,-1000.000,-72.266,-20.508,-1000.000
1743153820.050,29.297,-58.594,-48.340,-6.348
1743153820.054,999.512,-36.133,22.461,999.512
1743153820.058,917.969,-11.230,79.102,926.758
1743153820.062,957.031,0.000,5.371,954.102
1743153820.019,999.512,-68.848,42.480,999.512
1743153820.023,25.391,-70.801,-43.457,56.641
1743153820.027,-1000.000,-49.316,-3.418,-1000.000
1743153820.031,-962.402,-6.348,52.734,-967.773
1743153820.035,-988.281,-10.742,34.180,-985.352
1743153820.039,-987.793,-32.715,52.246,-991.211
1743153820.043,-962.402,-47.852,49.316,-961.914
1743153820.046,-1000.000,-72.266,-20.508,-1000.000
1743153820.050,29.297,-58.594,-48.340,-6.348
1743153820.054,999.512,-36.133,22.461,999.512
1743153820.058,917.969,-11.230,79.102,926.758
1743153820.062,957.031,0.000,5.371,954.102
1743153820.064,983.398,-40.527,-44.434,983.398
1743153820.068,896.484,-88.379,26.367,903.320
1743153820.072,999.512,-83.008,94.238,999.512
1743153820.076,627.930,-61.035,45.898,661.621
1743153820.080,-816.895,-75.195,-32.715,-753.418
1743153820.084,-1000.000,-54.688,-15.137,-1000.000
1743153820.088,-879.883,-27.832,47.852,-899.902
1743153820.091,-1000.000,-47.363,58.105,-1000.000
1743153820.095,-190.918,-62.988,49.316,-38.086
1743153820.099,999.512,-80.078,51.270,999.512
1743153820.103,945.801,-77.148,19.043,932.129
1743153820.107,941.406,-48.340,-54.688,951.172
1743153820.109,972.168,-58.105,-27.344,970.703
1743153820.113,966.309,-79.102,61.035,967.285
1743153820.117,966.309,-85.449,73.242,966.797
1743153820.121,966.309,-85.938,52.734,966.797
1743153820.125,966.309,-84.961,18.555,967.285
1743153820.129,966.797,-82.520,0.000,967.285
1743153820.133,903.320,-84.473,4.395,905.273
1743153820.136,999.512,-102.051,32.227,999.512
1743153820.140,186.523,-135.742,59.082,178.711
1743153820.144,-1000.000,-109.863,65.430,-1000.000
1743153820.148,-983.887,-59.082,2.930,-982.910
1743153820.152,-973.145,-68.359,-52.246,-973.633
1743153820.109,972.168,-58.105,-27.344,970.703
1743153820.113,966.309,-79.102,61.035,967.285
1743153820.117,966.309,-85.449,73.242,966.797
1743153820.121,966.309,-85.938,52.734,966.797
1743153820.125,966.309,-84.961,18.555,967.285
1743153820.129,966.797,-82.520,0.000,967.285
1743153820.133,903.320,-84.473,4.395,905.273
1743153820.136,999.512,-102.051,32.227,999.512
1743153820.140,186.523,-135.742,59.082,178.711
1743153820.144,-1000.000,-109.863,65.430,-1000.000
1743153820.148,-983.887,-59.082,2.930,-982.910
1743153820.152,-973.145,-68.359,-52.246,-973.633
1743153820.155,-1000.000,-63.965,-7.324,-1000.000
1743153820.159,-936.035,-70.312,33.203,-932.617
1743153820.163,-1000.000,-107.910,-2.441,-1000.000
1743153820.167,-242.676,-95.703,-0.488,-304.688
1743153820.171,999.512,-80.566,5.371,999.512
1743153820.175,946.777,-95.703,-29.785,940.918
1743153820.179,885.742,-104.492,33.691,917.969
1743153820.182,999.512,-111.816,62.012,999.512
1743153820.186,62.988,-95.703,-5.371,-176.270
1743153820.190,-1000.000,-87.402,-2.930,-1000.000
1743153820.194,-966.797,-112.793,6.348,-952.148
1743153820.198,-982.422,-108.398,-24.902,-994.141
1743153820.664,966.309,20.508,21.973,966.797
1743153820.668,966.309,12.695,12.207,966.797
1743153820.672,966.309,40.039,1.465,966.797
1743153820.676,966.309,41.504,20.508,967.285
1743153820.680,966.309,33.203,14.648,967.285
1743153820.684,966.309,39.551,0.977,966.797
1743153820.688,966.309,41.016,36.621,966.797
1743153820.691,966.309,47.852,39.062,966.797
1743153820.695,979.492,27.832,13.672,978.516
1743153820.699,895.508,13.184,-2.441,919.434
1743153820.703,999.512,24.414,-32.227,999.512
1743153820.707,525.879,25.391,-18.066,869.141
1743153820.259,-948.730,-86.426,24.414,-942.383
1743153820.263,-993.652,-94.238,0.977,-1000.000
1743153820.267,-1000.000,-76.172,-10.254,-1000.000
1743153820.271,-1000.000,-83.496,-1.953,-1000.000
1743153820.275,-1000.000,-100.098,15.137,-1000.000
1743153820.279,-1000.000,-95.215,-0.488,-1000.000
1743153820.283,-1000.000,-92.773,-40.039,-1000.000
1743153820.286,-1000.000,-105.469,22.461,-1000.000
1743153820.290,-1000.000,-98.145,70.312,-1000.000
1743153820.294,-1000.000,-84.961,14.648,-1000.000
1743153820.298,-1000.000,-101.562,-9.277,-1000.000
1743153820.302,-1000.000,-110.840,-25.391,-1000.000
1743153820.259,-948.730,-86.426,24.414,-942.383
1743153820.263,-993.652,-94.238,0.977,-1000.000
1743153820.267,-1000.000,-76.172,-10.254,-1000.000
1743153820.271,-1000.000,-83.496,-1.953,-1000.000
1743153820.275,-1000.000,-100.098,15.137,-1000.000
1743153820.279,-1000.000,-95.215,-0.488,-1000.000
1743153820.283,-1000.000,-92.773,-40.039,-1000.000
1743153820.286,-1000.000,-105.469,22.461,-1000.000
1743153820.290,-1000.000,-98.145,70.312,-1000.000
1743153820.294,-1000.000,-84.961,14.648,-1000.000
1743153820.298,-1000.000,-101.562,-9.277,-1000.000
1743153820.302,-1000.000,-110.840,-25.391,-1000.000
1743153820.259,-948.730,-86.426,24.414,-942.383
1743153820.263,-993.652,-94.238,0.977,-1000.000
1743153820.267,-1000.000,-76.172,-10.254,-1000.000
1743153820.271,-1000.000,-83.496,-1.953,-1000.000
1743153820.275,-1000.000,-100.098,15.137,-1000.000
1743153820.279,-1000.000,-95.215,-0.488,-1000.000
1743153820.283,-1000.000,-92.773,-40.039,-1000.000
1743153820.286,-1000.000,-105.469,22.461,-1000.000
1743153820.290,-1000.000,-98.145,70.312,-1000.000
1743153820.294,-1000.000,-84.961,14.648,-1000.000
1743153820.298,-1000.000,-101.562,-9.277,-1000.000
1743153820.302,-1000.000,-110.840,-25.391,-1000.000
1743153820.289,-1000.000,-88.379,-32.227,-1000.000
1743153820.293,-1000.000,-66.895,-20.020,-1000.000
1743153820.297,-1000.000,-83.008,-11.719,-1000.000
1743153820.301,-1000.000,-99.121,41.504,-1000.000
1743153820.305,-1000.000,-93.750,62.988,-1000.000
1743153820.309,-1000.000,-81.055,53.223,-1000.000
1743153820.313,-1000.000,-86.914,32.227,-1000.000
1743153820.316,-1000.000,-96.191,-26.855,-1000.000
1743153820.320,-1000.000,-92.773,-88.867,-1000.000
1743153820.324,-1000.000,-107.910,-29.297,-1000.000
1743153820.328,-1000.000,-92.285,32.227,-1000.000
1743153820.332,-1000.000,-86.426,16.602,-1000.000
1743153820.289,-1000.000,-88.379,-32.227,-1000.000
1743153820.293,-1000.000,-66.895,-20.020,-1000.000
1743153820.297,-1000.000,-83.008,-11.719,-1000.000
1743153820.301,-1000.000,-99.121,41.504,-1000.000
1743153820.305,-1000.000,-93.750,62.988,-1000.000
1743153820.309,-1000.000,-81.055,53.223,-1000.000
1743153820.313,-1000.000,-86.914,32.227,-1000.000
1743153820.316,-1000.000,-96.191,-26.855,-1000.000
1743153820.320,-1000.000,-92.773,-88.867,-1000.000
1743153820.324,-1000.000,-107.910,-29.297,-1000.000
1743153820.328,-1000.000,-92.285,32.227,-1000.000
1743153820.332,-1000.000,-86.426,16.602,-1000.000
1743153820.289,-1000.000,-88.379,-32.227,-1000.000
1743153820.293,-1000.000,-66.895,-20.020,-1000.000
1743153820.297,-1000.000,-83.008,-11.719,-1000.000
1743153820.301,-1000.000,-99.121,41.504,-1000.000
1743153820.305,-1000.000,-93.750,62.988,-1000.000
1743153820.309,-1000.000,-81.055,53.223,-1000.000
1743153820.313,-1000.000,-86.914,32.227,-1000.000
1743153820.316,-1000.000,-96.191,-26.855,-1000.000
1743153820.320,-1000.000,-92.773,-88.867,-1000.000
1743153820.324,-1000.000,-107.910,-29.297,-1000.000
1743153820.328,-1000.000,-92.285,32.227,-1000.000
1743153820.332,-1000.000,-86.426,16.602,-1000.000
1743153820.349,-1000.000,-90.820,46.875,-1000.000
1743153820.353,-1000.000,-75.195,16.602,-1000.000
1743153820.357,-1000.000,-86.426,-36.621,-1000.000
1743153820.361,-929.688,-92.773,-3.418,-940.430
1743153820.365,-1000.000,-90.820,23.438,-1000.000
1743153820.369,-635.254,-80.078,32.227,-748.047
1743153820.373,805.664,-51.270,39.551,657.227
1743153820.376,999.512,-74.707,-7.812,999.512
1743153820.380,907.715,-74.707,-66.895,905.273
1743153820.384,981.445,-64.941,-41.016,979.492
1743153820.388,966.309,-95.703,29.785,966.797
1743153820.392,969.238,-99.609,51.758,966.797
1743153820.349,-1000.000,-90.820,46.875,-1000.000
1743153820.353,-1000.000,-75.195,16.602,-1000.000
1743153820.357,-1000.000,-86.426,-36.621,-1000.000
1743153820.361,-929.688,-92.773,-3.418,-940.430
1743153820.365,-1000.000,-90.820,23.438,-1000.000
1743153820.369,-635.254,-80.078,32.227,-748.047
1743153820.373,805.664,-51.270,39.551,657.227
1743153820.376,999.512,-74.707,-7.812,999.512
1743153820.380,907.715,-74.707,-66.895,905.273
1743153820.384,981.445,-64.941,-41.016,979.492
1743153820.388,966.309,-95.703,29.785,966.797
1743153820.392,969.238,-99.609,51.758,966.797
1743153820.394,954.102,-99.609,44.434,977.539
1743153820.398,929.199,-84.961,-13.672,896.973
1743153820.402,999.512,-61.523,-51.270,999.512
1743153820.406,22.949,-73.730,5.859,499.023
1743153820.410,-1000.000,-90.332,29.297,-987.305
1743153820.414,-1000.000,-73.730,-1.953,-869.141
1743153820.418,167.480,-44.922,13.184,571.777
1743153820.421,999.512,-49.316,37.109,999.512
1743153820.425,907.227,-83.496,36.133,905.273
1743153820.429,964.844,-97.168,40.039,976.074
1743153820.433,966.797,-84.961,1.953,967.285
1743153820.437,966.309,-70.312,-22.461,967.285
1743153820.394,954.102,-99.609,44.434,977.539
1743153820.398,929.199,-84.961,-13.672,896.973
1743153820.402,999.512,-61.523,-51.270,999.512
1743153820.406,22.949,-73.730,5.859,499.023
1743153820.410,-1000.000,-90.332,29.297,-987.305
1743153820.414,-1000.000,-73.730,-1.953,-869.141
1743153820.418,167.480,-44.922,13.184,571.777
1743153820.421,999.512,-49.316,37.109,999.512
1743153820.425,907.227,-83.496,36.133,905.273
1743153820.429,964.844,-97.168,40.039,976.074
1743153820.433,966.797,-84.961,1.953,967.285
1743153820.437,966.309,-70.312,-22.461,967.285
1743153820.394,954.102,-99.609,44.434,977.539
1743153820.398,929.199,-84.961,-13.672,896.973
1743153820.402,999.512,-61.523,-51.270,999.512
1743153820.406,22.949,-73.730,5.859,499.023
1743153820.410,-1000.000,-90.332,29.297,-987.305
1743153820.414,-1000.000,-73.730,-1.953,-869.141
1743153820.418,167.480,-44.922,13.184,571.777
1743153820.421,999.512,-49.316,37.109,999.512
1743153820.425,907.227,-83.496,36.133,905.273
1743153820.429,964.844,-97.168,40.039,976.074
1743153820.433,966.797,-84.961,1.953,967.285
1743153820.437,966.309,-70.312,-22.461,967.285
1743153820.500,978.027,-58.594,22.461,977.051
1743153820.504,895.508,-46.875,-12.695,925.781
1743153820.508,999.512,-53.223,-31.250,987.305
1743153820.512,483.398,-67.383,-32.715,919.922
1743153820.516,-918.945,-85.449,-33.691,-405.273
1743153820.520,-1000.000,-77.148,11.719,-1000.000
1743153820.524,-950.195,-54.199,55.664,-937.012
1743153820.527,-1000.000,-50.293,61.523,-1000.000
1743153820.531,-997.559,-48.828,44.434,-995.605
1743153820.535,-942.871,-50.293,-27.832,-947.266
1743153820.539,-1000.000,-63.965,-23.926,-1000.000
1743153820.543,-161.133,-44.922,18.066,-130.371
1743153820.500,978.027,-58.594,22.461,977.051
1743153820.504,895.508,-46.875,-12.695,925.781
1743153820.508,999.512,-53.223,-31.250,987.305
1743153820.512,483.398,-67.383,-32.715,919.922
1743153820.516,-918.945,-85.449,-33.691,-405.273
1743153820.520,-1000.000,-77.148,11.719,-1000.000
1743153820.524,-950.195,-54.199,55.664,-937.012
1743153820.527,-1000.000,-50.293,61.523,-1000.000
1743153820.531,-997.559,-48.828,44.434,-995.605
1743153820.535,-942.871,-50.293,-27.832,-947.266
1743153820.539,-1000.000,-63.965,-23.926,-1000.000
1743153820.543,-161.133,-44.922,18.066,-130.371
1743153820.529,999.512,-48.340,14.648,999.512
1743153820.533,888.672,-63.965,39.062,914.062
1743153820.537,999.512,-48.340,-7.324,999.512
1743153820.541,82.031,-43.457,-51.270,-90.332
1743153820.545,-1000.000,-39.551,-5.371,-1000.000
1743153820.549,-968.750,-33.691,41.504,-957.520
1743153820.553,-981.445,-16.602,30.273,-990.234
1743153820.556,-1000.000,-19.531,-23.438,-1000.000
1743153820.560,-925.781,-52.246,-26.855,-930.664
1743153820.564,-1000.000,-60.059,-7.812,-1000.000
1743153820.568,-539.062,-36.133,-45.898,-559.570
1743153820.572,893.066,-8.789,-50.293,850.586
1743153820.529,999.512,-48.340,14.648,999.512
1743153820.533,888.672,-63.965,39.062,914.062
1743153820.537,999.512,-48.340,-7.324,999.512
1743153820.541,82.031,-43.457,-51.270,-90.332
1743153820.545,-1000.000,-39.551,-5.371,-1000.000
1743153820.549,-968.750,-33.691,41.504,-957.520
1743153820.553,-981.445,-16.602,30.273,-990.234
1743153820.556,-1000.000,-19.531,-23.438,-1000.000
1743153820.560,-925.781,-52.246,-26.855,-930.664
1743153820.564,-1000.000,-60.059,-7.812,-1000.000
1743153820.568,-539.062,-36.133,-45.898,-559.570
1743153820.572,893.066,-8.789,-50.293,850.586
1743153821.040,-1000.000,25.391,47.852,-1000.000
1743153821.044,-1000.000,11.230,-13.184,-1000.000
1743153821.048,-965.332,42.480,-53.223,-975.586
1743153821.052,-1000.000,44.922,15.625,-982.422
1743153821.056,-1000.000,15.137,35.645,-1000.000
1743153821.060,290.039,8.789,25.391,154.785
1743153821.064,999.512,1.465,30.762,999.512
1743153821.067,901.367,-0.488,2.441,910.645
1743153821.071,970.703,17.090,-8.789,964.355
1743153821.075,966.797,16.113,-12.207,968.262
1743153821.079,965.820,18.555,-1.953,967.285
1743153821.083,905.273,23.926,38.574,904.785
1743153820.574,999.512,-13.672,-30.273,999.512
1743153820.578,925.781,-13.672,-20.020,925.781
1743153820.582,907.227,-15.137,-41.504,908.203
1743153820.586,999.512,-0.977,-78.125,999.512
1743153820.590,445.312,-21.484,-49.805,441.406
1743153820.594,-962.402,-51.270,8.789,-957.031
1743153820.598,-1000.000,-9.766,29.297,-1000.000
1743153820.601,-952.148,4.395,19.531,-952.637
1743153820.605,-1000.000,-14.648,2.441,-1000.000
1743153820.609,-926.758,-17.090,-27.344,-930.176
1743153820.613,-1000.000,-19.043,-47.852,-1000.000
1743153820.617,-588.867,13.672,-49.805,-570.312
1743153820.574,999.512,-13.672,-30.273,999.512
1743153820.578,925.781,-13.672,-20.020,925.781
1743153820.582,907.227,-15.137,-41.504,908.203
1743153820.586,999.512,-0.977,-78.125,999.512
1743153820.590,445.312,-21.484,-49.805,441.406
1743153820.594,-962.402,-51.270,8.789,-957.031
1743153820.598,-1000.000,-9.766,29.297,-1000.000
1743153820.601,-952.148,4.395,19.531,-952.637
1743153820.605,-1000.000,-14.648,2.441,-1000.000
1743153820.609,-926.758,-17.090,-27.344,-930.176
1743153820.613,-1000.000,-19.043,-47.852,-1000.000
1743153820.617,-588.867,13.672,-49.805,-570.312
1743153820.619,855.957,54.199,-52.246,845.215
1743153820.623,999.512,24.414,-68.359,999.512
1743153820.627,909.668,15.625,-48.340,913.086
1743153820.631,981.934,-3.418,13.672,980.957
1743153820.635,966.309,-31.250,36.133,966.797
1743153820.639,966.309,-22.461,13.184,966.797
1743153820.643,965.820,12.695,-13.184,966.797
1743153820.646,966.309,20.508,-9.766,967.285
1743153820.650,966.309,17.578,10.742,966.797
1743153820.654,966.309,18.066,-11.230,966.797
1743153820.658,966.309,-5.859,-40.039,966.797
1743153820.662,966.309,3.906,-18.555,966.797
1743153820.724,-890.625,-22.949,7.324,-493.652
1743153820.728,-1000.000,-22.949,27.344,-1000.000
1743153820.732,-874.512,4.395,5.371,-866.211
1743153820.736,-1000.000,6.348,-36.621,-1000.000
1743153820.740,-616.211,26.855,-4.883,-467.773
1743153820.744,829.102,52.246,23.926,910.645
1743153820.748,999.512,22.949,16.602,997.070
1743153820.751,909.180,18.555,-32.227,920.898
1743153820.755,918.945,45.410,-67.871,917.480
1743153820.759,999.512,36.133,-28.809,999.512
1743153820.763,186.523,1.953,20.020,187.012
1743153820.767,-1000.000,-13.184,33.691,-1000.000
1743153820.769,-983.887,11.719,6.836,-984.863
1743153820.773,-973.145,25.879,8.789,-973.145
1743153820.777,-1000.000,12.207,18.555,-1000.000
1743153820.781,-930.664,11.230,-11.230,-928.223
1743153820.785,-1000.000,15.625,-20.020,-1000.000
1743153820.789,-343.262,39.062,-75.195,-435.547
1743153820.793,991.699,50.781,-95.215,947.754
1743153820.796,976.562,38.086,20.996,985.840
1743153820.800,860.352,43.457,79.102,868.652
1743153820.804,999.512,23.926,33.691,999.512
1743153820.808,290.527,11.230,23.438,142.578
1743153820.812,-1000.000,18.555,7.812,-1000.000
1743153820.769,-983.887,11.719,6.836,-984.863
1743153820.773,-973.145,25.879,8.789,-973.145
1743153820.777,-1000.000,12.207,18.555,-1000.000
1743153820.781,-930.664,11.230,-11.230,-928.223
1743153820.785,-1000.000,15.625,-20.020,-1000.000
1743153820.789,-343.262,39.062,-75.195,-435.547
1743153820.793,991.699,50.781,-95.215,947.754
1743153820.796,976.562,38.086,20.996,985.840
1743153820.800,860.352,43.457,79.102,868.652
1743153820.804,999.512,23.926,33.691,999.512
1743153820.808,290.527,11.230,23.438,142.578
1743153820.812,-1000.000,18.555,7.812,-1000.000
1743153820.769,-983.887,11.719,6.836,-984.863
1743153820.773,-973.145,25.879,8.789,-973.145
1743153820.777,-1000.000,12.207,18.555,-1000.000
1743153820.781,-930.664,11.230,-11.230,-928.223
1743153820.785,-1000.000,15.625,-20.020,-1000.000
1743153820.789,-343.262,39.062,-75.195,-435.547
1743153820.793,991.699,50.781,-95.215,947.754
1743153820.796,976.562,38.086,20.996,985.840
1743153820.800,860.352,43.457,79.102,868.652
1743153820.804,999.512,23.926,33.691,999.512
1743153820.808,290.527,11.230,23.438,142.578
1743153820.812,-1000.000,18.555,7.812,-1000.000
1743153820.814,-1000.000,19.531,-54.688,-990.723
1743153820.818,-928.711,11.230,-60.059,-943.848
1743153820.822,-1000.000,13.184,-63.965,-1000.000
1743153820.826,-1000.000,38.086,-41.504,-1000.000
1743153820.830,298.828,59.082,53.223,234.863
1743153820.834,999.512,14.160,75.684,999.512
1743153820.838,901.367,-7.812,26.367,906.738
1743153820.841,970.703,10.742,3.418,967.773
1743153820.845,966.309,9.277,-7.812,967.285
1743153820.849,981.445,16.113,2.441,979.980
1743153820.853,896.973,34.180,17.090,904.785
1743153820.857,999.512,34.668,-30.762,999.512
1743153820.814,-1000.000,19.531,-54.688,-990.723
1743153820.818,-928.711,11.230,-60.059,-943.848
1743153820.822,-1000.000,13.184,-63.965,-1000.000
1743153820.826,-1000.000,38.086,-41.504,-1000.000
1743153820.830,298.828,59.082,53.223,234.863
1743153820.834,999.512,14.160,75.684,999.512
1743153820.838,901.367,-7.812,26.367,906.738
1743153820.841,970.703,10.742,3.418,967.773
1743153820.845,966.309,9.277,-7.812,967.285
1743153820.849,981.445,16.113,2.441,979.980
1743153820.853,896.973,34.180,17.090,904.785
1743153820.857,999.512,34.668,-30.762,999.512
1743153820.859,633.301,17.578,-39.062,666.504
1743153820.863,-810.547,4.395,0.488,-736.328
1743153820.867,-1000.000,17.578,-5.859,-1000.000
1743153820.871,-873.047,18.555,7.324,-876.465
1743153820.875,-1000.000,14.160,16.602,-1000.000
1743153820.879,-285.156,32.227,6.348,-257.324
1743153820.883,999.512,32.227,6.348,999.512
1743153820.886,960.449,18.066,-0.977,957.031
1743153820.890,934.082,34.668,-25.879,937.012
1743153820.894,974.609,37.598,-34.180,974.609
1743153820.898,966.797,4.883,-22.461,967.773
1743153820.902,965.820,-13.672,2.441,964.355
1743153820.859,633.301,17.578,-39.062,666.504
1743153820.863,-810.547,4.395,0.488,-736.328
1743153820.867,-1000.000,17.578,-5.859,-1000.000
1743153820.871,-873.047,18.555,7.324,-876.465
1743153820.875,-1000.000,14.160,16.602,-1000.000
1743153820.879,-285.156,32.227,6.348,-257.324
1743153820.883,999.512,32.227,6.348,999.512
1743153820.886,960.449,18.066,-0.977,957.031
1743153820.890,934.082,34.668,-25.879,937.012
1743153820.894,974.609,37.598,-34.180,974.609
1743153820.898,966.797,4.883,-22.461,967.773
1743153820.902,965.820,-13.672,2.441,964.355
1743153820.919,905.273,15.137,23.926,909.180
1743153820.923,999.512,17.578,23.926,999.512
1743153820.927,166.992,-11.719,5.859,139.160
1743153820.931,-1000.000,-2.930,-0.488,-1000.000
1743153820.935,-980.957,19.531,-16.602,-978.027
1743153820.939,-974.609,21.973,-32.715,-976.562
1743153820.943,-1000.000,25.879,-26.855,-1000.000
1743153820.946,-1000.000,31.250,-38.574,-1000.000
1743153820.950,-1000.000,2.930,-25.391,-1000.000
1743153820.954,-1000.000,-4.883,27.344,-1000.000
1743153820.958,-1000.000,25.391,47.363,-1000.000
1743153820.962,-1000.000,22.461,39.062,-1000.000
1743153820.919,905.273,15.137,23.926,909.180
1743153820.923,999.512,17.578,23.926,999.512
1743153820.927,166.992,-11.719,5.859,139.160
1743153820.931,-1000.000,-2.930,-0.488,-1000.000
1743153820.935,-980.957,19.531,-16.602,-978.027
1743153820.939,-974.609,21.973,-32.715,-976.562
1743153820.943,-1000.000,25.879,-26.855,-1000.000
1743153820.946,-1000.000,31.250,-38.574,-1000.000
1743153820.950,-1000.000,2.930,-25.391,-1000.000
1743153820.954,-1000.000,-4.883,27.344,-1000.000
1743153820.958,-1000.000,25.391,47.363,-1000.000
1743153820.962,-1000.000,22.461,39.062,-1000.000
1743153820.949,-1000.000,12.207,-12.695,-1000.000
1743153820.953,-1000.000,37.598,-51.758,-1000.000
1743153820.957,-1000.000,51.758,-33.203,-1000.000
1743153820.961,-1000.000,11.230,-22.461,-1000.000
1743153820.965,-1000.000,2.930,9.277,-1000.000
1743153820.969,-1000.000,19.043,29.297,-1000.000
1743153820.973,-1000.000,22.949,25.391,-1000.000
1743153820.976,-1000.000,32.227,21.484,-1000.000
1743153820.980,-1000.000,23.926,-7.324,-1000.000
1743153820.984,-1000.000,28.809,-46.875,-1000.000
1743153820.988,-1000.000,36.621,-43.945,-1000.000
1743153820.992,-1000.000,16.113,-1.953,-1000.000
1743153820.995,-1000.000,21.484,42.480,-1000.000
1743153820.999,-1000.000,24.902,34.180,-1000.000
1743153821.003,-1000.000,28.320,5.371,-1000.000
1743153821.007,-1000.000,20.996,7.324,-1000.000
1743153821.011,-1000.000,4.395,26.367,-1000.000
1743153821.015,-1000.000,11.719,4.883,-1000.000
1743153821.019,-1000.000,28.320,-66.406,-1000.000
1743153821.022,-1000.000,13.672,-36.621,-1000.000
1743153821.026,-1000.000,-10.254,19.043,-1000.000
1743153821.030,-1000.000,6.836,8.789,-1000.000
1743153821.034,-1000.000,15.625,-1.953,-1000.000
1743153821.038,-1000.000,35.156,22.949,-1000.000
1743153821.099,999.512,10.742,79.102,999.512
1743153821.103,170.410,-7.324,67.383,176.758
1743153821.107,-1000.000,-18.066,16.113,-1000.000
1743153821.111,-918.945,-8.789,-31.250,-939.941
1743153821.115,-1000.000,9.766,-63.965,-1000.000
1743153821.119,-227.051,10.254,-42.969,-62.500
1743153821.123,999.512,-14.160,-25.391,999.512
1743153821.126,949.707,-8.301,-35.645,933.594
1743153821.130,946.289,11.719,-18.555,952.148
1743153821.134,942.871,24.902,27.344,962.402
1743153821.138,961.914,20.996,3.906,918.457
1743153821.142,988.281,-4.883,-40.039,999.512
1743153821.099,999.512,10.742,79.102,999.512
1743153821.103,170.410,-7.324,67.383,176.758
1743153821.107,-1000.000,-18.066,16.113,-1000.000
1743153821.111,-918.945,-8.789,-31.250,-939.941
1743153821.115,-1000.000,9.766,-63.965,-1000.000
1743153821.119,-227.051,10.254,-42.969,-62.500
1743153821.123,999.512,-14.160,-25.391,999.512
1743153821.126,949.707,-8.301,-35.645,933.594
1743153821.130,946.289,11.719,-18.555,952.148
1743153821.134,942.871,24.902,27.344,962.402
1743153821.138,961.914,20.996,3.906,918.457
1743153821.142,988.281,-4.883,-40.039,999.512
1743153821.159,-265.625,-32.715,-59.082,41.992
1743153821.163,-1000.000,-30.762,-71.777,-1000.000
1743153821.167,-941.895,2.441,-38.086,-965.332
1743153821.171,-1000.000,5.371,-5.371,-986.328
1743153821.175,-936.035,-5.371,-15.137,-939.453
1743153821.179,-1000.000,-2.930,-31.738,-1000.000
1743153821.183,-250.977,19.531,-22.949,-254.395
