timestamps,TP9,AF7,AF8,TP10
1741607852.063,-119.629,-178.223,5.371,18.555
1741607852.067,999.512,999.512,352.051,999.512
1741607852.071,935.547,944.336,245.117,925.781
1741607852.075,946.777,942.871,110.840,955.078
1741607852.079,982.910,981.934,-95.703,979.980
1741607852.083,892.090,895.508,9.766,894.531
1741607852.087,999.512,999.512,302.246,999.512
1741607852.090,447.754,366.699,-122.559,395.996
1741607852.094,-961.914,-999.512,-743.652,-984.375
1741607852.098,-1000.000,-1000.000,-628.906,-1000.000
1741607852.102,-951.660,-958.496,-338.867,-956.055
1741607852.106,-1000.000,-1000.000,-244.141,-1000.000
1741607852.108,-1000.000,-1000.000,-244.629,-1000.000
1741607852.112,-937.500,-937.012,-277.832,-937.988
1741607852.116,-1000.000,-1000.000,-154.785,-1000.000
1741607852.120,-221.191,-226.562,127.441,-215.820
1741607852.124,999.512,999.512,361.816,999.512
1741607852.128,950.195,951.660,455.078,950.195
1741607852.132,944.824,943.848,473.633,943.359
1741607852.135,904.297,906.250,321.289,907.715
1741607852.139,999.512,999.512,13.672,999.512
1741607852.143,287.109,265.137,-409.668,246.094
1741607852.147,-1000.000,-1000.000,-689.453,-1000.000
1741607852.151,-1000.000,-996.582,-485.352,-994.141
1741607852.108,-1000.000,-1000.000,-244.629,-1000.000
1741607852.112,-937.500,-937.012,-277.832,-937.988
1741607852.116,-1000.000,-1000.000,-154.785,-1000.000
1741607852.120,-221.191,-226.562,127.441,-215.820
1741607852.124,999.512,999.512,361.816,999.512
1741607852.128,950.195,951.660,455.078,950.195
1741607852.132,944.824,943.848,473.633,943.359
1741607852.135,904.297,906.250,321.289,907.715
1741607852.139,999.512,999.512,13.672,999.512
1741607852.143,287.109,265.137,-409.668,246.094
1741607852.147,-1000.000,-1000.000,-689.453,-1000.000
1741607852.151,-1000.000,-996.582,-485.352,-994.141
1741607852.154,-964.844,-966.797,-339.355,-968.262
1741607852.158,-1000.000,-1000.000,-180.664,-1000.000
1741607852.162,-1000.000,-1000.000,235.840,-1000.000
1741607852.166,-937.500,-938.477,362.793,-934.570
1741607852.170,-1000.000,-1000.000,0.000,-1000.000
1741607852.174,-221.191,-208.984,-24.414,-265.625
1741607852.178,999.512,999.512,532.227,999.512
1741607852.181,949.707,949.219,295.410,958.008
1741607852.185,938.965,940.430,-41.992,936.035
1741607852.189,987.793,979.492,-72.754,989.258
1741607852.193,891.602,898.438,-89.355,894.043
1741607852.197,999.512,999.512,51.270,999.512
1741607852.154,-964.844,-966.797,-339.355,-968.262
1741607852.158,-1000.000,-1000.000,-180.664,-1000.000
1741607852.162,-1000.000,-1000.000,235.840,-1000.000
1741607852.166,-937.500,-938.477,362.793,-934.570
1741607852.170,-1000.000,-1000.000,0.000,-1000.000
1741607852.174,-221.191,-208.984,-24.414,-265.625
1741607852.178,999.512,999.512,532.227,999.512
1741607852.181,949.707,949.219,295.410,958.008
1741607852.185,938.965,940.430,-41.992,936.035
1741607852.189,987.793,979.492,-72.754,989.258
1741607852.193,891.602,898.438,-89.355,894.043
1741607852.197,999.512,999.512,51.270,999.512
1741607852.213,522.949,298.340,13.672,528.809
1741607852.217,-917.480,-1000.000,-191.895,-901.855
1741607852.221,-1000.000,-1000.000,-207.520,-1000.000
1741607852.225,-937.500,-934.082,-311.523,-933.594
1741607852.229,-966.309,-1000.000,-284.668,-972.656
1741607852.233,-1000.000,-1000.000,-17.578,-1000.000
1741607852.237,-74.707,228.027,329.102,-18.555
1741607852.240,999.512,999.512,377.930,999.512
1741607852.244,929.688,908.691,-28.809,925.293
1741607852.248,963.379,975.586,-272.949,967.285
1741607852.252,895.020,896.973,-206.055,895.996
1741607852.256,999.512,999.512,-138.672,999.512
1741607852.213,522.949,298.340,13.672,528.809
1741607852.217,-917.480,-1000.000,-191.895,-901.855
1741607852.221,-1000.000,-1000.000,-207.520,-1000.000
1741607852.225,-937.500,-934.082,-311.523,-933.594
1741607852.229,-966.309,-1000.000,-284.668,-972.656
1741607852.233,-1000.000,-1000.000,-17.578,-1000.000
1741607852.237,-74.707,228.027,329.102,-18.555
1741607852.240,999.512,999.512,377.930,999.512
1741607852.244,929.688,908.691,-28.809,925.293
1741607852.248,963.379,975.586,-272.949,967.285
1741607852.252,895.020,896.973,-206.055,895.996
1741607852.256,999.512,999.512,-138.672,999.512
1741607852.259,478.516,342.285,-243.164,475.098
1741607852.263,-944.336,-1000.000,-590.820,-943.359
1741607852.267,-1000.000,-1000.000,-387.207,-1000.000
1741607852.271,-949.219,-960.449,4.883,-949.707
1741607852.275,-1000.000,-1000.000,29.297,-1000.000
1741607852.279,-1000.000,-1000.000,68.359,-1000.000
1741607852.283,-1000.000,-1000.000,52.734,-1000.000
1741607852.286,-986.816,-986.816,-179.688,-977.539
1741607852.290,-958.984,-959.473,-324.219,-980.957
1741607852.294,-1000.000,-1000.000,-298.828,-1000.000
1741607852.298,0.488,1.953,-104.980,125.000
1741607852.302,999.512,999.512,-33.203,999.512
1741607852.303,920.898,921.875,-304.199,917.480
1741607852.307,968.262,965.332,-380.859,972.168
1741607852.311,893.555,897.461,-291.016,895.996
1741607852.315,999.512,999.512,-262.207,999.512
1741607852.319,466.309,370.605,-503.418,421.387
1741607852.323,-951.660,-997.070,-610.352,-970.215
1741607852.327,-1000.000,-1000.000,-331.055,-1000.000
1741607852.330,-950.195,-958.008,-133.789,-954.102
1741607852.334,-1000.000,-1000.000,-265.137,-1000.000
1741607852.338,-995.117,-997.070,-578.125,-983.887
1741607852.342,-946.289,-943.359,-426.758,-968.750
1741607852.346,-1000.000,-1000.000,-279.297,-1000.000
1741607852.348,-121.582,-154.785,-168.457,33.203
1741607852.352,999.512,999.512,142.090,999.512
1741607852.356,936.035,941.406,58.594,925.293
1741607852.360,946.777,944.824,-134.766,956.055
1741607852.364,971.191,972.656,-166.992,970.215
1741607852.368,903.320,904.297,13.672,905.273
1741607852.372,999.512,999.512,125.977,999.512
1741607852.375,187.012,187.500,-507.812,177.734
1741607852.379,-1000.000,-1000.000,-1000.000,-1000.000
1741607852.383,-983.887,-983.887,-753.418,-982.422
1741607852.387,-973.145,-973.145,-506.348,-973.633
1741607852.391,-1000.000,-1000.000,-516.602,-1000.000
1741607852.348,-121.582,-154.785,-168.457,33.203
1741607852.352,999.512,999.512,142.090,999.512
1741607852.356,936.035,941.406,58.594,925.293
1741607852.360,946.777,944.824,-134.766,956.055
1741607852.364,971.191,972.656,-166.992,970.215
1741607852.368,903.320,904.297,13.672,905.273
1741607852.372,999.512,999.512,125.977,999.512
1741607852.375,187.012,187.500,-507.812,177.734
1741607852.379,-1000.000,-1000.000,-1000.000,-1000.000
1741607852.383,-983.887,-983.887,-753.418,-982.422
1741607852.387,-973.145,-973.145,-506.348,-973.633
1741607852.391,-1000.000,-1000.000,-516.602,-1000.000
1741607852.393,-960.938,-962.402,-555.176,-950.195
1741607852.397,-1000.000,-1000.000,-454.590,-1000.000
1741607852.401,-984.375,-994.141,-326.660,-846.191
1741607852.405,345.215,327.148,-38.574,514.648
1741607852.409,999.512,999.512,-35.645,999.512
1741607852.413,915.527,911.621,-222.656,918.945
1741607852.417,897.949,900.391,-285.645,903.320
1741607852.420,999.512,999.512,-551.270,999.512
1741607852.424,534.668,386.719,-827.148,542.969
1741607852.428,-909.668,-990.234,-1000.000,-888.672
1741607852.432,-1000.000,-1000.000,-908.203,-1000.000
1741607852.436,-960.449,-972.168,-481.934,-958.008
1741607852.438,-947.754,-948.242,-297.363,-946.289
1741607852.442,-1000.000,-1000.000,-310.059,-1000.000
1741607852.446,-694.824,-746.094,-200.195,-566.895
1741607852.450,750.977,689.941,159.180,840.332
1741607852.454,999.512,999.512,140.137,999.512
1741607852.458,903.809,902.832,115.234,914.062
1741607852.462,996.582,993.164,406.250,993.164
1741607852.465,891.602,894.043,-3.418,894.043
1741607852.469,999.512,999.512,-170.898,999.512
1741607852.473,534.668,429.199,-127.930,465.332
1741607852.477,-909.668,-967.773,-444.824,-945.312
1741607852.481,-1000.000,-1000.000,-271.973,-1000.000
1741607852.438,-947.754,-948.242,-297.363,-946.289
1741607852.442,-1000.000,-1000.000,-310.059,-1000.000
1741607852.446,-694.824,-746.094,-200.195,-566.895
1741607852.450,750.977,689.941,159.180,840.332
1741607852.454,999.512,999.512,140.137,999.512
1741607852.458,903.809,902.832,115.234,914.062
1741607852.462,996.582,993.164,406.250,993.164
1741607852.465,891.602,894.043,-3.418,894.043
1741607852.469,999.512,999.512,-170.898,999.512
1741607852.473,534.668,429.199,-127.930,465.332
1741607852.477,-909.668,-967.773,-444.824,-945.312
1741607852.481,-1000.000,-1000.000,-271.973,-1000.000
1741607852.484,-944.824,-953.613,-31.250,-950.684
1741607852.488,-1000.000,-1000.000,122.070,-1000.000
1741607852.492,-1000.000,-999.512,365.234,-998.047
1741607852.496,-937.500,-939.941,310.059,-942.383
1741607852.500,-1000.000,-1000.000,225.098,-1000.000
1741607852.504,-220.703,-194.824,558.105,-171.387
1741607852.508,999.512,999.512,999.512,999.512
1741607852.511,949.707,947.266,777.344,943.848
1741607852.515,938.965,941.895,312.988,943.359
1741607852.519,985.352,979.980,146.973,983.398
1741607852.523,892.090,897.461,192.383,894.043
1741607852.527,999.512,999.512,308.105,999.512
1741607852.484,-944.824,-953.613,-31.250,-950.684
1741607852.488,-1000.000,-1000.000,122.070,-1000.000
1741607852.492,-1000.000,-999.512,365.234,-998.047
1741607852.496,-937.500,-939.941,310.059,-942.383
1741607852.500,-1000.000,-1000.000,225.098,-1000.000
1741607852.504,-220.703,-194.824,558.105,-171.387
1741607852.508,999.512,999.512,999.512,999.512
1741607852.511,949.707,947.266,777.344,943.848
1741607852.515,938.965,941.895,312.988,943.359
1741607852.519,985.352,979.980,146.973,983.398
1741607852.523,892.090,897.461,192.383,894.043
1741607852.527,999.512,999.512,308.105,999.512
1741607852.544,437.988,310.547,234.375,407.715
1741607852.548,-967.285,-1000.000,-187.500,-980.469
1741607852.552,-1000.000,-1000.000,-104.004,-1000.000
1741607852.556,-952.637,-963.379,169.922,-955.078
1741607852.560,-1000.000,-1000.000,310.547,-1000.000
1741607852.564,-1000.000,-1000.000,484.375,-1000.000
1741607852.568,-1000.000,-1000.000,246.582,-1000.000
1741607852.571,-999.512,-998.535,-69.336,-994.141
1741607852.575,-939.453,-941.406,-126.953,-949.219
1741607852.579,-1000.000,-1000.000,-86.426,-1000.000
1741607852.583,-196.289,-178.223,359.863,-114.258
1741607852.587,999.512,999.512,694.336,999.512
1741607852.588,946.289,944.824,357.910,940.430
1741607852.592,952.148,950.195,214.355,950.195
1741607852.596,929.199,943.359,304.688,931.152
1741607852.600,989.746,956.543,105.957,997.559
1741607852.604,921.875,999.512,41.992,536.621
1741607852.608,-428.223,-248.047,80.078,-734.375
1741607852.612,-1000.000,-1000.000,63.965,-1000.000
1741607852.615,-933.594,-937.988,192.871,-948.242
1741607852.619,-1000.000,-1000.000,14.160,-1000.000
1741607852.623,-1000.000,-1000.000,-326.660,-1000.000
1741607852.627,-1000.000,-1000.000,-251.465,-1000.000
1741607852.631,-1000.000,-1000.000,-59.570,-1000.000
1741607852.588,946.289,944.824,357.910,940.430
1741607852.592,952.148,950.195,214.355,950.195
1741607852.596,929.199,943.359,304.688,931.152
1741607852.600,989.746,956.543,105.957,997.559
1741607852.604,921.875,999.512,41.992,536.621
1741607852.608,-428.223,-248.047,80.078,-734.375
1741607852.612,-1000.000,-1000.000,63.965,-1000.000
1741607852.615,-933.594,-937.988,192.871,-948.242
1741607852.619,-1000.000,-1000.000,14.160,-1000.000
1741607852.623,-1000.000,-1000.000,-326.660,-1000.000
1741607852.627,-1000.000,-1000.000,-251.465,-1000.000
1741607852.631,-1000.000,-1000.000,-59.570,-1000.000
1741607852.633,-1000.000,-1000.000,-180.664,-1000.000
1741607852.637,-932.617,-936.035,-346.191,-932.129
1741607852.641,-1000.000,-1000.000,-335.449,-1000.000
1741607852.645,-299.316,-245.605,-199.219,-319.336
1741607852.649,999.512,999.512,260.254,999.512
1741607852.653,971.680,968.750,551.758,977.051
1741607852.657,897.949,868.652,355.469,890.137
1741607852.660,977.539,999.512,-177.246,998.535
1741607852.664,983.887,577.637,-462.891,915.039
1741607852.668,-318.359,-845.215,-331.055,-415.039
1741607852.672,-1000.000,-1000.000,-163.574,-1000.000
1741607852.676,-940.918,-952.148,0.977,-943.848
1741607852.633,-1000.000,-1000.000,-180.664,-1000.000
1741607852.637,-932.617,-936.035,-346.191,-932.129
1741607852.641,-1000.000,-1000.000,-335.449,-1000.000
1741607852.645,-299.316,-245.605,-199.219,-319.336
1741607852.649,999.512,999.512,260.254,999.512
1741607852.653,971.680,968.750,551.758,977.051
1741607852.657,897.949,868.652,355.469,890.137
1741607852.660,977.539,999.512,-177.246,998.535
1741607852.664,983.887,577.637,-462.891,915.039
1741607852.668,-318.359,-845.215,-331.055,-415.039
1741607852.672,-1000.000,-1000.000,-163.574,-1000.000
1741607852.676,-940.918,-952.148,0.977,-943.848
1741607852.678,-980.957,-980.957,32.715,-977.051
1741607852.682,-977.539,-1000.000,14.648,-992.676
1741607852.686,-1000.000,-1000.000,113.281,-1000.000
1741607852.690,139.648,274.414,477.051,218.262
1741607852.694,999.512,999.512,508.789,999.512
1741607852.698,922.363,915.039,241.699,921.387
1741607852.702,889.648,897.949,171.387,893.066
1741607852.705,999.512,999.512,125.000,999.512
1741607852.709,516.602,372.559,-223.145,487.305
1741607852.713,-920.898,-997.070,-637.695,-936.035
1741607852.717,-1000.000,-1000.000,-552.246,-1000.000
1741607852.721,-946.289,-958.008,-264.160,-948.730
1741607852.678,-980.957,-980.957,32.715,-977.051
1741607852.682,-977.539,-1000.000,14.648,-992.676
1741607852.686,-1000.000,-1000.000,113.281,-1000.000
1741607852.690,139.648,274.414,477.051,218.262
1741607852.694,999.512,999.512,508.789,999.512
1741607852.698,922.363,915.039,241.699,921.387
1741607852.702,889.648,897.949,171.387,893.066
1741607852.705,999.512,999.512,125.000,999.512
1741607852.709,516.602,372.559,-223.145,487.305
1741607852.713,-920.898,-997.070,-637.695,-936.035
1741607852.717,-1000.000,-1000.000,-552.246,-1000.000
1741607852.721,-946.289,-958.008,-264.160,-948.730
1741607852.723,-1000.000,-1000.000,62.988,-1000.000
1741607852.727,-1000.000,-1000.000,14.160,-1000.000
1741607852.731,-998.047,-986.816,-153.809,-998.047
1741607852.735,-941.895,-959.473,-146.484,-941.895
1741607852.739,-1000.000,-1000.000,-304.199,-1000.000
1741607852.743,-171.875,-1.465,200.195,-171.875
1741607852.747,999.512,999.512,858.887,999.512
1741607852.750,942.871,922.852,340.332,943.848
1741607852.754,942.871,955.566,-311.523,943.359
1741607852.758,981.934,972.656,-509.277,982.910
1741607852.762,893.555,901.367,-322.266,894.531
1741607852.766,999.512,999.512,-111.328,999.512
1741607852.723,-1000.000,-1000.000,62.988,-1000.000
1741607852.727,-1000.000,-1000.000,14.160,-1000.000
1741607852.731,-998.047,-986.816,-153.809,-998.047
1741607852.735,-941.895,-959.473,-146.484,-941.895
1741607852.739,-1000.000,-1000.000,-304.199,-1000.000
1741607852.743,-171.875,-1.465,200.195,-171.875
1741607852.747,999.512,999.512,858.887,999.512
1741607852.750,942.871,922.852,340.332,943.848
1741607852.754,942.871,955.566,-311.523,943.359
1741607852.758,981.934,972.656,-509.277,982.910
1741607852.762,893.555,901.367,-322.266,894.531
1741607852.766,999.512,999.512,-111.328,999.512
1741607852.769,382.324,233.398,-277.832,392.578
1741607852.773,-994.629,-1000.000,-603.516,-987.793
1741607852.777,-1000.000,-1000.000,-259.277,-1000.000
1741607852.781,-895.020,-897.949,34.668,-891.602
1741607852.785,-1000.000,-1000.000,-103.516,-1000.000
1741607852.789,-769.531,-596.680,126.465,-709.473
1741607852.793,661.133,836.914,627.441,717.285
1741607852.796,999.512,999.512,575.195,999.512
1741607852.800,901.855,910.645,106.934,906.250
1741607852.804,980.957,982.422,-33.691,979.492
1741607852.808,903.320,904.297,-18.555,907.227
1741607852.812,999.512,999.512,-9.277,999.512
1741607852.814,186.523,187.012,-334.473,152.832
1741607852.818,-1000.000,-1000.000,-656.250,-1000.000
1741607852.822,-995.117,-983.398,-448.242,-988.770
1741607852.826,-899.902,-912.109,-353.027,-904.297
1741607852.830,-1000.000,-1000.000,-299.316,-1000.000
1741607852.834,-449.219,-201.660,-64.941,-410.156
1741607852.838,944.336,999.512,212.891,959.473
1741607852.841,990.234,948.730,-59.570,986.816
1741607852.845,918.457,938.965,-398.926,911.133
1741607852.849,920.410,915.039,-399.414,941.406
1741607852.853,999.512,999.512,-530.273,999.512
1741607852.857,140.137,137.695,-683.105,-16.113
1741607852.814,186.523,187.012,-334.473,152.832
1741607852.818,-1000.000,-1000.000,-656.250,-1000.000
1741607852.822,-995.117,-983.398,-448.242,-988.770
1741607852.826,-899.902,-912.109,-353.027,-904.297
1741607852.830,-1000.000,-1000.000,-299.316,-1000.000
1741607852.834,-449.219,-201.660,-64.941,-410.156
1741607852.838,944.336,999.512,212.891,959.473
1741607852.841,990.234,948.730,-59.570,986.816
1741607852.845,918.457,938.965,-398.926,911.133
1741607852.849,920.410,915.039,-399.414,941.406
1741607852.853,999.512,999.512,-530.273,999.512
1741607852.857,140.137,137.695,-683.105,-16.113
1741607852.858,-1000.000,-1000.000,-811.035,-1000.000
1741607852.862,-977.539,-977.539,-536.133,-964.844
1741607852.866,-977.539,-974.121,-204.102,-985.840
1741607852.870,-943.359,-947.754,-238.770,-941.895
1741607852.874,-1000.000,-1000.000,-425.781,-1000.000
1741607852.878,-221.191,-168.945,37.109,-213.867
1741607852.882,999.512,999.512,502.441,999.512
1741607852.885,950.684,940.918,201.660,941.406
1741607852.889,876.953,886.230,-197.754,894.531
1741607852.893,999.512,999.512,-629.395,999.512
1741607852.897,180.664,130.371,-916.504,52.734
1741607852.901,-1000.000,-1000.000,-887.207,-1000.000
1741607852.858,-1000.000,-1000.000,-811.035,-1000.000
1741607852.862,-977.539,-977.539,-536.133,-964.844
1741607852.866,-977.539,-974.121,-204.102,-985.840
1741607852.870,-943.359,-947.754,-238.770,-941.895
1741607852.874,-1000.000,-1000.000,-425.781,-1000.000
1741607852.878,-221.191,-168.945,37.109,-213.867
1741607852.882,999.512,999.512,502.441,999.512
1741607852.885,950.684,940.918,201.660,941.406
1741607852.889,876.953,886.230,-197.754,894.531
1741607852.893,999.512,999.512,-629.395,999.512
1741607852.897,180.664,130.371,-916.504,52.734
1741607852.901,-1000.000,-1000.000,-887.207,-1000.000
1741607852.903,-982.910,-976.074,-655.762,-971.680
1741607852.907,-988.281,-992.188,-492.188,-994.141
1741607852.911,-947.754,-944.336,-343.750,-939.941
1741607852.915,-1000.000,-1000.000,-365.723,-1000.000
1741607852.919,-806.152,-778.320,-476.074,-645.996
1741607852.923,615.234,648.438,10.254,760.742
1741607852.927,999.512,999.512,323.242,999.512
1741607852.930,900.391,901.855,-283.203,910.156
1741607852.934,979.492,980.957,-617.188,980.469
1741607852.938,975.586,973.145,-297.363,973.633
1741607852.942,894.531,897.949,-124.023,897.949
1741607852.946,999.512,999.512,-313.477,999.512
1741607852.903,-982.910,-976.074,-655.762,-971.680
1741607852.907,-988.281,-992.188,-492.188,-994.141
1741607852.911,-947.754,-944.336,-343.750,-939.941
1741607852.915,-1000.000,-1000.000,-365.723,-1000.000
1741607852.919,-806.152,-778.320,-476.074,-645.996
1741607852.923,615.234,648.438,10.254,760.742
1741607852.927,999.512,999.512,323.242,999.512
1741607852.930,900.391,901.855,-283.203,910.156
1741607852.934,979.492,980.957,-617.188,980.469
1741607852.938,975.586,973.145,-297.363,973.633
1741607852.942,894.531,897.949,-124.023,897.949
1741607852.946,999.512,999.512,-313.477,999.512
1741607852.963,360.840,297.363,-406.738,312.500
1741607852.967,-1000.000,-1000.000,-572.754,-1000.000
1741607852.971,-1000.000,-1000.000,-384.277,-1000.000
1741607852.975,-954.590,-941.406,-120.117,-958.496
1741607852.979,-956.543,-987.793,-175.781,-955.566
1741607852.983,-1000.000,-1000.000,-87.402,-1000.000
1741607852.987,-136.719,129.395,369.141,-137.695
1741607852.990,999.512,999.512,464.355,999.512
1741607852.994,937.988,912.109,-81.055,939.453
1741607852.998,945.312,963.379,-388.672,945.801
1741607853.002,971.191,967.773,-419.922,971.680
1741607853.006,967.285,969.238,-372.070,969.238
1741607853.008,959.473,956.055,-83.496,956.543
1741607853.012,914.551,921.387,-94.238,922.363
1741607853.016,999.512,999.512,-151.367,999.512
1741607853.020,61.523,6.348,-388.184,17.090
1741607853.024,-1000.000,-1000.000,-754.395,-1000.000
1741607853.028,-966.309,-960.449,-326.660,-963.867
1741607853.032,-982.422,-986.328,87.891,-984.863
1741607853.035,-1000.000,-1000.000,-124.512,-1000.000
1741607853.039,-925.781,-925.781,-371.094,-928.711
1741607853.043,-1000.000,-1000.000,-329.102,-1000.000
1741607853.047,-563.965,-560.059,-80.078,-453.125
1741607853.051,878.418,881.348,227.051,935.059
1741607853.008,959.473,956.055,-83.496,956.543
1741607853.012,914.551,921.387,-94.238,922.363
1741607853.016,999.512,999.512,-151.367,999.512
1741607853.020,61.523,6.348,-388.184,17.090
1741607853.024,-1000.000,-1000.000,-754.395,-1000.000
1741607853.028,-966.309,-960.449,-326.660,-963.867
1741607853.032,-982.422,-986.328,87.891,-984.863
1741607853.035,-1000.000,-1000.000,-124.512,-1000.000
1741607853.039,-925.781,-925.781,-371.094,-928.711
1741607853.043,-1000.000,-1000.000,-329.102,-1000.000
1741607853.047,-563.965,-560.059,-80.078,-453.125
1741607853.051,878.418,881.348,227.051,935.059
1741607853.054,999.512,999.512,278.809,992.676
1741607853.058,926.758,923.340,-25.391,935.547
1741607853.062,914.062,909.668,-154.297,916.504
1741607853.066,999.512,999.512,-156.738,999.512
1741607853.070,670.410,414.062,-402.832,707.031
1741607853.074,-774.414,-975.586,-481.445,-720.215
1741607853.078,-1000.000,-1000.000,-289.062,-1000.000
1741607853.081,-937.988,-954.590,-263.672,-937.500
1741607853.085,-1000.000,-1000.000,-478.027,-1000.000
1741607853.089,-1000.000,-1000.000,-543.457,-1000.000
1741607853.093,-1000.000,-1000.000,-456.543,-1000.000
1741607853.097,-925.781,-925.781,-405.762,-927.734
1741607853.098,-1000.000,-1000.000,-501.465,-1000.000
1741607853.102,-530.762,-539.551,-420.898,-472.656
1741607853.106,898.926,893.555,132.324,926.270
1741607853.110,999.512,999.512,176.758,996.094
1741607853.114,914.062,914.062,-167.969,919.434
1741607853.118,996.094,990.723,-198.242,994.141
1741607853.122,891.602,896.484,-32.715,895.020
1741607853.125,999.512,999.512,-72.754,999.512
1741607853.129,539.062,361.328,-472.168,534.180
1741607853.133,-906.738,-1000.000,-812.500,-892.578
1741607853.137,-1000.000,-1000.000,-854.004,-1000.000
1741607853.141,-944.336,-958.984,-645.020,-945.801
1741607853.098,-1000.000,-1000.000,-501.465,-1000.000
1741607853.102,-530.762,-539.551,-420.898,-472.656
1741607853.106,898.926,893.555,132.324,926.270
1741607853.110,999.512,999.512,176.758,996.094
1741607853.114,914.062,914.062,-167.969,919.434
1741607853.118,996.094,990.723,-198.242,994.141
1741607853.122,891.602,896.484,-32.715,895.020
1741607853.125,999.512,999.512,-72.754,999.512
1741607853.129,539.062,361.328,-472.168,534.180
1741607853.133,-906.738,-1000.000,-812.500,-892.578
1741607853.137,-1000.000,-1000.000,-854.004,-1000.000
1741607853.141,-944.336,-958.984,-645.020,-945.801
1741607853.143,-1000.000,-1000.000,-437.012,-1000.000
1741607853.147,-1000.000,-1000.000,-256.348,-1000.000
1741607853.151,-1000.000,-996.582,-187.012,-998.047
1741607853.155,-938.477,-944.336,-272.461,-942.383
1741607853.159,-1000.000,-1000.000,-423.828,-1000.000
1741607853.163,-208.008,-146.973,29.785,-170.898
1741607853.167,999.512,999.512,731.445,999.512
1741607853.170,947.754,940.918,543.945,943.848
1741607853.174,939.941,945.312,-77.637,943.359
1741607853.178,987.305,983.887,-408.691,986.816
1741607853.182,906.738,894.043,-202.148,906.250
1741607853.186,999.512,999.512,-53.711,999.512
1741607853.188,772.461,448.730,-55.664,744.141
1741607853.192,-648.438,-956.055,-368.164,-673.828
1741607853.196,-1000.000,-1000.000,-618.164,-1000.000
1741607853.200,-877.930,-879.883,-423.828,-880.371
1741607853.204,-1000.000,-1000.000,-172.852,-1000.000
1741607853.208,-837.891,-549.805,64.941,-823.242
1741607853.212,573.242,872.559,285.645,579.590
1741607853.215,999.512,999.512,48.828,999.512
1741607853.219,899.902,914.551,-423.828,902.344
1741607853.223,980.469,982.422,-444.336,979.004
1741607853.227,902.832,904.297,-167.969,905.762
1741607853.231,999.512,999.512,-201.172,999.512
1741607853.188,772.461,448.730,-55.664,744.141
1741607853.192,-648.438,-956.055,-368.164,-673.828
1741607853.196,-1000.000,-1000.000,-618.164,-1000.000
1741607853.200,-877.930,-879.883,-423.828,-880.371
1741607853.204,-1000.000,-1000.000,-172.852,-1000.000
1741607853.208,-837.891,-549.805,64.941,-823.242
1741607853.212,573.242,872.559,285.645,579.590
1741607853.215,999.512,999.512,48.828,999.512
1741607853.219,899.902,914.551,-423.828,902.344
1741607853.223,980.469,982.422,-444.336,979.004
1741607853.227,902.832,904.297,-167.969,905.762
1741607853.231,999.512,999.512,-201.172,999.512
1741607853.233,200.195,187.500,-427.246,181.152
1741607853.237,-1000.000,-1000.000,-424.805,-1000.000
1741607853.241,-1000.000,-995.117,-41.504,-997.559
1741607853.245,-913.574,-900.879,195.312,-915.527
1741607853.249,-1000.000,-1000.000,141.113,-1000.000
1741607853.253,-813.965,-451.172,153.320,-805.664
1741607853.257,604.492,938.477,549.805,603.027
1741607853.260,999.512,991.699,568.848,999.512
1741607853.264,900.391,920.898,-37.598,902.344
1741607853.268,979.492,979.980,-191.895,979.004
1741607853.272,966.309,966.797,44.922,966.797
1741607853.276,974.121,979.492,229.980,974.609
1741607853.279,934.570,913.574,473.145,936.035
1741607853.283,960.449,999.512,424.316,961.914
1741607853.287,999.512,807.129,234.375,999.023
1741607853.291,-277.832,-580.078,-111.328,-272.461
1741607853.295,-1000.000,-1000.000,-520.508,-1000.000
1741607853.299,-936.035,-936.035,-99.121,-938.965
1741607853.303,-1000.000,-1000.000,375.488,-1000.000
1741607853.306,-1000.000,-1000.000,-10.254,-1000.000
1741607853.310,-1000.000,-1000.000,-304.688,-1000.000
1741607853.314,-991.699,-988.770,-389.160,-978.027
1741607853.318,-951.172,-955.566,-436.523,-980.957
1741607853.322,-1000.000,-1000.000,-524.414,-1000.000
1741607853.279,934.570,913.574,473.145,936.035
1741607853.283,960.449,999.512,424.316,961.914
1741607853.287,999.512,807.129,234.375,999.023
1741607853.291,-277.832,-580.078,-111.328,-272.461
1741607853.295,-1000.000,-1000.000,-520.508,-1000.000
1741607853.299,-936.035,-936.035,-99.121,-938.965
1741607853.303,-1000.000,-1000.000,375.488,-1000.000
1741607853.306,-1000.000,-1000.000,-10.254,-1000.000
1741607853.310,-1000.000,-1000.000,-304.688,-1000.000
1741607853.314,-991.699,-988.770,-389.160,-978.027
1741607853.318,-951.172,-955.566,-436.523,-980.957
1741607853.322,-1000.000,-1000.000,-524.414,-1000.000
1741607853.338,-69.336,-30.273,-282.715,120.605
1741607853.342,999.512,999.512,31.738,999.512
1741607853.346,929.199,925.293,-68.359,918.457
1741607853.350,950.195,953.613,-76.172,960.449
1741607853.354,969.727,969.727,-386.230,969.238
1741607853.358,966.797,966.797,-308.594,966.797
1741607853.362,903.320,906.250,-106.445,905.762
1741607853.365,999.512,999.512,-268.555,999.512
1741607853.369,187.012,167.969,-549.316,170.410
1741607853.373,-1000.000,-1000.000,-771.484,-1000.000
1741607853.377,-983.887,-981.445,-375.977,-981.934
1741607853.381,-973.145,-974.609,-6.348,-974.121
1741607853.383,-1000.000,-1000.000,-188.477,-1000.000
1741607853.387,-1000.000,-1000.000,-246.094,-1000.000
1741607853.391,-1000.000,-995.117,1.953,-1000.000
1741607853.395,-937.500,-946.289,182.617,-937.500
1741607853.399,-1000.000,-1000.000,35.156,-1000.000
1741607853.403,-220.703,-129.883,226.562,-220.703
1741607853.407,999.512,999.512,890.625,999.512
1741607853.410,959.961,948.242,583.008,955.078
1741607853.414,866.211,874.023,4.395,873.047
1741607853.418,999.512,999.512,-26.855,999.512
1741607853.422,375.977,378.418,-114.746,259.766
1741607853.426,-998.047,-996.094,-380.859,-1000.000
1741607853.383,-1000.000,-1000.000,-188.477,-1000.000
1741607853.387,-1000.000,-1000.000,-246.094,-1000.000
1741607853.391,-1000.000,-995.117,1.953,-1000.000
1741607853.395,-937.500,-946.289,182.617,-937.500
1741607853.399,-1000.000,-1000.000,35.156,-1000.000
1741607853.403,-220.703,-129.883,226.562,-220.703
1741607853.407,999.512,999.512,890.625,999.512
1741607853.410,959.961,948.242,583.008,955.078
1741607853.414,866.211,874.023,4.395,873.047
1741607853.418,999.512,999.512,-26.855,999.512
1741607853.422,375.977,378.418,-114.746,259.766
1741607853.426,-998.047,-996.094,-380.859,-1000.000
1741607853.428,-1000.000,-1000.000,-352.051,-996.094
1741607853.432,-958.008,-958.008,-164.062,-967.285
1741607853.436,-1000.000,-1000.000,-19.531,-1000.000
1741607853.440,-937.500,-941.895,-11.230,-935.059
1741607853.444,-1000.000,-1000.000,-163.086,-1000.000
1741607853.448,-219.727,-174.316,112.305,-255.371
1741607853.452,999.512,999.512,627.930,999.512
1741607853.455,897.949,888.672,347.168,940.430
1741607853.459,999.512,999.512,-90.332,985.840
1741607853.463,68.359,113.770,-538.574,-170.410
1741607853.467,-1000.000,-1000.000,-789.062,-1000.000
1741607853.471,-966.309,-972.656,-453.613,-948.730
1741607853.428,-1000.000,-1000.000,-352.051,-996.094
1741607853.432,-958.008,-958.008,-164.062,-967.285
1741607853.436,-1000.000,-1000.000,-19.531,-1000.000
1741607853.440,-937.500,-941.895,-11.230,-935.059
1741607853.444,-1000.000,-1000.000,-163.086,-1000.000
1741607853.448,-219.727,-174.316,112.305,-255.371
1741607853.452,999.512,999.512,627.930,999.512
1741607853.455,897.949,888.672,347.168,940.430
1741607853.459,999.512,999.512,-90.332,985.840
1741607853.463,68.359,113.770,-538.574,-170.410
1741607853.467,-1000.000,-1000.000,-789.062,-1000.000
1741607853.471,-966.309,-972.656,-453.613,-948.730
1741607853.474,-982.422,-979.004,-317.383,-995.605
1741607853.478,-1000.000,-1000.000,-413.086,-1000.000
1741607853.482,-1000.000,-999.512,-218.750,-1000.000
1741607853.486,-937.500,-939.453,103.516,-937.500
1741607853.490,-1000.000,-1000.000,91.309,-1000.000
1741607853.494,-220.703,-196.777,281.738,-220.703
1741607853.498,999.512,999.512,776.855,999.512
1741607853.501,950.195,947.266,459.473,950.684
1741607853.505,954.590,957.031,-127.441,950.684
1741607853.509,900.879,903.320,-171.875,901.855
1741607853.513,999.512,999.512,192.383,999.512
1741607853.517,596.680,628.906,122.070,435.059
1741607853.474,-982.422,-979.004,-317.383,-995.605
1741607853.478,-1000.000,-1000.000,-413.086,-1000.000
1741607853.482,-1000.000,-999.512,-218.750,-1000.000
1741607853.486,-937.500,-939.453,103.516,-937.500
1741607853.490,-1000.000,-1000.000,91.309,-1000.000
1741607853.494,-220.703,-196.777,281.738,-220.703
1741607853.498,999.512,999.512,776.855,999.512
1741607853.501,950.195,947.266,459.473,950.684
1741607853.505,954.590,957.031,-127.441,950.684
1741607853.509,900.879,903.320,-171.875,901.855
1741607853.513,999.512,999.512,192.383,999.512
1741607853.517,596.680,628.906,122.070,435.059
1741607853.518,-852.051,-817.871,-511.719,-958.496
1741607853.522,-1000.000,-1000.000,-599.121,-1000.000
1741607853.526,-941.895,-932.129,-54.199,-953.613
1741607853.530,-953.613,-965.820,82.520,-950.684
1741607853.534,-1000.000,-1000.000,-191.895,-1000.000
1741607853.538,-221.191,-88.379,74.219,-220.703
1741607853.542,999.512,999.512,532.227,999.512
1741607853.545,957.520,941.406,321.777,953.613
1741607853.549,868.652,878.906,-283.691,874.512
1741607853.553,999.512,999.512,-557.617,999.512
1741607853.557,329.590,336.914,-489.258,241.699
1741607853.561,-1000.000,-1000.000,-600.098,-1000.000
1741607853.564,-1000.000,-1000.000,-472.656,-993.652
1741607853.568,-962.891,-963.379,-181.152,-970.215
1741607853.572,-1000.000,-999.512,-97.168,-1000.000
1741607853.576,-948.242,-956.055,-56.152,-952.148
1741607853.580,-1000.000,-1000.000,-121.582,-1000.000
1741607853.584,-98.145,-28.809,339.355,-71.289
1741607853.588,999.512,999.512,849.121,999.512
1741607853.591,932.617,925.781,271.484,931.152
1741607853.595,948.242,954.102,-243.164,950.684
1741607853.599,969.727,969.727,-119.629,970.215
1741607853.603,981.445,980.957,160.645,979.004
1741607853.607,891.602,892.578,152.344,895.508
1741607853.608,999.512,999.512,-66.406,999.512
1741607853.612,530.273,509.277,-258.301,462.891
1741607853.616,-912.598,-923.828,-505.371,-938.477
1741607853.620,-1000.000,-1000.000,-278.809,-1000.000
1741607853.624,-945.801,-945.312,-169.434,-952.148
1741607853.628,-953.125,-956.543,-171.387,-951.172
1741607853.632,-1000.000,-1000.000,25.391,-1000.000
1741607853.635,-220.703,-181.641,103.027,-222.168
1741607853.639,999.512,999.512,206.543,999.512
1741607853.643,950.195,945.801,118.652,950.684
1741607853.647,938.965,942.383,300.293,939.453
1741607853.651,973.145,972.656,315.918,973.633
1741607853.608,999.512,999.512,-66.406,999.512
1741607853.612,530.273,509.277,-258.301,462.891
1741607853.616,-912.598,-923.828,-505.371,-938.477
1741607853.620,-1000.000,-1000.000,-278.809,-1000.000
1741607853.624,-945.801,-945.312,-169.434,-952.148
1741607853.628,-953.125,-956.543,-171.387,-951.172
1741607853.632,-1000.000,-1000.000,25.391,-1000.000
1741607853.635,-220.703,-181.641,103.027,-222.168
1741607853.639,999.512,999.512,206.543,999.512
1741607853.643,950.195,945.801,118.652,950.684
1741607853.647,938.965,942.383,300.293,939.453
1741607853.651,973.145,972.656,315.918,973.633
1741607853.653,966.309,966.797,174.316,966.797
1741607853.657,978.516,971.680,199.707,979.492
1741607853.661,892.090,899.414,263.672,893.066
1741607853.665,999.512,999.512,321.777,999.512
1741607853.669,436.523,270.508,137.207,454.102
1741607853.673,-967.773,-1000.000,15.625,-955.566
1741607853.677,-1000.000,-998.047,433.594,-1000.000
1741607853.680,-952.637,-966.309,479.492,-951.660
1741607853.684,-1000.000,-1000.000,25.391,-1000.000
1741607853.688,-1000.000,-1000.000,-197.754,-1000.000
1741607853.692,-934.570,-929.199,-70.312,-937.012
1741607853.696,-1000.000,-1000.000,152.832,-1000.000
1741607853.653,966.309,966.797,174.316,966.797
1741607853.657,978.516,971.680,199.707,979.492
1741607853.661,892.090,899.414,263.672,893.066
1741607853.665,999.512,999.512,321.777,999.512
1741607853.669,436.523,270.508,137.207,454.102
1741607853.673,-967.773,-1000.000,15.625,-955.566
1741607853.677,-1000.000,-998.047,433.594,-1000.000
1741607853.680,-952.637,-966.309,479.492,-951.660
1741607853.684,-1000.000,-1000.000,25.391,-1000.000
1741607853.688,-1000.000,-1000.000,-197.754,-1000.000
1741607853.692,-934.570,-929.199,-70.312,-937.012
1741607853.696,-1000.000,-1000.000,152.832,-1000.000
1741607854.178,-822.754,-794.922,-391.113,-923.828
1741607854.182,-1000.000,-1000.000,-567.383,-1000.000
1741607854.186,-940.918,-926.270,123.535,-951.172
1741607854.190,-953.125,-973.633,667.969,-951.172
1741607854.194,-1000.000,-1000.000,822.266,-1000.000
1741607854.198,-220.703,-15.625,871.094,-214.844
1741607854.202,999.512,999.512,907.715,999.512
1741607854.205,950.195,924.316,611.816,949.707
1741607854.209,938.965,954.590,158.203,939.941
1741607854.213,973.145,969.238,24.414,973.633
1741607854.217,966.309,966.797,276.855,966.797
1741607854.221,967.285,971.680,351.074,968.262
1741607853.713,-270.508,-370.117,328.125,-238.281
1741607853.717,999.512,982.422,708.984,999.512
1741607853.721,958.008,976.074,718.750,954.102
1741607853.725,935.059,927.734,395.996,938.477
1741607853.729,981.934,982.910,239.258,983.887
1741607853.733,935.547,943.848,349.121,922.363
1741607853.737,958.496,942.383,485.352,998.535
1741607853.740,999.512,999.512,360.352,809.082
1741607853.744,-267.090,-163.086,0.977,-523.926
1741607853.748,-1000.000,-1000.000,-465.332,-1000.000
1741607853.752,-936.523,-942.383,-398.926,-938.965
1741607853.756,-1000.000,-997.559,-181.641,-1000.000
1741607853.713,-270.508,-370.117,328.125,-238.281
1741607853.717,999.512,982.422,708.984,999.512
1741607853.721,958.008,976.074,718.750,954.102
1741607853.725,935.059,927.734,395.996,938.477
1741607853.729,981.934,982.910,239.258,983.887
1741607853.733,935.547,943.848,349.121,922.363
1741607853.737,958.496,942.383,485.352,998.535
1741607853.740,999.512,999.512,360.352,809.082
1741607853.744,-267.090,-163.086,0.977,-523.926
1741607853.748,-1000.000,-1000.000,-465.332,-1000.000
1741607853.752,-936.523,-942.383,-398.926,-938.965
1741607853.756,-1000.000,-997.559,-181.641,-1000.000
1741607853.760,-1000.000,-1000.000,-297.363,-1000.000
1741607853.764,-1000.000,-1000.000,-371.094,-1000.000
1741607853.768,-995.117,-984.863,-234.863,-996.582
1741607853.772,-946.289,-963.379,-106.934,-944.336
1741607853.776,-1000.000,-1000.000,-144.043,-1000.000
1741607853.780,-122.070,28.809,220.215,-148.438
1741607853.784,999.512,999.512,632.812,999.512
1741607853.787,936.035,919.922,178.711,940.918
1741607853.791,959.961,971.191,-288.574,953.125
1741607853.795,895.996,894.531,-401.367,901.855
1741607853.799,999.512,999.512,-87.891,999.512
1741607853.803,467.773,485.840,-84.961,349.121
1741607853.760,-1000.000,-1000.000,-297.363,-1000.000
1741607853.764,-1000.000,-1000.000,-371.094,-1000.000
1741607853.768,-995.117,-984.863,-234.863,-996.582
1741607853.772,-946.289,-963.379,-106.934,-944.336
1741607853.776,-1000.000,-1000.000,-144.043,-1000.000
1741607853.780,-122.070,28.809,220.215,-148.438
1741607853.784,999.512,999.512,632.812,999.512
1741607853.787,936.035,919.922,178.711,940.918
1741607853.791,959.961,971.191,-288.574,953.125
1741607853.795,895.996,894.531,-401.367,901.855
1741607853.799,999.512,999.512,-87.891,999.512
1741607853.803,467.773,485.840,-84.961,349.121
1741607853.818,-950.684,-939.453,-712.891,-1000.000
1741607853.822,-1000.000,-1000.000,-704.102,-1000.000
1741607853.826,-950.195,-948.730,-223.145,-959.961
1741607853.830,-1000.000,-1000.000,-180.664,-1000.000
1741607853.834,-943.848,-927.246,-339.355,-949.219
1741607853.838,-1000.000,-1000.000,-178.711,-1000.000
1741607853.842,-834.961,-486.816,-18.555,-877.441
1741607853.845,576.172,919.434,227.051,506.836
1741607853.849,999.512,998.535,105.957,999.512
1741607853.853,899.902,917.969,-327.148,900.879
1741607853.857,979.004,980.957,-244.141,978.516
1741607853.861,966.797,966.797,-163.574,963.867
1741607853.818,-950.684,-939.453,-712.891,-1000.000
1741607853.822,-1000.000,-1000.000,-704.102,-1000.000
1741607853.826,-950.195,-948.730,-223.145,-959.961
1741607853.830,-1000.000,-1000.000,-180.664,-1000.000
1741607853.834,-943.848,-927.246,-339.355,-949.219
1741607853.838,-1000.000,-1000.000,-178.711,-1000.000
1741607853.842,-834.961,-486.816,-18.555,-877.441
1741607853.845,576.172,919.434,227.051,506.836
1741607853.849,999.512,998.535,105.957,999.512
1741607853.853,899.902,917.969,-327.148,900.879
1741607853.857,979.004,980.957,-244.141,978.516
1741607853.861,966.797,966.797,-163.574,963.867
1741607853.848,903.320,905.273,-147.949,910.156
1741607853.852,999.512,999.512,121.582,999.512
1741607853.856,187.012,175.293,-184.082,127.441
1741607853.860,-1000.000,-1000.000,-623.047,-1000.000
1741607853.864,-983.887,-982.422,-468.262,-976.074
1741607853.868,-973.145,-974.121,-40.527,-977.539
1741607853.872,-1000.000,-1000.000,287.598,-1000.000
1741607853.875,-1000.000,-1000.000,24.902,-995.117
1741607853.879,-937.988,-937.988,-274.902,-947.266
1741607853.883,-1000.000,-1000.000,-179.199,-1000.000
1741607853.887,-215.820,-217.285,341.797,-128.418
1741607853.891,999.512,999.512,698.730,999.512
1741607853.848,903.320,905.273,-147.949,910.156
1741607853.852,999.512,999.512,121.582,999.512
1741607853.856,187.012,175.293,-184.082,127.441
1741607853.860,-1000.000,-1000.000,-623.047,-1000.000
1741607853.864,-983.887,-982.422,-468.262,-976.074
1741607853.868,-973.145,-974.121,-40.527,-977.539
1741607853.872,-1000.000,-1000.000,287.598,-1000.000
1741607853.875,-1000.000,-1000.000,24.902,-995.117
1741607853.879,-937.988,-937.988,-274.902,-947.266
1741607853.883,-1000.000,-1000.000,-179.199,-1000.000
1741607853.887,-215.820,-217.285,341.797,-128.418
1741607853.891,999.512,999.512,698.730,999.512
1741607853.893,949.219,950.195,444.824,939.453
1741607853.897,954.102,947.754,171.387,960.938
1741607853.901,897.949,903.320,108.887,899.414
1741607853.905,999.512,999.512,318.848,999.512
1741607853.909,524.414,331.543,151.855,542.969
1741607853.913,-916.504,-1000.000,-368.164,-891.602
1741607853.917,-1000.000,-1000.000,-234.863,-1000.000
1741607853.920,-945.801,-961.426,-30.762,-945.312
1741607853.924,-1000.000,-1000.000,-213.867,-1000.000
1741607853.928,-942.383,-940.918,-164.062,-936.523
1741607853.932,-1000.000,-1000.000,137.207,-1000.000
1741607853.936,-822.754,-799.805,138.184,-673.828
1741607853.938,593.750,621.094,353.027,732.422
1741607853.942,999.512,999.512,484.863,999.512
1741607853.946,899.902,901.855,331.055,908.691
1741607853.950,979.004,980.469,171.875,979.980
1741607853.954,966.309,969.727,-190.430,967.285
1741607853.958,966.309,953.613,-21.484,966.797
1741607853.962,904.785,926.758,447.266,906.250
1741607853.965,999.512,999.512,324.219,999.512
1741607853.969,173.340,-24.902,-320.801,166.992
1741607853.973,-1000.000,-1000.000,-675.781,-1000.000
1741607853.977,-981.934,-958.008,-309.082,-980.957
1741607853.981,-974.121,-987.793,-10.742,-974.609
1741607853.938,593.750,621.094,353.027,732.422
1741607853.942,999.512,999.512,484.863,999.512
1741607853.946,899.902,901.855,331.055,908.691
1741607853.950,979.004,980.469,171.875,979.980
1741607853.954,966.309,969.727,-190.430,967.285
1741607853.958,966.309,953.613,-21.484,966.797
1741607853.962,904.785,926.758,447.266,906.250
1741607853.965,999.512,999.512,324.219,999.512
1741607853.969,173.340,-24.902,-320.801,166.992
1741607853.973,-1000.000,-1000.000,-675.781,-1000.000
1741607853.977,-981.934,-958.008,-309.082,-980.957
1741607853.981,-974.121,-987.793,-10.742,-974.609
1741607853.983,-1000.000,-1000.000,-69.824,-1000.000
1741607853.987,-1000.000,-1000.000,-186.523,-1000.000
1741607853.991,-940.430,-941.406,-157.715,-935.059
1741607853.995,-1000.000,-1000.000,-111.816,-1000.000
1741607853.999,-800.781,-810.547,-138.184,-608.398
1741607854.003,622.070,609.863,440.430,789.062
1741607854.007,999.512,999.512,843.750,999.512
1741607854.010,900.391,900.879,268.555,912.598
1741607854.014,979.980,980.957,-161.621,979.980
1741607854.018,966.797,965.332,-284.668,967.285
1741607854.022,903.320,907.715,-312.012,904.785
1741607854.026,999.512,999.512,-162.598,999.512
1741607854.028,187.012,148.438,-452.637,182.129
1741607854.032,-1000.000,-1000.000,-790.527,-1000.000
1741607854.036,-992.188,-979.980,-237.793,-990.234
1741607854.040,-902.344,-912.598,210.938,-903.809
1741607854.044,-1000.000,-1000.000,95.703,-1000.000
1741607854.048,-367.676,-227.539,368.164,-343.750
1741607854.052,982.910,999.512,888.184,991.699
1741607854.055,974.609,951.660,611.328,971.680
1741607854.059,942.871,954.590,127.930,942.383
1741607854.063,906.738,905.273,19.531,906.738
1741607854.067,999.512,999.512,146.484,999.512
1741607854.071,619.629,649.414,182.617,509.766
1741607854.028,187.012,148.438,-452.637,182.129
1741607854.032,-1000.000,-1000.000,-790.527,-1000.000
1741607854.036,-992.188,-979.980,-237.793,-990.234
1741607854.040,-902.344,-912.598,210.938,-903.809
1741607854.044,-1000.000,-1000.000,95.703,-1000.000
1741607854.048,-367.676,-227.539,368.164,-343.750
1741607854.052,982.910,999.512,888.184,991.699
1741607854.055,974.609,951.660,611.328,971.680
1741607854.059,942.871,954.590,127.930,942.383
1741607854.063,906.738,905.273,19.531,906.738
1741607854.067,999.512,999.512,146.484,999.512
1741607854.071,619.629,649.414,182.617,509.766
1741607854.076,-828.125,-796.875,-306.641,-897.949
1741607854.080,-1000.000,-1000.000,-439.941,-1000.000
1741607854.084,-952.637,-939.453,-43.457,-959.473
1741607854.088,-941.895,-953.125,-83.008,-941.406
1741607854.092,-1000.000,-1000.000,-351.074,-1000.000
1741607854.096,-481.445,-219.727,-102.051,-451.660
1741607854.100,924.805,999.512,520.508,919.434
1741607854.103,938.477,893.555,399.902,964.355
1741607854.107,999.512,999.512,-231.445,987.793
1741607854.111,144.043,136.230,-510.254,-67.383
1741607854.115,-1000.000,-1000.000,-219.238,-1000.000
1741607854.119,-976.074,-976.074,235.352,-959.473
1741607854.076,-828.125,-796.875,-306.641,-897.949
1741607854.080,-1000.000,-1000.000,-439.941,-1000.000
1741607854.084,-952.637,-939.453,-43.457,-959.473
1741607854.088,-941.895,-953.125,-83.008,-941.406
1741607854.092,-1000.000,-1000.000,-351.074,-1000.000
1741607854.096,-481.445,-219.727,-102.051,-451.660
1741607854.100,924.805,999.512,520.508,919.434
1741607854.103,938.477,893.555,399.902,964.355
1741607854.107,999.512,999.512,-231.445,987.793
1741607854.111,144.043,136.230,-510.254,-67.383
1741607854.115,-1000.000,-1000.000,-219.238,-1000.000
1741607854.119,-976.074,-976.074,235.352,-959.473
1741607854.133,-977.539,-977.539,324.219,-989.258
1741607854.137,-1000.000,-1000.000,500.488,-1000.000
1741607854.141,-977.051,-959.473,594.238,-977.539
1741607854.145,-981.934,-1000.000,210.449,-981.934
1741607854.149,-1000.000,-963.867,123.047,-1000.000
1741607854.153,126.465,358.398,645.508,121.582
1741607854.157,999.512,999.512,902.344,999.512
1741607854.160,916.992,903.809,358.887,918.945
1741607854.164,975.586,988.281,54.199,972.168
1741607854.168,897.461,898.438,150.391,897.949
1741607854.172,999.512,999.512,229.492,999.512
1741607854.176,624.512,651.367,173.340,475.586
1741607854.133,-977.539,-977.539,324.219,-989.258
1741607854.137,-1000.000,-1000.000,500.488,-1000.000
1741607854.141,-977.051,-959.473,594.238,-977.539
1741607854.145,-981.934,-1000.000,210.449,-981.934
1741607854.149,-1000.000,-963.867,123.047,-1000.000
1741607854.153,126.465,358.398,645.508,121.582
1741607854.157,999.512,999.512,902.344,999.512
1741607854.160,916.992,903.809,358.887,918.945
1741607854.164,975.586,988.281,54.199,972.168
1741607854.168,897.461,898.438,150.391,897.949
1741607854.172,999.512,999.512,229.492,999.512
1741607854.176,624.512,651.367,173.340,475.586
1741607854.223,960.449,946.777,353.516,961.914
1741607854.227,913.086,939.941,480.957,912.598
1741607854.231,999.512,999.512,597.656,999.512
1741607854.235,75.684,-128.906,265.137,94.727
1741607854.239,-1000.000,-1000.000,-275.879,-1000.000
1741607854.243,-968.262,-948.242,126.465,-971.680
1741607854.247,-981.445,-994.629,769.043,-979.980
1741607854.250,-1000.000,-1000.000,774.414,-1000.000
1741607854.254,-1000.000,-1000.000,312.012,-1000.000
1741607854.258,-1000.000,-1000.000,61.035,-1000.000
1741607854.262,-1000.000,-1000.000,328.613,-1000.000
1741607854.266,-937.500,-937.988,595.703,-937.500
1741607854.223,960.449,946.777,353.516,961.914
1741607854.227,913.086,939.941,480.957,912.598
1741607854.231,999.512,999.512,597.656,999.512
1741607854.235,75.684,-128.906,265.137,94.727
1741607854.239,-1000.000,-1000.000,-275.879,-1000.000
1741607854.243,-968.262,-948.242,126.465,-971.680
1741607854.247,-981.445,-994.629,769.043,-979.980
1741607854.250,-1000.000,-1000.000,774.414,-1000.000
1741607854.254,-1000.000,-1000.000,312.012,-1000.000
1741607854.258,-1000.000,-1000.000,61.035,-1000.000
1741607854.262,-1000.000,-1000.000,328.613,-1000.000
1741607854.266,-937.500,-937.988,595.703,-937.500
1741607854.268,-1000.000,-1000.000,615.723,-1000.000
1741607854.272,-220.703,-214.355,726.074,-220.703
1741607854.276,999.512,999.512,991.211,999.512
1741607854.280,949.707,949.707,798.340,950.684
1741607854.284,954.102,955.078,386.230,953.125
1741607854.288,908.203,912.109,444.824,903.809
1741607854.292,999.512,999.512,636.719,999.512
1741607854.295,708.008,747.070,388.672,541.504
1741607854.299,-729.492,-680.664,-336.914,-875.488
1741607854.303,-1000.000,-1000.000,-678.711,-1000.000
1741607854.307,-936.523,-935.547,-245.605,-946.289
1741607854.311,-1000.000,-1000.000,91.309,-1000.000
1741607854.313,-1000.000,-1000.000,-114.746,-1000.000
1741607854.317,-925.781,-925.781,-107.422,-928.711
1741607854.321,-1000.000,-1000.000,112.305,-1000.000
1741607854.325,-571.289,-547.852,95.215,-514.160
1741607854.329,874.023,888.184,250.977,894.531
1741607854.333,999.512,999.512,360.352,999.512
1741607854.337,910.645,913.086,463.867,916.504
1741607854.340,981.934,982.422,198.242,980.957
1741607854.344,966.309,967.285,-174.316,966.797
1741607854.348,977.539,971.680,-75.195,978.516
1741607854.352,892.578,899.902,-64.453,893.555
1741607854.356,999.512,999.512,32.227,999.512
1741607854.313,-1000.000,-1000.000,-114.746,-1000.000
1741607854.317,-925.781,-925.781,-107.422,-928.711
1741607854.321,-1000.000,-1000.000,112.305,-1000.000
1741607854.325,-571.289,-547.852,95.215,-514.160
1741607854.329,874.023,888.184,250.977,894.531
1741607854.333,999.512,999.512,360.352,999.512
1741607854.337,910.645,913.086,463.867,916.504
1741607854.340,981.934,982.422,198.242,980.957
1741607854.344,966.309,967.285,-174.316,966.797
1741607854.348,977.539,971.680,-75.195,978.516
1741607854.352,892.578,899.902,-64.453,893.555
1741607854.356,999.512,999.512,32.227,999.512
1741607854.358,418.457,268.066,-79.590,423.340
1741607854.362,-977.051,-1000.000,-702.637,-972.656
1741607854.366,-1000.000,-1000.000,-562.500,-1000.000
1741607854.370,-900.879,-896.484,-319.824,-894.531
1741607854.374,-1000.000,-1000.000,-625.977,-1000.000
1741607854.378,-866.699,-635.254,-487.793,-787.598
1741607854.382,531.738,801.270,149.414,625.000
1741607854.385,999.512,999.512,137.695,999.512
1741607854.389,899.414,908.691,-498.535,903.320
1741607854.393,990.234,985.840,-790.039,993.652
1741607854.397,892.578,900.391,-706.055,892.578
1741607854.401,999.512,999.512,-652.344,999.512
1741607854.358,418.457,268.066,-79.590,423.340
1741607854.362,-977.051,-1000.000,-702.637,-972.656
1741607854.366,-1000.000,-1000.000,-562.500,-1000.000
1741607854.370,-900.879,-896.484,-319.824,-894.531
1741607854.374,-1000.000,-1000.000,-625.977,-1000.000
1741607854.378,-866.699,-635.254,-487.793,-787.598
1741607854.382,531.738,801.270,149.414,625.000
1741607854.385,999.512,999.512,137.695,999.512
1741607854.389,899.414,908.691,-498.535,903.320
1741607854.393,990.234,985.840,-790.039,993.652
1741607854.397,892.578,900.391,-706.055,892.578
1741607854.401,999.512,999.512,-652.344,999.512
1741607854.406,432.129,248.535,-849.121,498.047
1741607854.410,-970.215,-1000.000,-1000.000,-931.641
1741607854.414,-1000.000,-994.629,-990.723,-1000.000
1741607854.418,-890.625,-905.273,-925.781,-888.672
1741607854.422,-1000.000,-1000.000,-824.707,-1000.000
1741607854.426,-220.703,-220.703,-308.105,-181.152
1741607854.430,999.512,999.512,196.289,999.512
1741607854.433,949.707,950.684,-252.441,945.312
1741607854.437,938.965,939.941,-625.000,942.383
1741607854.441,984.863,986.328,-517.578,982.422
1741607854.445,919.922,893.555,-302.734,927.734
1741607854.449,998.047,999.512,-193.848,981.934
1741607854.406,432.129,248.535,-849.121,498.047
1741607854.410,-970.215,-1000.000,-1000.000,-931.641
1741607854.414,-1000.000,-994.629,-990.723,-1000.000
1741607854.418,-890.625,-905.273,-925.781,-888.672
1741607854.422,-1000.000,-1000.000,-824.707,-1000.000
1741607854.426,-220.703,-220.703,-308.105,-181.152
1741607854.430,999.512,999.512,196.289,999.512
1741607854.433,949.707,950.684,-252.441,945.312
1741607854.437,938.965,939.941,-625.000,942.383
1741607854.441,984.863,986.328,-517.578,982.422
1741607854.445,919.922,893.555,-302.734,927.734
1741607854.449,998.047,999.512,-193.848,981.934
1741607854.463,895.508,457.031,-237.305,942.383
1741607854.467,-471.191,-952.637,-414.551,-379.883
1741607854.471,-1000.000,-1000.000,-426.270,-1000.000
1741607854.475,-933.594,-951.172,-208.984,-936.035
1741607854.479,-1000.000,-1000.000,-84.473,-1000.000
1741607854.483,-947.754,-959.473,-161.621,-934.570
1741607854.487,-1000.000,-1000.000,-297.363,-1000.000
1741607854.490,-872.559,-972.656,-413.574,-560.059
1741607854.494,521.484,365.234,-536.133,823.242
1741607854.498,999.512,999.512,-644.043,999.512
1741607854.502,899.414,900.879,-742.188,916.016
1741607854.506,977.539,974.121,-750.488,979.004
1741607854.508,981.934,982.422,-673.340,979.492
1741607854.512,895.996,896.484,-667.969,897.461
1741607854.516,999.512,999.512,-721.680,999.512
1741607854.520,620.117,607.422,-776.855,523.438
1741607854.524,-827.148,-835.449,-955.078,-885.742
1741607854.528,-1000.000,-1000.000,-916.016,-1000.000
1741607854.532,-940.430,-941.406,-604.980,-947.754
1741607854.535,-1000.000,-1000.000,-723.145,-1000.000
1741607854.539,-1000.000,-1000.000,-986.328,-1000.000
1741607854.543,-951.660,-953.613,-1000.000,-943.359
1741607854.547,-1000.000,-1000.000,-822.754,-1000.000
1741607854.551,-910.645,-927.734,-646.973,-772.461
1741607854.508,981.934,982.422,-673.340,979.492
1741607854.512,895.996,896.484,-667.969,897.461
1741607854.516,999.512,999.512,-721.680,999.512
1741607854.520,620.117,607.422,-776.855,523.438
1741607854.524,-827.148,-835.449,-955.078,-885.742
1741607854.528,-1000.000,-1000.000,-916.016,-1000.000
1741607854.532,-940.430,-941.406,-604.980,-947.754
1741607854.535,-1000.000,-1000.000,-723.145,-1000.000
1741607854.539,-1000.000,-1000.000,-986.328,-1000.000
1741607854.543,-951.660,-953.613,-1000.000,-943.359
1741607854.547,-1000.000,-1000.000,-822.754,-1000.000
1741607854.551,-910.645,-927.734,-646.973,-772.461
1741607854.553,465.332,439.941,-290.527,616.211
1741607854.557,999.512,999.512,-164.062,999.512
1741607854.561,899.414,900.391,-461.426,905.762
1741607854.565,976.074,976.074,-424.805,978.027
1741607854.569,980.469,981.445,-502.441,980.469
1741607854.573,908.691,905.762,-413.086,902.832
1741607854.577,999.512,999.512,-166.992,999.512
1741607854.580,791.992,745.605,-307.129,648.926
1741607854.584,-623.535,-680.664,-597.168,-764.648
1741607854.588,-1000.000,-1000.000,-502.930,-1000.000
1741607854.592,-934.082,-935.547,-416.992,-941.406
1741607854.596,-1000.000,-1000.000,-337.891,-1000.000
1741607854.553,465.332,439.941,-290.527,616.211
1741607854.557,999.512,999.512,-164.062,999.512
1741607854.561,899.414,900.391,-461.426,905.762
1741607854.565,976.074,976.074,-424.805,978.027
1741607854.569,980.469,981.445,-502.441,980.469
1741607854.573,908.691,905.762,-413.086,902.832
1741607854.577,999.512,999.512,-166.992,999.512
1741607854.580,791.992,745.605,-307.129,648.926
1741607854.584,-623.535,-680.664,-597.168,-764.648
1741607854.588,-1000.000,-1000.000,-502.930,-1000.000
1741607854.592,-934.082,-935.547,-416.992,-941.406
1741607854.596,-1000.000,-1000.000,-337.891,-1000.000
1741607854.598,-1000.000,-1000.000,-95.703,-1000.000
1741607854.602,-1000.000,-1000.000,102.539,-1000.000
1741607854.606,-1000.000,-992.676,193.359,-1000.000
1741607854.610,-937.500,-950.684,122.559,-937.988
1741607854.614,-1000.000,-1000.000,-81.543,-1000.000
1741607854.618,-221.191,-85.938,127.930,-212.891
1741607854.622,999.512,999.512,575.195,999.512
1741607854.625,949.707,933.105,249.023,949.219
1741607854.629,938.965,949.707,-17.578,940.430
1741607854.633,983.887,974.121,59.570,983.887
1741607854.637,893.066,900.879,-59.570,894.531
1741607854.641,999.512,999.512,85.938,999.512
1741607854.598,-1000.000,-1000.000,-95.703,-1000.000
1741607854.602,-1000.000,-1000.000,102.539,-1000.000
1741607854.606,-1000.000,-992.676,193.359,-1000.000
1741607854.610,-937.500,-950.684,122.559,-937.988
1741607854.614,-1000.000,-1000.000,-81.543,-1000.000
1741607854.618,-221.191,-85.938,127.930,-212.891
1741607854.622,999.512,999.512,575.195,999.512
1741607854.625,949.707,933.105,249.023,949.219
1741607854.629,938.965,949.707,-17.578,940.430
1741607854.633,983.887,974.121,59.570,983.887
1741607854.637,893.066,900.879,-59.570,894.531
1741607854.641,999.512,999.512,85.938,999.512
1741607854.643,408.691,237.305,41.504,392.578
1741607854.647,-981.934,-1000.000,-426.758,-987.793
1741607854.651,-1000.000,-1000.000,-351.562,-1000.000
1741607854.655,-899.414,-897.949,-165.527,-902.344
1741607854.659,-1000.000,-1000.000,-230.957,-1000.000
1741607854.663,-846.680,-596.191,41.504,-847.168
1741607854.667,560.547,835.449,763.184,550.293
1741607854.670,999.512,999.512,774.414,999.512
1741607854.674,899.414,911.133,-58.594,901.367
1741607854.678,990.234,989.746,-386.230,989.746
1741607854.682,892.578,896.484,-277.832,894.043
1741607854.686,999.512,999.512,-250.000,999.512
1741607854.691,429.688,329.590,-459.961,412.598
1741607854.695,-971.680,-1000.000,-866.211,-977.051
1741607854.699,-1000.000,-1000.000,-747.070,-1000.000
1741607854.703,-878.906,-889.648,-446.777,-881.348
1741607854.707,-1000.000,-1000.000,-405.273,-1000.000
1741607854.711,-520.996,-405.273,10.742,-492.188
1741607854.715,905.273,964.355,587.891,918.457
1741607854.718,999.512,982.910,110.352,999.512
1741607854.722,914.551,924.805,-438.477,917.480
1741607854.726,996.582,992.188,-228.516,995.605
1741607854.730,897.461,893.555,62.012,896.973
1741607854.734,999.512,999.512,123.535,999.512
1741607854.691,429.688,329.590,-459.961,412.598
1741607854.695,-971.680,-1000.000,-866.211,-977.051
1741607854.699,-1000.000,-1000.000,-747.070,-1000.000
1741607854.703,-878.906,-889.648,-446.777,-881.348
1741607854.707,-1000.000,-1000.000,-405.273,-1000.000
1741607854.711,-520.996,-405.273,10.742,-492.188
1741607854.715,905.273,964.355,587.891,918.457
1741607854.718,999.512,982.910,110.352,999.512
1741607854.722,914.551,924.805,-438.477,917.480
1741607854.726,996.582,992.188,-228.516,995.605
1741607854.730,897.461,893.555,62.012,896.973
1741607854.734,999.512,999.512,123.535,999.512
1741607854.733,650.391,496.094,-64.941,592.773
1741607854.737,-796.875,-928.223,-465.820,-839.844
1741607854.741,-1000.000,-1000.000,-360.352,-1000.000
1741607854.745,-938.965,-948.730,-117.188,-942.871
1741607854.749,-1000.000,-1000.000,75.195,-1000.000
1741607854.753,-937.500,-941.406,68.359,-938.477
1741607854.757,-1000.000,-1000.000,-199.219,-1000.000
1741607854.760,-220.703,-175.293,-4.395,-211.426
1741607854.764,999.512,999.512,-134.766,999.512
1741607854.768,949.707,944.336,-439.941,949.707
1741607854.772,938.965,942.871,-240.234,940.430
1741607854.776,973.145,972.656,-129.395,973.633
1741607854.778,966.309,966.797,-261.719,966.797
1741607854.782,966.309,966.797,-333.984,966.797
1741607854.786,966.309,967.285,-98.633,966.797
1741607854.790,966.309,967.285,-38.574,966.797
1741607854.794,975.098,981.445,-130.371,976.074
1741607854.798,932.129,903.809,170.410,931.152
1741607854.802,966.797,999.512,413.086,972.168
1741607854.805,989.746,699.219,294.922,971.191
1741607854.809,-310.059,-724.121,-331.055,-332.031
1741607854.813,-1000.000,-1000.000,-636.719,-1000.000
1741607854.817,-935.547,-937.988,-140.625,-936.523
1741607854.821,-1000.000,-1000.000,99.609,-1000.000
1741607854.778,966.309,966.797,-261.719,966.797
1741607854.782,966.309,966.797,-333.984,966.797
1741607854.786,966.309,967.285,-98.633,966.797
1741607854.790,966.309,967.285,-38.574,966.797
1741607854.794,975.098,981.445,-130.371,976.074
1741607854.798,932.129,903.809,170.410,931.152
1741607854.802,966.797,999.512,413.086,972.168
1741607854.805,989.746,699.219,294.922,971.191
1741607854.809,-310.059,-724.121,-331.055,-332.031
1741607854.813,-1000.000,-1000.000,-636.719,-1000.000
1741607854.817,-935.547,-937.988,-140.625,-936.523
1741607854.821,-1000.000,-1000.000,99.609,-1000.000
1741607854.838,-929.688,-932.129,104.980,-930.664
1741607854.842,-1000.000,-1000.000,93.750,-1000.000
1741607854.846,-654.297,-700.684,69.824,-597.168
1741607854.850,792.480,746.094,527.832,825.195
1741607854.854,999.512,999.512,726.562,999.512
1741607854.858,916.992,916.016,477.051,922.852
1741607854.862,938.965,909.180,396.484,934.082
1741607854.865,989.258,999.512,122.559,999.512
1741607854.869,922.363,433.105,-367.676,870.117
1741607854.873,-432.617,-970.215,-692.871,-494.141
1741607854.877,-1000.000,-1000.000,-600.098,-1000.000
1741607854.881,-911.133,-914.551,-385.254,-927.734
1741607854.838,-929.688,-932.129,104.980,-930.664
1741607854.842,-1000.000,-1000.000,93.750,-1000.000
1741607854.846,-654.297,-700.684,69.824,-597.168
1741607854.850,792.480,746.094,527.832,825.195
1741607854.854,999.512,999.512,726.562,999.512
1741607854.858,916.992,916.016,477.051,922.852
1741607854.862,938.965,909.180,396.484,934.082
1741607854.865,989.258,999.512,122.559,999.512
1741607854.869,922.363,433.105,-367.676,870.117
1741607854.873,-432.617,-970.215,-692.871,-494.141
1741607854.877,-1000.000,-1000.000,-600.098,-1000.000
1741607854.881,-911.133,-914.551,-385.254,-927.734
1741607854.883,-1000.000,-1000.000,-253.906,-1000.000
1741607854.887,140.137,21.973,149.414,209.961
1741607854.891,999.512,999.512,508.789,999.512
1741607854.895,908.203,919.434,385.254,909.180
1741607854.899,963.867,957.520,161.621,966.309
1741607854.903,966.797,968.750,384.277,967.285
1741607854.907,966.309,966.797,716.309,966.797
1741607854.910,966.309,966.797,539.062,966.797
1741607854.914,965.820,967.285,525.391,966.797
1741607854.918,966.309,976.562,871.094,967.285
1741607854.922,966.309,895.020,915.039,966.797
1741607854.926,966.309,999.512,875.977,966.797
1741607854.883,-1000.000,-1000.000,-253.906,-1000.000
1741607854.887,140.137,21.973,149.414,209.961
1741607854.891,999.512,999.512,508.789,999.512
1741607854.895,908.203,919.434,385.254,909.180
1741607854.899,963.867,957.520,161.621,966.309
1741607854.903,966.797,968.750,384.277,967.285
1741607854.907,966.309,966.797,716.309,966.797
1741607854.910,966.309,966.797,539.062,966.797
1741607854.914,965.820,967.285,525.391,966.797
1741607854.918,966.309,976.562,871.094,967.285
1741607854.922,966.309,895.020,915.039,966.797
1741607854.926,966.309,999.512,875.977,966.797
1741607854.928,966.309,376.953,860.840,966.797
1741607854.932,966.309,-995.117,627.441,966.797
1741607854.936,966.309,-1000.000,561.035,966.797
1741607854.940,966.309,-898.438,409.180,966.797
1741607854.944,968.262,-1000.000,171.387,968.262
1741607854.948,956.055,-199.219,293.457,959.473
1741607854.952,919.922,999.512,434.570,916.016
1741607854.955,999.512,999.512,160.645,999.512
1741607854.959,12.695,-137.695,-465.332,58.594
1741607854.963,-1000.000,-1000.000,-892.090,-1000.000
1741607854.967,-960.449,-948.730,-635.254,-966.797
1741607854.971,-985.840,-993.652,-267.578,-982.422
1741607854.928,966.309,376.953,860.840,966.797
1741607854.932,966.309,-995.117,627.441,966.797
1741607854.936,966.309,-1000.000,561.035,966.797
1741607854.940,966.309,-898.438,409.180,966.797
1741607854.944,968.262,-1000.000,171.387,968.262
1741607854.948,956.055,-199.219,293.457,959.473
1741607854.952,919.922,999.512,434.570,916.016
1741607854.955,999.512,999.512,160.645,999.512
1741607854.959,12.695,-137.695,-465.332,58.594
1741607854.963,-1000.000,-1000.000,-892.090,-1000.000
1741607854.967,-960.449,-948.730,-635.254,-966.797
1741607854.971,-985.840,-993.652,-267.578,-982.422
1741607854.974,-1000.000,-1000.000,-143.555,-1000.000
1741607854.978,-1000.000,-1000.000,-51.270,-1000.000
1741607854.982,-1000.000,-1000.000,176.270,-1000.000
1741607854.986,-936.523,-937.988,218.262,-935.547
1741607854.990,-1000.000,-1000.000,43.945,-1000.000
1741607854.994,-241.211,-214.355,261.719,-255.371
1741607854.998,999.512,999.512,780.273,999.512
1741607855.001,956.055,952.637,477.539,961.914
1741607855.005,922.363,926.270,125.977,910.645
1741607855.009,935.059,933.594,105.469,961.426
1741607855.013,999.512,999.512,129.395,999.512
1741607855.017,-56.641,-46.387,-134.766,-205.566
1741607855.018,-1000.000,-1000.000,-458.496,-1000.000
1741607855.022,-952.637,-953.613,-75.684,-946.289
1741607855.026,-1000.000,-993.164,421.875,-1000.000
1741607855.030,-927.734,-936.523,628.418,-927.734
1741607855.034,-1000.000,-1000.000,628.906,-1000.000
1741607855.038,-483.887,-263.672,717.773,-487.305
1741607855.042,926.758,999.512,955.078,921.875
1741607855.045,996.582,958.008,999.512,998.535
1741607855.049,917.480,936.523,747.559,917.969
1741607855.053,992.676,988.770,590.332,992.188
1741607855.057,916.016,895.508,919.434,919.922
1741607855.061,999.512,999.512,983.887,999.512
1741607855.063,861.328,536.133,954.590,880.371
1741607855.067,-521.973,-887.207,968.750,-482.910
1741607855.071,-1000.000,-1000.000,967.285,-1000.000
1741607855.075,-925.293,-877.930,967.285,-909.180
1741607855.079,-961.426,-1000.000,967.285,-995.605
1741607855.083,-1000.000,-328.613,967.285,-1000.000
1741607855.087,-72.266,996.582,967.285,161.133
1741607855.090,999.512,969.238,966.797,999.512
1741607855.094,938.477,943.848,966.797,926.270
1741607855.098,878.418,902.344,966.797,890.625
1741607855.102,999.512,999.512,966.797,999.512
1741607855.106,358.887,458.984,966.797,411.621
1741607855.063,861.328,536.133,954.590,880.371
1741607855.067,-521.973,-887.207,968.750,-482.910
1741607855.071,-1000.000,-1000.000,967.285,-1000.000
1741607855.075,-925.293,-877.930,967.285,-909.180
1741607855.079,-961.426,-1000.000,967.285,-995.605
1741607855.083,-1000.000,-328.613,967.285,-1000.000
1741607855.087,-72.266,996.582,967.285,161.133
1741607855.090,999.512,969.238,966.797,999.512
1741607855.094,938.477,943.848,966.797,926.270
1741607855.098,878.418,902.344,966.797,890.625
1741607855.102,999.512,999.512,966.797,999.512
1741607855.106,358.887,458.984,966.797,411.621
1741607855.108,-1000.000,-955.566,967.285,-975.098
1741607855.112,-1000.000,-1000.000,967.285,-1000.000
1741607855.116,-958.984,-952.148,967.285,-955.078
1741607855.120,-1000.000,-950.684,967.285,-1000.000
1741607855.124,-1000.000,-1000.000,967.285,-1000.000
1741607855.128,-1000.000,-234.375,967.285,-1000.000
1741607855.132,-1000.000,974.121,961.914,-1000.000
1741607855.135,-1000.000,999.512,985.352,-1000.000
1741607855.139,-1000.000,128.418,882.812,-1000.000
1741607855.143,-1000.000,-1000.000,854.004,-1000.000
1741607855.147,-1000.000,-979.980,986.816,-1000.000
1741607855.151,-1000.000,-987.793,919.922,-1000.000
1741607855.153,-993.164,-951.660,838.867,-987.305
1741607855.157,-948.730,-1000.000,878.906,-959.473
1741607855.161,-1000.000,-823.242,868.164,-1000.000
1741607855.165,-94.727,564.941,938.477,-11.230
1741607855.169,999.512,999.512,870.605,999.512
1741607855.173,941.895,914.551,819.336,934.082
1741607855.177,876.465,904.785,971.191,883.301
1741607855.180,999.512,999.512,837.891,999.512
1741607855.184,365.234,405.273,583.008,373.535
1741607855.188,-1000.000,-983.398,199.219,-995.117
1741607855.192,-1000.000,-1000.000,96.680,-1000.000
1741607855.196,-958.496,-955.566,450.195,-958.008
1741607855.153,-993.164,-951.660,838.867,-987.305
1741607855.157,-948.730,-1000.000,878.906,-959.473
1741607855.161,-1000.000,-823.242,868.164,-1000.000
1741607855.165,-94.727,564.941,938.477,-11.230
1741607855.169,999.512,999.512,870.605,999.512
1741607855.173,941.895,914.551,819.336,934.082
1741607855.177,876.465,904.785,971.191,883.301
1741607855.180,999.512,999.512,837.891,999.512
1741607855.184,365.234,405.273,583.008,373.535
1741607855.188,-1000.000,-983.398,199.219,-995.117
1741607855.192,-1000.000,-1000.000,96.680,-1000.000
1741607855.196,-958.496,-955.566,450.195,-958.008
1741607855.213,-1000.000,-1000.000,776.367,-1000.000
1741607855.217,-1000.000,-1000.000,675.781,-1000.000
1741607855.221,-1000.000,-983.398,579.102,-1000.000
1741607855.225,-937.500,-965.332,511.719,-939.453
1741607855.229,-1000.000,-1000.000,259.766,-1000.000
1741607855.233,-206.055,65.430,586.914,-188.477
1741607855.237,962.402,999.512,999.512,970.703
1741607855.240,999.512,999.512,738.770,999.512
1741607855.244,509.277,630.859,-48.340,454.590
1741607855.248,-901.855,-808.594,-798.340,-924.805
1741607855.252,-1000.000,-1000.000,-916.504,-1000.000
1741607855.256,-957.520,-939.941,-712.891,-961.426
1741607855.213,-1000.000,-1000.000,776.367,-1000.000
1741607855.217,-1000.000,-1000.000,675.781,-1000.000
1741607855.221,-1000.000,-983.398,579.102,-1000.000
1741607855.225,-937.500,-965.332,511.719,-939.453
1741607855.229,-1000.000,-1000.000,259.766,-1000.000
1741607855.233,-206.055,65.430,586.914,-188.477
1741607855.237,962.402,999.512,999.512,970.703
1741607855.240,999.512,999.512,738.770,999.512
1741607855.244,509.277,630.859,-48.340,454.590
1741607855.248,-901.855,-808.594,-798.340,-924.805
1741607855.252,-1000.000,-1000.000,-916.504,-1000.000
1741607855.256,-957.520,-939.941,-712.891,-961.426
1741607855.259,-941.895,-953.125,-704.102,-940.918
1741607855.263,-1000.000,-1000.000,-734.375,-1000.000
1741607855.267,-487.793,-223.145,-341.309,-472.656
1741607855.271,924.805,999.512,256.836,929.199
1741607855.275,997.559,951.172,97.168,997.070
1741607855.279,917.969,940.430,12.695,915.527
1741607855.283,917.480,911.133,262.695,925.293
1741607855.286,999.512,999.512,-7.812,999.512
1741607855.290,187.012,187.500,-359.863,121.094
1741607855.294,-1000.000,-1000.000,-627.930,-1000.000
1741607855.298,-983.887,-983.887,-441.895,-976.562
1741607855.302,-973.145,-973.145,-45.410,-977.539
1741607855.303,-1000.000,-1000.000,78.613,-1000.000
1741607855.307,-1000.000,-1000.000,164.551,-1000.000
1741607855.311,-929.199,-937.500,249.023,-926.758
1741607855.315,-1000.000,-1000.000,181.152,-1000.000
1741607855.319,-377.930,-220.703,212.402,-474.609
1741607855.323,990.723,999.512,631.836,937.500
1741607855.327,902.344,877.930,502.441,924.805
1741607855.330,999.512,999.512,137.207,999.512
1741607855.334,459.473,401.855,-310.059,371.094
1741607855.338,-961.914,-987.793,-967.773,-1000.000
1741607855.342,-1000.000,-1000.000,-925.781,-1000.000
1741607855.346,-951.660,-956.055,-518.555,-959.473
1741607855.303,-1000.000,-1000.000,78.613,-1000.000
1741607855.307,-1000.000,-1000.000,164.551,-1000.000
1741607855.311,-929.199,-937.500,249.023,-926.758
1741607855.315,-1000.000,-1000.000,181.152,-1000.000
1741607855.319,-377.930,-220.703,212.402,-474.609
1741607855.323,990.723,999.512,631.836,937.500
1741607855.327,902.344,877.930,502.441,924.805
1741607855.330,999.512,999.512,137.207,999.512
1741607855.334,459.473,401.855,-310.059,371.094
1741607855.338,-961.914,-987.793,-967.773,-1000.000
1741607855.342,-1000.000,-1000.000,-925.781,-1000.000
1741607855.346,-951.660,-956.055,-518.555,-959.473
1741607855.348,-1000.000,-1000.000,-400.391,-1000.000
1741607855.352,-1000.000,-1000.000,-323.242,-1000.000
1741607855.356,-975.586,-950.684,-205.566,-982.422
1741607855.360,-979.492,-1000.000,-299.316,-967.285
1741607855.364,-1000.000,-878.906,-273.926,-1000.000
1741607855.368,163.574,503.906,274.414,68.848
1741607855.372,999.512,999.512,582.520,999.512
1741607855.375,999.512,999.512,15.137,999.512
1741607855.379,421.875,398.438,-628.418,271.973
1741607855.383,-974.121,-991.211,-937.012,-1000.000
1741607855.387,-1000.000,-1000.000,-620.605,-999.512
1741607855.391,-954.102,-957.031,-285.645,-965.820
1741607855.348,-1000.000,-1000.000,-400.391,-1000.000
1741607855.352,-1000.000,-1000.000,-323.242,-1000.000
1741607855.356,-975.586,-950.684,-205.566,-982.422
1741607855.360,-979.492,-1000.000,-299.316,-967.285
1741607855.364,-1000.000,-878.906,-273.926,-1000.000
1741607855.368,163.574,503.906,274.414,68.848
1741607855.372,999.512,999.512,582.520,999.512
1741607855.375,999.512,999.512,15.137,999.512
1741607855.379,421.875,398.438,-628.418,271.973
1741607855.383,-974.121,-991.211,-937.012,-1000.000
1741607855.387,-1000.000,-1000.000,-620.605,-999.512
1741607855.391,-954.102,-957.031,-285.645,-965.820
1741607855.393,-1000.000,-1000.000,-332.520,-1000.000
1741607855.397,-941.895,-928.223,-392.578,-960.938
1741607855.401,-1000.000,-1000.000,-225.586,-1000.000
1741607855.405,-811.035,-466.309,-220.215,-977.539
1741607855.409,606.934,929.199,-248.535,351.074
1741607855.413,999.512,996.094,-183.105,999.512
1741607855.417,837.891,856.934,-174.316,864.258
1741607855.420,999.512,999.512,-304.688,999.512
1741607855.424,186.523,187.500,-760.742,-29.297
1741607855.428,-1000.000,-1000.000,-1000.000,-1000.000
1741607855.432,-983.887,-983.887,-865.234,-959.961
1741607855.436,-973.145,-973.145,-920.410,-987.305
1741607855.438,-1000.000,-1000.000,-1000.000,-1000.000
1741607855.442,-1000.000,-1000.000,-880.859,-1000.000
1741607855.446,-1000.000,-990.723,-645.996,-1000.000
1741607855.450,-937.500,-953.125,-525.391,-930.664
1741607855.454,-1000.000,-1000.000,-794.922,-1000.000
1741607855.458,-230.957,-64.453,-624.023,-405.762
1741607855.462,990.234,999.512,-61.035,999.512
1741607855.465,999.512,999.512,-492.676,893.555
1741607855.469,-9.766,94.238,-967.285,-488.770
1741607855.473,-1000.000,-1000.000,-990.234,-1000.000
1741607855.477,-961.426,-973.145,-988.281,-937.500
1741607855.481,-985.840,-979.004,-1000.000,-1000.000
1741607855.438,-1000.000,-1000.000,-1000.000,-1000.000
1741607855.442,-1000.000,-1000.000,-880.859,-1000.000
1741607855.446,-1000.000,-990.723,-645.996,-1000.000
1741607855.450,-937.500,-953.125,-525.391,-930.664
1741607855.454,-1000.000,-1000.000,-794.922,-1000.000
1741607855.458,-230.957,-64.453,-624.023,-405.762
1741607855.462,990.234,999.512,-61.035,999.512
1741607855.465,999.512,999.512,-492.676,893.555
1741607855.469,-9.766,94.238,-967.285,-488.770
1741607855.473,-1000.000,-1000.000,-990.234,-1000.000
1741607855.477,-961.426,-973.145,-988.281,-937.500
1741607855.481,-985.840,-979.004,-1000.000,-1000.000
1741607855.484,-1000.000,-1000.000,-840.332,-1000.000
1741607855.488,-1000.000,-1000.000,-827.637,-1000.000
1741607855.492,-1000.000,-990.234,-1000.000,-1000.000
1741607855.496,-938.477,-953.613,-975.586,-929.688
1741607855.500,-1000.000,-1000.000,-1000.000,-1000.000
1741607855.504,-250.977,-78.125,-585.938,-576.172
1741607855.508,999.512,999.512,52.246,999.512
1741607855.511,908.691,999.512,-398.926,375.488
1741607855.515,-436.035,-203.125,-989.258,-1000.000
1741607855.519,-1000.000,-1000.000,-997.070,-997.070
1741607855.523,-935.059,-941.406,-991.699,-960.938
1741607855.527,-1000.000,-1000.000,-983.398,-1000.000
1741607855.484,-1000.000,-1000.000,-840.332,-1000.000
1741607855.488,-1000.000,-1000.000,-827.637,-1000.000
1741607855.492,-1000.000,-990.234,-1000.000,-1000.000
1741607855.496,-938.477,-953.613,-975.586,-929.688
1741607855.500,-1000.000,-1000.000,-1000.000,-1000.000
1741607855.504,-250.977,-78.125,-585.938,-576.172
1741607855.508,999.512,999.512,52.246,999.512
1741607855.511,908.691,999.512,-398.926,375.488
1741607855.515,-436.035,-203.125,-989.258,-1000.000
1741607855.519,-1000.000,-1000.000,-997.070,-997.070
1741607855.523,-935.059,-941.406,-991.699,-960.938
1741607855.527,-1000.000,-1000.000,-983.398,-1000.000
1741607855.545,-942.871,-928.711,-945.312,-1000.000
1741607855.549,-1000.000,-1000.000,-1000.000,-937.988
1741607855.553,-812.988,-424.316,-868.164,-1000.000
1741607855.557,598.633,958.496,-589.355,-519.043
1741607855.561,999.512,920.410,-784.668,790.039
1741607855.565,999.512,999.512,-816.406,999.512
1741607855.569,199.219,253.418,-768.066,3.418
1741607855.572,-1000.000,-1000.000,-1000.000,-1000.000
1741607855.576,-983.887,-992.676,-931.641,-969.238
1741607855.580,-973.145,-968.750,-658.691,-981.934
1741607855.584,-1000.000,-1000.000,-506.836,-1000.000
1741607855.588,-998.047,-985.840,-451.172,-1000.000
1741607855.545,-942.871,-928.711,-945.312,-1000.000
1741607855.549,-1000.000,-1000.000,-1000.000,-937.988
1741607855.553,-812.988,-424.316,-868.164,-1000.000
1741607855.557,598.633,958.496,-589.355,-519.043
1741607855.561,999.512,920.410,-784.668,790.039
1741607855.565,999.512,999.512,-816.406,999.512
1741607855.569,199.219,253.418,-768.066,3.418
1741607855.572,-1000.000,-1000.000,-1000.000,-1000.000
1741607855.576,-983.887,-992.676,-931.641,-969.238
1741607855.580,-973.145,-968.750,-658.691,-981.934
1741607855.584,-1000.000,-1000.000,-506.836,-1000.000
1741607855.588,-998.047,-985.840,-451.172,-1000.000
1741607855.588,-941.895,-962.891,-431.641,-938.965
1741607855.592,-1000.000,-1000.000,-282.227,-1000.000
1741607855.596,-172.852,13.184,212.402,-204.102
1741607855.600,999.512,999.512,470.703,999.512
1741607855.604,942.871,923.340,204.590,948.242
1741607855.608,952.148,968.262,259.277,951.660
1741607855.612,934.570,918.457,364.746,928.711
1741607855.615,974.121,999.512,261.719,996.094
1741607855.619,968.750,852.539,120.117,893.555
1741607855.623,-348.633,-530.762,-441.895,-453.125
1741607855.627,-1000.000,-1000.000,-645.996,-1000.000
1741607855.631,-935.059,-934.570,-173.340,-939.941
1741607855.588,-941.895,-962.891,-431.641,-938.965
1741607855.592,-1000.000,-1000.000,-282.227,-1000.000
1741607855.596,-172.852,13.184,212.402,-204.102
1741607855.600,999.512,999.512,470.703,999.512
1741607855.604,942.871,923.340,204.590,948.242
1741607855.608,952.148,968.262,259.277,951.660
1741607855.612,934.570,918.457,364.746,928.711
1741607855.615,974.121,999.512,261.719,996.094
1741607855.619,968.750,852.539,120.117,893.555
1741607855.623,-348.633,-530.762,-441.895,-453.125
1741607855.627,-1000.000,-1000.000,-645.996,-1000.000
1741607855.631,-935.059,-934.570,-173.340,-939.941
1741607855.649,-1000.000,-1000.000,16.602,-989.746
1741607855.653,-941.406,-941.406,32.715,-972.168
1741607855.657,-1000.000,-1000.000,74.707,-1000.000
1741607855.661,-173.828,-177.734,302.734,54.688
1741607855.665,999.512,999.512,468.262,999.512
1741607855.669,955.566,956.543,556.152,933.105
1741607855.673,893.066,869.629,600.098,919.434
1741607855.676,999.512,999.512,307.129,979.004
1741607855.680,865.234,449.219,97.168,958.984
1741607855.684,-514.648,-955.566,-303.711,-349.121
1741607855.688,-1000.000,-1000.000,-346.191,-1000.000
1741607855.692,-886.719,-908.203,52.246,-871.582
1741607855.649,-1000.000,-1000.000,16.602,-989.746
1741607855.653,-941.406,-941.406,32.715,-972.168
1741607855.657,-1000.000,-1000.000,74.707,-1000.000
1741607855.661,-173.828,-177.734,302.734,54.688
1741607855.665,999.512,999.512,468.262,999.512
1741607855.669,955.566,956.543,556.152,933.105
1741607855.673,893.066,869.629,600.098,919.434
1741607855.676,999.512,999.512,307.129,979.004
1741607855.680,865.234,449.219,97.168,958.984
1741607855.684,-514.648,-955.566,-303.711,-349.121
1741607855.688,-1000.000,-1000.000,-346.191,-1000.000
1741607855.692,-886.719,-908.203,52.246,-871.582
1741607855.693,-1000.000,-1000.000,129.395,-1000.000
1741607855.697,-925.293,-953.613,30.273,-654.297
1741607855.701,444.336,399.902,448.730,756.348
1741607855.705,999.512,999.512,673.828,999.512
1741607855.709,898.926,900.391,416.504,909.180
1741607855.713,985.352,975.586,454.102,995.117
1741607855.717,894.043,903.809,484.863,893.066
1741607855.720,999.512,999.512,392.578,999.512
1741607855.724,370.605,190.430,-4.883,535.645
1741607855.728,-1000.000,-1000.000,-404.297,-912.109
1741607855.732,-940.918,-916.016,-83.984,-979.492
1741607855.736,-1000.000,-1000.000,125.488,-1000.000
1741607855.693,-1000.000,-1000.000,129.395,-1000.000
1741607855.697,-925.293,-953.613,30.273,-654.297
1741607855.701,444.336,399.902,448.730,756.348
1741607855.705,999.512,999.512,673.828,999.512
1741607855.709,898.926,900.391,416.504,909.180
1741607855.713,985.352,975.586,454.102,995.117
1741607855.717,894.043,903.809,484.863,893.066
1741607855.720,999.512,999.512,392.578,999.512
1741607855.724,370.605,190.430,-4.883,535.645
1741607855.728,-1000.000,-1000.000,-404.297,-912.109
1741607855.732,-940.918,-916.016,-83.984,-979.492
1741607855.736,-1000.000,-1000.000,125.488,-1000.000
1741607855.723,-581.543,-697.266,197.266,-371.094
1741607855.727,875.000,756.836,675.293,983.887
1741607855.731,999.512,999.512,868.164,974.121
1741607855.735,910.645,905.273,656.250,928.711
1741607855.739,982.422,988.770,305.176,977.539
1741607855.743,966.797,939.453,495.117,969.727
1741607855.747,903.320,954.590,959.473,901.855
1741607855.750,999.512,999.512,790.039,999.512
1741607855.754,186.523,-220.703,404.297,223.145
1741607855.758,-1000.000,-1000.000,242.188,-1000.000
1741607855.762,-921.387,-880.371,560.547,-935.059
1741607855.766,-1000.000,-1000.000,715.820,-1000.000
1741607855.723,-581.543,-697.266,197.266,-371.094
1741607855.727,875.000,756.836,675.293,983.887
1741607855.731,999.512,999.512,868.164,974.121
1741607855.735,910.645,905.273,656.250,928.711
1741607855.739,982.422,988.770,305.176,977.539
1741607855.743,966.797,939.453,495.117,969.727
1741607855.747,903.320,954.590,959.473,901.855
1741607855.750,999.512,999.512,790.039,999.512
1741607855.754,186.523,-220.703,404.297,223.145
1741607855.758,-1000.000,-1000.000,242.188,-1000.000
1741607855.762,-921.387,-880.371,560.547,-935.059
1741607855.766,-1000.000,-1000.000,715.820,-1000.000
1741607855.768,-227.539,-221.191,797.852,-155.273
1741607855.772,999.512,999.512,964.844,999.512
1741607855.776,949.707,944.336,810.547,941.895
1741607855.780,938.965,958.984,689.941,944.824
1741607855.784,973.145,905.273,600.098,972.656
1741607855.788,966.797,868.164,706.055,971.191
1741607855.792,903.320,918.945,985.840,900.391
1741607855.795,999.512,999.512,850.586,999.512
1741607855.799,187.012,153.320,281.250,255.859
1741607855.803,-1000.000,-1000.000,-154.297,-1000.000
1741607855.807,-961.426,-963.379,46.387,-942.871
1741607855.811,-948.242,-939.453,288.574,-1000.000
1741607855.813,-1000.000,-1000.000,239.258,-777.832
1741607855.817,128.906,42.480,378.418,585.449
1741607855.821,999.512,999.512,804.688,999.512
1741607855.825,908.203,917.480,769.531,908.691
1741607855.829,963.867,959.473,284.668,976.074
1741607855.833,966.797,967.285,313.477,966.797
1741607855.837,966.309,955.566,538.574,966.797
1741607855.840,966.309,939.453,136.230,966.797
1741607855.844,966.309,906.738,-43.945,966.797
1741607855.848,966.309,-115.723,34.668,966.797
1741607855.852,966.309,-1000.000,-84.961,967.285
1741607855.856,966.309,-973.145,-93.750,966.797
1741607855.858,966.309,-992.188,-91.797,966.797
1741607855.862,966.309,-970.703,-58.105,967.285
1741607855.866,966.309,-1000.000,70.801,966.797
1741607855.870,966.309,-999.512,25.879,967.285
1741607855.874,966.309,273.926,-109.863,966.797
1741607855.878,969.727,999.512,186.523,968.262
1741607855.882,949.219,865.723,570.312,958.496
1741607855.885,931.152,989.746,444.824,917.480
1741607855.889,999.512,922.852,168.457,999.512
1741607855.893,-83.496,-411.621,-418.457,39.551
1741607855.897,-1000.000,-1000.000,-678.711,-1000.000
1741607855.901,-887.207,-873.047,-262.695,-922.852
1741607855.858,966.309,-992.188,-91.797,966.797
1741607855.862,966.309,-970.703,-58.105,967.285
1741607855.866,966.309,-1000.000,70.801,966.797
1741607855.870,966.309,-999.512,25.879,967.285
1741607855.874,966.309,273.926,-109.863,966.797
1741607855.878,969.727,999.512,186.523,968.262
1741607855.882,949.219,865.723,570.312,958.496
1741607855.885,931.152,989.746,444.824,917.480
1741607855.889,999.512,922.852,168.457,999.512
1741607855.893,-83.496,-411.621,-418.457,39.551
1741607855.897,-1000.000,-1000.000,-678.711,-1000.000
1741607855.901,-887.207,-873.047,-262.695,-922.852
1741607855.919,-1000.000,-1000.000,-113.770,-1000.000
1741607855.923,-222.168,-220.703,120.605,-39.551
1741607855.927,999.512,999.512,454.102,999.512
1741607855.931,949.707,950.684,371.094,929.688
1741607855.935,938.965,939.941,178.711,952.148
1741607855.939,986.816,976.562,368.164,985.352
1741607855.943,892.090,901.367,515.137,896.484
1741607855.946,999.512,999.512,83.984,999.512
1741607855.950,495.605,231.445,-237.305,585.449
1741607855.954,-932.617,-1000.000,-579.102,-851.074
1741607855.958,-1000.000,-991.211,-561.523,-1000.000
1741607855.962,-948.730,-970.215,-319.336,-935.547
1741607855.963,-952.637,-945.312,-306.152,-965.820
1741607855.967,-1000.000,-1000.000,-413.574,-1000.000
1741607855.971,-220.703,-220.703,-143.066,-99.609
1741607855.975,999.512,999.512,130.859,999.512
1741607855.979,949.707,951.172,-21.973,936.523
1741607855.983,947.266,940.918,-32.715,958.496
1741607855.987,901.855,910.645,-173.340,898.926
1741607855.990,999.512,999.512,-329.102,999.512
1741607855.994,339.355,194.824,-584.473,398.438
1741607855.998,-1000.000,-1000.000,-1000.000,-985.352
1741607856.002,-1000.000,-995.117,-737.305,-1000.000
1741607856.006,-889.648,-899.902,-381.348,-891.113
1741607855.963,-952.637,-945.312,-306.152,-965.820
1741607855.967,-1000.000,-1000.000,-413.574,-1000.000
1741607855.971,-220.703,-220.703,-143.066,-99.609
1741607855.975,999.512,999.512,130.859,999.512
1741607855.979,949.707,951.172,-21.973,936.523
1741607855.983,947.266,940.918,-32.715,958.496
1741607855.987,901.855,910.645,-173.340,898.926
1741607855.990,999.512,999.512,-329.102,999.512
1741607855.994,339.355,194.824,-584.473,398.438
1741607855.998,-1000.000,-1000.000,-1000.000,-985.352
1741607856.002,-1000.000,-995.117,-737.305,-1000.000
1741607856.006,-889.648,-899.902,-381.348,-891.113
1741607856.008,-1000.000,-1000.000,-389.648,-1000.000
1741607856.012,-370.117,-405.273,-151.855,-259.766
1741607856.016,981.934,966.797,366.699,999.512
1741607856.020,975.098,981.934,368.164,957.031
1741607856.024,927.246,924.805,-62.500,936.523
1741607856.028,990.234,982.910,128.418,988.770
1741607856.032,891.602,900.391,273.438,894.043
1741607856.035,999.512,999.512,-112.305,999.512
1741607856.039,475.586,256.836,-281.738,520.508
1741607856.043,-945.312,-1000.000,-383.789,-908.691
1741607856.047,-1000.000,-1000.000,-276.855,-1000.000
1741607856.051,-876.953,-893.555,-113.770,-884.277
1741607856.008,-1000.000,-1000.000,-389.648,-1000.000
1741607856.012,-370.117,-405.273,-151.855,-259.766
1741607856.016,981.934,966.797,366.699,999.512
1741607856.020,975.098,981.934,368.164,957.031
1741607856.024,927.246,924.805,-62.500,936.523
1741607856.028,990.234,982.910,128.418,988.770
1741607856.032,891.602,900.391,273.438,894.043
1741607856.035,999.512,999.512,-112.305,999.512
1741607856.039,475.586,256.836,-281.738,520.508
1741607856.043,-945.312,-1000.000,-383.789,-908.691
1741607856.047,-1000.000,-1000.000,-276.855,-1000.000
1741607856.051,-876.953,-893.555,-113.770,-884.277
1741607856.053,-1000.000,-1000.000,-22.461,-1000.000
1741607856.057,-423.828,-466.309,26.855,-239.258
1741607856.061,956.543,936.523,153.809,999.512
1741607856.065,985.352,994.141,147.461,955.078
1741607856.069,922.363,919.922,-235.352,937.988
1741607856.073,988.281,984.375,-116.699,986.816
1741607856.077,893.555,900.391,134.277,893.066
1741607856.080,999.512,999.512,65.430,999.512
1741607856.084,375.000,252.930,-278.320,445.312
1741607856.088,-998.535,-1000.000,-753.906,-960.938
1741607856.092,-1000.000,-995.117,-537.598,-1000.000
1741607856.096,-958.496,-968.750,-225.586,-939.453
1741607856.098,-949.707,-946.289,-169.922,-974.609
1741607856.102,-1000.000,-1000.000,-106.445,-1000.000
1741607856.106,-221.191,-220.703,160.156,-22.949
1741607856.110,999.512,999.512,716.309,999.512
1741607856.114,949.707,950.684,516.113,929.199
1741607856.118,951.172,944.336,122.070,967.773
1741607856.122,898.926,906.250,20.996,899.414
1741607856.125,999.512,999.512,-315.918,999.512
1741607856.129,435.547,263.672,-516.602,592.773
1741607856.133,-982.422,-1000.000,-674.316,-856.934
1741607856.137,-969.238,-950.684,-616.211,-990.234
1741607856.141,-1000.000,-997.070,-263.184,-1000.000
1741607856.098,-949.707,-946.289,-169.922,-974.609
1741607856.102,-1000.000,-1000.000,-106.445,-1000.000
1741607856.106,-221.191,-220.703,160.156,-22.949
1741607856.110,999.512,999.512,716.309,999.512
1741607856.114,949.707,950.684,516.113,929.199
1741607856.118,951.172,944.336,122.070,967.773
1741607856.122,898.926,906.250,20.996,899.414
1741607856.125,999.512,999.512,-315.918,999.512
1741607856.129,435.547,263.672,-516.602,592.773
1741607856.133,-982.422,-1000.000,-674.316,-856.934
1741607856.137,-969.238,-950.684,-616.211,-990.234
1741607856.141,-1000.000,-997.070,-263.184,-1000.000
1741607856.143,-827.637,-943.848,-46.387,-476.074
1741607856.147,604.980,430.664,320.312,918.945
1741607856.151,999.512,999.512,507.812,994.629
1741607856.155,900.391,899.902,250.977,920.898
1741607856.159,979.492,976.074,65.918,979.492
1741607856.163,966.309,970.703,257.812,967.285
1741607856.167,966.797,950.195,616.211,966.797
1741607856.170,903.809,933.105,690.918,966.797
1741607856.174,999.512,999.512,686.035,966.797
1741607856.178,187.012,-79.102,363.770,967.285
1741607856.182,-1000.000,-1000.000,227.539,967.285
1741607856.186,-983.887,-952.637,575.684,966.797
1741607856.188,-973.145,-991.699,637.695,966.797
1741607856.192,-1000.000,-1000.000,487.793,967.285
1741607856.196,-937.500,-938.477,472.656,967.285
1741607856.200,-1000.000,-1000.000,519.043,967.285
1741607856.204,-220.215,-212.891,559.082,967.285
1741607856.208,999.512,999.512,804.688,966.797
1741607856.212,949.707,949.707,967.773,966.797
1741607856.215,939.453,940.918,619.629,966.797
1741607856.219,973.633,971.680,443.848,978.027
1741607856.223,903.320,908.691,356.445,895.020
1741607856.227,999.512,999.512,221.680,999.512
1741607856.231,186.523,145.020,132.324,417.969
1741607856.188,-973.145,-991.699,637.695,966.797
1741607856.192,-1000.000,-1000.000,487.793,967.285
1741607856.196,-937.500,-938.477,472.656,967.285
1741607856.200,-1000.000,-1000.000,519.043,967.285
1741607856.204,-220.215,-212.891,559.082,967.285
1741607856.208,999.512,999.512,804.688,966.797
1741607856.212,949.707,949.707,967.773,966.797
1741607856.215,939.453,940.918,619.629,966.797
1741607856.219,973.633,971.680,443.848,978.027
1741607856.223,903.320,908.691,356.445,895.020
1741607856.227,999.512,999.512,221.680,999.512
1741607856.231,186.523,145.020,132.324,417.969
1741607856.233,-1000.000,-1000.000,-244.141,-951.172
1741607856.237,-921.387,-916.016,-259.277,-996.094
1741607856.241,-1000.000,-1000.000,81.543,-1000.000
1741607856.245,-227.539,-226.562,496.582,37.598
1741607856.249,999.512,999.512,677.734,999.512
1741607856.253,963.867,965.332,505.371,934.082
1741607856.257,881.836,871.582,502.930,911.621
1741607856.260,999.512,999.512,252.441,998.535
1741607856.264,796.875,622.070,-110.352,901.367
1741607856.268,-616.699,-809.082,-640.625,-455.078
1741607856.272,-1000.000,-1000.000,-667.969,-1000.000
1741607856.276,-943.359,-952.637,-235.352,-939.453
1741607856.233,-1000.000,-1000.000,-244.141,-951.172
1741607856.237,-921.387,-916.016,-259.277,-996.094
1741607856.241,-1000.000,-1000.000,81.543,-1000.000
1741607856.245,-227.539,-226.562,496.582,37.598
1741607856.249,999.512,999.512,677.734,999.512
1741607856.253,963.867,965.332,505.371,934.082
1741607856.257,881.836,871.582,502.930,911.621
1741607856.260,999.512,999.512,252.441,998.535
1741607856.264,796.875,622.070,-110.352,901.367
1741607856.268,-616.699,-809.082,-640.625,-455.078
1741607856.272,-1000.000,-1000.000,-667.969,-1000.000
1741607856.276,-943.359,-952.637,-235.352,-939.453
1741607856.278,-940.918,-941.406,-269.531,-941.406
1741607856.282,-1000.000,-1000.000,-207.520,-1000.000
1741607856.286,-395.020,-443.848,237.793,-305.664
1741607856.290,971.191,947.754,681.152,999.512
1741607856.294,979.492,989.746,684.082,965.332
1741607856.298,937.988,933.105,764.648,944.824
1741607856.302,925.781,907.715,812.500,928.223
1741607856.305,999.512,999.512,424.316,999.512
1741607856.309,841.309,420.410,110.840,870.605
1741607856.313,-550.293,-970.703,-136.719,-494.141
1741607856.317,-1000.000,-1000.000,-57.617,-1000.000
1741607856.321,-934.570,-955.078,204.102,-914.062
1741607856.278,-940.918,-941.406,-269.531,-941.406
1741607856.282,-1000.000,-1000.000,-207.520,-1000.000
1741607856.286,-395.020,-443.848,237.793,-305.664
1741607856.290,971.191,947.754,681.152,999.512
1741607856.294,979.492,989.746,684.082,965.332
1741607856.298,937.988,933.105,764.648,944.824
1741607856.302,925.781,907.715,812.500,928.223
1741607856.305,999.512,999.512,424.316,999.512
1741607856.309,841.309,420.410,110.840,870.605
1741607856.313,-550.293,-970.703,-136.719,-494.141
1741607856.317,-1000.000,-1000.000,-57.617,-1000.000
1741607856.321,-934.570,-955.078,204.102,-914.062
1741607856.324,-948.730,-950.684,127.930,-1000.000
1741607856.328,-1000.000,-1000.000,37.109,-950.684
1741607856.332,-221.191,-220.703,16.602,131.348
1741607856.336,999.512,999.512,68.848,999.512
1741607856.340,957.520,957.520,-75.684,947.266
1741607856.344,908.691,911.133,-39.062,905.762
1741607856.348,964.355,961.914,13.184,999.512
1741607856.351,999.512,999.512,-104.004,839.844
1741607856.355,-262.695,-240.234,-554.688,-512.695
1741607856.359,-1000.000,-1000.000,-848.145,-1000.000
1741607856.363,-936.523,-937.988,-485.352,-937.988
1741607856.367,-1000.000,-1000.000,-347.168,-1000.000
1741607856.383,-1000.000,-1000.000,-273.926,-1000.000
1741607856.387,-960.449,-927.246,-157.715,-984.863
1741607856.391,-1000.000,-1000.000,-163.086,-963.379
1741607856.395,-974.609,-538.086,-114.258,-1000.000
1741607856.399,332.520,871.582,23.926,-18.066
1741607856.403,999.512,965.820,80.566,999.512
1741607856.407,999.512,999.512,5.371,842.285
1741607856.410,-72.754,2.441,-524.414,-460.938
1741607856.414,-1000.000,-1000.000,-1000.000,-1000.000
1741607856.418,-950.195,-957.520,-894.531,-937.012
1741607856.422,-992.188,-987.793,-661.621,-1000.000
1741607856.426,-1000.000,-1000.000,-631.348,-1000.000
1741607856.428,-1000.000,-1000.000,-629.883,-1000.000
1741607856.432,-1000.000,-1000.000,-589.844,-1000.000
1741607856.436,-1000.000,-985.352,-639.648,-1000.000
1741607856.440,-1000.000,-961.914,-679.199,-1000.000
1741607856.444,-1000.000,-1000.000,-816.406,-1000.000
1741607856.448,-1000.000,30.762,-651.855,-1000.000
1741607856.452,-1000.000,999.512,-408.691,-1000.000
1741607856.455,-1000.000,999.512,-418.945,-1000.000
1741607856.459,-1000.000,478.516,-703.125,-1000.000
1741607856.463,-1000.000,-930.176,-1000.000,-1000.000
1741607856.467,-1000.000,-1000.000,-999.023,-1000.000
1741607856.471,-1000.000,-961.914,-979.492,-1000.000
1741607856.428,-1000.000,-1000.000,-629.883,-1000.000
1741607856.432,-1000.000,-1000.000,-589.844,-1000.000
1741607856.436,-1000.000,-985.352,-639.648,-1000.000
1741607856.440,-1000.000,-961.914,-679.199,-1000.000
1741607856.444,-1000.000,-1000.000,-816.406,-1000.000
1741607856.448,-1000.000,30.762,-651.855,-1000.000
1741607856.452,-1000.000,999.512,-408.691,-1000.000
1741607856.455,-1000.000,999.512,-418.945,-1000.000
1741607856.459,-1000.000,478.516,-703.125,-1000.000
1741607856.463,-1000.000,-930.176,-1000.000,-1000.000
1741607856.467,-1000.000,-1000.000,-999.023,-1000.000
1741607856.471,-1000.000,-961.914,-979.492,-1000.000
1741607856.488,-1000.000,-950.195,-983.887,-1000.000
1741607856.492,-1000.000,-1000.000,-968.262,-1000.000
1741607856.496,-1000.000,-728.027,-752.930,-1000.000
1741607856.500,-1000.000,867.676,-590.332,-1000.000
1741607856.504,-1000.000,603.027,-828.125,-1000.000
1741607856.508,-1000.000,-944.824,-963.867,-1000.000
1741607856.512,-1000.000,-1000.000,-699.219,-1000.000
1741607856.515,-1000.000,-946.289,-751.953,-1000.000
1741607856.519,-1000.000,-1000.000,-966.797,-1000.000
1741607856.523,-1000.000,-1000.000,-937.988,-1000.000
1741607856.527,-1000.000,-1000.000,-917.969,-1000.000
1741607856.531,-1000.000,-1000.000,-902.832,-1000.000
1741607856.518,-1000.000,-1000.000,-945.801,-1000.000
1741607856.522,-1000.000,-1000.000,-954.590,-1000.000
1741607856.526,-1000.000,-981.934,-813.965,-1000.000
1741607856.530,-1000.000,-974.609,-759.277,-1000.000
1741607856.534,-1000.000,-1000.000,-801.758,-1000.000
1741607856.538,-1000.000,69.824,-629.883,-1000.000
1741607856.542,-1000.000,999.512,-385.742,-1000.000
1741607856.545,-1000.000,959.473,-467.285,-1000.000
1741607856.549,-1000.000,865.723,-771.973,-1000.000
1741607856.553,-1000.000,-471.680,-982.422,-1000.000
1741607856.557,-1000.000,-1000.000,-1000.000,-1000.000
1741607856.561,-1000.000,-936.523,-853.516,-1000.000
1741607856.566,-1000.000,-1000.000,-823.730,-1000.000
1741607856.570,-1000.000,-1000.000,-889.160,-1000.000
1741607856.574,-1000.000,-995.605,-715.332,-1000.000
1741607856.578,-1000.000,-945.801,-642.578,-1000.000
1741607856.582,-1000.000,-1000.000,-642.578,-1000.000
1741607856.586,-1000.000,-131.836,-304.688,-1000.000
1741607856.590,-1000.000,992.188,-15.137,-1000.000
1741607856.593,-1000.000,999.512,-364.746,-1000.000
1741607856.597,-1000.000,213.379,-844.238,-1000.000
1741607856.601,-1000.000,-1000.000,-875.000,-1000.000
1741607856.605,-1000.000,-991.211,-609.863,-1000.000
1741607856.609,-1000.000,-907.715,-449.219,-1000.000
1741607856.566,-1000.000,-1000.000,-823.730,-1000.000
1741607856.570,-1000.000,-1000.000,-889.160,-1000.000
1741607856.574,-1000.000,-995.605,-715.332,-1000.000
1741607856.578,-1000.000,-945.801,-642.578,-1000.000
1741607856.582,-1000.000,-1000.000,-642.578,-1000.000
1741607856.586,-1000.000,-131.836,-304.688,-1000.000
1741607856.590,-1000.000,992.188,-15.137,-1000.000
1741607856.593,-1000.000,999.512,-364.746,-1000.000
1741607856.597,-1000.000,213.379,-844.238,-1000.000
1741607856.601,-1000.000,-1000.000,-875.000,-1000.000
1741607856.605,-1000.000,-991.211,-609.863,-1000.000
1741607856.609,-1000.000,-907.715,-449.219,-1000.000
1741607856.609,-1000.000,-1000.000,-458.984,-1000.000
1741607856.613,-1000.000,-206.055,-309.082,-1000.000
1741607856.617,-1000.000,999.512,-95.703,-1000.000
1741607856.621,-1000.000,948.730,-303.223,-1000.000
1741607856.625,-1000.000,953.613,-326.172,-1000.000
1741607856.629,-1000.000,921.875,-119.629,-1000.000
1741607856.633,-1000.000,999.512,-95.215,-1000.000
1741607856.636,-1000.000,837.402,-262.207,-1000.000
1741607856.640,-1000.000,-546.875,-738.770,-1000.000
1741607856.644,-1000.000,-1000.000,-929.688,-1000.000
1741607856.648,-1000.000,-935.059,-638.672,-1000.000
1741607856.652,-1000.000,-1000.000,-543.945,-1000.000
1741607856.609,-1000.000,-1000.000,-458.984,-1000.000
1741607856.613,-1000.000,-206.055,-309.082,-1000.000
1741607856.617,-1000.000,999.512,-95.703,-1000.000
1741607856.621,-1000.000,948.730,-303.223,-1000.000
1741607856.625,-1000.000,953.613,-326.172,-1000.000
1741607856.629,-1000.000,921.875,-119.629,-1000.000
1741607856.633,-1000.000,999.512,-95.215,-1000.000
1741607856.636,-1000.000,837.402,-262.207,-1000.000
1741607856.640,-1000.000,-546.875,-738.770,-1000.000
1741607856.644,-1000.000,-1000.000,-929.688,-1000.000
1741607856.648,-1000.000,-935.059,-638.672,-1000.000
1741607856.652,-1000.000,-1000.000,-543.945,-1000.000
1741607856.653,-1000.000,-1000.000,-587.402,-1000.000
1741607856.657,-926.270,-938.477,-539.062,-928.223
1741607856.661,-1000.000,-1000.000,-372.559,-1000.000
1741607856.665,-489.746,-210.938,-140.137,-590.820
1741607856.669,922.363,999.512,35.156,842.773
1741607856.673,998.047,949.707,47.852,999.512
1741607856.677,917.480,940.430,74.707,911.133
1741607856.680,990.234,983.887,-166.016,988.770
1741607856.684,893.555,894.531,-237.305,897.461
1741607856.688,999.512,999.512,-165.039,999.512
1741607856.692,385.254,389.160,-301.758,328.125
1741607856.696,-993.164,-990.234,-517.578,-1000.000
1741607856.713,-1000.000,-1000.000,-335.938,-1000.000
1741607856.717,-960.449,-961.426,-17.090,-968.750
1741607856.721,-995.605,-991.699,-20.508,-981.445
1741607856.725,-964.844,-972.656,-67.871,-992.676
1741607856.729,-1000.000,-1000.000,-228.516,-1000.000
1741607856.733,47.852,106.445,264.160,216.797
1741607856.737,999.512,999.512,820.801,999.512
1741607856.740,916.016,911.133,527.344,908.203
1741607856.744,958.496,962.402,15.625,966.797
1741607856.748,967.285,967.773,-357.910,967.285
1741607856.752,966.309,966.797,-164.551,966.797
1741607856.756,966.309,968.262,93.262,967.285
1741607856.758,972.656,961.914,132.812,981.445
1741607856.762,897.461,914.062,78.613,900.391
1741607856.766,999.512,999.512,98.633,999.512
1741607856.770,298.340,101.562,161.621,646.484
1741607856.774,-1000.000,-1000.000,-125.000,-781.250
1741607856.778,-1000.000,-976.074,17.578,-1000.000
1741607856.782,-901.367,-915.527,235.840,-879.883
1741607856.785,-1000.000,-1000.000,-191.406,-1000.000
1741607856.789,-221.191,-228.027,89.355,-197.266
1741607856.793,999.512,999.512,686.035,999.512
1741607856.797,949.707,952.148,298.340,947.266
1741607856.801,938.965,938.965,-31.738,941.406
1741607856.758,972.656,961.914,132.812,981.445
1741607856.762,897.461,914.062,78.613,900.391
1741607856.766,999.512,999.512,98.633,999.512
1741607856.770,298.340,101.562,161.621,646.484
1741607856.774,-1000.000,-1000.000,-125.000,-781.250
1741607856.778,-1000.000,-976.074,17.578,-1000.000
1741607856.782,-901.367,-915.527,235.840,-879.883
1741607856.785,-1000.000,-1000.000,-191.406,-1000.000
1741607856.789,-221.191,-228.027,89.355,-197.266
1741607856.793,999.512,999.512,686.035,999.512
1741607856.797,949.707,952.148,298.340,947.266
1741607856.801,938.965,938.965,-31.738,941.406
1741607856.803,973.145,974.121,-114.746,973.145
1741607856.807,966.309,980.469,13.184,966.797
1741607856.811,966.309,898.438,362.793,966.797
1741607856.815,966.309,999.512,447.754,966.797
1741607856.819,966.309,580.566,297.852,966.797
1741607856.823,966.309,-774.902,294.434,966.797
1741607856.827,966.309,-1000.000,534.668,967.285
1741607856.830,967.773,-162.598,688.965,973.145
1741607856.834,902.344,971.680,550.781,898.438
1741607856.838,999.512,999.512,285.156,999.512
1741607856.842,206.543,83.496,192.383,293.945
1741607856.846,-1000.000,-1000.000,210.449,-1000.000
1741607856.849,-988.281,-975.586,143.555,-1000.000
1741607856.853,-964.355,-974.121,135.742,-943.848
1741607856.857,-956.055,-950.195,384.277,-985.352
1741607856.861,-1000.000,-1000.000,354.980,-1000.000
1741607856.865,-94.727,-137.695,481.934,91.797
1741607856.869,999.512,999.512,835.449,999.512
1741607856.873,923.340,895.508,735.352,907.227
1741607856.876,900.391,978.027,159.180,916.504
1741607856.880,999.512,863.281,-372.559,999.512
1741607856.884,28.809,-459.961,-562.500,-0.488
1741607856.888,-1000.000,-1000.000,-415.039,-1000.000
1741607856.892,-962.891,-931.152,-145.508,-960.449
1741607856.849,-988.281,-975.586,143.555,-1000.000
1741607856.853,-964.355,-974.121,135.742,-943.848
1741607856.857,-956.055,-950.195,384.277,-985.352
1741607856.861,-1000.000,-1000.000,354.980,-1000.000
1741607856.865,-94.727,-137.695,481.934,91.797
1741607856.869,999.512,999.512,835.449,999.512
1741607856.873,923.340,895.508,735.352,907.227
1741607856.876,900.391,978.027,159.180,916.504
1741607856.880,999.512,863.281,-372.559,999.512
1741607856.884,28.809,-459.961,-562.500,-0.488
1741607856.888,-1000.000,-1000.000,-415.039,-1000.000
1741607856.892,-962.891,-931.152,-145.508,-960.449
1741607856.894,-922.363,-958.984,-139.160,-925.781
1741607856.898,-1000.000,-1000.000,-353.516,-1000.000
1741607856.902,-215.332,-58.105,21.484,-197.266
1741607856.906,999.512,999.512,255.859,999.512
1741607856.910,949.219,929.688,-90.820,947.266
1741607856.914,955.078,957.031,-128.418,956.055
1741607856.918,902.344,902.344,-158.203,902.344
1741607856.921,999.512,999.512,-175.781,999.512
1741607856.925,624.023,283.691,-398.438,574.707
1741607856.929,-823.242,-1000.000,-781.250,-858.887
1741607856.933,-1000.000,-1000.000,-704.590,-1000.000
1741607856.937,-909.668,-942.383,-486.816,-906.738
1741607856.938,-1000.000,-985.352,-469.238,-1000.000
1741607856.942,-1000.000,-1000.000,-486.816,-979.492
1741607856.946,229.492,129.883,-33.203,316.406
1741607856.950,999.512,999.512,280.762,999.512
1741607856.954,902.344,909.180,-11.719,905.762
1741607856.958,970.215,978.027,-90.820,974.609
1741607856.962,957.520,895.996,-64.453,949.219
1741607856.965,917.480,999.512,-226.074,936.523
1741607856.969,999.512,527.832,-295.410,999.512
1741607856.973,19.043,-907.715,-638.672,-103.516
1741607856.977,-1000.000,-995.605,-748.047,-1000.000
1741607856.981,-1000.000,-991.699,-205.566,-1000.000
1741607856.983,-694.336,-899.902,-41.016,-572.754
1741607856.987,729.492,503.906,266.113,818.359
1741607856.991,999.512,999.512,450.195,999.512
1741607856.995,903.809,900.391,80.078,913.574
1741607856.999,981.445,978.027,-108.887,980.469
1741607857.003,979.980,972.168,163.574,979.980
1741607857.007,892.090,899.414,440.430,893.066
1741607857.010,999.512,999.512,229.980,999.512
1741607857.014,484.863,272.461,-278.320,468.262
1741607857.018,-940.430,-1000.000,-938.965,-947.754
1741607857.022,-1000.000,-1000.000,-822.754,-1000.000
1741607857.026,-881.836,-894.531,-409.668,-885.254
1741607856.983,-694.336,-899.902,-41.016,-572.754
1741607856.987,729.492,503.906,266.113,818.359
1741607856.991,999.512,999.512,450.195,999.512
1741607856.995,903.809,900.391,80.078,913.574
1741607856.999,981.445,978.027,-108.887,980.469
1741607857.003,979.980,972.168,163.574,979.980
1741607857.007,892.090,899.414,440.430,893.066
1741607857.010,999.512,999.512,229.980,999.512
1741607857.014,484.863,272.461,-278.320,468.262
1741607857.018,-940.430,-1000.000,-938.965,-947.754
1741607857.022,-1000.000,-1000.000,-822.754,-1000.000
1741607857.026,-881.836,-894.531,-409.668,-885.254
1741607857.028,-1000.000,-1000.000,-343.750,-1000.000
1741607857.032,-289.062,-382.324,-284.668,-264.648
1741607857.036,999.512,977.539,88.379,999.512
1741607857.040,960.938,978.027,302.734,958.008
1741607857.044,933.594,926.758,140.625,936.035
1741607857.048,975.098,978.027,293.945,975.098
1741607857.052,966.309,967.285,562.012,967.285
1741607857.055,966.309,980.469,390.137,967.285
1741607857.059,966.309,896.484,320.312,966.797
1741607857.063,966.309,999.512,539.062,966.797
1741607857.067,966.309,539.551,527.832,966.797
1741607857.071,966.309,-877.930,374.512,967.285
1741607857.028,-1000.000,-1000.000,-343.750,-1000.000
1741607857.032,-289.062,-382.324,-284.668,-264.648
1741607857.036,999.512,977.539,88.379,999.512
1741607857.040,960.938,978.027,302.734,958.008
1741607857.044,933.594,926.758,140.625,936.035
1741607857.048,975.098,978.027,293.945,975.098
1741607857.052,966.309,967.285,562.012,967.285
1741607857.055,966.309,980.469,390.137,967.285
1741607857.059,966.309,896.484,320.312,966.797
1741607857.063,966.309,999.512,539.062,966.797
1741607857.067,966.309,539.551,527.832,966.797
1741607857.071,966.309,-877.930,374.512,967.285
1741607857.088,966.309,-1000.000,353.516,966.797
1741607857.092,966.309,-953.125,433.105,966.797
1741607857.096,966.309,-945.801,574.219,967.285
1741607857.100,966.309,-1000.000,595.703,967.285
1741607857.104,966.309,-351.562,570.312,966.797
1741607857.108,966.309,983.398,764.648,967.285
1741607857.112,971.680,987.793,984.863,971.680
1741607857.115,941.895,862.305,828.125,946.289
1741607857.119,944.824,999.512,604.004,940.430
1741607857.123,999.512,627.441,438.477,999.512
1741607857.127,-184.082,-800.293,33.691,-146.484
1741607857.131,-1000.000,-1000.000,118.652,-1000.000
1741607857.133,-916.504,-903.809,511.719,-980.469
1741607857.137,-1000.000,-1000.000,391.113,-894.043
1741607857.141,123.535,29.785,680.176,434.570
1741607857.145,999.512,999.512,999.512,999.512
1741607857.149,908.691,918.457,812.988,905.273
1741607857.153,963.379,958.008,776.855,973.633
1741607857.157,966.797,968.750,857.422,967.285
1741607857.160,966.309,966.797,428.223,966.797
1741607857.164,966.309,967.773,146.973,966.797
1741607857.168,978.027,963.867,173.828,979.004
1741607857.172,892.578,909.668,245.117,894.043
1741607857.176,999.512,999.512,415.039,999.512
1741607857.133,-916.504,-903.809,511.719,-980.469
1741607857.137,-1000.000,-1000.000,391.113,-894.043
1741607857.141,123.535,29.785,680.176,434.570
1741607857.145,999.512,999.512,999.512,999.512
1741607857.149,908.691,918.457,812.988,905.273
1741607857.153,963.379,958.008,776.855,973.633
1741607857.157,966.797,968.750,857.422,967.285
1741607857.160,966.309,966.797,428.223,966.797
1741607857.164,966.309,967.773,146.973,966.797
1741607857.168,978.027,963.867,173.828,979.004
1741607857.172,892.578,909.668,245.117,894.043
1741607857.176,999.512,999.512,415.039,999.512
1741607857.179,422.363,129.883,301.758,443.359
1741607857.183,-978.516,-1000.000,35.645,-959.473
1741607857.187,-958.496,-904.297,364.258,-966.797
1741607857.191,-1000.000,-1000.000,510.254,-1000.000
1741607857.195,-298.828,-412.109,487.305,-247.559
1741607857.199,999.512,978.516,868.652,999.512
1741607857.203,960.449,923.828,903.320,953.125
1741607857.206,934.082,999.023,673.828,938.477
1741607857.210,975.098,725.098,256.348,974.121
1741607857.214,966.309,-680.664,-81.055,967.285
1741607857.218,966.309,-1000.000,-17.578,967.285
1741607857.222,966.309,-897.461,-0.977,966.797
1741607857.179,422.363,129.883,301.758,443.359
1741607857.183,-978.516,-1000.000,35.645,-959.473
1741607857.187,-958.496,-904.297,364.258,-966.797
1741607857.191,-1000.000,-1000.000,510.254,-1000.000
1741607857.195,-298.828,-412.109,487.305,-247.559
1741607857.199,999.512,978.516,868.652,999.512
1741607857.203,960.449,923.828,903.320,953.125
1741607857.206,934.082,999.023,673.828,938.477
1741607857.210,975.098,725.098,256.348,974.121
1741607857.214,966.309,-680.664,-81.055,967.285
1741607857.218,966.309,-1000.000,-17.578,967.285
1741607857.222,966.309,-897.461,-0.977,966.797
1741607857.223,966.309,-1000.000,52.734,967.285
1741607857.227,966.309,-937.500,173.828,966.797
1741607857.231,966.309,396.973,375.977,966.797
1741607857.235,966.309,999.512,500.488,966.797
1741607857.239,966.797,912.109,507.324,967.773
1741607857.243,965.820,937.988,557.617,963.379
1741607857.247,905.273,974.609,639.648,910.156
1741607857.250,999.512,958.008,432.617,999.512
1741607857.254,154.785,-346.191,-229.980,108.887
1741607857.258,-1000.000,-1000.000,-452.637,-1000.000
1741607857.262,-1000.000,-956.543,162.598,-1000.000
1741607857.266,-817.871,-975.098,488.281,-750.488
1741607857.268,556.641,367.676,657.715,618.652
1741607857.272,999.512,999.512,772.949,999.512
1741607857.276,899.902,900.879,645.020,905.273
1741607857.280,978.516,974.121,540.527,979.004
1741607857.284,966.309,966.797,272.949,966.797
1741607857.288,966.309,977.539,401.367,968.262
1741607857.292,979.980,894.531,771.973,971.191
1741607857.295,911.133,999.512,693.359,911.133
1741607857.299,999.512,407.227,446.777,999.512
1741607857.303,800.781,-984.863,192.871,388.672
1741607857.307,-549.316,-1000.000,165.527,-859.863
1741607857.311,-1000.000,-929.688,316.406,-1000.000
1741607857.313,-894.043,-1000.000,392.090,-916.992
1741607857.317,371.094,123.047,506.348,337.891
1741607857.321,999.512,999.512,709.961,999.512
1741607857.325,900.391,909.668,471.191,905.273
1741607857.329,973.633,963.867,-57.617,972.656
1741607857.333,966.797,967.773,-101.562,962.402
1741607857.337,903.320,904.785,132.812,913.086
1741607857.340,999.512,999.512,-26.367,999.512
1741607857.344,183.105,183.105,-404.297,109.863
1741607857.348,-1000.000,-1000.000,-460.449,-1000.000
1741607857.352,-949.219,-918.945,-203.125,-903.809
1741607857.356,-1000.000,-1000.000,-222.168,-1000.000
1741607857.313,-894.043,-1000.000,392.090,-916.992
1741607857.317,371.094,123.047,506.348,337.891
1741607857.321,999.512,999.512,709.961,999.512
1741607857.325,900.391,909.668,471.191,905.273
1741607857.329,973.633,963.867,-57.617,972.656
1741607857.333,966.797,967.773,-101.562,962.402
1741607857.337,903.320,904.785,132.812,913.086
1741607857.340,999.512,999.512,-26.367,999.512
1741607857.344,183.105,183.105,-404.297,109.863
1741607857.348,-1000.000,-1000.000,-460.449,-1000.000
1741607857.352,-949.219,-918.945,-203.125,-903.809
1741607857.356,-1000.000,-1000.000,-222.168,-1000.000
1741607857.358,35.645,-253.906,-0.977,-572.266
1741607857.362,999.512,999.512,493.652,857.910
1741607857.366,848.145,885.742,460.938,951.172
1741607857.370,999.512,999.512,131.836,999.512
1741607857.374,666.504,382.324,-178.711,220.215
1741607857.378,-975.098,-1000.000,-340.820,-999.512
1741607857.382,-282.715,-594.238,-6.348,-1000.000
1741607857.385,999.512,814.453,229.004,-235.840
1741607857.389,935.059,999.512,-13.672,999.512
1741607857.393,938.965,131.348,-527.344,-33.203
1741607857.397,973.145,-1000.000,-752.441,-1000.000
1741607857.401,966.309,-983.887,-549.316,-954.102
1741607857.358,35.645,-253.906,-0.977,-572.266
1741607857.362,999.512,999.512,493.652,857.910
1741607857.366,848.145,885.742,460.938,951.172
1741607857.370,999.512,999.512,131.836,999.512
1741607857.374,666.504,382.324,-178.711,220.215
1741607857.378,-975.098,-1000.000,-340.820,-999.512
1741607857.382,-282.715,-594.238,-6.348,-1000.000
1741607857.385,999.512,814.453,229.004,-235.840
1741607857.389,935.059,999.512,-13.672,999.512
1741607857.393,938.965,131.348,-527.344,-33.203
1741607857.397,973.145,-1000.000,-752.441,-1000.000
1741607857.401,966.309,-983.887,-549.316,-954.102
1741607857.404,966.309,-978.516,-592.773,-986.816
1741607857.408,966.309,-982.910,-821.289,-1000.000
1741607857.412,966.797,-981.934,-763.184,-1000.000
1741607857.416,966.309,-1000.000,-627.930,-1000.000
1741607857.420,966.309,149.414,-466.797,-1000.000
1741607857.424,966.309,999.512,-147.461,-1000.000
1741607857.428,966.309,875.000,26.855,-1000.000
1741607857.431,966.309,999.512,-479.492,-1000.000
1741607857.435,966.309,-30.273,-762.207,-1000.000
1741607857.439,966.309,-1000.000,-494.141,-1000.000
1741607857.443,966.309,-965.820,-299.805,-1000.000
1741607857.447,966.309,-960.449,-97.656,-1000.000
1741607857.404,966.309,-978.516,-592.773,-986.816
1741607857.408,966.309,-982.910,-821.289,-1000.000
1741607857.412,966.797,-981.934,-763.184,-1000.000
1741607857.416,966.309,-1000.000,-627.930,-1000.000
1741607857.420,966.309,149.414,-466.797,-1000.000
1741607857.424,966.309,999.512,-147.461,-1000.000
1741607857.428,966.309,875.000,26.855,-1000.000
1741607857.431,966.309,999.512,-479.492,-1000.000
1741607857.435,966.309,-30.273,-762.207,-1000.000
1741607857.439,966.309,-1000.000,-494.141,-1000.000
1741607857.443,966.309,-965.820,-299.805,-1000.000
1741607857.447,966.309,-960.449,-97.656,-1000.000
1741607857.464,966.309,-989.258,-22.461,-1000.000
1741607857.468,966.309,-1000.000,-92.773,-1000.000
1741607857.472,966.309,187.988,263.184,-1000.000
1741607857.476,966.309,999.512,505.859,-1000.000
1741607857.480,966.309,907.715,196.289,-1000.000
1741607857.484,966.797,967.285,168.945,-1000.000
1741607857.488,966.309,904.785,357.422,-1000.000
1741607857.491,966.309,999.512,283.691,-1000.000
1741607857.495,966.309,187.500,-34.180,-1000.000
1741607857.499,966.309,-1000.000,-357.910,-1000.000
1741607857.503,966.309,-983.887,-314.941,-1000.000
1741607857.507,966.309,-973.145,-302.246,-1000.000
1741607857.464,966.309,-989.258,-22.461,-1000.000
1741607857.468,966.309,-1000.000,-92.773,-1000.000
1741607857.472,966.309,187.988,263.184,-1000.000
1741607857.476,966.309,999.512,505.859,-1000.000
1741607857.480,966.309,907.715,196.289,-1000.000
1741607857.484,966.797,967.285,168.945,-1000.000
1741607857.488,966.309,904.785,357.422,-1000.000
1741607857.491,966.309,999.512,283.691,-1000.000
1741607857.495,966.309,187.500,-34.180,-1000.000
1741607857.499,966.309,-1000.000,-357.910,-1000.000
1741607857.503,966.309,-983.887,-314.941,-1000.000
1741607857.507,966.309,-973.145,-302.246,-1000.000
1741607857.509,966.309,-1000.000,-314.453,-1000.000
1741607857.513,966.309,-1000.000,-220.215,-1000.000
1741607857.517,966.309,-933.594,-152.832,-1000.000
1741607857.521,966.309,-1000.000,-312.012,-1000.000
1741607857.525,977.539,-678.223,-471.191,-1000.000
1741607857.529,893.555,688.477,-318.359,-1000.000
1741607857.533,999.512,999.512,-340.332,-1000.000
1741607857.536,418.457,123.535,-774.902,-1000.000
1741607857.540,-973.633,-1000.000,-1000.000,-1000.000
1741607857.544,-1000.000,-983.398,-989.746,-1000.000
1741607857.548,-954.102,-973.145,-997.070,-1000.000
1741607857.552,-1000.000,-1000.000,-1000.000,-1000.000
1741607857.509,966.309,-1000.000,-314.453,-1000.000
1741607857.513,966.309,-1000.000,-220.215,-1000.000
1741607857.517,966.309,-933.594,-152.832,-1000.000
1741607857.521,966.309,-1000.000,-312.012,-1000.000
1741607857.525,977.539,-678.223,-471.191,-1000.000
1741607857.529,893.555,688.477,-318.359,-1000.000
1741607857.533,999.512,999.512,-340.332,-1000.000
1741607857.536,418.457,123.535,-774.902,-1000.000
1741607857.540,-973.633,-1000.000,-1000.000,-1000.000
1741607857.544,-1000.000,-983.398,-989.746,-1000.000
1741607857.548,-954.102,-973.145,-997.070,-1000.000
1741607857.552,-1000.000,-1000.000,-1000.000,-1000.000
1741607857.553,-1000.000,-1000.000,-1000.000,-1000.000
1741607857.557,-1000.000,-1000.000,-1000.000,-1000.000
1741607857.561,-1000.000,-997.070,-999.512,-1000.000
1741607857.565,-1000.000,-943.359,-986.328,-1000.000
1741607857.569,-1000.000,-1000.000,-1000.000,-1000.000
1741607857.573,-1000.000,-154.785,-803.711,-1000.000
1741607857.577,-1000.000,988.770,-611.328,-1000.000
1741607857.580,-1000.000,999.512,-868.164,-1000.000
1741607857.584,-1000.000,192.383,-978.516,-1000.000
1741607857.588,-1000.000,-1000.000,-988.281,-1000.000
1741607857.592,-1000.000,-988.281,-1000.000,-1000.000
1741607857.596,-1000.000,-970.703,-785.156,-1000.000
1741607857.598,-1000.000,-1000.000,-581.543,-1000.000
1741607857.602,-1000.000,-1000.000,-408.203,-1000.000
1741607857.606,-992.676,-980.469,-95.215,-989.258
1741607857.610,-949.707,-970.215,93.750,-955.566
1741607857.614,-1000.000,-1000.000,88.867,-1000.000
1741607857.618,-86.426,87.402,490.234,-34.180
1741607857.622,999.512,999.512,999.512,999.512
1741607857.625,934.570,914.062,877.441,926.270
1741607857.629,932.617,957.031,529.785,954.102
1741607857.633,935.547,912.109,532.227,907.227
1741607857.637,999.512,999.512,703.125,999.512
1741607857.641,-78.613,98.145,235.352,172.852
1741607857.598,-1000.000,-1000.000,-581.543,-1000.000
1741607857.602,-1000.000,-1000.000,-408.203,-1000.000
1741607857.606,-992.676,-980.469,-95.215,-989.258
1741607857.610,-949.707,-970.215,93.750,-955.566
1741607857.614,-1000.000,-1000.000,88.867,-1000.000
1741607857.618,-86.426,87.402,490.234,-34.180
1741607857.622,999.512,999.512,999.512,999.512
1741607857.625,934.570,914.062,877.441,926.270
1741607857.629,932.617,957.031,529.785,954.102
1741607857.633,935.547,912.109,532.227,907.227
1741607857.637,999.512,999.512,703.125,999.512
1741607857.641,-78.613,98.145,235.352,172.852
1741607857.643,-1000.000,-1000.000,-203.613,-1000.000
1741607857.647,-906.738,-981.445,-112.305,-1000.000
1741607857.651,-1000.000,-973.145,143.555,-420.410
1741607857.655,-39.551,308.594,506.836,931.152
1741607857.659,999.512,999.512,465.820,991.699
1741607857.663,908.203,836.914,296.875,934.082
1741607857.667,999.512,999.512,381.836,916.504
1741607857.670,-187.012,251.465,121.582,999.512
1741607857.674,-1000.000,-1000.000,-522.949,712.891
1741607857.678,-881.836,-933.105,-851.074,-881.348
1741607857.682,-1000.000,-1000.000,-453.613,-594.727
1741607857.686,-814.941,-255.859,103.516,939.941
1741607857.643,-1000.000,-1000.000,-203.613,-1000.000
1741607857.647,-906.738,-981.445,-112.305,-1000.000
1741607857.651,-1000.000,-973.145,143.555,-420.410
1741607857.655,-39.551,308.594,506.836,931.152
1741607857.659,999.512,999.512,465.820,991.699
1741607857.663,908.203,836.914,296.875,934.082
1741607857.667,999.512,999.512,381.836,916.504
1741607857.670,-187.012,251.465,121.582,999.512
1741607857.674,-1000.000,-1000.000,-522.949,712.891
1741607857.678,-881.836,-933.105,-851.074,-881.348
1741607857.682,-1000.000,-1000.000,-453.613,-594.727
1741607857.686,-814.941,-255.859,103.516,939.941
1741607857.688,809.082,999.512,372.559,994.141
1741607857.692,482.910,907.715,-147.949,916.016
1741607857.696,-1000.000,-429.199,-848.145,980.469
1741607857.700,-992.676,-1000.000,-802.734,966.797
1741607857.704,-919.434,-1000.000,-541.016,966.797
1741607857.708,-1000.000,-200.195,-134.766,966.797
1741607857.712,-39.062,972.168,344.238,966.797
1741607857.715,999.512,999.512,82.031,966.797
1741607857.719,140.625,309.570,-231.934,966.797
1741607857.723,-1000.000,-1000.000,-196.777,966.797
1741607857.727,-981.934,-1000.000,-12.695,966.797
1741607857.731,-974.121,-958.496,139.648,967.285
1741607857.688,809.082,999.512,372.559,994.141
1741607857.692,482.910,907.715,-147.949,916.016
1741607857.696,-1000.000,-429.199,-848.145,980.469
1741607857.700,-992.676,-1000.000,-802.734,966.797
1741607857.704,-919.434,-1000.000,-541.016,966.797
1741607857.708,-1000.000,-200.195,-134.766,966.797
1741607857.712,-39.062,972.168,344.238,966.797
1741607857.715,999.512,999.512,82.031,966.797
1741607857.719,140.625,309.570,-231.934,966.797
1741607857.723,-1000.000,-1000.000,-196.777,966.797
1741607857.727,-981.934,-1000.000,-12.695,966.797
1741607857.731,-974.121,-958.496,139.648,967.285
1741607857.734,-944.336,-953.125,-25.879,966.797
1741607857.738,-1000.000,-1000.000,-109.863,967.285
1741607857.742,-221.191,-169.434,468.262,967.285
1741607857.746,999.512,999.512,817.871,966.797
1741607857.750,950.195,943.848,345.703,966.797
1741607857.754,939.453,944.336,338.867,966.797
1741607857.758,910.645,909.668,731.445,966.797
1741607857.761,999.512,999.512,716.309,966.797
1741607857.765,182.129,187.500,298.828,966.797
1741607857.769,-1000.000,-1000.000,105.957,966.797
1741607857.773,-983.887,-990.234,374.023,966.797
1741607857.777,-973.145,-945.312,630.371,967.285
1741607857.734,-944.336,-953.125,-25.879,966.797
1741607857.738,-1000.000,-1000.000,-109.863,967.285
1741607857.742,-221.191,-169.434,468.262,967.285
1741607857.746,999.512,999.512,817.871,966.797
1741607857.750,950.195,943.848,345.703,966.797
1741607857.754,939.453,944.336,338.867,966.797
1741607857.758,910.645,909.668,731.445,966.797
1741607857.761,999.512,999.512,716.309,966.797
1741607857.765,182.129,187.500,298.828,966.797
1741607857.769,-1000.000,-1000.000,105.957,966.797
1741607857.773,-983.887,-990.234,374.023,966.797
1741607857.777,-973.145,-945.312,630.371,967.285
1741607857.793,-945.801,-996.582,759.766,967.285
1741607857.797,-1000.000,-1000.000,740.234,967.285
1741607857.801,-204.590,193.359,809.570,966.797
1741607857.805,999.512,999.512,729.004,966.797
1741607857.809,953.125,921.387,515.137,966.797
1741607857.813,872.070,892.578,631.348,978.516
1741607857.817,999.512,999.512,723.633,899.902
