timestamps,TP9,AF7,AF8,TP10
1745825143.568,-1000.000,-1000.000,528.320,-1000.000
1745825143.572,-238.770,-255.371,999.512,-253.418
1745825143.576,999.512,999.512,285.645,999.512
1745825143.580,685.547,660.156,-1000.000,505.371
1745825143.584,-838.867,-854.004,-859.863,-925.293
1745825143.588,-999.023,-1000.000,394.043,-1000.000
1745825143.592,391.602,351.074,999.512,145.996
1745825143.595,999.512,999.512,332.520,999.512
1745825143.599,448.730,292.969,-941.895,383.301
1745825143.603,-851.074,-931.152,-970.215,-895.508
1745825143.607,-1000.000,-1000.000,203.125,-1000.000
1745825143.611,-182.617,-242.676,999.512,-231.934
1745825144.078,-915.527,-1000.000,-884.277,-1000.000
1745825144.082,19.531,-246.094,278.809,-262.207
1745825144.086,999.512,989.746,999.512,988.281
1745825144.090,999.512,999.512,216.309,999.512
1745825144.094,492.676,229.492,-1000.000,278.320
1745825144.098,-1000.000,-1000.000,-817.871,-1000.000
1745825144.102,-293.457,-408.203,348.633,-540.527
1745825144.105,999.512,935.059,999.512,853.516
1745825144.109,999.512,999.512,281.738,999.512
1745825144.113,155.762,34.668,-962.891,119.141
1745825144.117,-1000.000,-1000.000,-1000.000,-1000.000
1745825144.121,-983.887,-970.215,-37.598,-981.934
1745825143.613,984.375,971.680,492.676,989.258
1745825143.617,999.512,999.512,-791.504,999.512
1745825143.621,-23.438,-17.090,-1000.000,-119.629
1745825143.625,-1000.000,-1000.000,107.910,-1000.000
1745825143.629,-306.641,-395.020,999.512,-258.789
1745825143.633,933.594,894.531,834.961,946.777
1745825143.637,999.512,999.512,-320.312,999.512
1745825143.640,220.215,210.449,-1000.000,211.914
1745825143.644,-1000.000,-1000.000,23.438,-1000.000
1745825143.648,-634.277,-690.430,999.512,-498.047
1745825143.652,785.645,731.445,908.691,873.047
1745825143.656,999.512,999.512,-187.012,999.512
1745825143.613,984.375,971.680,492.676,989.258
1745825143.617,999.512,999.512,-791.504,999.512
1745825143.621,-23.438,-17.090,-1000.000,-119.629
1745825143.625,-1000.000,-1000.000,107.910,-1000.000
1745825143.629,-306.641,-395.020,999.512,-258.789
1745825143.633,933.594,894.531,834.961,946.777
1745825143.637,999.512,999.512,-320.312,999.512
1745825143.640,220.215,210.449,-1000.000,211.914
1745825143.644,-1000.000,-1000.000,23.438,-1000.000
1745825143.648,-634.277,-690.430,999.512,-498.047
1745825143.652,785.645,731.445,908.691,873.047
1745825143.656,999.512,999.512,-187.012,999.512
1745825143.613,984.375,971.680,492.676,989.258
1745825143.617,999.512,999.512,-791.504,999.512
1745825143.621,-23.438,-17.090,-1000.000,-119.629
1745825143.625,-1000.000,-1000.000,107.910,-1000.000
1745825143.629,-306.641,-395.020,999.512,-258.789
1745825143.633,933.594,894.531,834.961,946.777
1745825143.637,999.512,999.512,-320.312,999.512
1745825143.640,220.215,210.449,-1000.000,211.914
1745825143.644,-1000.000,-1000.000,23.438,-1000.000
1745825143.648,-634.277,-690.430,999.512,-498.047
1745825143.652,785.645,731.445,908.691,873.047
1745825143.656,999.512,999.512,-187.012,999.512
1745825143.660,47.852,24.414,-1000.000,113.281
1745825143.664,-1000.000,-1000.000,-175.293,-1000.000
1745825143.668,-441.895,-440.918,999.512,-339.355
1745825143.672,869.629,861.328,938.477,922.852
1745825143.676,999.512,999.512,-165.527,999.512
1745825143.680,337.891,485.352,-1000.000,411.133
1745825143.684,-1000.000,-922.852,-127.441,-1000.000
1745825143.687,-924.805,-1000.000,999.512,-822.266
1745825143.691,419.922,288.086,890.137,565.430
1745825143.695,999.512,999.512,-170.898,999.512
1745825143.699,292.969,231.445,-1000.000,303.711
1745825143.703,-1000.000,-1000.000,-421.875,-1000.000
1745825143.660,47.852,24.414,-1000.000,113.281
1745825143.664,-1000.000,-1000.000,-175.293,-1000.000
1745825143.668,-441.895,-440.918,999.512,-339.355
1745825143.672,869.629,861.328,938.477,922.852
1745825143.676,999.512,999.512,-165.527,999.512
1745825143.680,337.891,485.352,-1000.000,411.133
1745825143.684,-1000.000,-922.852,-127.441,-1000.000
1745825143.687,-924.805,-1000.000,999.512,-822.266
1745825143.691,419.922,288.086,890.137,565.430
1745825143.695,999.512,999.512,-170.898,999.512
1745825143.699,292.969,231.445,-1000.000,303.711
1745825143.703,-1000.000,-1000.000,-421.875,-1000.000
1745825143.660,47.852,24.414,-1000.000,113.281
1745825143.664,-1000.000,-1000.000,-175.293,-1000.000
1745825143.668,-441.895,-440.918,999.512,-339.355
1745825143.672,869.629,861.328,938.477,922.852
1745825143.676,999.512,999.512,-165.527,999.512
1745825143.680,337.891,485.352,-1000.000,411.133
1745825143.684,-1000.000,-922.852,-127.441,-1000.000
1745825143.687,-924.805,-1000.000,999.512,-822.266
1745825143.691,419.922,288.086,890.137,565.430
1745825143.695,999.512,999.512,-170.898,999.512
1745825143.699,292.969,231.445,-1000.000,303.711
1745825143.703,-1000.000,-1000.000,-421.875,-1000.000
1745825143.748,999.512,999.512,270.508,999.512
1745825143.752,837.402,619.141,-995.605,841.309
1745825143.756,-509.766,-758.301,-922.852,-561.035
1745825143.760,-1000.000,-1000.000,259.277,-979.980
1745825143.764,306.641,147.949,999.512,518.555
1745825143.768,999.512,999.512,515.625,999.512
1745825143.772,862.305,778.809,-735.352,930.176
1745825143.775,-354.004,-491.211,-1000.000,-236.816
1745825143.779,-1000.000,-1000.000,-14.648,-1000.000
1745825143.783,-187.012,-186.035,999.512,-116.211
1745825143.787,999.512,999.512,517.578,999.512
1745825143.791,980.957,987.305,-752.441,999.512
1745825143.748,999.512,999.512,270.508,999.512
1745825143.752,837.402,619.141,-995.605,841.309
1745825143.756,-509.766,-758.301,-922.852,-561.035
1745825143.760,-1000.000,-1000.000,259.277,-979.980
1745825143.764,306.641,147.949,999.512,518.555
1745825143.768,999.512,999.512,515.625,999.512
1745825143.772,862.305,778.809,-735.352,930.176
1745825143.775,-354.004,-491.211,-1000.000,-236.816
1745825143.779,-1000.000,-1000.000,-14.648,-1000.000
1745825143.783,-187.012,-186.035,999.512,-116.211
1745825143.787,999.512,999.512,517.578,999.512
1745825143.791,980.957,987.305,-752.441,999.512
1745825143.748,999.512,999.512,270.508,999.512
1745825143.752,837.402,619.141,-995.605,841.309
1745825143.756,-509.766,-758.301,-922.852,-561.035
1745825143.760,-1000.000,-1000.000,259.277,-979.980
1745825143.764,306.641,147.949,999.512,518.555
1745825143.768,999.512,999.512,515.625,999.512
1745825143.772,862.305,778.809,-735.352,930.176
1745825143.775,-354.004,-491.211,-1000.000,-236.816
1745825143.779,-1000.000,-1000.000,-14.648,-1000.000
1745825143.783,-187.012,-186.035,999.512,-116.211
1745825143.787,999.512,999.512,517.578,999.512
1745825143.791,980.957,987.305,-752.441,999.512
1745825143.793,-256.836,-241.699,-1000.000,-93.750
1745825143.797,-1000.000,-1000.000,-66.895,-1000.000
1745825143.801,-219.238,-220.703,999.512,-148.438
1745825143.805,999.512,999.512,621.094,999.512
1745825143.809,174.805,212.891,-644.531,379.883
1745825143.813,-1000.000,-1000.000,-1000.000,-1000.000
1745825143.817,-1000.000,-1000.000,-70.801,-960.449
1745825143.820,-87.891,196.289,999.512,349.609
1745825143.824,999.512,999.512,633.789,999.512
1745825143.828,-70.312,112.305,-584.473,182.129
1745825143.832,-1000.000,-1000.000,-1000.000,-1000.000
1745825143.836,-1000.000,-1000.000,-269.531,-1000.000
1745825143.793,-256.836,-241.699,-1000.000,-93.750
1745825143.797,-1000.000,-1000.000,-66.895,-1000.000
1745825143.801,-219.238,-220.703,999.512,-148.438
1745825143.805,999.512,999.512,621.094,999.512
1745825143.809,174.805,212.891,-644.531,379.883
1745825143.813,-1000.000,-1000.000,-1000.000,-1000.000
1745825143.817,-1000.000,-1000.000,-70.801,-960.449
1745825143.820,-87.891,196.289,999.512,349.609
1745825143.824,999.512,999.512,633.789,999.512
1745825143.828,-70.312,112.305,-584.473,182.129
1745825143.832,-1000.000,-1000.000,-1000.000,-1000.000
1745825143.836,-1000.000,-1000.000,-269.531,-1000.000
1745825144.320,999.512,999.512,-414.062,999.512
1745825144.324,77.637,147.461,-1000.000,48.828
1745825144.328,-1000.000,-1000.000,-92.773,-1000.000
1745825144.332,-547.852,-593.750,999.512,-564.453
1745825144.336,821.777,789.551,825.684,786.621
1745825144.340,999.512,999.512,-276.367,999.512
1745825144.344,178.223,170.410,-1000.000,162.109
1745825144.347,-1000.000,-1000.000,-279.297,-1000.000
1745825144.351,-898.438,-954.102,983.398,-938.477
1745825144.355,422.363,333.496,968.262,346.680
1745825144.359,999.512,999.512,-91.797,999.512
1745825144.363,191.406,184.570,-1000.000,184.082
1745825143.793,-256.836,-241.699,-1000.000,-93.750
1745825143.797,-1000.000,-1000.000,-66.895,-1000.000
1745825143.801,-219.238,-220.703,999.512,-148.438
1745825143.805,999.512,999.512,621.094,999.512
1745825143.809,174.805,212.891,-644.531,379.883
1745825143.813,-1000.000,-1000.000,-1000.000,-1000.000
1745825143.817,-1000.000,-1000.000,-70.801,-960.449
1745825143.820,-87.891,196.289,999.512,349.609
1745825143.824,999.512,999.512,633.789,999.512
1745825143.828,-70.312,112.305,-584.473,182.129
1745825143.832,-1000.000,-1000.000,-1000.000,-1000.000
1745825143.836,-1000.000,-1000.000,-269.531,-1000.000
1745825143.838,-272.461,-251.465,999.512,0.977
1745825143.842,999.512,999.512,844.727,999.512
1745825143.846,169.922,456.543,-307.617,809.570
1745825143.850,-1000.000,-906.250,-1000.000,-482.422
1745825143.854,-1000.000,-1000.000,-540.527,-1000.000
1745825143.858,-261.719,-195.312,794.922,-103.027
1745825143.862,999.512,999.512,976.562,999.512
1745825143.865,603.516,951.172,-206.543,999.512
1745825143.869,-761.230,-285.645,-1000.000,-2.930
1745825143.873,-1000.000,-1000.000,-580.566,-1000.000
1745825143.877,-286.133,-286.621,690.918,-157.227
1745825143.881,901.367,909.668,999.512,975.098
1745825143.838,-272.461,-251.465,999.512,0.977
1745825143.842,999.512,999.512,844.727,999.512
1745825143.846,169.922,456.543,-307.617,809.570
1745825143.850,-1000.000,-906.250,-1000.000,-482.422
1745825143.854,-1000.000,-1000.000,-540.527,-1000.000
1745825143.858,-261.719,-195.312,794.922,-103.027
1745825143.862,999.512,999.512,976.562,999.512
1745825143.865,603.516,951.172,-206.543,999.512
1745825143.869,-761.230,-285.645,-1000.000,-2.930
1745825143.873,-1000.000,-1000.000,-580.566,-1000.000
1745825143.877,-286.133,-286.621,690.918,-157.227
1745825143.881,901.367,909.668,999.512,975.098
1745825143.838,-272.461,-251.465,999.512,0.977
1745825143.842,999.512,999.512,844.727,999.512
1745825143.846,169.922,456.543,-307.617,809.570
1745825143.850,-1000.000,-906.250,-1000.000,-482.422
1745825143.854,-1000.000,-1000.000,-540.527,-1000.000
1745825143.858,-261.719,-195.312,794.922,-103.027
1745825143.862,999.512,999.512,976.562,999.512
1745825143.865,603.516,951.172,-206.543,999.512
1745825143.869,-761.230,-285.645,-1000.000,-2.930
1745825143.873,-1000.000,-1000.000,-580.566,-1000.000
1745825143.877,-286.133,-286.621,690.918,-157.227
1745825143.881,901.367,909.668,999.512,975.098
1745825143.898,999.512,999.512,96.191,999.512
1745825143.902,403.320,391.602,-1000.000,546.875
1745825143.906,-1000.000,-1000.000,-685.547,-1000.000
1745825143.910,-708.496,-822.266,580.566,-593.262
1745825143.914,796.387,657.227,999.512,906.738
1745825143.918,957.031,988.770,490.234,944.824
1745825143.922,999.512,999.512,-852.051,999.512
1745825143.925,203.613,239.746,-680.176,127.441
1745825143.929,-1000.000,-1000.000,607.422,-1000.000
1745825143.933,232.910,-111.328,999.512,-10.254
1745825143.937,999.512,999.512,432.617,999.512
1745825143.941,907.715,498.047,-811.523,740.723
1745825143.898,999.512,999.512,96.191,999.512
1745825143.902,403.320,391.602,-1000.000,546.875
1745825143.906,-1000.000,-1000.000,-685.547,-1000.000
1745825143.910,-708.496,-822.266,580.566,-593.262
1745825143.914,796.387,657.227,999.512,906.738
1745825143.918,957.031,988.770,490.234,944.824
1745825143.922,999.512,999.512,-852.051,999.512
1745825143.925,203.613,239.746,-680.176,127.441
1745825143.929,-1000.000,-1000.000,607.422,-1000.000
1745825143.933,232.910,-111.328,999.512,-10.254
1745825143.937,999.512,999.512,432.617,999.512
1745825143.941,907.715,498.047,-811.523,740.723
1745825143.898,999.512,999.512,96.191,999.512
1745825143.902,403.320,391.602,-1000.000,546.875
1745825143.906,-1000.000,-1000.000,-685.547,-1000.000
1745825143.910,-708.496,-822.266,580.566,-593.262
1745825143.914,796.387,657.227,999.512,906.738
1745825143.918,957.031,988.770,490.234,944.824
1745825143.922,999.512,999.512,-852.051,999.512
1745825143.925,203.613,239.746,-680.176,127.441
1745825143.929,-1000.000,-1000.000,607.422,-1000.000
1745825143.933,232.910,-111.328,999.512,-10.254
1745825143.937,999.512,999.512,432.617,999.512
1745825143.941,907.715,498.047,-811.523,740.723
1745825143.943,-577.637,-1000.000,-1000.000,-849.609
1745825143.947,-329.102,-470.703,105.469,-477.051
1745825143.951,999.512,921.875,999.512,960.449
1745825143.955,999.512,999.512,555.664,999.512
1745825143.959,774.902,354.492,-742.676,640.137
1745825143.963,-540.039,-908.203,-1000.000,-676.270
1745825143.967,-1000.000,-1000.000,156.250,-1000.000
1745825143.970,-166.504,-188.965,999.512,-145.996
1745825143.974,981.445,983.887,602.051,974.609
1745825143.978,999.512,999.512,-616.211,999.512
1745825143.982,30.273,21.484,-1000.000,122.070
1745825143.986,-1000.000,-1000.000,-98.633,-1000.000
1745825143.943,-577.637,-1000.000,-1000.000,-849.609
1745825143.947,-329.102,-470.703,105.469,-477.051
1745825143.951,999.512,921.875,999.512,960.449
1745825143.955,999.512,999.512,555.664,999.512
1745825143.959,774.902,354.492,-742.676,640.137
1745825143.963,-540.039,-908.203,-1000.000,-676.270
1745825143.967,-1000.000,-1000.000,156.250,-1000.000
1745825143.970,-166.504,-188.965,999.512,-145.996
1745825143.974,981.445,983.887,602.051,974.609
1745825143.978,999.512,999.512,-616.211,999.512
1745825143.982,30.273,21.484,-1000.000,122.070
1745825143.986,-1000.000,-1000.000,-98.633,-1000.000
1745825143.943,-577.637,-1000.000,-1000.000,-849.609
1745825143.947,-329.102,-470.703,105.469,-477.051
1745825143.951,999.512,921.875,999.512,960.449
1745825143.955,999.512,999.512,555.664,999.512
1745825143.959,774.902,354.492,-742.676,640.137
1745825143.963,-540.039,-908.203,-1000.000,-676.270
1745825143.967,-1000.000,-1000.000,156.250,-1000.000
1745825143.970,-166.504,-188.965,999.512,-145.996
1745825143.974,981.445,983.887,602.051,974.609
1745825143.978,999.512,999.512,-616.211,999.512
1745825143.982,30.273,21.484,-1000.000,122.070
1745825143.986,-1000.000,-1000.000,-98.633,-1000.000
1745825143.988,-469.727,-547.363,999.512,-281.738
1745825143.992,999.512,999.512,870.117,999.512
1745825143.996,266.602,606.445,-259.766,711.914
1745825144.000,-1000.000,-882.324,-1000.000,-699.219
1745825144.004,-1000.000,-1000.000,-202.148,-1000.000
1745825144.008,-168.457,-121.094,999.512,-53.711
1745825144.012,999.512,999.512,910.156,999.512
1745825144.015,237.793,840.820,-174.805,949.707
1745825144.019,-999.512,-478.516,-1000.000,-285.645
1745825144.023,-1000.000,-1000.000,-403.809,-1000.000
1745825144.027,-319.824,-209.473,914.551,-150.879
1745825144.031,917.969,945.801,989.258,972.656
1745825143.988,-469.727,-547.363,999.512,-281.738
1745825143.992,999.512,999.512,870.117,999.512
1745825143.996,266.602,606.445,-259.766,711.914
1745825144.000,-1000.000,-882.324,-1000.000,-699.219
1745825144.004,-1000.000,-1000.000,-202.148,-1000.000
1745825144.008,-168.457,-121.094,999.512,-53.711
1745825144.012,999.512,999.512,910.156,999.512
1745825144.015,237.793,840.820,-174.805,949.707
1745825144.019,-999.512,-478.516,-1000.000,-285.645
1745825144.023,-1000.000,-1000.000,-403.809,-1000.000
1745825144.027,-319.824,-209.473,914.551,-150.879
1745825144.031,917.969,945.801,989.258,972.656
1745825144.033,999.512,999.512,-95.703,999.512
1745825144.037,209.961,227.051,-1000.000,230.469
1745825144.041,-1000.000,-1000.000,-470.703,-1000.000
1745825144.045,-349.121,-351.562,833.984,-333.496
1745825144.049,932.129,932.129,999.512,936.523
1745825144.053,999.512,999.512,33.203,999.512
1745825144.057,646.973,446.289,-1000.000,497.559
1745825144.060,-938.477,-1000.000,-814.453,-1000.000
1745825144.064,-195.801,-442.383,435.547,-273.926
1745825144.068,999.512,939.453,999.512,999.512
1745825144.072,999.512,999.512,61.035,999.512
1745825144.076,630.371,224.121,-1000.000,296.875
1745825144.033,999.512,999.512,-95.703,999.512
1745825144.037,209.961,227.051,-1000.000,230.469
1745825144.041,-1000.000,-1000.000,-470.703,-1000.000
1745825144.045,-349.121,-351.562,833.984,-333.496
1745825144.049,932.129,932.129,999.512,936.523
1745825144.053,999.512,999.512,33.203,999.512
1745825144.057,646.973,446.289,-1000.000,497.559
1745825144.060,-938.477,-1000.000,-814.453,-1000.000
1745825144.064,-195.801,-442.383,435.547,-273.926
1745825144.068,999.512,939.453,999.512,999.512
1745825144.072,999.512,999.512,61.035,999.512
1745825144.076,630.371,224.121,-1000.000,296.875
1745825144.033,999.512,999.512,-95.703,999.512
1745825144.037,209.961,227.051,-1000.000,230.469
1745825144.041,-1000.000,-1000.000,-470.703,-1000.000
1745825144.045,-349.121,-351.562,833.984,-333.496
1745825144.049,932.129,932.129,999.512,936.523
1745825144.053,999.512,999.512,33.203,999.512
1745825144.057,646.973,446.289,-1000.000,497.559
1745825144.060,-938.477,-1000.000,-814.453,-1000.000
1745825144.064,-195.801,-442.383,435.547,-273.926
1745825144.068,999.512,939.453,999.512,999.512
1745825144.072,999.512,999.512,61.035,999.512
1745825144.076,630.371,224.121,-1000.000,296.875
1745825144.123,-973.145,-980.957,999.512,-974.121
1745825144.127,-1000.000,-1000.000,375.000,-1000.000
1745825144.131,-993.164,-963.379,-892.578,-983.887
1745825144.135,-949.219,-1000.000,-1000.000,-964.844
1745825144.139,-1000.000,-985.840,-78.125,-1000.000
1745825144.143,-155.762,243.164,999.512,-33.691
1745825144.147,999.512,999.512,619.141,999.512
1745825144.150,212.402,352.051,-622.070,393.555
1745825144.154,-1000.000,-963.867,-1000.000,-971.191
1745825144.158,-924.805,-974.121,-292.969,-962.891
1745825144.162,-1000.000,-1000.000,999.512,-1000.000
1745825144.166,-270.020,-161.621,536.621,-252.441
1745825144.123,-973.145,-980.957,999.512,-974.121
1745825144.127,-1000.000,-1000.000,375.000,-1000.000
1745825144.131,-993.164,-963.379,-892.578,-983.887
1745825144.135,-949.219,-1000.000,-1000.000,-964.844
1745825144.139,-1000.000,-985.840,-78.125,-1000.000
1745825144.143,-155.762,243.164,999.512,-33.691
1745825144.147,999.512,999.512,619.141,999.512
1745825144.150,212.402,352.051,-622.070,393.555
1745825144.154,-1000.000,-963.867,-1000.000,-971.191
1745825144.158,-924.805,-974.121,-292.969,-962.891
1745825144.162,-1000.000,-1000.000,999.512,-1000.000
1745825144.166,-270.020,-161.621,536.621,-252.441
1745825144.123,-973.145,-980.957,999.512,-974.121
1745825144.127,-1000.000,-1000.000,375.000,-1000.000
1745825144.131,-993.164,-963.379,-892.578,-983.887
1745825144.135,-949.219,-1000.000,-1000.000,-964.844
1745825144.139,-1000.000,-985.840,-78.125,-1000.000
1745825144.143,-155.762,243.164,999.512,-33.691
1745825144.147,999.512,999.512,619.141,999.512
1745825144.150,212.402,352.051,-622.070,393.555
1745825144.154,-1000.000,-963.867,-1000.000,-971.191
1745825144.158,-924.805,-974.121,-292.969,-962.891
1745825144.162,-1000.000,-1000.000,999.512,-1000.000
1745825144.166,-270.020,-161.621,536.621,-252.441
1745825144.168,999.512,999.512,-693.359,999.512
1745825144.172,-59.082,30.273,-1000.000,-90.332
1745825144.176,-1000.000,-1000.000,-430.176,-1000.000
1745825144.180,-947.266,-956.055,968.750,-947.266
1745825144.184,-990.234,-1000.000,687.012,-991.211
1745825144.188,-1000.000,-919.922,-567.383,-1000.000
1745825144.192,-940.430,-878.906,-1000.000,-938.965
1745825144.195,-1000.000,-1000.000,-504.883,-1000.000
1745825144.199,-188.477,47.852,813.965,-206.543
1745825144.203,982.910,999.512,968.750,980.957
1745825144.207,999.512,999.512,-198.730,999.512
1745825144.211,162.109,178.711,-1000.000,140.625
1745825144.168,999.512,999.512,-693.359,999.512
1745825144.172,-59.082,30.273,-1000.000,-90.332
1745825144.176,-1000.000,-1000.000,-430.176,-1000.000
1745825144.180,-947.266,-956.055,968.750,-947.266
1745825144.184,-990.234,-1000.000,687.012,-991.211
1745825144.188,-1000.000,-919.922,-567.383,-1000.000
1745825144.192,-940.430,-878.906,-1000.000,-938.965
1745825144.195,-1000.000,-1000.000,-504.883,-1000.000
1745825144.199,-188.477,47.852,813.965,-206.543
1745825144.203,982.910,999.512,968.750,980.957
1745825144.207,999.512,999.512,-198.730,999.512
1745825144.211,162.109,178.711,-1000.000,140.625
1745825144.216,-1000.000,-1000.000,-717.773,-1000.000
1745825144.220,-983.887,-984.375,561.035,-980.957
1745825144.224,-977.539,-975.098,999.512,-978.516
1745825144.228,-985.840,-942.871,-8.301,-988.281
1745825144.232,-972.168,-1000.000,-1000.000,-968.262
1745825144.236,-1000.000,-244.629,-518.066,-1000.000
1745825144.240,112.305,999.512,765.625,73.730
1745825144.243,999.512,887.207,999.512,999.512
1745825144.247,999.512,999.512,214.844,999.512
1745825144.251,312.988,269.531,-1000.000,260.254
1745825144.255,-956.543,-978.027,-872.559,-973.145
1745825144.259,-1000.000,-1000.000,332.031,-1000.000
1745825144.216,-1000.000,-1000.000,-717.773,-1000.000
1745825144.220,-983.887,-984.375,561.035,-980.957
1745825144.224,-977.539,-975.098,999.512,-978.516
1745825144.228,-985.840,-942.871,-8.301,-988.281
1745825144.232,-972.168,-1000.000,-1000.000,-968.262
1745825144.236,-1000.000,-244.629,-518.066,-1000.000
1745825144.240,112.305,999.512,765.625,73.730
1745825144.243,999.512,887.207,999.512,999.512
1745825144.247,999.512,999.512,214.844,999.512
1745825144.251,312.988,269.531,-1000.000,260.254
1745825144.255,-956.543,-978.027,-872.559,-973.145
1745825144.259,-1000.000,-1000.000,332.031,-1000.000
1745825144.216,-1000.000,-1000.000,-717.773,-1000.000
1745825144.220,-983.887,-984.375,561.035,-980.957
1745825144.224,-977.539,-975.098,999.512,-978.516
1745825144.228,-985.840,-942.871,-8.301,-988.281
1745825144.232,-972.168,-1000.000,-1000.000,-968.262
1745825144.236,-1000.000,-244.629,-518.066,-1000.000
1745825144.240,112.305,999.512,765.625,73.730
1745825144.243,999.512,887.207,999.512,999.512
1745825144.247,999.512,999.512,214.844,999.512
1745825144.251,312.988,269.531,-1000.000,260.254
1745825144.255,-956.543,-978.027,-872.559,-973.145
1745825144.259,-1000.000,-1000.000,332.031,-1000.000
1745825144.273,-301.270,-306.152,999.512,-321.289
1745825144.277,999.512,999.512,604.980,999.512
1745825144.281,613.770,657.227,-645.508,544.434
1745825144.285,-793.457,-749.023,-1000.000,-843.750
1745825144.289,-1000.000,-1000.000,183.594,-1000.000
1745825144.293,-196.777,-189.453,999.512,-204.590
1745825144.297,999.512,999.512,689.453,999.512
1745825144.300,939.941,979.004,-494.629,914.062
1745825144.304,-298.828,-229.004,-1000.000,-335.938
1745825144.308,-1000.000,-1000.000,-70.312,-1000.000
1745825144.312,-625.000,-594.727,999.512,-550.293
1745825144.316,706.543,727.539,763.184,769.531
1745825144.273,-301.270,-306.152,999.512,-321.289
1745825144.277,999.512,999.512,604.980,999.512
1745825144.281,613.770,657.227,-645.508,544.434
1745825144.285,-793.457,-749.023,-1000.000,-843.750
1745825144.289,-1000.000,-1000.000,183.594,-1000.000
1745825144.293,-196.777,-189.453,999.512,-204.590
1745825144.297,999.512,999.512,689.453,999.512
1745825144.300,939.941,979.004,-494.629,914.062
1745825144.304,-298.828,-229.004,-1000.000,-335.938
1745825144.308,-1000.000,-1000.000,-70.312,-1000.000
1745825144.312,-625.000,-594.727,999.512,-550.293
1745825144.316,706.543,727.539,763.184,769.531
1745825144.273,-301.270,-306.152,999.512,-321.289
1745825144.277,999.512,999.512,604.980,999.512
1745825144.281,613.770,657.227,-645.508,544.434
1745825144.285,-793.457,-749.023,-1000.000,-843.750
1745825144.289,-1000.000,-1000.000,183.594,-1000.000
1745825144.293,-196.777,-189.453,999.512,-204.590
1745825144.297,999.512,999.512,689.453,999.512
1745825144.300,939.941,979.004,-494.629,914.062
1745825144.304,-298.828,-229.004,-1000.000,-335.938
1745825144.308,-1000.000,-1000.000,-70.312,-1000.000
1745825144.312,-625.000,-594.727,999.512,-550.293
1745825144.316,706.543,727.539,763.184,769.531
1745825144.363,-1000.000,-1000.000,-357.422,-1000.000
1745825144.367,-595.215,-738.770,908.691,-742.676
1745825144.371,776.367,637.695,999.512,622.559
1745825144.375,999.512,999.512,135.254,999.512
1745825144.379,355.957,217.773,-1000.000,270.020
1745825144.383,-1000.000,-1000.000,-414.551,-1000.000
1745825144.387,-198.242,-219.238,886.719,-218.262
1745825144.390,999.512,999.512,999.512,999.512
1745825144.394,999.512,999.512,137.207,999.512
1745825144.398,236.328,58.594,-1000.000,211.914
1745825144.402,-1000.000,-1000.000,-671.875,-1000.000
1745825144.406,-498.535,-757.812,610.352,-755.371
1745825144.363,-1000.000,-1000.000,-357.422,-1000.000
1745825144.367,-595.215,-738.770,908.691,-742.676
1745825144.371,776.367,637.695,999.512,622.559
1745825144.375,999.512,999.512,135.254,999.512
1745825144.379,355.957,217.773,-1000.000,270.020
1745825144.383,-1000.000,-1000.000,-414.551,-1000.000
1745825144.387,-198.242,-219.238,886.719,-218.262
1745825144.390,999.512,999.512,999.512,999.512
1745825144.394,999.512,999.512,137.207,999.512
1745825144.398,236.328,58.594,-1000.000,211.914
1745825144.402,-1000.000,-1000.000,-671.875,-1000.000
1745825144.406,-498.535,-757.812,610.352,-755.371
1745825144.875,-938.965,46.875,-1000.000,-96.191
1745825144.879,-1000.000,-1000.000,-427.734,-1000.000
1745825144.883,-774.414,-210.938,851.562,-351.562
1745825144.887,576.660,960.938,999.512,892.578
1745825144.891,999.512,999.512,187.500,999.512
1745825144.895,242.676,414.062,-1000.000,333.984
1745825144.899,-1000.000,-913.086,-590.820,-940.430
1745825144.902,-1000.000,-1000.000,714.844,-1000.000
1745825144.906,121.094,-78.125,999.512,-78.125
1745825144.910,999.512,999.512,228.027,999.512
1745825144.914,808.105,626.465,-1000.000,567.871
1745825144.918,-709.473,-993.164,-791.504,-1000.000
1745825144.363,-1000.000,-1000.000,-357.422,-1000.000
1745825144.367,-595.215,-738.770,908.691,-742.676
1745825144.371,776.367,637.695,999.512,622.559
1745825144.375,999.512,999.512,135.254,999.512
1745825144.379,355.957,217.773,-1000.000,270.020
1745825144.383,-1000.000,-1000.000,-414.551,-1000.000
1745825144.387,-198.242,-219.238,886.719,-218.262
1745825144.390,999.512,999.512,999.512,999.512
1745825144.394,999.512,999.512,137.207,999.512
1745825144.398,236.328,58.594,-1000.000,211.914
1745825144.402,-1000.000,-1000.000,-671.875,-1000.000
1745825144.406,-498.535,-757.812,610.352,-755.371
1745825144.408,854.004,551.758,999.512,586.914
1745825144.412,999.512,999.512,315.430,999.512
1745825144.416,587.402,460.449,-956.543,516.602
1745825144.420,-735.352,-842.285,-813.477,-788.086
1745825144.424,-1000.000,-1000.000,451.660,-1000.000
1745825144.428,-191.406,-171.387,999.512,-142.578
1745825144.432,999.512,999.512,613.281,999.512
1745825144.435,641.602,595.215,-704.102,725.098
1745825144.439,-737.793,-779.297,-922.852,-630.859
1745825144.443,-1000.000,-1000.000,365.723,-1000.000
1745825144.447,-207.031,-226.074,999.512,-212.891
1745825144.451,999.512,999.512,591.797,999.512
1745825144.408,854.004,551.758,999.512,586.914
1745825144.412,999.512,999.512,315.430,999.512
1745825144.416,587.402,460.449,-956.543,516.602
1745825144.420,-735.352,-842.285,-813.477,-788.086
1745825144.424,-1000.000,-1000.000,451.660,-1000.000
1745825144.428,-191.406,-171.387,999.512,-142.578
1745825144.432,999.512,999.512,613.281,999.512
1745825144.435,641.602,595.215,-704.102,725.098
1745825144.439,-737.793,-779.297,-922.852,-630.859
1745825144.443,-1000.000,-1000.000,365.723,-1000.000
1745825144.447,-207.031,-226.074,999.512,-212.891
1745825144.451,999.512,999.512,591.797,999.512
1745825144.918,-144.043,-268.555,465.820,-259.277
1745825144.922,999.512,999.512,999.512,999.512
1745825144.926,999.512,999.512,366.211,999.512
1745825144.930,666.992,454.102,-891.113,468.262
1745825144.934,-984.375,-1000.000,-915.527,-1000.000
1745825144.938,-280.273,-407.715,289.551,-526.855
1745825144.942,999.512,956.055,999.512,888.672
1745825144.945,999.512,999.512,553.223,999.512
1745825144.949,268.066,144.531,-697.266,231.934
1745825144.953,-946.289,-981.445,-1000.000,-945.801
1745825144.957,-1000.000,-1000.000,123.535,-1000.000
1745825144.961,-546.387,-547.363,999.512,-451.660
1745825144.408,854.004,551.758,999.512,586.914
1745825144.412,999.512,999.512,315.430,999.512
1745825144.416,587.402,460.449,-956.543,516.602
1745825144.420,-735.352,-842.285,-813.477,-788.086
1745825144.424,-1000.000,-1000.000,451.660,-1000.000
1745825144.428,-191.406,-171.387,999.512,-142.578
1745825144.432,999.512,999.512,613.281,999.512
1745825144.435,641.602,595.215,-704.102,725.098
1745825144.439,-737.793,-779.297,-922.852,-630.859
1745825144.443,-1000.000,-1000.000,365.723,-1000.000
1745825144.447,-207.031,-226.074,999.512,-212.891
1745825144.451,999.512,999.512,591.797,999.512
1745825144.453,-139.648,210.938,-656.250,281.250
1745825144.457,-1000.000,-1000.000,-1000.000,-1000.000
1745825144.461,-1000.000,-1000.000,122.559,-1000.000
1745825144.465,-607.422,-226.074,999.512,-104.492
1745825144.469,748.535,999.512,651.855,999.512
1745825144.473,-371.094,955.078,-551.758,826.172
1745825144.477,-1000.000,-292.480,-1000.000,-467.285
1745825144.480,-1000.000,-1000.000,40.039,-1000.000
1745825144.484,-590.332,-308.105,999.512,-193.359
1745825144.488,999.512,999.512,770.996,999.512
1745825144.492,71.777,367.676,-363.770,560.059
1745825144.496,-1000.000,-967.285,-1000.000,-829.590
1745825144.498,-947.754,-1000.000,-148.926,-1000.000
1745825144.502,-984.863,-201.172,999.512,-101.562
1745825144.506,-1000.000,999.512,841.797,999.512
1745825144.510,-1000.000,999.512,-270.508,999.512
1745825144.514,-1000.000,-145.996,-1000.000,-73.730
1745825144.518,-1000.000,-1000.000,-235.352,-1000.000
1745825144.522,-1000.000,-7.812,999.512,-35.645
1745825144.525,-1000.000,999.512,887.207,999.512
1745825144.529,-1000.000,398.926,-207.520,747.559
1745825144.533,-928.223,-902.832,-1000.000,-564.941
1745825144.537,-1000.000,-1000.000,-393.066,-1000.000
1745825144.541,-400.879,-162.598,915.527,-126.953
1745825144.498,-947.754,-1000.000,-148.926,-1000.000
1745825144.502,-984.863,-201.172,999.512,-101.562
1745825144.506,-1000.000,999.512,841.797,999.512
1745825144.510,-1000.000,999.512,-270.508,999.512
1745825144.514,-1000.000,-145.996,-1000.000,-73.730
1745825144.518,-1000.000,-1000.000,-235.352,-1000.000
1745825144.522,-1000.000,-7.812,999.512,-35.645
1745825144.525,-1000.000,999.512,887.207,999.512
1745825144.529,-1000.000,398.926,-207.520,747.559
1745825144.533,-928.223,-902.832,-1000.000,-564.941
1745825144.537,-1000.000,-1000.000,-393.066,-1000.000
1745825144.541,-400.879,-162.598,915.527,-126.953
1745825144.544,907.227,985.840,981.934,972.656
1745825144.548,999.512,950.195,-88.379,999.512
1745825144.552,872.070,979.980,-1000.000,776.855
1745825144.556,-668.945,-410.645,-620.117,-706.543
1745825144.560,-570.312,-994.629,623.535,-894.531
1745825144.564,923.828,499.512,999.512,578.613
1745825144.568,999.512,999.512,111.816,999.512
1745825144.571,666.992,514.160,-1000.000,477.539
1745825144.575,-925.293,-992.676,-952.637,-1000.000
1745825144.579,-363.770,-780.762,204.102,-728.516
1745825144.583,999.512,672.852,999.512,708.496
1745825144.587,946.289,999.512,228.027,999.512
1745825144.544,907.227,985.840,981.934,972.656
1745825144.548,999.512,950.195,-88.379,999.512
1745825144.552,872.070,979.980,-1000.000,776.855
1745825144.556,-668.945,-410.645,-620.117,-706.543
1745825144.560,-570.312,-994.629,623.535,-894.531
1745825144.564,923.828,499.512,999.512,578.613
1745825144.568,999.512,999.512,111.816,999.512
1745825144.571,666.992,514.160,-1000.000,477.539
1745825144.575,-925.293,-992.676,-952.637,-1000.000
1745825144.579,-363.770,-780.762,204.102,-728.516
1745825144.583,999.512,672.852,999.512,708.496
1745825144.587,946.289,999.512,228.027,999.512
1745825144.544,907.227,985.840,981.934,972.656
1745825144.548,999.512,950.195,-88.379,999.512
1745825144.552,872.070,979.980,-1000.000,776.855
1745825144.556,-668.945,-410.645,-620.117,-706.543
1745825144.560,-570.312,-994.629,623.535,-894.531
1745825144.564,923.828,499.512,999.512,578.613
1745825144.568,999.512,999.512,111.816,999.512
1745825144.571,666.992,514.160,-1000.000,477.539
1745825144.575,-925.293,-992.676,-952.637,-1000.000
1745825144.579,-363.770,-780.762,204.102,-728.516
1745825144.583,999.512,672.852,999.512,708.496
1745825144.587,946.289,999.512,228.027,999.512
1745825144.603,933.105,299.805,-1000.000,357.422
1745825144.607,975.098,-1000.000,-894.531,-1000.000
1745825144.611,966.309,-509.766,284.668,-534.180
1745825144.615,966.309,869.141,999.512,852.051
1745825144.619,965.820,999.512,357.422,999.512
1745825144.623,966.309,596.191,-870.605,445.312
1745825144.627,966.309,-694.336,-1000.000,-835.938
1745825144.630,966.309,-1000.000,-67.871,-1000.000
1745825144.634,966.309,-509.766,999.512,-256.836
1745825144.638,966.309,999.512,524.414,999.512
1745825144.642,966.309,657.227,-742.188,488.281
1745825144.646,966.309,-802.246,-1000.000,-874.512
1745825144.603,933.105,299.805,-1000.000,357.422
1745825144.607,975.098,-1000.000,-894.531,-1000.000
1745825144.611,966.309,-509.766,284.668,-534.180
1745825144.615,966.309,869.141,999.512,852.051
1745825144.619,965.820,999.512,357.422,999.512
1745825144.623,966.309,596.191,-870.605,445.312
1745825144.627,966.309,-694.336,-1000.000,-835.938
1745825144.630,966.309,-1000.000,-67.871,-1000.000
1745825144.634,966.309,-509.766,999.512,-256.836
1745825144.638,966.309,999.512,524.414,999.512
1745825144.642,966.309,657.227,-742.188,488.281
1745825144.646,966.309,-802.246,-1000.000,-874.512
1745825144.648,979.004,-1000.000,-43.945,-1000.000
1745825144.652,916.504,-270.020,999.512,-270.996
1745825144.656,999.512,999.512,550.781,999.512
1745825144.660,858.887,774.414,-708.008,663.086
1745825144.664,-486.816,-583.984,-1000.000,-730.957
1745825144.668,-1000.000,-1000.000,-121.582,-1000.000
1745825144.672,-1000.000,-775.879,999.512,-985.840
1745825144.675,349.609,774.902,758.789,468.262
1745825144.679,366.211,497.070,-386.230,594.727
1745825144.683,-1000.000,-1000.000,-1000.000,-966.797
1745825144.687,-947.266,-1000.000,-297.363,-1000.000
1745825144.691,-1000.000,-970.703,999.512,-957.520
1745825144.648,979.004,-1000.000,-43.945,-1000.000
1745825144.652,916.504,-270.020,999.512,-270.996
1745825144.656,999.512,999.512,550.781,999.512
1745825144.660,858.887,774.414,-708.008,663.086
1745825144.664,-486.816,-583.984,-1000.000,-730.957
1745825144.668,-1000.000,-1000.000,-121.582,-1000.000
1745825144.672,-1000.000,-775.879,999.512,-985.840
1745825144.675,349.609,774.902,758.789,468.262
1745825144.679,366.211,497.070,-386.230,594.727
1745825144.683,-1000.000,-1000.000,-1000.000,-966.797
1745825144.687,-947.266,-1000.000,-297.363,-1000.000
1745825144.691,-1000.000,-970.703,999.512,-957.520
1745825145.158,490.234,315.430,-1000.000,555.176
1745825145.162,-394.531,-974.121,79.590,-728.027
1745825145.166,845.703,357.422,999.512,428.223
1745825145.170,999.512,999.512,756.836,999.512
1745825145.174,898.438,999.512,-370.117,999.512
1745825145.178,981.445,379.395,-1000.000,324.219
1745825145.182,966.309,-1000.000,-221.680,-1000.000
1745825145.185,966.309,-254.395,999.512,22.949
1745825145.189,966.309,999.512,823.730,999.512
1745825145.193,966.309,971.191,-288.574,999.512
1745825145.197,966.309,-201.172,-1000.000,-5.371
1745825145.201,966.309,-1000.000,-400.879,-1000.000
1745825144.693,212.891,344.727,853.516,341.797
1745825144.697,636.230,999.512,-281.250,999.512
1745825144.701,-921.387,-360.352,-1000.000,-365.234
1745825144.705,-1000.000,-1000.000,-436.035,-1000.000
1745825144.709,-885.742,-677.734,867.676,-760.742
1745825144.713,343.262,619.629,999.512,509.277
1745825144.717,999.512,999.512,-75.195,999.512
1745825144.720,193.848,186.035,-1000.000,179.199
1745825144.724,-1000.000,-1000.000,-743.652,-1000.000
1745825144.728,-494.629,-747.559,535.156,-800.781
1745825144.732,849.121,611.816,999.512,542.969
1745825144.736,999.512,999.512,10.254,999.512
1745825144.693,212.891,344.727,853.516,341.797
1745825144.697,636.230,999.512,-281.250,999.512
1745825144.701,-921.387,-360.352,-1000.000,-365.234
1745825144.705,-1000.000,-1000.000,-436.035,-1000.000
1745825144.709,-885.742,-677.734,867.676,-760.742
1745825144.713,343.262,619.629,999.512,509.277
1745825144.717,999.512,999.512,-75.195,999.512
1745825144.720,193.848,186.035,-1000.000,179.199
1745825144.724,-1000.000,-1000.000,-743.652,-1000.000
1745825144.728,-494.629,-747.559,535.156,-800.781
1745825144.732,849.121,611.816,999.512,542.969
1745825144.736,999.512,999.512,10.254,999.512
1745825144.738,561.523,359.863,-1000.000,316.895
1745825144.742,-910.645,-1000.000,-796.875,-1000.000
1745825144.746,108.398,-414.551,445.312,-374.512
1745825144.750,999.512,930.176,999.512,947.266
1745825144.754,999.512,999.512,12.695,999.512
1745825144.758,513.672,328.613,-1000.000,221.680
1745825144.762,-909.180,-924.805,-844.727,-971.680
1745825144.765,-1000.000,-1000.000,321.777,-1000.000
1745825144.769,89.355,-233.398,999.512,-241.211
1745825144.773,999.512,999.512,287.109,999.512
1745825144.777,257.812,252.441,-976.562,248.047
1745825144.781,-1000.000,-1000.000,-953.613,-1000.000
1745825144.738,561.523,359.863,-1000.000,316.895
1745825144.742,-910.645,-1000.000,-796.875,-1000.000
1745825144.746,108.398,-414.551,445.312,-374.512
1745825144.750,999.512,930.176,999.512,947.266
1745825144.754,999.512,999.512,12.695,999.512
1745825144.758,513.672,328.613,-1000.000,221.680
1745825144.762,-909.180,-924.805,-844.727,-971.680
1745825144.765,-1000.000,-1000.000,321.777,-1000.000
1745825144.769,89.355,-233.398,999.512,-241.211
1745825144.773,999.512,999.512,287.109,999.512
1745825144.777,257.812,252.441,-976.562,248.047
1745825144.781,-1000.000,-1000.000,-953.613,-1000.000
1745825145.248,724.121,692.871,81.055,889.648
1745825145.252,685.547,800.293,-1000.000,677.246
1745825145.256,-858.398,-736.816,-837.891,-807.617
1745825145.260,-1000.000,-1000.000,365.723,-1000.000
1745825145.264,-184.082,-182.617,999.512,-201.172
1745825145.268,984.375,993.164,553.711,999.512
1745825145.272,999.512,999.512,-648.438,950.195
1745825145.275,-310.059,-252.930,-1000.000,-467.773
1745825145.279,-547.363,-1000.000,108.398,-1000.000
1745825145.283,974.121,421.387,999.512,441.406
1745825145.287,990.234,999.512,564.453,999.512
1745825145.291,999.512,690.918,-697.754,667.969
1745825144.783,-1000.000,-991.211,196.289,-996.582
1745825144.787,-963.379,-966.797,999.512,-952.148
1745825144.791,-1000.000,-1000.000,308.594,-974.121
1745825144.795,-937.500,-941.406,-944.824,-935.547
1745825144.799,-1000.000,-1000.000,-1000.000,-1000.000
1745825144.803,-205.078,-168.457,78.125,-220.703
1745825144.807,964.844,975.098,999.512,959.961
1745825144.810,999.512,999.512,535.645,999.512
1745825144.814,551.270,376.465,-711.426,521.484
1745825144.818,-793.457,-919.922,-1000.000,-814.941
1745825144.822,-1000.000,-1000.000,-104.492,-1000.000
1745825144.826,-782.227,-822.266,999.512,-811.035
1745825144.783,-1000.000,-991.211,196.289,-996.582
1745825144.787,-963.379,-966.797,999.512,-952.148
1745825144.791,-1000.000,-1000.000,308.594,-974.121
1745825144.795,-937.500,-941.406,-944.824,-935.547
1745825144.799,-1000.000,-1000.000,-1000.000,-1000.000
1745825144.803,-205.078,-168.457,78.125,-220.703
1745825144.807,964.844,975.098,999.512,959.961
1745825144.810,999.512,999.512,535.645,999.512
1745825144.814,551.270,376.465,-711.426,521.484
1745825144.818,-793.457,-919.922,-1000.000,-814.941
1745825144.822,-1000.000,-1000.000,-104.492,-1000.000
1745825144.826,-782.227,-822.266,999.512,-811.035
1745825144.783,-1000.000,-991.211,196.289,-996.582
1745825144.787,-963.379,-966.797,999.512,-952.148
1745825144.791,-1000.000,-1000.000,308.594,-974.121
1745825144.795,-937.500,-941.406,-944.824,-935.547
1745825144.799,-1000.000,-1000.000,-1000.000,-1000.000
1745825144.803,-205.078,-168.457,78.125,-220.703
1745825144.807,964.844,975.098,999.512,959.961
1745825144.810,999.512,999.512,535.645,999.512
1745825144.814,551.270,376.465,-711.426,521.484
1745825144.818,-793.457,-919.922,-1000.000,-814.941
1745825144.822,-1000.000,-1000.000,-104.492,-1000.000
1745825144.826,-782.227,-822.266,999.512,-811.035
1745825144.829,508.301,449.219,702.637,454.590
1745825144.833,999.512,999.512,-465.820,999.512
1745825144.837,5.859,120.117,-1000.000,35.156
1745825144.841,-1000.000,-995.117,-255.371,-1000.000
1745825144.845,-1000.000,-1000.000,992.676,-1000.000
1745825144.849,-63.477,-219.238,860.840,-134.766
1745825144.853,253.906,999.512,-115.234,999.512
1745825144.856,-1000.000,-97.168,-1000.000,-291.992
1745825144.860,-1000.000,-1000.000,-435.547,-1000.000
1745825144.864,-966.309,-1000.000,910.645,-1000.000
1745825144.868,-1000.000,-208.008,932.617,-51.758
1745825144.872,-1000.000,999.512,-164.062,999.512
1745825144.829,508.301,449.219,702.637,454.590
1745825144.833,999.512,999.512,-465.820,999.512
1745825144.837,5.859,120.117,-1000.000,35.156
1745825144.841,-1000.000,-995.117,-255.371,-1000.000
1745825144.845,-1000.000,-1000.000,992.676,-1000.000
1745825144.849,-63.477,-219.238,860.840,-134.766
1745825144.853,253.906,999.512,-115.234,999.512
1745825144.856,-1000.000,-97.168,-1000.000,-291.992
1745825144.860,-1000.000,-1000.000,-435.547,-1000.000
1745825144.864,-966.309,-1000.000,910.645,-1000.000
1745825144.868,-1000.000,-208.008,932.617,-51.758
1745825144.872,-1000.000,999.512,-164.062,999.512
1745825144.829,508.301,449.219,702.637,454.590
1745825144.833,999.512,999.512,-465.820,999.512
1745825144.837,5.859,120.117,-1000.000,35.156
1745825144.841,-1000.000,-995.117,-255.371,-1000.000
1745825144.845,-1000.000,-1000.000,992.676,-1000.000
1745825144.849,-63.477,-219.238,860.840,-134.766
1745825144.853,253.906,999.512,-115.234,999.512
1745825144.856,-1000.000,-97.168,-1000.000,-291.992
1745825144.860,-1000.000,-1000.000,-435.547,-1000.000
1745825144.864,-966.309,-1000.000,910.645,-1000.000
1745825144.868,-1000.000,-208.008,932.617,-51.758
1745825144.872,-1000.000,999.512,-164.062,999.512
1745825144.963,958.496,895.996,698.730,931.152
1745825144.967,798.828,994.141,-515.625,994.629
1745825144.971,-622.559,-331.543,-1000.000,-299.316
1745825144.975,-1000.000,-1000.000,59.570,-1000.000
1745825144.979,-700.684,-512.207,999.512,-431.152
1745825144.983,866.211,999.512,907.715,999.512
1745825144.987,262.207,649.414,-132.324,718.750
1745825144.990,-1000.000,-816.895,-1000.000,-713.379
1745825144.994,-1000.000,-1000.000,-120.605,-1000.000
1745825144.998,-179.199,-156.250,999.512,-149.414
1745825145.002,948.730,948.242,883.789,947.754
1745825145.006,999.512,999.512,-188.965,999.512
1745825145.443,-798.828,-917.969,-1000.000,-939.453
1745825145.447,-561.523,-789.062,130.859,-881.348
1745825145.451,932.617,694.824,999.512,539.551
1745825145.455,999.512,999.512,512.207,999.512
1745825145.459,746.094,689.941,-763.672,488.281
1745825145.463,-531.250,-566.895,-1000.000,-770.020
1745825145.467,-1000.000,-1000.000,175.293,-1000.000
1745825145.470,-293.457,-465.820,999.512,-497.559
1745825145.474,999.512,972.168,539.062,967.773
1745825145.478,874.512,841.797,-675.781,794.922
1745825145.482,-504.395,-604.980,-1000.000,-650.879
1745825145.486,-1000.000,-1000.000,-68.848,-1000.000
1745825144.963,958.496,895.996,698.730,931.152
1745825144.967,798.828,994.141,-515.625,994.629
1745825144.971,-622.559,-331.543,-1000.000,-299.316
1745825144.975,-1000.000,-1000.000,59.570,-1000.000
1745825144.979,-700.684,-512.207,999.512,-431.152
1745825144.983,866.211,999.512,907.715,999.512
1745825144.987,262.207,649.414,-132.324,718.750
1745825144.990,-1000.000,-816.895,-1000.000,-713.379
1745825144.994,-1000.000,-1000.000,-120.605,-1000.000
1745825144.998,-179.199,-156.250,999.512,-149.414
1745825145.002,948.730,948.242,883.789,947.754
1745825145.006,999.512,999.512,-188.965,999.512
1745825145.023,349.121,252.441,-1000.000,258.789
1745825145.027,-267.090,-1000.000,-257.812,-1000.000
1745825145.031,944.824,206.055,977.539,290.039
1745825145.035,999.512,999.512,962.891,999.512
1745825145.039,913.086,923.340,-104.492,999.512
1745825145.043,976.562,972.656,-1000.000,615.234
1745825145.047,966.309,-577.148,-263.184,-993.652
1745825145.050,977.539,-348.633,987.793,-200.684
1745825145.054,911.621,999.512,928.223,999.512
1745825145.058,999.512,999.512,-117.676,999.512
1745825145.062,882.812,74.707,-1000.000,212.402
1745825145.066,-487.793,-1000.000,-582.520,-1000.000
1745825145.023,349.121,252.441,-1000.000,258.789
1745825145.027,-267.090,-1000.000,-257.812,-1000.000
1745825145.031,944.824,206.055,977.539,290.039
1745825145.035,999.512,999.512,962.891,999.512
1745825145.039,913.086,923.340,-104.492,999.512
1745825145.043,976.562,972.656,-1000.000,615.234
1745825145.047,966.309,-577.148,-263.184,-993.652
1745825145.050,977.539,-348.633,987.793,-200.684
1745825145.054,911.621,999.512,928.223,999.512
1745825145.058,999.512,999.512,-117.676,999.512
1745825145.062,882.812,74.707,-1000.000,212.402
1745825145.066,-487.793,-1000.000,-582.520,-1000.000
1745825145.068,169.434,-101.562,707.520,-137.207
1745825145.072,999.512,999.512,999.512,999.512
1745825145.076,999.512,999.512,111.816,999.512
1745825145.080,211.426,153.809,-1000.000,207.031
1745825145.084,-1000.000,-1000.000,-803.711,-1000.000
1745825145.088,-1000.000,-1000.000,445.312,-923.828
1745825145.092,190.430,154.785,999.512,369.141
1745825145.095,916.504,999.512,222.656,999.512
1745825145.099,-674.316,-156.250,-1000.000,90.820
1745825145.103,-1000.000,-1000.000,-841.309,-1000.000
1745825145.107,-934.082,-718.750,369.629,-528.320
1745825145.111,-1000.000,568.848,999.512,794.434
1745825145.068,169.434,-101.562,707.520,-137.207
1745825145.072,999.512,999.512,999.512,999.512
1745825145.076,999.512,999.512,111.816,999.512
1745825145.080,211.426,153.809,-1000.000,207.031
1745825145.084,-1000.000,-1000.000,-803.711,-1000.000
1745825145.088,-1000.000,-1000.000,445.312,-923.828
1745825145.092,190.430,154.785,999.512,369.141
1745825145.095,916.504,999.512,222.656,999.512
1745825145.099,-674.316,-156.250,-1000.000,90.820
1745825145.103,-1000.000,-1000.000,-841.309,-1000.000
1745825145.107,-934.082,-718.750,369.629,-528.320
1745825145.111,-1000.000,568.848,999.512,794.434
1745825145.114,-1000.000,999.512,430.664,999.512
1745825145.118,-1000.000,380.371,-848.145,556.152
1745825145.122,-1000.000,-938.477,-979.004,-915.527
1745825145.126,-1000.000,-1000.000,196.777,-882.324
1745825145.130,-1000.000,161.133,999.512,565.918
1745825145.134,-1000.000,999.512,680.176,999.512
1745825145.138,-1000.000,921.875,-527.832,949.707
1745825145.141,-1000.000,-289.551,-1000.000,-308.594
1745825145.145,-931.641,-1000.000,42.969,-1000.000
1745825145.149,-1000.000,-13.184,999.512,380.859
1745825145.153,-416.992,983.887,723.633,999.512
1745825145.157,999.512,999.512,-486.816,999.512
1745825145.114,-1000.000,999.512,430.664,999.512
1745825145.118,-1000.000,380.371,-848.145,556.152
1745825145.122,-1000.000,-938.477,-979.004,-915.527
1745825145.126,-1000.000,-1000.000,196.777,-882.324
1745825145.130,-1000.000,161.133,999.512,565.918
1745825145.134,-1000.000,999.512,680.176,999.512
1745825145.138,-1000.000,921.875,-527.832,949.707
1745825145.141,-1000.000,-289.551,-1000.000,-308.594
1745825145.145,-931.641,-1000.000,42.969,-1000.000
1745825145.149,-1000.000,-13.184,999.512,380.859
1745825145.153,-416.992,983.887,723.633,999.512
1745825145.157,999.512,999.512,-486.816,999.512
1745825145.203,969.727,-507.812,893.066,-204.102
1745825145.207,892.578,804.688,999.512,978.516
1745825145.211,999.512,999.512,-36.133,999.512
1745825145.215,236.816,169.922,-1000.000,178.223
1745825145.219,-1000.000,-1000.000,-610.352,-1000.000
1745825145.223,264.648,-81.543,684.082,-168.945
1745825145.227,999.512,999.512,999.512,999.512
1745825145.230,999.512,999.512,105.957,999.512
1745825145.234,175.293,154.785,-1000.000,145.508
1745825145.238,-1000.000,-1000.000,-827.148,-1000.000
1745825145.242,-1000.000,-1000.000,440.918,-1000.000
1745825145.246,-847.168,-843.750,999.512,-654.785
1745825145.293,-437.500,-869.141,-1000.000,-854.980
1745825145.297,-353.027,-595.215,10.742,-711.914
1745825145.301,999.512,900.879,999.512,780.762
1745825145.305,945.801,999.512,671.387,999.512
1745825145.309,938.965,731.934,-563.965,646.973
1745825145.313,973.145,-601.562,-1000.000,-665.527
1745825145.317,980.957,-1000.000,20.996,-1000.000
1745825145.320,903.320,54.688,999.512,-46.387
1745825145.324,999.512,999.512,574.707,999.512
1745825145.328,794.434,275.879,-689.941,374.512
1745825145.332,-712.402,-1000.000,-1000.000,-975.098
1745825145.336,-725.098,-976.074,-30.273,-1000.000
1745825145.293,-437.500,-869.141,-1000.000,-854.980
1745825145.297,-353.027,-595.215,10.742,-711.914
1745825145.301,999.512,900.879,999.512,780.762
1745825145.305,945.801,999.512,671.387,999.512
1745825145.309,938.965,731.934,-563.965,646.973
1745825145.313,973.145,-601.562,-1000.000,-665.527
1745825145.317,980.957,-1000.000,20.996,-1000.000
1745825145.320,903.320,54.688,999.512,-46.387
1745825145.324,999.512,999.512,574.707,999.512
1745825145.328,794.434,275.879,-689.941,374.512
1745825145.332,-712.402,-1000.000,-1000.000,-975.098
1745825145.336,-725.098,-976.074,-30.273,-1000.000
1745825145.339,740.723,353.516,999.512,131.836
1745825145.343,999.512,999.512,829.102,999.512
1745825145.347,985.352,958.496,-276.367,927.734
1745825145.351,-45.898,-135.254,-1000.000,-198.242
1745825145.355,-1000.000,-1000.000,-383.301,-1000.000
1745825145.359,-672.363,-338.379,920.898,-602.539
1745825145.363,876.953,999.512,969.727,818.359
1745825145.366,760.742,921.875,-135.742,999.512
1745825145.370,-796.387,-472.168,-1000.000,-388.672
1745825145.374,-1000.000,-1000.000,-495.117,-1000.000
1745825145.378,-1000.000,-1000.000,799.316,-1000.000
1745825145.382,-289.551,-221.680,999.512,-191.895
1745825145.339,740.723,353.516,999.512,131.836
1745825145.343,999.512,999.512,829.102,999.512
1745825145.347,985.352,958.496,-276.367,927.734
1745825145.351,-45.898,-135.254,-1000.000,-198.242
1745825145.355,-1000.000,-1000.000,-383.301,-1000.000
1745825145.359,-672.363,-338.379,920.898,-602.539
1745825145.363,876.953,999.512,969.727,818.359
1745825145.366,760.742,921.875,-135.742,999.512
1745825145.370,-796.387,-472.168,-1000.000,-388.672
1745825145.374,-1000.000,-1000.000,-495.117,-1000.000
1745825145.378,-1000.000,-1000.000,799.316,-1000.000
1745825145.382,-289.551,-221.680,999.512,-191.895
1745825145.339,740.723,353.516,999.512,131.836
1745825145.343,999.512,999.512,829.102,999.512
1745825145.347,985.352,958.496,-276.367,927.734
1745825145.351,-45.898,-135.254,-1000.000,-198.242
1745825145.355,-1000.000,-1000.000,-383.301,-1000.000
1745825145.359,-672.363,-338.379,920.898,-602.539
1745825145.363,876.953,999.512,969.727,818.359
1745825145.366,760.742,921.875,-135.742,999.512
1745825145.370,-796.387,-472.168,-1000.000,-388.672
1745825145.374,-1000.000,-1000.000,-495.117,-1000.000
1745825145.378,-1000.000,-1000.000,799.316,-1000.000
1745825145.382,-289.551,-221.680,999.512,-191.895
1745825145.398,999.512,999.512,129.395,999.512
1745825145.402,153.320,223.145,-1000.000,230.469
1745825145.406,-1000.000,-1000.000,-653.320,-1000.000
1745825145.410,-436.035,-174.805,672.852,-380.859
1745825145.414,871.582,993.164,999.512,914.062
1745825145.418,999.512,999.512,211.426,999.512
1745825145.422,473.633,514.160,-939.941,390.137
1745825145.425,-850.098,-836.426,-853.516,-888.184
1745825145.429,-1000.000,-1000.000,369.629,-1000.000
1745825145.433,-152.344,-233.887,999.512,-242.676
1745825145.437,999.512,999.512,336.426,999.512
1745825145.441,821.289,686.035,-905.762,609.863
1745825145.398,999.512,999.512,129.395,999.512
1745825145.402,153.320,223.145,-1000.000,230.469
1745825145.406,-1000.000,-1000.000,-653.320,-1000.000
1745825145.410,-436.035,-174.805,672.852,-380.859
1745825145.414,871.582,993.164,999.512,914.062
1745825145.418,999.512,999.512,211.426,999.512
1745825145.422,473.633,514.160,-939.941,390.137
1745825145.425,-850.098,-836.426,-853.516,-888.184
1745825145.429,-1000.000,-1000.000,369.629,-1000.000
1745825145.433,-152.344,-233.887,999.512,-242.676
1745825145.437,999.512,999.512,336.426,999.512
1745825145.441,821.289,686.035,-905.762,609.863
1745825145.398,999.512,999.512,129.395,999.512
1745825145.402,153.320,223.145,-1000.000,230.469
1745825145.406,-1000.000,-1000.000,-653.320,-1000.000
1745825145.410,-436.035,-174.805,672.852,-380.859
1745825145.414,871.582,993.164,999.512,914.062
1745825145.418,999.512,999.512,211.426,999.512
1745825145.422,473.633,514.160,-939.941,390.137
1745825145.425,-850.098,-836.426,-853.516,-888.184
1745825145.429,-1000.000,-1000.000,369.629,-1000.000
1745825145.433,-152.344,-233.887,999.512,-242.676
1745825145.437,999.512,999.512,336.426,999.512
1745825145.441,821.289,686.035,-905.762,609.863
1745825145.488,-1000.000,-1000.000,999.512,-961.426
1745825145.492,85.449,77.637,728.027,179.688
1745825145.496,999.512,999.512,-382.812,999.512
1745825145.500,71.289,171.387,-1000.000,113.770
1745825145.504,-1000.000,-1000.000,-195.801,-1000.000
1745825145.508,-502.441,-294.434,999.512,-447.754
1745825145.512,870.605,971.191,929.688,901.367
1745825145.515,999.512,999.512,-134.277,999.512
1745825145.519,-29.297,101.074,-1000.000,19.043
1745825145.523,-1000.000,-1000.000,-388.184,-1000.000
1745825145.527,-1000.000,-1000.000,957.031,-1000.000
1745825145.531,-268.555,-260.742,821.777,-270.996
1745825145.488,-1000.000,-1000.000,999.512,-961.426
1745825145.492,85.449,77.637,728.027,179.688
1745825145.496,999.512,999.512,-382.812,999.512
1745825145.500,71.289,171.387,-1000.000,113.770
1745825145.504,-1000.000,-1000.000,-195.801,-1000.000
1745825145.508,-502.441,-294.434,999.512,-447.754
1745825145.512,870.605,971.191,929.688,901.367
1745825145.515,999.512,999.512,-134.277,999.512
1745825145.519,-29.297,101.074,-1000.000,19.043
1745825145.523,-1000.000,-1000.000,-388.184,-1000.000
1745825145.527,-1000.000,-1000.000,957.031,-1000.000
1745825145.531,-268.555,-260.742,821.777,-270.996
1745825145.488,-1000.000,-1000.000,999.512,-961.426
1745825145.492,85.449,77.637,728.027,179.688
1745825145.496,999.512,999.512,-382.812,999.512
1745825145.500,71.289,171.387,-1000.000,113.770
1745825145.504,-1000.000,-1000.000,-195.801,-1000.000
1745825145.508,-502.441,-294.434,999.512,-447.754
1745825145.512,870.605,971.191,929.688,901.367
1745825145.515,999.512,999.512,-134.277,999.512
1745825145.519,-29.297,101.074,-1000.000,19.043
1745825145.523,-1000.000,-1000.000,-388.184,-1000.000
1745825145.527,-1000.000,-1000.000,957.031,-1000.000
1745825145.531,-268.555,-260.742,821.777,-270.996
1745825145.535,999.512,999.512,-268.066,999.512
1745825145.539,239.746,257.812,-1000.000,237.305
1745825145.543,-1000.000,-1000.000,-386.230,-1000.000
1745825145.547,-318.848,-503.906,888.184,-600.098
1745825145.551,952.637,863.770,999.512,781.738
1745825145.555,999.512,999.512,237.793,999.512
1745825145.559,209.473,183.105,-1000.000,129.395
1745825145.562,-1000.000,-987.793,-669.922,-999.512
1745825145.566,-1000.000,-1000.000,650.391,-1000.000
1745825145.570,18.555,-162.109,999.512,-199.219
1745825145.574,999.512,999.512,313.477,999.512
1745825145.578,304.688,304.199,-959.961,248.535
1745825145.535,999.512,999.512,-268.066,999.512
1745825145.539,239.746,257.812,-1000.000,237.305
1745825145.543,-1000.000,-1000.000,-386.230,-1000.000
1745825145.547,-318.848,-503.906,888.184,-600.098
1745825145.551,952.637,863.770,999.512,781.738
1745825145.555,999.512,999.512,237.793,999.512
1745825145.559,209.473,183.105,-1000.000,129.395
1745825145.562,-1000.000,-987.793,-669.922,-999.512
1745825145.566,-1000.000,-1000.000,650.391,-1000.000
1745825145.570,18.555,-162.109,999.512,-199.219
1745825145.574,999.512,999.512,313.477,999.512
1745825145.578,304.688,304.199,-959.961,248.535
1745825145.535,999.512,999.512,-268.066,999.512
1745825145.539,239.746,257.812,-1000.000,237.305
1745825145.543,-1000.000,-1000.000,-386.230,-1000.000
1745825145.547,-318.848,-503.906,888.184,-600.098
1745825145.551,952.637,863.770,999.512,781.738
1745825145.555,999.512,999.512,237.793,999.512
1745825145.559,209.473,183.105,-1000.000,129.395
1745825145.562,-1000.000,-987.793,-669.922,-999.512
1745825145.566,-1000.000,-1000.000,650.391,-1000.000
1745825145.570,18.555,-162.109,999.512,-199.219
1745825145.574,999.512,999.512,313.477,999.512
1745825145.578,304.688,304.199,-959.961,248.535
1745825145.593,-952.148,-973.145,-827.637,-999.512
1745825145.597,-1000.000,-1000.000,442.383,-1000.000
1745825145.601,-243.652,-239.258,999.512,-250.977
1745825145.605,999.512,999.512,381.836,999.512
1745825145.609,701.172,775.391,-908.691,607.422
1745825145.613,-680.664,-589.355,-837.891,-764.648
1745825145.617,-1000.000,-1000.000,408.203,-1000.000
1745825145.620,-223.145,-210.938,999.512,-214.844
1745825145.624,999.512,999.512,369.141,999.512
1745825145.628,663.086,715.332,-885.742,722.168
1745825145.632,-717.285,-656.738,-1000.000,-641.602
1745825145.636,-1000.000,-1000.000,126.465,-1000.000
1745825145.593,-952.148,-973.145,-827.637,-999.512
1745825145.597,-1000.000,-1000.000,442.383,-1000.000
1745825145.601,-243.652,-239.258,999.512,-250.977
1745825145.605,999.512,999.512,381.836,999.512
1745825145.609,701.172,775.391,-908.691,607.422
1745825145.613,-680.664,-589.355,-837.891,-764.648
1745825145.617,-1000.000,-1000.000,408.203,-1000.000
1745825145.620,-223.145,-210.938,999.512,-214.844
1745825145.624,999.512,999.512,369.141,999.512
1745825145.628,663.086,715.332,-885.742,722.168
1745825145.632,-717.285,-656.738,-1000.000,-641.602
1745825145.636,-1000.000,-1000.000,126.465,-1000.000
1745825145.624,-269.531,-219.727,999.512,-226.562
1745825145.628,991.211,999.512,644.531,999.512
1745825145.632,996.094,999.512,-575.195,997.070
1745825145.636,-254.883,-213.867,-1000.000,-216.309
1745825145.640,-1000.000,-1000.000,2.441,-1000.000
1745825145.644,-216.309,-181.152,999.512,-206.055
1745825145.648,995.605,999.512,759.277,995.605
1745825145.651,999.512,999.512,-425.293,999.512
1745825145.655,-118.164,-124.023,-1000.000,-60.059
1745825145.659,-1000.000,-1000.000,-172.852,-1000.000
1745825145.663,-681.641,-639.648,999.512,-552.246
1745825145.667,640.137,684.082,832.520,769.531
1745825145.667,999.512,999.512,-280.273,999.512
1745825145.671,179.199,174.805,-1000.000,181.641
1745825145.675,-1000.000,-1000.000,-243.652,-1000.000
1745825145.679,-812.012,-873.047,999.512,-730.957
1745825145.683,520.996,430.176,888.672,605.469
1745825145.687,999.512,999.512,-131.836,999.512
1745825145.691,403.320,530.273,-1000.000,408.203
1745825145.694,-873.047,-776.855,-306.641,-873.047
1745825145.698,-1000.000,-1000.000,937.500,-1000.000
1745825145.702,-241.211,-232.910,857.422,-177.246
1745825145.706,999.512,999.512,-167.480,999.512
1745825145.710,328.613,340.332,-1000.000,340.820
1745825145.667,999.512,999.512,-280.273,999.512
1745825145.671,179.199,174.805,-1000.000,181.641
1745825145.675,-1000.000,-1000.000,-243.652,-1000.000
1745825145.679,-812.012,-873.047,999.512,-730.957
1745825145.683,520.996,430.176,888.672,605.469
1745825145.687,999.512,999.512,-131.836,999.512
1745825145.691,403.320,530.273,-1000.000,408.203
1745825145.694,-873.047,-776.855,-306.641,-873.047
1745825145.698,-1000.000,-1000.000,937.500,-1000.000
1745825145.702,-241.211,-232.910,857.422,-177.246
1745825145.706,999.512,999.512,-167.480,999.512
1745825145.710,328.613,340.332,-1000.000,340.820
1745825145.712,-1000.000,-992.676,-583.496,-1000.000
1745825145.716,-1000.000,-1000.000,718.750,-1000.000
1745825145.720,-25.391,-70.312,999.512,49.805
1745825145.724,999.512,999.512,124.512,999.512
1745825145.728,356.445,277.832,-1000.000,348.145
1745825145.732,-1000.000,-1000.000,-654.297,-1000.000
1745825145.736,-982.910,-943.359,652.832,-908.203
1745825145.739,321.289,355.469,999.512,410.645
1745825145.743,999.512,999.512,92.773,999.512
1745825145.747,305.176,225.586,-1000.000,333.496
1745825145.751,-931.152,-962.891,-826.172,-917.969
1745825145.755,-1000.000,-1000.000,369.141,-1000.000
1745825145.712,-1000.000,-992.676,-583.496,-1000.000
1745825145.716,-1000.000,-1000.000,718.750,-1000.000
1745825145.720,-25.391,-70.312,999.512,49.805
1745825145.724,999.512,999.512,124.512,999.512
1745825145.728,356.445,277.832,-1000.000,348.145
1745825145.732,-1000.000,-1000.000,-654.297,-1000.000
1745825145.736,-982.910,-943.359,652.832,-908.203
1745825145.739,321.289,355.469,999.512,410.645
1745825145.743,999.512,999.512,92.773,999.512
1745825145.747,305.176,225.586,-1000.000,333.496
1745825145.751,-931.152,-962.891,-826.172,-917.969
1745825145.755,-1000.000,-1000.000,369.141,-1000.000
1745825145.712,-1000.000,-992.676,-583.496,-1000.000
1745825145.716,-1000.000,-1000.000,718.750,-1000.000
1745825145.720,-25.391,-70.312,999.512,49.805
1745825145.724,999.512,999.512,124.512,999.512
1745825145.728,356.445,277.832,-1000.000,348.145
1745825145.732,-1000.000,-1000.000,-654.297,-1000.000
1745825145.736,-982.910,-943.359,652.832,-908.203
1745825145.739,321.289,355.469,999.512,410.645
1745825145.743,999.512,999.512,92.773,999.512
1745825145.747,305.176,225.586,-1000.000,333.496
1745825145.751,-931.152,-962.891,-826.172,-917.969
1745825145.755,-1000.000,-1000.000,369.141,-1000.000
1745825145.772,-237.305,-230.469,999.512,-194.336
1745825145.776,999.512,999.512,391.602,999.512
1745825145.780,760.742,887.695,-853.516,873.047
1745825145.784,-604.980,-423.340,-1000.000,-426.758
1745825145.788,-1000.000,-1000.000,154.297,-1000.000
1745825145.792,-226.074,-212.402,999.512,-207.520
1745825145.796,999.512,999.512,669.922,999.512
1745825145.799,558.594,748.535,-533.691,783.203
1745825145.803,-802.246,-594.727,-1000.000,-549.316
1745825145.807,-1000.000,-1000.000,-15.137,-1000.000
1745825145.811,-479.980,-471.191,999.512,-355.469
1745825145.815,885.254,892.090,711.426,940.430
1745825145.772,-237.305,-230.469,999.512,-194.336
1745825145.776,999.512,999.512,391.602,999.512
1745825145.780,760.742,887.695,-853.516,873.047
1745825145.784,-604.980,-423.340,-1000.000,-426.758
1745825145.788,-1000.000,-1000.000,154.297,-1000.000
1745825145.792,-226.074,-212.402,999.512,-207.520
1745825145.796,999.512,999.512,669.922,999.512
1745825145.799,558.594,748.535,-533.691,783.203
1745825145.803,-802.246,-594.727,-1000.000,-549.316
1745825145.807,-1000.000,-1000.000,-15.137,-1000.000
1745825145.811,-479.980,-471.191,999.512,-355.469
1745825145.815,885.254,892.090,711.426,940.430
1745825145.772,-237.305,-230.469,999.512,-194.336
1745825145.776,999.512,999.512,391.602,999.512
1745825145.780,760.742,887.695,-853.516,873.047
1745825145.784,-604.980,-423.340,-1000.000,-426.758
1745825145.788,-1000.000,-1000.000,154.297,-1000.000
1745825145.792,-226.074,-212.402,999.512,-207.520
1745825145.796,999.512,999.512,669.922,999.512
1745825145.799,558.594,748.535,-533.691,783.203
1745825145.803,-802.246,-594.727,-1000.000,-549.316
1745825145.807,-1000.000,-1000.000,-15.137,-1000.000
1745825145.811,-479.980,-471.191,999.512,-355.469
1745825145.815,885.254,892.090,711.426,940.430
1745825145.820,999.512,999.512,-488.770,999.512
1745825145.824,-215.820,-235.840,-1000.000,-187.988
1745825145.828,-1000.000,-1000.000,-15.137,-1000.000
1745825145.832,-338.867,-322.266,999.512,-285.645
1745825145.836,904.785,911.621,781.250,930.176
1745825145.840,999.512,999.512,-329.102,999.512
1745825145.844,159.668,155.273,-1000.000,157.715
1745825145.847,-1000.000,-1000.000,-245.117,-1000.000
1745825145.851,-1000.000,-1000.000,999.512,-1000.000
1745825145.855,-17.578,-108.887,770.020,106.445
1745825145.859,999.512,999.512,-332.031,999.512
1745825145.863,166.992,177.734,-1000.000,172.852
1745825145.820,999.512,999.512,-488.770,999.512
1745825145.824,-215.820,-235.840,-1000.000,-187.988
1745825145.828,-1000.000,-1000.000,-15.137,-1000.000
1745825145.832,-338.867,-322.266,999.512,-285.645
1745825145.836,904.785,911.621,781.250,930.176
1745825145.840,999.512,999.512,-329.102,999.512
1745825145.844,159.668,155.273,-1000.000,157.715
1745825145.847,-1000.000,-1000.000,-245.117,-1000.000
1745825145.851,-1000.000,-1000.000,999.512,-1000.000
1745825145.855,-17.578,-108.887,770.020,106.445
1745825145.859,999.512,999.512,-332.031,999.512
1745825145.863,166.992,177.734,-1000.000,172.852
1745825145.820,999.512,999.512,-488.770,999.512
1745825145.824,-215.820,-235.840,-1000.000,-187.988
1745825145.828,-1000.000,-1000.000,-15.137,-1000.000
1745825145.832,-338.867,-322.266,999.512,-285.645
1745825145.836,904.785,911.621,781.250,930.176
1745825145.840,999.512,999.512,-329.102,999.512
1745825145.844,159.668,155.273,-1000.000,157.715
1745825145.847,-1000.000,-1000.000,-245.117,-1000.000
1745825145.851,-1000.000,-1000.000,999.512,-1000.000
1745825145.855,-17.578,-108.887,770.020,106.445
1745825145.859,999.512,999.512,-332.031,999.512
1745825145.863,166.992,177.734,-1000.000,172.852
1745825145.863,-1000.000,-1000.000,-458.496,-1000.000
1745825145.867,-1000.000,-1000.000,881.348,-955.566
1745825145.871,167.969,166.016,928.711,328.613
1745825145.875,999.512,999.512,-205.566,999.512
1745825145.879,62.500,85.938,-1000.000,93.750
1745825145.883,-1000.000,-1000.000,-417.480,-1000.000
1745825145.887,-1000.000,-1000.000,883.789,-965.332
1745825145.890,121.094,249.023,999.512,291.992
1745825145.894,999.512,999.512,-62.012,999.512
1745825145.898,128.906,126.465,-1000.000,169.922
1745825145.902,-1000.000,-1000.000,-622.070,-1000.000
1745825145.906,-1000.000,-1000.000,635.742,-1000.000
1745825145.863,-1000.000,-1000.000,-458.496,-1000.000
1745825145.867,-1000.000,-1000.000,881.348,-955.566
1745825145.871,167.969,166.016,928.711,328.613
1745825145.875,999.512,999.512,-205.566,999.512
1745825145.879,62.500,85.938,-1000.000,93.750
1745825145.883,-1000.000,-1000.000,-417.480,-1000.000
1745825145.887,-1000.000,-1000.000,883.789,-965.332
1745825145.890,121.094,249.023,999.512,291.992
1745825145.894,999.512,999.512,-62.012,999.512
1745825145.898,128.906,126.465,-1000.000,169.922
1745825145.902,-1000.000,-1000.000,-622.070,-1000.000
1745825145.906,-1000.000,-1000.000,635.742,-1000.000
1745825145.863,-1000.000,-1000.000,-458.496,-1000.000
1745825145.867,-1000.000,-1000.000,881.348,-955.566
1745825145.871,167.969,166.016,928.711,328.613
1745825145.875,999.512,999.512,-205.566,999.512
1745825145.879,62.500,85.938,-1000.000,93.750
1745825145.883,-1000.000,-1000.000,-417.480,-1000.000
1745825145.887,-1000.000,-1000.000,883.789,-965.332
1745825145.890,121.094,249.023,999.512,291.992
1745825145.894,999.512,999.512,-62.012,999.512
1745825145.898,128.906,126.465,-1000.000,169.922
1745825145.902,-1000.000,-1000.000,-622.070,-1000.000
1745825145.906,-1000.000,-1000.000,635.742,-1000.000
1745825145.908,-216.797,-196.777,999.512,-81.055
1745825145.912,999.512,999.512,283.203,999.512
1745825145.916,359.863,394.531,-1000.000,368.164
1745825145.920,-954.590,-938.477,-782.715,-936.035
1745825145.924,-1000.000,-1000.000,480.469,-1000.000
1745825145.928,-250.488,-214.355,999.512,-211.426
1745825145.932,999.512,999.512,385.254,999.512
1745825145.935,568.848,548.340,-870.605,557.617
1745825145.939,-828.125,-835.449,-1000.000,-816.895
1745825145.943,-1000.000,-1000.000,137.695,-1000.000
1745825145.947,-212.402,-221.191,999.512,-215.332
1745825145.951,999.512,999.512,511.719,999.512
1745825145.908,-216.797,-196.777,999.512,-81.055
1745825145.912,999.512,999.512,283.203,999.512
1745825145.916,359.863,394.531,-1000.000,368.164
1745825145.920,-954.590,-938.477,-782.715,-936.035
1745825145.924,-1000.000,-1000.000,480.469,-1000.000
1745825145.928,-250.488,-214.355,999.512,-211.426
1745825145.932,999.512,999.512,385.254,999.512
1745825145.935,568.848,548.340,-870.605,557.617
1745825145.939,-828.125,-835.449,-1000.000,-816.895
1745825145.943,-1000.000,-1000.000,137.695,-1000.000
1745825145.947,-212.402,-221.191,999.512,-215.332
1745825145.951,999.512,999.512,511.719,999.512
1745825145.953,851.074,766.113,-756.348,792.969
1745825145.957,-479.004,-593.750,-1000.000,-547.852
1745825145.961,-1000.000,-1000.000,119.141,-1000.000
1745825145.965,-163.086,-160.156,999.512,-170.898
1745825145.969,979.004,972.656,419.434,991.699
1745825145.973,999.512,999.512,-836.914,999.512
1745825145.977,48.340,86.426,-1000.000,-37.109
1745825145.980,-1000.000,-1000.000,-23.926,-1000.000
1745825145.984,-851.562,-990.234,999.512,-812.012
1745825145.988,453.125,244.629,565.918,484.375
1745825145.992,999.512,999.512,-581.543,999.512
1745825145.996,154.297,144.043,-1000.000,104.492
1745825145.998,-1000.000,-1000.000,-203.613,-1000.000
1745825146.002,-669.434,-671.875,999.512,-587.402
1745825146.006,716.797,711.426,886.230,774.902
1745825146.010,999.512,999.512,-219.238,999.512
1745825146.014,193.359,189.941,-1000.000,181.641
1745825146.018,-1000.000,-1000.000,-220.215,-1000.000
1745825146.022,-299.805,-237.793,999.512,-260.254
1745825146.025,968.262,990.723,824.219,980.469
1745825146.029,999.512,999.512,-312.012,999.512
1745825146.033,170.898,172.363,-1000.000,184.082
1745825146.037,-1000.000,-1000.000,-438.477,-1000.000
1745825146.041,-1000.000,-1000.000,882.812,-1000.000
1745825146.043,31.250,-21.484,939.453,162.598
1745825146.047,999.512,999.512,-159.668,999.512
1745825146.051,308.105,325.684,-1000.000,297.852
1745825146.055,-975.098,-975.098,-563.477,-975.098
1745825146.059,-1000.000,-1000.000,708.984,-1000.000
1745825146.063,-36.133,-21.484,999.512,-5.371
1745825146.067,999.512,999.512,297.363,999.512
1745825146.070,473.633,444.336,-967.285,441.406
1745825146.074,-867.676,-882.812,-799.316,-884.277
1745825146.078,-1000.000,-1000.000,479.980,-1000.000
1745825146.082,-241.211,-240.723,999.512,-219.238
1745825146.086,999.512,999.512,131.348,999.512
1745825146.043,31.250,-21.484,939.453,162.598
1745825146.047,999.512,999.512,-159.668,999.512
1745825146.051,308.105,325.684,-1000.000,297.852
1745825146.055,-975.098,-975.098,-563.477,-975.098
1745825146.059,-1000.000,-1000.000,708.984,-1000.000
1745825146.063,-36.133,-21.484,999.512,-5.371
1745825146.067,999.512,999.512,297.363,999.512
1745825146.070,473.633,444.336,-967.285,441.406
1745825146.074,-867.676,-882.812,-799.316,-884.277
1745825146.078,-1000.000,-1000.000,479.980,-1000.000
1745825146.082,-241.211,-240.723,999.512,-219.238
1745825146.086,999.512,999.512,131.348,999.512
1745825146.088,467.285,367.676,-1000.000,453.125
1745825146.092,-905.762,-956.543,-839.844,-908.691
1745825146.096,-1000.000,-1000.000,357.422,-1000.000
1745825146.100,-194.336,-196.289,999.512,-193.359
1745825146.104,999.512,994.141,217.285,999.512
1745825146.108,999.512,999.512,-961.914,960.449
1745825146.112,-217.773,-135.742,-1000.000,-328.125
1745825146.115,-1000.000,-1000.000,-44.922,-1000.000
1745825146.119,-940.918,-947.266,999.512,-938.965
1745825146.123,-999.023,-994.141,-89.844,-1000.000
1745825146.127,-1000.000,-1000.000,-1000.000,-1000.000
1745825146.131,-925.781,-928.223,-1000.000,-928.223
1745825146.088,467.285,367.676,-1000.000,453.125
1745825146.092,-905.762,-956.543,-839.844,-908.691
1745825146.096,-1000.000,-1000.000,357.422,-1000.000
1745825146.100,-194.336,-196.289,999.512,-193.359
1745825146.104,999.512,994.141,217.285,999.512
1745825146.108,999.512,999.512,-961.914,960.449
1745825146.112,-217.773,-135.742,-1000.000,-328.125
1745825146.115,-1000.000,-1000.000,-44.922,-1000.000
1745825146.119,-940.918,-947.266,999.512,-938.965
1745825146.123,-999.023,-994.141,-89.844,-1000.000
1745825146.127,-1000.000,-1000.000,-1000.000,-1000.000
1745825146.131,-925.781,-928.223,-1000.000,-928.223
1745825146.088,467.285,367.676,-1000.000,453.125
1745825146.092,-905.762,-956.543,-839.844,-908.691
1745825146.096,-1000.000,-1000.000,357.422,-1000.000
1745825146.100,-194.336,-196.289,999.512,-193.359
1745825146.104,999.512,994.141,217.285,999.512
1745825146.108,999.512,999.512,-961.914,960.449
1745825146.112,-217.773,-135.742,-1000.000,-328.125
1745825146.115,-1000.000,-1000.000,-44.922,-1000.000
1745825146.119,-940.918,-947.266,999.512,-938.965
1745825146.123,-999.023,-994.141,-89.844,-1000.000
1745825146.127,-1000.000,-1000.000,-1000.000,-1000.000
1745825146.131,-925.781,-928.223,-1000.000,-928.223
1745825146.133,-1000.000,-1000.000,-656.738,-1000.000
1745825146.137,-543.945,-422.363,517.578,-616.211
1745825146.141,826.660,881.836,428.223,777.832
1745825146.145,999.512,999.512,-791.504,999.512
1745825146.149,128.418,102.539,-864.746,22.461
1745825146.153,-1000.000,-959.961,497.070,-1000.000
1745825146.157,133.301,441.406,993.652,143.066
1745825146.160,999.512,999.512,999.512,999.512
1745825146.164,999.512,955.566,560.059,999.512
1745825146.168,174.316,-126.953,-721.680,166.992
1745825146.172,-1000.000,-1000.000,127.930,-1000.000
1745825146.176,-192.383,-163.086,999.512,-178.223
1745825146.133,-1000.000,-1000.000,-656.738,-1000.000
1745825146.137,-543.945,-422.363,517.578,-616.211
1745825146.141,826.660,881.836,428.223,777.832
1745825146.145,999.512,999.512,-791.504,999.512
1745825146.149,128.418,102.539,-864.746,22.461
1745825146.153,-1000.000,-959.961,497.070,-1000.000
1745825146.157,133.301,441.406,993.652,143.066
1745825146.160,999.512,999.512,999.512,999.512
1745825146.164,999.512,955.566,560.059,999.512
1745825146.168,174.316,-126.953,-721.680,166.992
1745825146.172,-1000.000,-1000.000,127.930,-1000.000
1745825146.176,-192.383,-163.086,999.512,-178.223
1745825146.133,-1000.000,-1000.000,-656.738,-1000.000
1745825146.137,-543.945,-422.363,517.578,-616.211
1745825146.141,826.660,881.836,428.223,777.832
1745825146.145,999.512,999.512,-791.504,999.512
1745825146.149,128.418,102.539,-864.746,22.461
1745825146.153,-1000.000,-959.961,497.070,-1000.000
1745825146.157,133.301,441.406,993.652,143.066
1745825146.160,999.512,999.512,999.512,999.512
1745825146.164,999.512,955.566,560.059,999.512
1745825146.168,174.316,-126.953,-721.680,166.992
1745825146.172,-1000.000,-1000.000,127.930,-1000.000
1745825146.176,-192.383,-163.086,999.512,-178.223
1745825146.193,994.629,977.539,999.512,997.070
1745825146.197,999.512,999.512,340.820,999.512
1745825146.201,259.766,234.863,-1000.000,278.320
1745825146.205,-1000.000,-1000.000,-315.918,-1000.000
1745825146.209,-463.867,-515.137,979.980,-392.578
1745825146.213,892.090,863.770,999.512,924.805
1745825146.217,999.512,999.512,184.570,999.512
1745825146.220,263.184,193.848,-1000.000,299.805
1745825146.224,-1000.000,-1000.000,-580.566,-1000.000
1745825146.228,-671.875,-784.180,750.000,-593.262
1745825146.232,712.402,572.266,999.512,775.879
1745825146.236,999.512,999.512,166.016,999.512
1745825146.193,994.629,977.539,999.512,997.070
1745825146.197,999.512,999.512,340.820,999.512
1745825146.201,259.766,234.863,-1000.000,278.320
1745825146.205,-1000.000,-1000.000,-315.918,-1000.000
1745825146.209,-463.867,-515.137,979.980,-392.578
1745825146.213,892.090,863.770,999.512,924.805
1745825146.217,999.512,999.512,184.570,999.512
1745825146.220,263.184,193.848,-1000.000,299.805
1745825146.224,-1000.000,-1000.000,-580.566,-1000.000
1745825146.228,-671.875,-784.180,750.000,-593.262
1745825146.232,712.402,572.266,999.512,775.879
1745825146.236,999.512,999.512,166.016,999.512
1745825146.238,441.895,287.598,-1000.000,452.637
1745825146.242,-1000.000,-1000.000,-681.152,-1000.000
1745825146.246,-874.023,-940.918,613.770,-825.195
1745825146.250,566.895,419.922,999.512,602.051
1745825146.254,999.512,999.512,167.969,999.512
1745825146.258,930.664,930.664,-1000.000,865.723
1745825146.262,-220.215,-206.543,-777.344,-313.965
1745825146.265,-1000.000,-1000.000,473.145,-1000.000
1745825146.269,-195.801,-246.094,999.512,-190.918
1745825146.273,999.512,999.512,62.012,999.512
1745825146.277,935.059,929.688,-1000.000,922.363
1745825146.281,-340.820,-362.305,-961.914,-347.168
1745825146.238,441.895,287.598,-1000.000,452.637
1745825146.242,-1000.000,-1000.000,-681.152,-1000.000
1745825146.246,-874.023,-940.918,613.770,-825.195
1745825146.250,566.895,419.922,999.512,602.051
1745825146.254,999.512,999.512,167.969,999.512
1745825146.258,930.664,930.664,-1000.000,865.723
1745825146.262,-220.215,-206.543,-777.344,-313.965
1745825146.265,-1000.000,-1000.000,473.145,-1000.000
1745825146.269,-195.801,-246.094,999.512,-190.918
1745825146.273,999.512,999.512,62.012,999.512
1745825146.277,935.059,929.688,-1000.000,922.363
1745825146.281,-340.820,-362.305,-961.914,-347.168
1745825146.238,441.895,287.598,-1000.000,452.637
1745825146.242,-1000.000,-1000.000,-681.152,-1000.000
1745825146.246,-874.023,-940.918,613.770,-825.195
1745825146.250,566.895,419.922,999.512,602.051
1745825146.254,999.512,999.512,167.969,999.512
1745825146.258,930.664,930.664,-1000.000,865.723
1745825146.262,-220.215,-206.543,-777.344,-313.965
1745825146.265,-1000.000,-1000.000,473.145,-1000.000
1745825146.269,-195.801,-246.094,999.512,-190.918
1745825146.273,999.512,999.512,62.012,999.512
1745825146.277,935.059,929.688,-1000.000,922.363
1745825146.281,-340.820,-362.305,-961.914,-347.168
1745825146.283,-1000.000,-1000.000,152.344,-1000.000
1745825146.287,-179.199,-181.152,999.512,-177.246
1745825146.291,999.512,999.512,437.988,999.512
1745825146.295,999.512,999.512,-806.641,999.512
1745825146.299,-142.578,-166.992,-1000.000,-164.551
1745825146.303,-1000.000,-1000.000,11.230,-1000.000
1745825146.307,-224.609,-235.352,999.512,-215.332
1745825146.310,999.512,999.512,551.270,999.512
1745825146.314,710.938,460.938,-713.867,714.844
1745825146.318,-652.832,-894.531,-1000.000,-644.531
1745825146.322,-1000.000,-1000.000,-86.914,-1000.000
1745825146.326,-293.457,-305.664,999.512,-259.277
1745825146.283,-1000.000,-1000.000,152.344,-1000.000
1745825146.287,-179.199,-181.152,999.512,-177.246
1745825146.291,999.512,999.512,437.988,999.512
1745825146.295,999.512,999.512,-806.641,999.512
1745825146.299,-142.578,-166.992,-1000.000,-164.551
1745825146.303,-1000.000,-1000.000,11.230,-1000.000
1745825146.307,-224.609,-235.352,999.512,-215.332
1745825146.310,999.512,999.512,551.270,999.512
1745825146.314,710.938,460.938,-713.867,714.844
1745825146.318,-652.832,-894.531,-1000.000,-644.531
1745825146.322,-1000.000,-1000.000,-86.914,-1000.000
1745825146.326,-293.457,-305.664,999.512,-259.277
1745825146.283,-1000.000,-1000.000,152.344,-1000.000
1745825146.287,-179.199,-181.152,999.512,-177.246
1745825146.291,999.512,999.512,437.988,999.512
1745825146.295,999.512,999.512,-806.641,999.512
1745825146.299,-142.578,-166.992,-1000.000,-164.551
1745825146.303,-1000.000,-1000.000,11.230,-1000.000
1745825146.307,-224.609,-235.352,999.512,-215.332
1745825146.310,999.512,999.512,551.270,999.512
1745825146.314,710.938,460.938,-713.867,714.844
1745825146.318,-652.832,-894.531,-1000.000,-644.531
1745825146.322,-1000.000,-1000.000,-86.914,-1000.000
1745825146.326,-293.457,-305.664,999.512,-259.277
1745825146.328,919.922,916.992,614.746,934.082
1745825146.332,999.512,999.512,-592.285,999.512
1745825146.336,81.543,110.352,-1000.000,100.098
1745825146.340,-1000.000,-1000.000,-188.965,-1000.000
1745825146.344,-1000.000,-1000.000,999.512,-935.059
1745825146.348,135.254,147.461,901.855,312.500
1745825146.352,999.512,999.512,-161.621,999.512
1745825146.355,141.602,140.137,-1000.000,153.809
1745825146.359,-1000.000,-1000.000,-384.766,-1000.000
1745825146.363,-1000.000,-1000.000,938.477,-997.559
1745825146.367,0.000,-24.902,891.113,210.938
1745825146.371,999.512,999.512,-219.727,999.512
1745825146.328,919.922,916.992,614.746,934.082
1745825146.332,999.512,999.512,-592.285,999.512
1745825146.336,81.543,110.352,-1000.000,100.098
1745825146.340,-1000.000,-1000.000,-188.965,-1000.000
1745825146.344,-1000.000,-1000.000,999.512,-935.059
1745825146.348,135.254,147.461,901.855,312.500
1745825146.352,999.512,999.512,-161.621,999.512
1745825146.355,141.602,140.137,-1000.000,153.809
1745825146.359,-1000.000,-1000.000,-384.766,-1000.000
1745825146.363,-1000.000,-1000.000,938.477,-997.559
1745825146.367,0.000,-24.902,891.113,210.938
1745825146.371,999.512,999.512,-219.727,999.512
1745825146.373,153.809,165.039,-1000.000,150.391
1745825146.377,-1000.000,-1000.000,-472.168,-1000.000
1745825146.381,-1000.000,-1000.000,840.820,-1000.000
1745825146.385,18.066,122.559,999.512,129.395
1745825146.389,999.512,999.512,-20.996,999.512
1745825146.393,62.500,125.488,-1000.000,86.426
1745825146.397,-1000.000,-971.191,-588.867,-987.793
1745825146.400,-1000.000,-1000.000,721.191,-1000.000
1745825146.404,-268.555,-252.930,999.512,-247.559
1745825146.408,999.512,999.512,-5.859,999.512
1745825146.412,545.898,698.242,-1000.000,477.051
1745825146.416,-848.633,-684.082,-793.457,-877.441
1745825146.417,-1000.000,-1000.000,441.895,-1000.000
1745825146.421,-231.445,-229.980,999.512,-242.676
1745825146.425,999.512,999.512,173.340,999.512
1745825146.429,661.133,666.504,-982.910,565.918
1745825146.433,-743.652,-773.926,-943.848,-821.777
1745825146.437,-1000.000,-1000.000,221.191,-1000.000
1745825146.441,-151.367,25.879,999.512,-178.711
1745825146.444,999.512,999.512,397.461,999.512
1745825146.448,482.910,386.230,-867.188,439.453
1745825146.452,-861.328,-898.926,-1000.000,-892.090
1745825146.456,-1000.000,-1000.000,41.504,-1000.000
1745825146.460,-540.527,-609.375,999.512,-537.109
1745825146.465,819.824,749.512,369.629,818.359
1745825146.469,999.512,999.512,-822.266,999.512
1745825146.473,-71.289,-29.297,-1000.000,-140.137
1745825146.477,-1000.000,-1000.000,-30.762,-1000.000
1745825146.481,-540.527,-547.363,999.512,-519.043
1745825146.485,837.402,833.984,807.617,836.426
1745825146.489,999.512,999.512,-313.477,999.512
1745825146.492,-64.453,-57.129,-1000.000,-81.055
1745825146.496,-1000.000,-1000.000,-189.453,-1000.000
1745825146.500,-961.426,-929.688,999.512,-843.262
1745825146.504,274.414,309.570,793.945,431.641
1745825146.508,999.512,999.512,-343.750,999.512
1745825146.465,819.824,749.512,369.629,818.359
1745825146.469,999.512,999.512,-822.266,999.512
1745825146.473,-71.289,-29.297,-1000.000,-140.137
1745825146.477,-1000.000,-1000.000,-30.762,-1000.000
1745825146.481,-540.527,-547.363,999.512,-519.043
1745825146.485,837.402,833.984,807.617,836.426
1745825146.489,999.512,999.512,-313.477,999.512
1745825146.492,-64.453,-57.129,-1000.000,-81.055
1745825146.496,-1000.000,-1000.000,-189.453,-1000.000
1745825146.500,-961.426,-929.688,999.512,-843.262
1745825146.504,274.414,309.570,793.945,431.641
1745825146.508,999.512,999.512,-343.750,999.512
1745825146.465,819.824,749.512,369.629,818.359
1745825146.469,999.512,999.512,-822.266,999.512
1745825146.473,-71.289,-29.297,-1000.000,-140.137
1745825146.477,-1000.000,-1000.000,-30.762,-1000.000
1745825146.481,-540.527,-547.363,999.512,-519.043
1745825146.485,837.402,833.984,807.617,836.426
1745825146.489,999.512,999.512,-313.477,999.512
1745825146.492,-64.453,-57.129,-1000.000,-81.055
1745825146.496,-1000.000,-1000.000,-189.453,-1000.000
1745825146.500,-961.426,-929.688,999.512,-843.262
1745825146.504,274.414,309.570,793.945,431.641
1745825146.508,999.512,999.512,-343.750,999.512
1745825146.508,41.016,129.395,-1000.000,80.078
1745825146.512,-1000.000,-1000.000,-239.258,-1000.000
1745825146.516,-940.430,-914.551,994.629,-890.625
1745825146.520,301.758,356.445,946.289,380.371
1745825146.524,999.512,999.512,-79.590,999.512
1745825146.528,277.344,350.586,-1000.000,214.355
1745825146.532,-1000.000,-932.129,-347.656,-1000.000
1745825146.535,-1000.000,-1000.000,985.352,-1000.000
1745825146.539,175.293,-42.969,832.031,13.672
1745825146.543,999.512,999.512,-288.086,999.512
1745825146.547,300.781,240.723,-1000.000,223.633
1745825146.551,-1000.000,-1000.000,-533.691,-1000.000
1745825146.508,41.016,129.395,-1000.000,80.078
1745825146.512,-1000.000,-1000.000,-239.258,-1000.000
1745825146.516,-940.430,-914.551,994.629,-890.625
1745825146.520,301.758,356.445,946.289,380.371
1745825146.524,999.512,999.512,-79.590,999.512
1745825146.528,277.344,350.586,-1000.000,214.355
1745825146.532,-1000.000,-932.129,-347.656,-1000.000
1745825146.535,-1000.000,-1000.000,985.352,-1000.000
1745825146.539,175.293,-42.969,832.031,13.672
1745825146.543,999.512,999.512,-288.086,999.512
1745825146.547,300.781,240.723,-1000.000,223.633
1745825146.551,-1000.000,-1000.000,-533.691,-1000.000
1745825146.508,41.016,129.395,-1000.000,80.078
1745825146.512,-1000.000,-1000.000,-239.258,-1000.000
1745825146.516,-940.430,-914.551,994.629,-890.625
1745825146.520,301.758,356.445,946.289,380.371
1745825146.524,999.512,999.512,-79.590,999.512
1745825146.528,277.344,350.586,-1000.000,214.355
1745825146.532,-1000.000,-932.129,-347.656,-1000.000
1745825146.535,-1000.000,-1000.000,985.352,-1000.000
1745825146.539,175.293,-42.969,832.031,13.672
1745825146.543,999.512,999.512,-288.086,999.512
1745825146.547,300.781,240.723,-1000.000,223.633
1745825146.551,-1000.000,-1000.000,-533.691,-1000.000
1745825146.568,-586.914,-876.953,761.719,-890.625
1745825146.572,799.805,451.660,999.512,430.664
1745825146.576,999.512,999.512,77.637,999.512
1745825146.580,313.965,234.863,-1000.000,206.055
1745825146.584,-953.125,-981.445,-731.445,-986.816
1745825146.588,-1000.000,-1000.000,540.039,-1000.000
1745825146.592,-13.672,-40.527,999.512,-91.797
1745825146.595,999.512,999.512,267.578,999.512
1745825146.599,240.723,182.129,-1000.000,239.746
1745825146.603,-983.398,-1000.000,-842.773,-990.723
1745825146.607,-1000.000,-1000.000,391.113,-1000.000
1745825146.611,-259.277,-258.789,999.512,-250.488
1745825146.568,-586.914,-876.953,761.719,-890.625
1745825146.572,799.805,451.660,999.512,430.664
1745825146.576,999.512,999.512,77.637,999.512
1745825146.580,313.965,234.863,-1000.000,206.055
1745825146.584,-953.125,-981.445,-731.445,-986.816
1745825146.588,-1000.000,-1000.000,540.039,-1000.000
1745825146.592,-13.672,-40.527,999.512,-91.797
1745825146.595,999.512,999.512,267.578,999.512
1745825146.599,240.723,182.129,-1000.000,239.746
1745825146.603,-983.398,-1000.000,-842.773,-990.723
1745825146.607,-1000.000,-1000.000,391.113,-1000.000
1745825146.611,-259.277,-258.789,999.512,-250.488
1745825146.568,-586.914,-876.953,761.719,-890.625
1745825146.572,799.805,451.660,999.512,430.664
1745825146.576,999.512,999.512,77.637,999.512
1745825146.580,313.965,234.863,-1000.000,206.055
1745825146.584,-953.125,-981.445,-731.445,-986.816
1745825146.588,-1000.000,-1000.000,540.039,-1000.000
1745825146.592,-13.672,-40.527,999.512,-91.797
1745825146.595,999.512,999.512,267.578,999.512
1745825146.599,240.723,182.129,-1000.000,239.746
1745825146.603,-983.398,-1000.000,-842.773,-990.723
1745825146.607,-1000.000,-1000.000,391.113,-1000.000
1745825146.611,-259.277,-258.789,999.512,-250.488
1745825146.613,999.512,999.512,431.641,999.512
1745825146.617,536.621,643.066,-841.309,639.648
1745825146.621,-855.957,-751.465,-961.426,-743.164
1745825146.625,-1000.000,-1000.000,240.234,-1000.000
1745825146.629,-225.586,-202.637,999.512,-200.684
1745825146.633,999.512,999.512,680.664,999.512
1745825146.637,715.332,886.719,-533.203,892.090
1745825146.640,-631.348,-390.137,-1000.000,-383.789
1745825146.644,-1000.000,-1000.000,37.598,-1000.000
1745825146.648,-501.465,-499.023,999.512,-362.305
1745825146.652,855.469,854.492,651.367,928.711
1745825146.656,999.512,999.512,-556.152,999.512
1745825146.613,999.512,999.512,431.641,999.512
1745825146.617,536.621,643.066,-841.309,639.648
1745825146.621,-855.957,-751.465,-961.426,-743.164
1745825146.625,-1000.000,-1000.000,240.234,-1000.000
1745825146.629,-225.586,-202.637,999.512,-200.684
1745825146.633,999.512,999.512,680.664,999.512
1745825146.637,715.332,886.719,-533.203,892.090
1745825146.640,-631.348,-390.137,-1000.000,-383.789
1745825146.644,-1000.000,-1000.000,37.598,-1000.000
1745825146.648,-501.465,-499.023,999.512,-362.305
1745825146.652,855.469,854.492,651.367,928.711
1745825146.656,999.512,999.512,-556.152,999.512
1745825146.613,999.512,999.512,431.641,999.512
1745825146.617,536.621,643.066,-841.309,639.648
1745825146.621,-855.957,-751.465,-961.426,-743.164
1745825146.625,-1000.000,-1000.000,240.234,-1000.000
1745825146.629,-225.586,-202.637,999.512,-200.684
1745825146.633,999.512,999.512,680.664,999.512
1745825146.637,715.332,886.719,-533.203,892.090
1745825146.640,-631.348,-390.137,-1000.000,-383.789
1745825146.644,-1000.000,-1000.000,37.598,-1000.000
1745825146.648,-501.465,-499.023,999.512,-362.305
1745825146.652,855.469,854.492,651.367,928.711
1745825146.656,999.512,999.512,-556.152,999.512
1745825146.658,-149.902,-117.188,-1000.000,-118.652
1745825146.662,-1000.000,-1000.000,-68.848,-1000.000
1745825146.666,-490.234,-471.680,999.512,-418.457
1745825146.670,828.125,841.797,800.293,870.605
1745825146.674,999.512,999.512,-352.539,999.512
1745825146.678,160.645,155.762,-1000.000,159.180
1745825146.682,-1000.000,-1000.000,-158.691,-1000.000
1745825146.685,-1000.000,-1000.000,999.512,-962.891
1745825146.689,153.809,65.918,828.613,280.273
1745825146.693,999.512,999.512,-248.047,999.512
1745825146.697,139.648,142.090,-1000.000,149.414
1745825146.701,-1000.000,-1000.000,-268.066,-1000.000
1745825146.658,-149.902,-117.188,-1000.000,-118.652
1745825146.662,-1000.000,-1000.000,-68.848,-1000.000
1745825146.666,-490.234,-471.680,999.512,-418.457
1745825146.670,828.125,841.797,800.293,870.605
1745825146.674,999.512,999.512,-352.539,999.512
1745825146.678,160.645,155.762,-1000.000,159.180
1745825146.682,-1000.000,-1000.000,-158.691,-1000.000
1745825146.685,-1000.000,-1000.000,999.512,-962.891
1745825146.689,153.809,65.918,828.613,280.273
1745825146.693,999.512,999.512,-248.047,999.512
1745825146.697,139.648,142.090,-1000.000,149.414
1745825146.701,-1000.000,-1000.000,-268.066,-1000.000
1745825146.658,-149.902,-117.188,-1000.000,-118.652
1745825146.662,-1000.000,-1000.000,-68.848,-1000.000
1745825146.666,-490.234,-471.680,999.512,-418.457
1745825146.670,828.125,841.797,800.293,870.605
1745825146.674,999.512,999.512,-352.539,999.512
1745825146.678,160.645,155.762,-1000.000,159.180
1745825146.682,-1000.000,-1000.000,-158.691,-1000.000
1745825146.685,-1000.000,-1000.000,999.512,-962.891
1745825146.689,153.809,65.918,828.613,280.273
1745825146.693,999.512,999.512,-248.047,999.512
1745825146.697,139.648,142.090,-1000.000,149.414
1745825146.701,-1000.000,-1000.000,-268.066,-1000.000
1745825146.703,-1000.000,-1000.000,995.117,-1000.000
1745825146.707,-27.832,-83.984,923.340,106.934
1745825146.711,999.512,999.512,-125.977,999.512
1745825146.715,187.988,213.867,-1000.000,189.941
1745825146.719,-1000.000,-1000.000,-470.703,-1000.000
1745825146.723,-905.273,-681.641,802.246,-798.340
1745825146.727,416.504,700.195,999.512,554.688
1745825146.730,999.512,999.512,209.473,999.512
1745825146.734,93.262,107.910,-1000.000,133.301
1745825146.738,-1000.000,-1000.000,-656.250,-1000.000
1745825146.742,-1000.000,-1000.000,655.762,-1000.000
1745825146.746,-152.344,-99.609,999.512,-29.297
1745825146.703,-1000.000,-1000.000,995.117,-1000.000
1745825146.707,-27.832,-83.984,923.340,106.934
1745825146.711,999.512,999.512,-125.977,999.512
1745825146.715,187.988,213.867,-1000.000,189.941
1745825146.719,-1000.000,-1000.000,-470.703,-1000.000
1745825146.723,-905.273,-681.641,802.246,-798.340
1745825146.727,416.504,700.195,999.512,554.688
1745825146.730,999.512,999.512,209.473,999.512
1745825146.734,93.262,107.910,-1000.000,133.301
1745825146.738,-1000.000,-1000.000,-656.250,-1000.000
1745825146.742,-1000.000,-1000.000,655.762,-1000.000
1745825146.746,-152.344,-99.609,999.512,-29.297
1745825146.751,999.512,999.512,179.688,999.512
1745825146.755,650.391,803.223,-1000.000,709.961
1745825146.759,-715.820,-507.812,-762.695,-617.676
1745825146.763,-1000.000,-1000.000,487.793,-1000.000
1745825146.767,-181.152,-195.312,999.512,-126.953
1745825146.771,999.512,999.512,412.109,999.512
1745825146.775,965.820,872.070,-797.852,878.906
1745825146.778,-290.039,-440.918,-1000.000,-398.438
1745825146.782,-1000.000,-1000.000,179.199,-1000.000
1745825146.786,-140.625,-181.152,999.512,-174.805
1745825146.790,999.023,999.512,439.453,999.512
1745825146.794,999.512,999.512,-816.895,999.512
1745825146.751,999.512,999.512,179.688,999.512
1745825146.755,650.391,803.223,-1000.000,709.961
1745825146.759,-715.820,-507.812,-762.695,-617.676
1745825146.763,-1000.000,-1000.000,487.793,-1000.000
1745825146.767,-181.152,-195.312,999.512,-126.953
1745825146.771,999.512,999.512,412.109,999.512
1745825146.775,965.820,872.070,-797.852,878.906
1745825146.778,-290.039,-440.918,-1000.000,-398.438
1745825146.782,-1000.000,-1000.000,179.199,-1000.000
1745825146.786,-140.625,-181.152,999.512,-174.805
1745825146.790,999.023,999.512,439.453,999.512
1745825146.794,999.512,999.512,-816.895,999.512
1745825147.259,-112.305,-40.039,999.512,-110.352
1745825147.263,999.512,999.512,193.359,999.512
1745825147.267,421.875,387.695,-1000.000,381.836
1745825147.271,-910.645,-922.852,-894.531,-928.711
1745825147.275,-1000.000,-1000.000,275.391,-1000.000
1745825147.279,-228.516,-193.359,999.512,-220.703
1745825147.283,999.512,999.512,465.820,999.512
1745825147.286,772.949,740.723,-771.484,725.098
1745825147.290,-569.824,-595.703,-1000.000,-619.141
1745825147.294,-1000.000,-1000.000,5.859,-1000.000
1745825147.298,-386.719,-456.055,999.512,-373.535
1745825147.302,999.512,999.512,533.691,999.512
1745825146.793,-49.805,-187.988,-1000.000,-190.918
1745825146.797,-1000.000,-1000.000,67.383,-1000.000
1745825146.801,83.984,-93.750,999.512,-73.242
1745825146.805,999.512,993.164,585.938,999.512
1745825146.809,999.512,999.512,-670.898,999.512
1745825146.813,240.723,222.656,-1000.000,182.617
1745825146.817,-1000.000,-1000.000,103.027,-1000.000
1745825146.820,-227.539,-242.676,999.512,-191.895
1745825146.824,999.512,999.512,536.621,999.512
1745825146.828,999.512,916.504,-706.543,999.512
1745825146.832,-117.676,-328.125,-1000.000,-74.707
1745825146.836,-1000.000,-1000.000,-89.355,-1000.000
1745825146.793,-49.805,-187.988,-1000.000,-190.918
1745825146.797,-1000.000,-1000.000,67.383,-1000.000
1745825146.801,83.984,-93.750,999.512,-73.242
1745825146.805,999.512,993.164,585.938,999.512
1745825146.809,999.512,999.512,-670.898,999.512
1745825146.813,240.723,222.656,-1000.000,182.617
1745825146.817,-1000.000,-1000.000,103.027,-1000.000
1745825146.820,-227.539,-242.676,999.512,-191.895
1745825146.824,999.512,999.512,536.621,999.512
1745825146.828,999.512,916.504,-706.543,999.512
1745825146.832,-117.676,-328.125,-1000.000,-74.707
1745825146.836,-1000.000,-1000.000,-89.355,-1000.000
1745825146.793,-49.805,-187.988,-1000.000,-190.918
1745825146.797,-1000.000,-1000.000,67.383,-1000.000
1745825146.801,83.984,-93.750,999.512,-73.242
1745825146.805,999.512,993.164,585.938,999.512
1745825146.809,999.512,999.512,-670.898,999.512
1745825146.813,240.723,222.656,-1000.000,182.617
1745825146.817,-1000.000,-1000.000,103.027,-1000.000
1745825146.820,-227.539,-242.676,999.512,-191.895
1745825146.824,999.512,999.512,536.621,999.512
1745825146.828,999.512,916.504,-706.543,999.512
1745825146.832,-117.676,-328.125,-1000.000,-74.707
1745825146.836,-1000.000,-1000.000,-89.355,-1000.000
1745825146.838,-325.684,-350.586,999.512,-205.566
1745825146.842,973.145,925.293,822.754,984.863
1745825146.846,999.512,999.512,-287.598,999.512
1745825146.850,-180.664,-38.086,-1000.000,71.289
1745825146.854,-1000.000,-1000.000,-218.262,-1000.000
1745825146.858,-196.777,-197.266,999.512,-178.711
1745825146.862,999.512,999.512,924.316,999.512
1745825146.865,949.707,999.512,-146.484,999.512
1745825146.869,-270.996,-156.738,-1000.000,2.930
1745825146.873,-1000.000,-1000.000,-367.188,-1000.000
1745825146.877,-463.867,-500.977,923.828,-304.199
1745825146.881,826.660,814.453,984.863,923.340
1745825146.838,-325.684,-350.586,999.512,-205.566
1745825146.842,973.145,925.293,822.754,984.863
1745825146.846,999.512,999.512,-287.598,999.512
1745825146.850,-180.664,-38.086,-1000.000,71.289
1745825146.854,-1000.000,-1000.000,-218.262,-1000.000
1745825146.858,-196.777,-197.266,999.512,-178.711
1745825146.862,999.512,999.512,924.316,999.512
1745825146.865,949.707,999.512,-146.484,999.512
1745825146.869,-270.996,-156.738,-1000.000,2.930
1745825146.873,-1000.000,-1000.000,-367.188,-1000.000
1745825146.877,-463.867,-500.977,923.828,-304.199
1745825146.881,826.660,814.453,984.863,923.340
1745825146.838,-325.684,-350.586,999.512,-205.566
1745825146.842,973.145,925.293,822.754,984.863
1745825146.846,999.512,999.512,-287.598,999.512
1745825146.850,-180.664,-38.086,-1000.000,71.289
1745825146.854,-1000.000,-1000.000,-218.262,-1000.000
1745825146.858,-196.777,-197.266,999.512,-178.711
1745825146.862,999.512,999.512,924.316,999.512
1745825146.865,949.707,999.512,-146.484,999.512
1745825146.869,-270.996,-156.738,-1000.000,2.930
1745825146.873,-1000.000,-1000.000,-367.188,-1000.000
1745825146.877,-463.867,-500.977,923.828,-304.199
1745825146.881,826.660,814.453,984.863,923.340
1745825146.883,999.512,999.512,-70.801,999.512
1745825146.887,265.137,225.586,-1000.000,353.516
1745825146.891,-1000.000,-1000.000,-593.262,-1000.000
1745825146.895,-859.863,-921.387,712.891,-740.723
1745825146.899,506.836,417.969,999.512,660.156
1745825146.903,999.512,999.512,173.340,999.512
1745825146.907,839.844,907.227,-1000.000,824.219
1745825146.910,-394.531,-274.414,-691.895,-409.668
1745825146.914,-1000.000,-1000.000,586.914,-1000.000
1745825146.918,-146.973,-174.316,999.512,-91.797
1745825146.922,999.512,999.512,203.125,999.512
1745825146.926,396.973,272.949,-1000.000,377.441
1745825146.883,999.512,999.512,-70.801,999.512
1745825146.887,265.137,225.586,-1000.000,353.516
1745825146.891,-1000.000,-1000.000,-593.262,-1000.000
1745825146.895,-859.863,-921.387,712.891,-740.723
1745825146.899,506.836,417.969,999.512,660.156
1745825146.903,999.512,999.512,173.340,999.512
1745825146.907,839.844,907.227,-1000.000,824.219
1745825146.910,-394.531,-274.414,-691.895,-409.668
1745825146.914,-1000.000,-1000.000,586.914,-1000.000
1745825146.918,-146.973,-174.316,999.512,-91.797
1745825146.922,999.512,999.512,203.125,999.512
1745825146.926,396.973,272.949,-1000.000,377.441
1745825146.943,-932.129,-991.699,-841.797,-937.012
1745825146.947,-1000.000,-1000.000,379.883,-1000.000
1745825146.951,-243.164,-258.301,999.512,-209.961
1745825146.955,999.512,999.512,393.066,999.512
1745825146.959,640.137,452.637,-897.949,606.445
1745825146.963,-754.395,-908.691,-899.902,-771.484
1745825146.967,-1000.000,-1000.000,312.500,-1000.000
1745825146.970,-182.617,-217.285,999.512,-190.918
1745825146.974,999.023,999.512,474.609,999.512
1745825146.978,999.512,984.863,-784.180,974.609
1745825146.982,-126.953,-208.984,-1000.000,-211.914
1745825146.986,-1000.000,-1000.000,18.555,-1000.000
1745825146.943,-932.129,-991.699,-841.797,-937.012
1745825146.947,-1000.000,-1000.000,379.883,-1000.000
1745825146.951,-243.164,-258.301,999.512,-209.961
1745825146.955,999.512,999.512,393.066,999.512
1745825146.959,640.137,452.637,-897.949,606.445
1745825146.963,-754.395,-908.691,-899.902,-771.484
1745825146.967,-1000.000,-1000.000,312.500,-1000.000
1745825146.970,-182.617,-217.285,999.512,-190.918
1745825146.974,999.023,999.512,474.609,999.512
1745825146.978,999.512,984.863,-784.180,974.609
1745825146.982,-126.953,-208.984,-1000.000,-211.914
1745825146.986,-1000.000,-1000.000,18.555,-1000.000
1745825146.943,-932.129,-991.699,-841.797,-937.012
1745825146.947,-1000.000,-1000.000,379.883,-1000.000
1745825146.951,-243.164,-258.301,999.512,-209.961
1745825146.955,999.512,999.512,393.066,999.512
1745825146.959,640.137,452.637,-897.949,606.445
1745825146.963,-754.395,-908.691,-899.902,-771.484
1745825146.967,-1000.000,-1000.000,312.500,-1000.000
1745825146.970,-182.617,-217.285,999.512,-190.918
1745825146.974,999.023,999.512,474.609,999.512
1745825146.978,999.512,984.863,-784.180,974.609
1745825146.982,-126.953,-208.984,-1000.000,-211.914
1745825146.986,-1000.000,-1000.000,18.555,-1000.000
1745825146.988,-514.160,-638.184,999.512,-472.656
1745825146.992,839.355,715.332,534.180,854.980
1745825146.996,999.512,999.512,-665.527,999.512
1745825147.000,-12.695,-17.090,-1000.000,-48.340
1745825147.004,-1000.000,-1000.000,-140.137,-1000.000
1745825147.008,-198.730,-173.828,999.512,-196.289
1745825147.012,999.512,999.512,742.188,999.512
1745825147.015,999.512,991.699,-430.176,999.512
1745825147.019,-149.902,-240.723,-1000.000,-149.414
1745825147.023,-1000.000,-1000.000,-293.457,-1000.000
1745825147.027,-1000.000,-1000.000,999.512,-943.359
1745825147.031,74.219,24.414,803.223,229.004
1745825146.988,-514.160,-638.184,999.512,-472.656
1745825146.992,839.355,715.332,534.180,854.980
1745825146.996,999.512,999.512,-665.527,999.512
1745825147.000,-12.695,-17.090,-1000.000,-48.340
1745825147.004,-1000.000,-1000.000,-140.137,-1000.000
1745825147.008,-198.730,-173.828,999.512,-196.289
1745825147.012,999.512,999.512,742.188,999.512
1745825147.015,999.512,991.699,-430.176,999.512
1745825147.019,-149.902,-240.723,-1000.000,-149.414
1745825147.023,-1000.000,-1000.000,-293.457,-1000.000
1745825147.027,-1000.000,-1000.000,999.512,-943.359
1745825147.031,74.219,24.414,803.223,229.004
1745825146.988,-514.160,-638.184,999.512,-472.656
1745825146.992,839.355,715.332,534.180,854.980
1745825146.996,999.512,999.512,-665.527,999.512
1745825147.000,-12.695,-17.090,-1000.000,-48.340
1745825147.004,-1000.000,-1000.000,-140.137,-1000.000
1745825147.008,-198.730,-173.828,999.512,-196.289
1745825147.012,999.512,999.512,742.188,999.512
1745825147.015,999.512,991.699,-430.176,999.512
1745825147.019,-149.902,-240.723,-1000.000,-149.414
1745825147.023,-1000.000,-1000.000,-293.457,-1000.000
1745825147.027,-1000.000,-1000.000,999.512,-943.359
1745825147.031,74.219,24.414,803.223,229.004
1745825147.036,999.512,999.512,-344.727,999.512
1745825147.040,143.066,146.973,-1000.000,124.023
1745825147.044,-1000.000,-1000.000,-276.855,-1000.000
1745825147.048,-1000.000,-1000.000,999.512,-1000.000
1745825147.052,-23.438,-35.156,860.352,79.590
1745825147.056,999.512,999.512,-194.336,999.512
1745825147.060,197.266,289.062,-1000.000,200.684
1745825147.063,-1000.000,-965.820,-622.559,-1000.000
1745825147.067,-1000.000,-1000.000,698.730,-1000.000
1745825147.071,-225.586,-233.398,999.512,-158.203
1745825147.075,999.512,999.512,-56.152,999.512
1745825147.079,285.156,294.922,-1000.000,244.629
1745825147.036,999.512,999.512,-344.727,999.512
1745825147.040,143.066,146.973,-1000.000,124.023
1745825147.044,-1000.000,-1000.000,-276.855,-1000.000
1745825147.048,-1000.000,-1000.000,999.512,-1000.000
1745825147.052,-23.438,-35.156,860.352,79.590
1745825147.056,999.512,999.512,-194.336,999.512
1745825147.060,197.266,289.062,-1000.000,200.684
1745825147.063,-1000.000,-965.820,-622.559,-1000.000
1745825147.067,-1000.000,-1000.000,698.730,-1000.000
1745825147.071,-225.586,-233.398,999.512,-158.203
1745825147.075,999.512,999.512,-56.152,999.512
1745825147.079,285.156,294.922,-1000.000,244.629
1745825147.036,999.512,999.512,-344.727,999.512
1745825147.040,143.066,146.973,-1000.000,124.023
1745825147.044,-1000.000,-1000.000,-276.855,-1000.000
1745825147.048,-1000.000,-1000.000,999.512,-1000.000
1745825147.052,-23.438,-35.156,860.352,79.590
1745825147.056,999.512,999.512,-194.336,999.512
1745825147.060,197.266,289.062,-1000.000,200.684
1745825147.063,-1000.000,-965.820,-622.559,-1000.000
1745825147.067,-1000.000,-1000.000,698.730,-1000.000
1745825147.071,-225.586,-233.398,999.512,-158.203
1745825147.075,999.512,999.512,-56.152,999.512
1745825147.079,285.156,294.922,-1000.000,244.629
1745825147.078,-993.652,-992.676,-729.004,-1000.000
1745825147.082,-1000.000,-1000.000,530.273,-1000.000
1745825147.086,-217.285,-198.730,999.512,-200.684
1745825147.090,999.512,999.512,234.863,999.512
1745825147.094,631.836,751.953,-1000.000,527.832
1745825147.098,-754.883,-610.352,-791.504,-833.496
1745825147.102,-1000.000,-1000.000,466.797,-1000.000
1745825147.105,-231.934,-212.402,999.512,-218.750
1745825147.109,999.512,999.512,134.277,999.512
1745825147.113,571.777,522.461,-1000.000,507.812
1745825147.117,-825.684,-858.398,-897.949,-857.422
1745825147.121,-1000.000,-1000.000,252.930,-1000.000
1745825147.078,-993.652,-992.676,-729.004,-1000.000
1745825147.082,-1000.000,-1000.000,530.273,-1000.000
1745825147.086,-217.285,-198.730,999.512,-200.684
1745825147.090,999.512,999.512,234.863,999.512
1745825147.094,631.836,751.953,-1000.000,527.832
1745825147.098,-754.883,-610.352,-791.504,-833.496
1745825147.102,-1000.000,-1000.000,466.797,-1000.000
1745825147.105,-231.934,-212.402,999.512,-218.750
1745825147.109,999.512,999.512,134.277,999.512
1745825147.113,571.777,522.461,-1000.000,507.812
1745825147.117,-825.684,-858.398,-897.949,-857.422
1745825147.121,-1000.000,-1000.000,252.930,-1000.000
1745825147.078,-993.652,-992.676,-729.004,-1000.000
1745825147.082,-1000.000,-1000.000,530.273,-1000.000
1745825147.086,-217.285,-198.730,999.512,-200.684
1745825147.090,999.512,999.512,234.863,999.512
1745825147.094,631.836,751.953,-1000.000,527.832
1745825147.098,-754.883,-610.352,-791.504,-833.496
1745825147.102,-1000.000,-1000.000,466.797,-1000.000
1745825147.105,-231.934,-212.402,999.512,-218.750
1745825147.109,999.512,999.512,134.277,999.512
1745825147.113,571.777,522.461,-1000.000,507.812
1745825147.117,-825.684,-858.398,-897.949,-857.422
1745825147.121,-1000.000,-1000.000,252.930,-1000.000
1745825147.123,-192.871,-230.469,999.512,-233.398
1745825147.127,999.512,996.582,482.422,999.512
1745825147.131,996.582,999.512,-769.043,918.457
1745825147.135,-229.492,-205.078,-1000.000,-359.863
1745825147.139,-1000.000,-1000.000,79.590,-1000.000
1745825147.143,-192.383,-162.598,999.512,-189.941
1745825147.147,999.512,999.512,673.340,999.512
1745825147.150,953.613,828.613,-513.672,921.875
1745825147.154,-273.438,-462.891,-1000.000,-321.777
1745825147.158,-1000.000,-1000.000,-131.836,-1000.000
1745825147.162,-476.074,-545.898,999.512,-445.312
1745825147.166,825.684,766.602,737.305,845.703
1745825147.123,-192.871,-230.469,999.512,-233.398
1745825147.127,999.512,996.582,482.422,999.512
1745825147.131,996.582,999.512,-769.043,918.457
1745825147.135,-229.492,-205.078,-1000.000,-359.863
1745825147.139,-1000.000,-1000.000,79.590,-1000.000
1745825147.143,-192.383,-162.598,999.512,-189.941
1745825147.147,999.512,999.512,673.340,999.512
1745825147.150,953.613,828.613,-513.672,921.875
1745825147.154,-273.438,-462.891,-1000.000,-321.777
1745825147.158,-1000.000,-1000.000,-131.836,-1000.000
1745825147.162,-476.074,-545.898,999.512,-445.312
1745825147.166,825.684,766.602,737.305,845.703
1745825147.648,-1000.000,-1000.000,98.145,-1000.000
1745825147.652,-481.445,-288.574,999.512,-362.305
1745825147.656,999.512,999.512,533.203,999.512
1745825147.660,669.434,858.398,-735.352,812.500
1745825147.664,-828.125,-757.324,-1000.000,-662.598
1745825147.668,-1000.000,-710.938,19.531,-1000.000
1745825147.672,45.898,786.621,999.512,190.918
1745825147.675,999.512,999.512,553.223,999.512
1745825147.679,479.492,451.660,-674.316,499.023
1745825147.683,-894.531,-880.371,-1000.000,-846.191
1745825147.687,-1000.000,-1000.000,-208.496,-1000.000
1745825147.691,-1000.000,-1000.000,999.512,-1000.000
1745825147.123,-192.871,-230.469,999.512,-233.398
1745825147.127,999.512,996.582,482.422,999.512
1745825147.131,996.582,999.512,-769.043,918.457
1745825147.135,-229.492,-205.078,-1000.000,-359.863
1745825147.139,-1000.000,-1000.000,79.590,-1000.000
1745825147.143,-192.383,-162.598,999.512,-189.941
1745825147.147,999.512,999.512,673.340,999.512
1745825147.150,953.613,828.613,-513.672,921.875
1745825147.154,-273.438,-462.891,-1000.000,-321.777
1745825147.158,-1000.000,-1000.000,-131.836,-1000.000
1745825147.162,-476.074,-545.898,999.512,-445.312
1745825147.166,825.684,766.602,737.305,845.703
1745825147.168,999.512,999.512,-437.012,999.512
1745825147.172,202.637,172.852,-1000.000,151.367
1745825147.176,-1000.000,-1000.000,-177.246,-1000.000
1745825147.180,-544.434,-592.285,999.512,-534.668
1745825147.184,827.637,771.484,753.418,813.477
1745825147.188,999.512,999.512,-421.387,999.512
1745825147.192,347.656,439.941,-1000.000,309.570
1745825147.195,-934.570,-871.094,-186.523,-955.078
1745825147.199,-1000.000,-1000.000,971.680,-1000.000
1745825147.203,-10.254,-89.355,916.016,4.395
1745825147.207,999.512,999.512,-151.367,999.512
1745825147.211,189.941,195.312,-1000.000,212.402
1745825147.168,999.512,999.512,-437.012,999.512
1745825147.172,202.637,172.852,-1000.000,151.367
1745825147.176,-1000.000,-1000.000,-177.246,-1000.000
1745825147.180,-544.434,-592.285,999.512,-534.668
1745825147.184,827.637,771.484,753.418,813.477
1745825147.188,999.512,999.512,-421.387,999.512
1745825147.192,347.656,439.941,-1000.000,309.570
1745825147.195,-934.570,-871.094,-186.523,-955.078
1745825147.199,-1000.000,-1000.000,971.680,-1000.000
1745825147.203,-10.254,-89.355,916.016,4.395
1745825147.207,999.512,999.512,-151.367,999.512
1745825147.211,189.941,195.312,-1000.000,212.402
1745825147.213,-1000.000,-1000.000,-463.867,-1000.000
1745825147.217,-879.883,-929.688,850.098,-833.984
1745825147.221,437.988,370.117,999.512,497.070
1745825147.225,999.512,999.512,-34.668,999.512
1745825147.229,203.613,136.719,-1000.000,207.031
1745825147.233,-992.676,-1000.000,-484.375,-996.582
1745825147.237,-1000.000,-1000.000,835.938,-1000.000
1745825147.240,-63.477,-136.719,999.512,-31.738
1745825147.244,999.512,999.512,-15.625,999.512
1745825147.248,363.770,315.918,-1000.000,325.684
1745825147.252,-949.219,-990.723,-772.461,-962.891
1745825147.256,-1000.000,-1000.000,451.172,-1000.000
1745825147.213,-1000.000,-1000.000,-463.867,-1000.000
1745825147.217,-879.883,-929.688,850.098,-833.984
1745825147.221,437.988,370.117,999.512,497.070
1745825147.225,999.512,999.512,-34.668,999.512
1745825147.229,203.613,136.719,-1000.000,207.031
1745825147.233,-992.676,-1000.000,-484.375,-996.582
1745825147.237,-1000.000,-1000.000,835.938,-1000.000
1745825147.240,-63.477,-136.719,999.512,-31.738
1745825147.244,999.512,999.512,-15.625,999.512
1745825147.248,363.770,315.918,-1000.000,325.684
1745825147.252,-949.219,-990.723,-772.461,-962.891
1745825147.256,-1000.000,-1000.000,451.172,-1000.000
1745825147.213,-1000.000,-1000.000,-463.867,-1000.000
1745825147.217,-879.883,-929.688,850.098,-833.984
1745825147.221,437.988,370.117,999.512,497.070
1745825147.225,999.512,999.512,-34.668,999.512
1745825147.229,203.613,136.719,-1000.000,207.031
1745825147.233,-992.676,-1000.000,-484.375,-996.582
1745825147.237,-1000.000,-1000.000,835.938,-1000.000
1745825147.240,-63.477,-136.719,999.512,-31.738
1745825147.244,999.512,999.512,-15.625,999.512
1745825147.248,363.770,315.918,-1000.000,325.684
1745825147.252,-949.219,-990.723,-772.461,-962.891
1745825147.256,-1000.000,-1000.000,451.172,-1000.000
1745825147.788,-205.566,-203.613,444.336,-266.602
1745825147.792,962.891,963.867,999.512,944.824
1745825147.796,999.512,999.512,346.191,999.512
1745825147.800,509.277,501.953,-902.344,418.945
1745825147.804,-838.379,-843.262,-1000.000,-882.812
1745825147.808,-1000.000,-1000.000,140.625,-1000.000
1745825147.812,-239.746,-234.863,999.512,-244.629
1745825147.815,999.512,999.512,460.938,999.512
1745825147.819,428.711,343.750,-819.824,382.812
1745825147.823,-908.203,-950.684,-1000.000,-931.641
1745825147.827,-1000.000,-1000.000,96.191,-1000.000
1745825147.831,-540.527,-496.094,999.512,-556.641
1745825147.318,809.570,692.383,-738.281,784.668
1745825147.322,-577.148,-727.051,-1000.000,-597.656
1745825147.326,-1000.000,-1000.000,67.871,-1000.000
1745825147.330,-307.129,-317.871,999.512,-280.762
1745825147.334,904.785,900.879,634.766,921.875
1745825147.338,999.512,999.512,-553.711,999.512
1745825147.342,220.703,216.309,-1000.000,170.898
1745825147.345,-1000.000,-1000.000,-125.000,-1000.000
1745825147.349,-588.867,-669.922,999.512,-575.684
1745825147.353,806.152,728.516,783.691,797.363
1745825147.357,999.512,999.512,-352.539,999.512
1745825147.361,191.406,159.180,-1000.000,148.438
1745825147.318,809.570,692.383,-738.281,784.668
1745825147.322,-577.148,-727.051,-1000.000,-597.656
1745825147.326,-1000.000,-1000.000,67.871,-1000.000
1745825147.330,-307.129,-317.871,999.512,-280.762
1745825147.334,904.785,900.879,634.766,921.875
1745825147.338,999.512,999.512,-553.711,999.512
1745825147.342,220.703,216.309,-1000.000,170.898
1745825147.345,-1000.000,-1000.000,-125.000,-1000.000
1745825147.349,-588.867,-669.922,999.512,-575.684
1745825147.353,806.152,728.516,783.691,797.363
1745825147.357,999.512,999.512,-352.539,999.512
1745825147.361,191.406,159.180,-1000.000,148.438
1745825147.363,-1000.000,-1000.000,-262.207,-1000.000
1745825147.367,-757.324,-796.387,997.070,-734.863
1745825147.371,618.652,563.477,897.949,625.977
1745825147.375,999.512,999.512,-206.543,999.512
1745825147.379,183.594,186.523,-1000.000,178.223
1745825147.383,-1000.000,-1000.000,-303.223,-1000.000
1745825147.387,-762.207,-713.379,966.797,-756.836
1745825147.390,613.281,676.758,993.164,613.281
1745825147.394,999.512,999.512,-75.195,999.512
1745825147.398,136.230,106.934,-1000.000,133.789
1745825147.402,-1000.000,-1000.000,-497.559,-1000.000
1745825147.406,-1000.000,-1000.000,792.969,-1000.000
1745825147.363,-1000.000,-1000.000,-262.207,-1000.000
1745825147.367,-757.324,-796.387,997.070,-734.863
1745825147.371,618.652,563.477,897.949,625.977
1745825147.375,999.512,999.512,-206.543,999.512
1745825147.379,183.594,186.523,-1000.000,178.223
1745825147.383,-1000.000,-1000.000,-303.223,-1000.000
1745825147.387,-762.207,-713.379,966.797,-756.836
1745825147.390,613.281,676.758,993.164,613.281
1745825147.394,999.512,999.512,-75.195,999.512
1745825147.398,136.230,106.934,-1000.000,133.789
1745825147.402,-1000.000,-1000.000,-497.559,-1000.000
1745825147.406,-1000.000,-1000.000,792.969,-1000.000
1745825147.873,174.805,215.332,-1000.000,152.344
1745825147.877,-1000.000,-1000.000,-331.055,-1000.000
1745825147.881,-885.742,-673.828,961.426,-824.707
1745825147.885,432.617,708.496,956.055,509.277
1745825147.889,999.512,999.512,-132.812,999.512
1745825147.893,119.141,125.488,-1000.000,118.164
1745825147.897,-998.535,-993.652,-453.125,-1000.000
1745825147.900,-1000.000,-1000.000,864.746,-1000.000
1745825147.904,-260.254,-259.766,934.570,-210.449
1745825147.908,999.512,999.512,-120.605,999.512
1745825147.912,239.746,230.957,-1000.000,202.148
1745825147.916,-1000.000,-1000.000,-611.328,-1000.000
1745825147.363,-1000.000,-1000.000,-262.207,-1000.000
1745825147.367,-757.324,-796.387,997.070,-734.863
1745825147.371,618.652,563.477,897.949,625.977
1745825147.375,999.512,999.512,-206.543,999.512
1745825147.379,183.594,186.523,-1000.000,178.223
1745825147.383,-1000.000,-1000.000,-303.223,-1000.000
1745825147.387,-762.207,-713.379,966.797,-756.836
1745825147.390,613.281,676.758,993.164,613.281
1745825147.394,999.512,999.512,-75.195,999.512
1745825147.398,136.230,106.934,-1000.000,133.789
1745825147.402,-1000.000,-1000.000,-497.559,-1000.000
1745825147.406,-1000.000,-1000.000,792.969,-1000.000
1745825147.408,-30.762,-48.340,999.512,23.926
1745825147.412,999.512,999.512,106.934,999.512
1745825147.416,322.266,354.004,-1000.000,319.824
1745825147.420,-962.402,-954.590,-667.969,-964.355
1745825147.424,-1000.000,-1000.000,611.816,-1000.000
1745825147.428,-134.277,-86.426,999.512,-74.219
1745825147.432,999.512,999.512,363.770,999.512
1745825147.435,522.949,547.852,-890.137,533.691
1745825147.439,-846.680,-811.523,-957.031,-811.523
1745825147.443,-1000.000,-1000.000,260.742,-1000.000
1745825147.447,-226.562,-232.910,999.512,-226.562
1745825147.451,999.512,999.512,341.309,999.512
1745825147.408,-30.762,-48.340,999.512,23.926
1745825147.412,999.512,999.512,106.934,999.512
1745825147.416,322.266,354.004,-1000.000,319.824
1745825147.420,-962.402,-954.590,-667.969,-964.355
1745825147.424,-1000.000,-1000.000,611.816,-1000.000
1745825147.428,-134.277,-86.426,999.512,-74.219
1745825147.432,999.512,999.512,363.770,999.512
1745825147.435,522.949,547.852,-890.137,533.691
1745825147.439,-846.680,-811.523,-957.031,-811.523
1745825147.443,-1000.000,-1000.000,260.742,-1000.000
1745825147.447,-226.562,-232.910,999.512,-226.562
1745825147.451,999.512,999.512,341.309,999.512
1745825147.408,-30.762,-48.340,999.512,23.926
1745825147.412,999.512,999.512,106.934,999.512
1745825147.416,322.266,354.004,-1000.000,319.824
1745825147.420,-962.402,-954.590,-667.969,-964.355
1745825147.424,-1000.000,-1000.000,611.816,-1000.000
1745825147.428,-134.277,-86.426,999.512,-74.219
1745825147.432,999.512,999.512,363.770,999.512
1745825147.435,522.949,547.852,-890.137,533.691
1745825147.439,-846.680,-811.523,-957.031,-811.523
1745825147.443,-1000.000,-1000.000,260.742,-1000.000
1745825147.447,-226.562,-232.910,999.512,-226.562
1745825147.451,999.512,999.512,341.309,999.512
1745825147.453,719.727,582.520,-928.223,648.438
1745825147.457,-660.156,-804.688,-951.172,-729.492
1745825147.461,-1000.000,-1000.000,230.469,-1000.000
1745825147.465,-169.922,-174.316,999.512,-178.711
1745825147.469,982.910,979.004,490.723,999.512
1745825147.473,999.512,999.512,-750.977,999.512
1745825147.477,-9.766,8.301,-1000.000,-119.629
1745825147.480,-1000.000,-1000.000,108.887,-1000.000
1745825147.484,-742.676,-907.715,999.512,-695.801
1745825147.488,623.535,406.738,504.883,652.832
1745825147.492,999.512,999.512,-642.578,999.512
1745825147.496,-36.621,-62.012,-1000.000,-80.078
1745825147.453,719.727,582.520,-928.223,648.438
1745825147.457,-660.156,-804.688,-951.172,-729.492
1745825147.461,-1000.000,-1000.000,230.469,-1000.000
1745825147.465,-169.922,-174.316,999.512,-178.711
1745825147.469,982.910,979.004,490.723,999.512
1745825147.473,999.512,999.512,-750.977,999.512
1745825147.477,-9.766,8.301,-1000.000,-119.629
1745825147.480,-1000.000,-1000.000,108.887,-1000.000
1745825147.484,-742.676,-907.715,999.512,-695.801
1745825147.488,623.535,406.738,504.883,652.832
1745825147.492,999.512,999.512,-642.578,999.512
1745825147.496,-36.621,-62.012,-1000.000,-80.078
1745825147.453,719.727,582.520,-928.223,648.438
1745825147.457,-660.156,-804.688,-951.172,-729.492
1745825147.461,-1000.000,-1000.000,230.469,-1000.000
1745825147.465,-169.922,-174.316,999.512,-178.711
1745825147.469,982.910,979.004,490.723,999.512
1745825147.473,999.512,999.512,-750.977,999.512
1745825147.477,-9.766,8.301,-1000.000,-119.629
1745825147.480,-1000.000,-1000.000,108.887,-1000.000
1745825147.484,-742.676,-907.715,999.512,-695.801
1745825147.488,623.535,406.738,504.883,652.832
1745825147.492,999.512,999.512,-642.578,999.512
1745825147.496,-36.621,-62.012,-1000.000,-80.078
1745825147.498,-1000.000,-1000.000,-112.305,-1000.000
1745825147.502,-533.203,-562.500,999.512,-498.047
1745825147.506,832.031,804.199,755.859,847.168
1745825147.510,999.512,999.512,-398.926,999.512
1745825147.514,61.523,34.180,-1000.000,12.207
1745825147.518,-1000.000,-1000.000,-175.293,-1000.000
1745825147.522,-200.195,-172.363,999.512,-200.195
1745825147.525,999.512,999.512,712.891,999.512
1745825147.529,999.512,976.074,-453.613,999.512
1745825147.533,-0.488,-202.148,-1000.000,-95.703
1745825147.537,-1000.000,-1000.000,-319.824,-1000.000
1745825147.541,-640.137,-765.625,960.449,-835.449
1745825147.498,-1000.000,-1000.000,-112.305,-1000.000
1745825147.502,-533.203,-562.500,999.512,-498.047
1745825147.506,832.031,804.199,755.859,847.168
1745825147.510,999.512,999.512,-398.926,999.512
1745825147.514,61.523,34.180,-1000.000,12.207
1745825147.518,-1000.000,-1000.000,-175.293,-1000.000
1745825147.522,-200.195,-172.363,999.512,-200.195
1745825147.525,999.512,999.512,712.891,999.512
1745825147.529,999.512,976.074,-453.613,999.512
1745825147.533,-0.488,-202.148,-1000.000,-95.703
1745825147.537,-1000.000,-1000.000,-319.824,-1000.000
1745825147.541,-640.137,-765.625,960.449,-835.449
1745825147.544,701.172,526.855,942.871,444.336
1745825147.548,999.512,999.512,-149.902,999.512
1745825147.552,196.289,175.781,-1000.000,148.438
1745825147.556,-1000.000,-1000.000,-485.840,-1000.000
1745825147.560,-599.121,-834.473,804.199,-883.301
1745825147.564,777.344,513.184,999.512,435.059
1745825147.568,999.512,999.512,78.125,999.512
1745825147.571,214.355,149.902,-1000.000,142.090
1745825147.575,-998.047,-999.023,-763.672,-999.023
1745825147.579,-1000.000,-1000.000,508.301,-1000.000
1745825147.583,16.113,-141.602,999.512,-181.152
1745825147.587,999.512,999.512,123.047,999.512
1745825147.544,701.172,526.855,942.871,444.336
1745825147.548,999.512,999.512,-149.902,999.512
1745825147.552,196.289,175.781,-1000.000,148.438
1745825147.556,-1000.000,-1000.000,-485.840,-1000.000
1745825147.560,-599.121,-834.473,804.199,-883.301
1745825147.564,777.344,513.184,999.512,435.059
1745825147.568,999.512,999.512,78.125,999.512
1745825147.571,214.355,149.902,-1000.000,142.090
1745825147.575,-998.047,-999.023,-763.672,-999.023
1745825147.579,-1000.000,-1000.000,508.301,-1000.000
1745825147.583,16.113,-141.602,999.512,-181.152
1745825147.587,999.512,999.512,123.047,999.512
1745825147.544,701.172,526.855,942.871,444.336
1745825147.548,999.512,999.512,-149.902,999.512
