timestamps,TP9,AF7,AF8,TP10
1741604733.593,572.266,964.355,0.488,596.680
1741604733.597,999.512,967.773,33.203,999.512
1741604733.601,851.074,938.965,13.672,858.398
1741604733.605,999.512,-371.094,17.090,999.512
1741604733.609,31.250,-1000.000,26.367,43.457
1741604733.613,-1000.000,-874.023,8.789,-1000.000
1741604733.617,-970.215,-1000.000,-37.109,-978.516
1741604733.620,-982.910,-543.945,-62.988,-980.469
1741604733.624,-1000.000,928.711,-67.871,-1000.000
1741604733.628,-1000.000,758.301,-25.879,-1000.000
1741604733.632,-966.797,-714.844,4.395,-970.703
1741604733.636,-996.582,-1000.000,9.277,-990.723
1741604733.653,-1000.000,-921.387,18.066,-1000.000
1741604733.657,263.184,369.629,-20.508,209.961
1741604733.661,999.512,999.512,18.066,999.512
1741604733.665,915.039,912.109,68.848,921.875
1741604733.669,913.086,909.668,55.176,911.133
1741604733.673,999.512,999.512,24.902,999.512
1741604733.677,856.934,705.566,-5.371,865.723
1741604733.680,-597.656,-683.105,-13.184,-585.449
1741604733.684,-1000.000,-1000.000,-61.523,-1000.000
1741604733.688,-927.246,-819.336,-58.594,-926.758
1741604733.692,-1000.000,727.539,-66.406,-1000.000
1741604733.696,-941.895,918.457,-73.242,-937.012
1741604733.653,-1000.000,-921.387,18.066,-1000.000
1741604733.657,263.184,369.629,-20.508,209.961
1741604733.661,999.512,999.512,18.066,999.512
1741604733.665,915.039,912.109,68.848,921.875
1741604733.669,913.086,909.668,55.176,911.133
1741604733.673,999.512,999.512,24.902,999.512
1741604733.677,856.934,705.566,-5.371,865.723
1741604733.680,-597.656,-683.105,-13.184,-585.449
1741604733.684,-1000.000,-1000.000,-61.523,-1000.000
1741604733.688,-927.246,-819.336,-58.594,-926.758
1741604733.692,-1000.000,727.539,-66.406,-1000.000
1741604733.696,-941.895,918.457,-73.242,-937.012
1741604733.743,562.500,830.566,-96.191,516.602
1741604733.747,999.512,968.750,-66.895,999.512
1741604733.751,835.938,964.355,-51.270,839.355
1741604733.755,999.512,867.188,-47.852,999.512
1741604733.759,217.773,-601.074,-32.227,247.559
1741604733.763,-1000.000,-1000.000,-41.992,-1000.000
1741604733.767,-1000.000,-934.570,-71.777,-1000.000
1741604733.770,-910.156,-953.125,-72.754,-906.738
1741604733.774,-1000.000,-1000.000,-44.922,-1000.000
1741604733.778,-877.441,-493.164,-47.852,-873.047
1741604733.782,582.031,883.789,-57.617,586.914
1741604733.786,999.512,959.473,-11.230,999.512
1741604733.789,876.953,948.730,11.719,877.930
1741604733.793,946.777,926.758,4.883,950.684
1741604733.797,999.512,-473.633,-4.395,999.512
1741604733.801,-25.879,-1000.000,-1.465,-11.719
1741604733.805,-1000.000,-1000.000,-25.879,-1000.000
1741604733.809,-962.402,-141.113,-35.645,-968.750
1741604733.813,-995.117,887.207,-22.949,-991.211
1741604733.816,-973.633,-525.879,-30.273,-982.910
1741604733.820,-989.746,-1000.000,-48.340,-977.539
1741604733.824,-1000.000,-841.309,-51.758,-1000.000
1741604733.828,222.656,492.676,-77.637,102.051
1741604733.832,999.512,999.512,-41.016,999.512
1741604734.299,999.512,999.512,-36.133,999.512
1741604734.303,898.438,992.188,12.207,908.691
1741604734.307,971.191,300.293,11.230,966.309
1741604734.311,970.215,-947.266,11.719,970.703
1741604734.315,954.590,-1000.000,21.484,963.867
1741604734.319,926.270,141.602,39.062,915.527
1741604734.323,999.512,999.512,32.227,999.512
1741604734.326,23.438,-544.922,36.133,186.523
1741604734.330,-1000.000,-1000.000,15.137,-1000.000
1741604734.334,-946.289,-869.141,-26.367,-969.238
1741604734.338,-968.750,-1000.000,-28.809,-959.473
1741604734.342,-979.492,-657.227,-40.527,-996.094
1741604733.833,912.109,905.762,8.301,925.781
1741604733.837,929.688,920.898,-4.395,929.688
1741604733.841,974.609,999.512,-19.043,962.891
1741604733.845,981.934,680.176,0.488,999.512
1741604733.849,-366.699,-737.305,41.992,-258.789
1741604733.853,-1000.000,-1000.000,21.484,-1000.000
1741604733.857,-931.641,-947.266,-15.137,-941.406
1741604733.860,-1000.000,-977.051,-33.203,-1000.000
1741604733.864,-946.777,-1000.000,-46.387,-945.312
1741604733.868,-1000.000,-1000.000,-44.434,-1000.000
1741604733.872,-222.168,303.711,-51.758,-282.227
1741604733.876,999.512,999.512,-41.992,976.074
1741604733.833,912.109,905.762,8.301,925.781
1741604733.837,929.688,920.898,-4.395,929.688
1741604733.841,974.609,999.512,-19.043,962.891
1741604733.845,981.934,680.176,0.488,999.512
1741604733.849,-366.699,-737.305,41.992,-258.789
1741604733.853,-1000.000,-1000.000,21.484,-1000.000
1741604733.857,-931.641,-947.266,-15.137,-941.406
1741604733.860,-1000.000,-977.051,-33.203,-1000.000
1741604733.864,-946.777,-1000.000,-46.387,-945.312
1741604733.868,-1000.000,-1000.000,-44.434,-1000.000
1741604733.872,-222.168,303.711,-51.758,-282.227
1741604733.876,999.512,999.512,-41.992,976.074
1741604733.878,958.984,841.797,-2.930,971.191
1741604733.882,947.754,999.512,-5.859,939.941
1741604733.886,905.762,426.758,-10.742,915.527
1741604733.890,999.512,-915.039,-4.883,999.512
1741604733.894,440.430,-1000.000,-15.137,416.992
1741604733.898,-942.383,-960.449,-10.742,-925.293
1741604733.902,-1000.000,-1000.000,-31.738,-1000.000
1741604733.905,-969.727,-897.461,-41.992,-970.215
1741604733.909,-946.289,-930.664,-26.367,-950.684
1741604733.913,-1000.000,-1000.000,-6.348,-1000.000
1741604733.917,-775.879,-125.977,-8.301,-830.078
1741604733.921,701.172,999.512,-16.602,636.230
1741604733.878,958.984,841.797,-2.930,971.191
1741604733.882,947.754,999.512,-5.859,939.941
1741604733.886,905.762,426.758,-10.742,915.527
1741604733.890,999.512,-915.039,-4.883,999.512
1741604733.894,440.430,-1000.000,-15.137,416.992
1741604733.898,-942.383,-960.449,-10.742,-925.293
1741604733.902,-1000.000,-1000.000,-31.738,-1000.000
1741604733.905,-969.727,-897.461,-41.992,-970.215
1741604733.909,-946.289,-930.664,-26.367,-950.684
1741604733.913,-1000.000,-1000.000,-6.348,-1000.000
1741604733.917,-775.879,-125.977,-8.301,-830.078
1741604733.921,701.172,999.512,-16.602,636.230
1741604733.923,999.512,952.148,25.391,999.512
1741604733.927,838.867,891.113,49.805,835.938
1741604733.931,999.512,999.512,21.484,999.512
1741604733.935,856.934,329.102,22.949,841.797
1741604733.939,-597.656,-984.863,26.367,-617.188
1741604733.943,-1000.000,-1000.000,-9.277,-1000.000
1741604733.947,-941.895,528.320,-17.090,-942.383
1741604733.950,-958.496,752.441,-19.531,-958.496
1741604733.954,-1000.000,-1000.000,-16.602,-1000.000
1741604733.958,-891.113,-786.133,-27.344,-890.137
1741604733.962,564.453,806.152,-35.645,567.871
1741604733.966,999.512,984.375,-7.812,999.512
1741604733.923,999.512,952.148,25.391,999.512
1741604733.927,838.867,891.113,49.805,835.938
1741604733.931,999.512,999.512,21.484,999.512
1741604733.935,856.934,329.102,22.949,841.797
1741604733.939,-597.656,-984.863,26.367,-617.188
1741604733.943,-1000.000,-1000.000,-9.277,-1000.000
1741604733.947,-941.895,528.320,-17.090,-942.383
1741604733.950,-958.496,752.441,-19.531,-958.496
1741604733.954,-1000.000,-1000.000,-16.602,-1000.000
1741604733.958,-891.113,-786.133,-27.344,-890.137
1741604733.962,564.453,806.152,-35.645,567.871
1741604733.966,999.512,984.375,-7.812,999.512
1741604733.968,827.637,940.918,19.531,833.008
1741604733.972,999.512,902.344,38.574,999.512
1741604733.976,339.355,-497.559,33.203,316.406
1741604733.980,-919.434,-1000.000,-13.672,-910.156
1741604733.984,-1000.000,-934.570,-47.363,-1000.000
1741604733.988,-849.609,269.531,-56.641,-820.801
1741604733.992,552.246,999.512,-61.523,584.961
1741604733.995,999.512,915.527,-23.438,999.512
1741604733.999,891.602,-216.797,3.906,894.043
1741604734.003,981.934,-1000.000,-8.789,982.910
1741604734.007,983.398,-587.891,-21.484,983.887
1741604734.011,894.531,706.543,-9.277,897.949
1741604733.968,827.637,940.918,19.531,833.008
1741604733.972,999.512,902.344,38.574,999.512
1741604733.976,339.355,-497.559,33.203,316.406
1741604733.980,-919.434,-1000.000,-13.672,-910.156
1741604733.984,-1000.000,-934.570,-47.363,-1000.000
1741604733.988,-849.609,269.531,-56.641,-820.801
1741604733.992,552.246,999.512,-61.523,584.961
1741604733.995,999.512,915.527,-23.438,999.512
1741604733.999,891.602,-216.797,3.906,894.043
1741604734.003,981.934,-1000.000,-8.789,982.910
1741604734.007,983.398,-587.891,-21.484,983.887
1741604734.011,894.531,706.543,-9.277,897.949
1741604734.016,999.512,999.512,6.836,999.512
1741604734.020,652.832,231.445,2.441,692.383
1741604734.024,-820.312,-902.344,-10.254,-776.367
1741604734.028,-1000.000,-1000.000,-40.527,-1000.000
1741604734.032,-936.035,-909.180,-54.199,-934.082
1741604734.036,-1000.000,604.492,-54.688,-1000.000
1741604734.040,-1000.000,970.215,-40.039,-1000.000
1741604734.043,-958.984,-601.562,-48.340,-964.355
1741604734.047,-1000.000,-1000.000,-56.641,-1000.000
1741604734.051,-1000.000,-825.195,-49.316,-1000.000
1741604734.055,359.375,533.203,-83.496,294.922
1741604734.059,999.512,999.512,-58.105,999.512
1741604734.016,999.512,999.512,6.836,999.512
1741604734.020,652.832,231.445,2.441,692.383
1741604734.024,-820.312,-902.344,-10.254,-776.367
1741604734.028,-1000.000,-1000.000,-40.527,-1000.000
1741604734.032,-936.035,-909.180,-54.199,-934.082
1741604734.036,-1000.000,604.492,-54.688,-1000.000
1741604734.040,-1000.000,970.215,-40.039,-1000.000
1741604734.043,-958.984,-601.562,-48.340,-964.355
1741604734.047,-1000.000,-1000.000,-56.641,-1000.000
1741604734.051,-1000.000,-825.195,-49.316,-1000.000
1741604734.055,359.375,533.203,-83.496,294.922
1741604734.059,999.512,999.512,-58.105,999.512
1741604734.074,910.645,854.980,-21.484,912.598
1741604734.078,902.832,989.746,-20.996,904.785
1741604734.082,999.512,973.633,-18.555,999.512
1741604734.086,607.910,-322.266,-10.742,587.891
1741604734.090,-869.629,-1000.000,-29.297,-845.703
1741604734.094,-992.676,-977.539,-45.898,-1000.000
1741604734.098,-1000.000,182.617,-51.270,-1000.000
1741604734.101,-688.965,999.512,-57.617,-460.449
1741604734.105,795.410,919.434,-49.805,863.281
1741604734.109,999.512,903.809,-23.438,999.512
1741604734.113,842.285,999.512,-7.324,861.328
1741604734.117,999.512,464.844,-21.484,999.512
1741604734.074,910.645,854.980,-21.484,912.598
1741604734.078,902.832,989.746,-20.996,904.785
1741604734.082,999.512,973.633,-18.555,999.512
1741604734.086,607.910,-322.266,-10.742,587.891
1741604734.090,-869.629,-1000.000,-29.297,-845.703
1741604734.094,-992.676,-977.539,-45.898,-1000.000
1741604734.098,-1000.000,182.617,-51.270,-1000.000
1741604734.101,-688.965,999.512,-57.617,-460.449
1741604734.105,795.410,919.434,-49.805,863.281
1741604734.109,999.512,903.809,-23.438,999.512
1741604734.113,842.285,999.512,-7.324,861.328
1741604734.117,999.512,464.844,-21.484,999.512
1741604734.118,823.242,-897.461,-4.883,773.438
1741604734.122,-654.297,-1000.000,6.348,-677.246
1741604734.126,-1000.000,-891.113,-35.156,-1000.000
1741604734.130,-960.938,-1000.000,-53.223,-962.891
1741604734.134,-965.820,-863.770,-52.734,-968.750
1741604734.138,468.262,538.574,-65.918,458.496
1741604734.142,999.512,999.512,-24.414,999.512
1741604734.145,892.090,870.117,-17.578,893.066
1741604734.149,979.492,-430.664,-28.809,979.492
1741604734.153,966.309,-1000.000,-28.809,966.797
1741604734.157,967.773,-1000.000,-33.203,967.285
1741604734.161,968.262,-682.129,-37.109,978.516
1741604734.163,906.738,764.160,-41.504,897.949
1741604734.167,999.512,999.512,-29.297,999.512
1741604734.171,269.531,-278.809,-11.719,489.258
1741604734.175,-1000.000,-1000.000,-36.133,-914.062
1741604734.179,-1000.000,-1000.000,-68.359,-1000.000
1741604734.183,-965.332,-32.715,-72.754,-948.242
1741604734.187,-1000.000,999.512,-65.430,-1000.000
1741604734.190,-1000.000,-131.348,-30.762,-1000.000
1741604734.194,-950.195,-1000.000,-55.176,-954.102
1741604734.198,-1000.000,-1000.000,-75.684,-1000.000
1741604734.202,-950.195,-873.535,-67.383,-973.633
1741604734.206,467.285,563.965,-103.516,419.434
1741604734.163,906.738,764.160,-41.504,897.949
1741604734.167,999.512,999.512,-29.297,999.512
1741604734.171,269.531,-278.809,-11.719,489.258
1741604734.175,-1000.000,-1000.000,-36.133,-914.062
1741604734.179,-1000.000,-1000.000,-68.359,-1000.000
1741604734.183,-965.332,-32.715,-72.754,-948.242
1741604734.187,-1000.000,999.512,-65.430,-1000.000
1741604734.190,-1000.000,-131.348,-30.762,-1000.000
1741604734.194,-950.195,-1000.000,-55.176,-954.102
1741604734.198,-1000.000,-1000.000,-75.684,-1000.000
1741604734.202,-950.195,-873.535,-67.383,-973.633
1741604734.206,467.285,563.965,-103.516,419.434
1741604734.208,999.512,999.512,-56.641,999.512
1741604734.212,852.539,828.613,-7.812,855.957
1741604734.216,988.281,999.512,-26.855,986.816
1741604734.220,980.957,575.195,-34.668,977.539
1741604734.224,-370.605,-749.512,-7.324,-356.934
1741604734.228,-1000.000,-1000.000,-14.648,-1000.000
1741604734.232,-943.359,-575.195,-55.664,-944.824
1741604734.235,-959.961,683.105,-62.500,-961.426
1741604734.239,-1000.000,-546.875,-47.852,-1000.000
1741604734.243,-959.961,-1000.000,-62.012,-978.027
1741604734.247,448.730,665.039,-84.961,410.645
1741604734.251,999.512,999.512,-56.152,999.512
1741604734.208,999.512,999.512,-56.641,999.512
1741604734.212,852.539,828.613,-7.812,855.957
1741604734.216,988.281,999.512,-26.855,986.816
1741604734.220,980.957,575.195,-34.668,977.539
1741604734.224,-370.605,-749.512,-7.324,-356.934
1741604734.228,-1000.000,-1000.000,-14.648,-1000.000
1741604734.232,-943.359,-575.195,-55.664,-944.824
1741604734.235,-959.961,683.105,-62.500,-961.426
1741604734.239,-1000.000,-546.875,-47.852,-1000.000
1741604734.243,-959.961,-1000.000,-62.012,-978.027
1741604734.247,448.730,665.039,-84.961,410.645
1741604734.251,999.512,999.512,-56.152,999.512
1741604734.253,833.496,905.273,-19.043,833.496
1741604734.257,999.512,982.910,-16.113,999.512
1741604734.261,848.633,-398.926,-9.766,791.504
1741604734.265,-608.887,-1000.000,-19.043,-661.133
1741604734.269,-1000.000,-1000.000,-69.336,-1000.000
1741604734.273,-925.781,-630.371,-62.012,-929.199
1741604734.277,-1000.000,819.336,-64.453,-1000.000
1741604734.280,-1000.000,-274.902,-76.172,-1000.000
1741604734.284,-966.309,-1000.000,-68.848,-972.168
1741604734.288,-998.047,-935.547,-63.477,-988.281
1741604734.292,-1000.000,-996.094,-61.035,-1000.000
1741604734.296,271.484,370.605,-85.938,188.477
1741604734.253,833.496,905.273,-19.043,833.496
1741604734.257,999.512,982.910,-16.113,999.512
1741604734.261,848.633,-398.926,-9.766,791.504
1741604734.265,-608.887,-1000.000,-19.043,-661.133
1741604734.269,-1000.000,-1000.000,-69.336,-1000.000
1741604734.273,-925.781,-630.371,-62.012,-929.199
1741604734.277,-1000.000,819.336,-64.453,-1000.000
1741604734.280,-1000.000,-274.902,-76.172,-1000.000
1741604734.284,-966.309,-1000.000,-68.848,-972.168
1741604734.288,-998.047,-935.547,-63.477,-988.281
1741604734.292,-1000.000,-996.094,-61.035,-1000.000
1741604734.296,271.484,370.605,-85.938,188.477
1741604734.358,231.445,727.539,-57.617,214.844
1741604734.362,999.512,986.328,-31.250,999.512
1741604734.366,877.441,959.961,-24.414,881.348
1741604734.370,999.512,878.418,-39.551,999.512
1741604734.374,-41.992,-585.938,-17.090,-1.953
1741604734.378,-1000.000,-1000.000,-17.578,-1000.000
1741604734.382,-973.633,-887.207,-51.270,-981.934
1741604734.385,-916.992,-1000.000,-60.547,-915.527
1741604734.389,-1000.000,-1000.000,-55.664,-1000.000
1741604734.393,-543.945,322.754,-73.730,-571.777
1741604734.397,877.930,999.512,-74.219,848.633
1741604734.401,999.512,842.773,-48.828,999.512
1741604734.358,231.445,727.539,-57.617,214.844
1741604734.362,999.512,986.328,-31.250,999.512
1741604734.366,877.441,959.961,-24.414,881.348
1741604734.370,999.512,878.418,-39.551,999.512
1741604734.374,-41.992,-585.938,-17.090,-1.953
1741604734.378,-1000.000,-1000.000,-17.578,-1000.000
1741604734.382,-973.633,-887.207,-51.270,-981.934
1741604734.385,-916.992,-1000.000,-60.547,-915.527
1741604734.389,-1000.000,-1000.000,-55.664,-1000.000
1741604734.393,-543.945,322.754,-73.730,-571.777
1741604734.397,877.930,999.512,-74.219,848.633
1741604734.401,999.512,842.773,-48.828,999.512
1741604734.403,848.145,999.512,-41.992,851.074
1741604734.407,999.512,843.262,-55.664,999.512
1741604734.411,353.516,-547.852,-42.480,362.305
1741604734.415,-911.621,-1000.000,-35.645,-887.207
1741604734.419,-1000.000,-882.812,-52.246,-1000.000
1741604734.423,-838.379,375.488,-57.129,-742.188
1741604734.427,564.941,999.512,-45.410,643.555
1741604734.430,999.512,896.973,-20.996,999.512
1741604734.434,892.090,-330.078,-22.949,890.137
1741604734.438,982.422,-1000.000,-21.973,996.582
1741604734.442,971.191,-974.609,-24.902,949.707
1741604734.446,947.266,0.977,-37.598,813.965
1741604734.448,936.523,999.512,-30.762,881.348
1741604734.452,999.512,914.062,0.000,999.512
1741604734.456,-87.891,-362.793,23.438,119.629
1741604734.460,-1000.000,-1000.000,-16.113,-1000.000
1741604734.464,-954.102,-947.266,-53.223,-984.863
1741604734.468,-991.699,399.902,-16.113,-975.586
1741604734.472,-1000.000,999.512,5.371,-1000.000
1741604734.475,-1000.000,-419.434,43.457,-1000.000
1741604734.479,-954.102,-1000.000,62.988,-958.984
1741604734.483,-1000.000,-987.793,77.148,-1000.000
1741604734.487,-976.074,-898.438,104.004,-1000.000
1741604734.491,420.410,559.570,81.543,359.375
1741604734.448,936.523,999.512,-30.762,881.348
1741604734.452,999.512,914.062,0.000,999.512
1741604734.456,-87.891,-362.793,23.438,119.629
1741604734.460,-1000.000,-1000.000,-16.113,-1000.000
1741604734.464,-954.102,-947.266,-53.223,-984.863
1741604734.468,-991.699,399.902,-16.113,-975.586
1741604734.472,-1000.000,999.512,5.371,-1000.000
1741604734.475,-1000.000,-419.434,43.457,-1000.000
1741604734.479,-954.102,-1000.000,62.988,-958.984
1741604734.483,-1000.000,-987.793,77.148,-1000.000
1741604734.487,-976.074,-898.438,104.004,-1000.000
1741604734.491,420.410,559.570,81.543,359.375
1741604734.494,999.512,999.512,145.996,999.512
1741604734.498,837.891,836.426,198.730,842.773
1741604734.502,999.512,999.512,176.758,999.512
1741604734.506,881.836,343.750,162.598,890.625
1741604734.510,-559.570,-873.047,170.898,-543.457
1741604734.514,-1000.000,-1000.000,143.066,-1000.000
1741604734.518,-925.781,-440.430,111.816,-925.781
1741604734.521,-1000.000,798.340,100.098,-1000.000
1741604734.525,-927.246,-408.203,106.445,-929.688
1741604734.529,-1000.000,-1000.000,105.469,-1000.000
1741604734.533,-621.582,47.363,90.332,-652.832
1741604734.537,850.098,969.727,83.008,811.035
1741604734.494,999.512,999.512,145.996,999.512
1741604734.498,837.891,836.426,198.730,842.773
1741604734.502,999.512,999.512,176.758,999.512
1741604734.506,881.836,343.750,162.598,890.625
1741604734.510,-559.570,-873.047,170.898,-543.457
1741604734.514,-1000.000,-1000.000,143.066,-1000.000
1741604734.518,-925.781,-440.430,111.816,-925.781
1741604734.521,-1000.000,798.340,100.098,-1000.000
1741604734.525,-927.246,-408.203,106.445,-929.688
1741604734.529,-1000.000,-1000.000,105.469,-1000.000
1741604734.533,-621.582,47.363,90.332,-652.832
1741604734.537,850.098,969.727,83.008,811.035
1741604734.538,953.613,984.375,100.098,971.680
1741604734.542,999.512,866.699,96.191,999.512
1741604734.546,630.859,-563.965,83.008,499.512
1741604734.550,-849.121,-1000.000,57.617,-890.625
1741604734.554,-1000.000,-1000.000,35.156,-1000.000
1741604734.558,-938.965,-678.223,29.297,-949.219
1741604734.562,-1000.000,885.742,16.113,-1000.000
1741604734.565,-1000.000,89.844,22.461,-1000.000
1741604734.569,-930.664,-1000.000,12.207,-929.688
1741604734.573,-1000.000,-999.512,-14.160,-1000.000
1741604734.577,-495.117,167.969,-34.668,-647.949
1741604734.581,915.527,999.512,-32.715,820.801
1741604734.538,953.613,984.375,100.098,971.680
1741604734.542,999.512,866.699,96.191,999.512
1741604734.546,630.859,-563.965,83.008,499.512
1741604734.550,-849.121,-1000.000,57.617,-890.625
1741604734.554,-1000.000,-1000.000,35.156,-1000.000
1741604734.558,-938.965,-678.223,29.297,-949.219
1741604734.562,-1000.000,885.742,16.113,-1000.000
1741604734.565,-1000.000,89.844,22.461,-1000.000
1741604734.569,-930.664,-1000.000,12.207,-929.688
1741604734.573,-1000.000,-999.512,-14.160,-1000.000
1741604734.577,-495.117,167.969,-34.668,-647.949
1741604734.581,915.527,999.512,-32.715,820.801
1741604734.583,948.730,858.398,0.000,980.469
1741604734.587,959.961,999.512,-5.371,948.242
1741604734.591,901.855,384.277,-22.949,907.227
1741604734.595,-549.316,-866.699,-7.812,-542.969
1741604734.599,-1000.000,-1000.000,-29.785,-1000.000
1741604734.603,-925.781,-883.301,-40.527,-925.781
1741604734.607,-1000.000,681.641,-31.250,-1000.000
1741604734.610,-1000.000,454.590,-34.668,-1000.000
1741604734.614,-928.711,-1000.000,-48.828,-935.547
1741604734.618,-1000.000,-1000.000,-40.039,-1000.000
1741604734.622,-692.871,-68.848,-48.340,-801.270
1741604734.626,796.387,999.512,-44.434,686.035
1741604734.643,983.398,898.438,8.301,999.512
1741604734.647,955.566,999.512,7.812,960.938
1741604734.651,874.512,245.605,-2.930,833.008
1741604734.655,-597.656,-976.074,-2.441,-646.484
1741604734.659,-1000.000,-1000.000,-52.246,-1000.000
1741604734.663,-925.781,166.992,-61.035,-927.734
1741604734.667,-1000.000,999.512,-40.527,-1000.000
1741604734.670,-942.383,-393.066,-18.066,-942.383
1741604734.674,-1000.000,-1000.000,-30.762,-1000.000
1741604734.678,-948.730,-850.586,-41.992,-953.125
1741604734.682,617.676,641.602,-24.902,632.812
1741604734.686,976.074,97.168,-31.250,916.992
1741604734.643,983.398,898.438,8.301,999.512
1741604734.647,955.566,999.512,7.812,960.938
1741604734.651,874.512,245.605,-2.930,833.008
1741604734.655,-597.656,-976.074,-2.441,-646.484
1741604734.659,-1000.000,-1000.000,-52.246,-1000.000
1741604734.663,-925.781,166.992,-61.035,-927.734
1741604734.667,-1000.000,999.512,-40.527,-1000.000
1741604734.670,-942.383,-393.066,-18.066,-942.383
1741604734.674,-1000.000,-1000.000,-30.762,-1000.000
1741604734.678,-948.730,-850.586,-41.992,-953.125
1741604734.682,617.676,641.602,-24.902,632.812
1741604734.686,976.074,97.168,-31.250,916.992
1741604734.688,-679.688,-1000.000,-32.715,-739.258
1741604734.692,-1000.000,-880.859,-61.035,-1000.000
1741604734.696,-910.156,-1000.000,-59.082,-861.816
1741604734.700,-1000.000,-648.438,-38.574,-1000.000
1741604734.704,146.484,767.578,-61.035,-511.719
1741604734.708,999.512,999.512,-33.203,804.688
1741604734.712,971.191,958.496,-8.789,999.512
1741604734.715,851.562,-187.012,-9.766,769.531
1741604734.719,-595.215,-1000.000,4.395,-624.023
1741604734.723,-1000.000,-1000.000,-45.898,-1000.000
1741604734.727,-925.781,-836.914,-51.270,-927.246
1741604734.731,-1000.000,790.527,-33.691,-1000.000
1741604734.733,-1000.000,558.105,-23.926,-1000.000
1741604734.737,-935.547,-918.457,-20.996,-941.895
1741604734.741,-1000.000,-1000.000,-29.785,-1000.000
1741604734.745,-809.570,-237.305,-49.316,-881.836
1741604734.749,674.805,960.938,-66.406,589.844
1741604734.753,999.512,916.504,-13.184,999.512
1741604734.757,918.457,986.816,-0.488,923.828
1741604734.760,961.426,865.723,-2.930,938.965
1741604734.764,-450.195,-611.816,18.555,-486.328
1741604734.768,-1000.000,-1000.000,-29.785,-1000.000
1741604734.772,-926.758,-936.035,-58.105,-926.758
1741604734.776,-1000.000,-1000.000,-38.574,-1000.000
1741604734.733,-1000.000,558.105,-23.926,-1000.000
1741604734.737,-935.547,-918.457,-20.996,-941.895
1741604734.741,-1000.000,-1000.000,-29.785,-1000.000
1741604734.745,-809.570,-237.305,-49.316,-881.836
1741604734.749,674.805,960.938,-66.406,589.844
1741604734.753,999.512,916.504,-13.184,999.512
1741604734.757,918.457,986.816,-0.488,923.828
1741604734.760,961.426,865.723,-2.930,938.965
1741604734.764,-450.195,-611.816,18.555,-486.328
1741604734.768,-1000.000,-1000.000,-29.785,-1000.000
1741604734.772,-926.758,-936.035,-58.105,-926.758
1741604734.776,-1000.000,-1000.000,-38.574,-1000.000
1741604734.778,-1000.000,331.055,-54.688,-1000.000
1741604734.782,-1000.000,999.512,-62.012,-1000.000
1741604734.786,-931.641,-10.254,-47.363,-940.918
1741604734.790,-1000.000,-1000.000,-39.062,-1000.000
1741604734.794,-749.023,-213.379,-67.871,-872.559
1741604734.798,743.164,948.730,-67.383,600.586
1741604734.802,993.652,985.840,-14.648,999.512
1741604734.805,958.984,896.484,-22.461,972.656
1741604734.809,850.586,-397.461,-17.578,698.242
1741604734.813,-628.418,-1000.000,-6.836,-742.676
1741604734.817,-1000.000,-938.477,-38.574,-1000.000
1741604734.821,-926.758,253.906,-41.992,-936.523
1741604734.778,-1000.000,331.055,-54.688,-1000.000
1741604734.782,-1000.000,999.512,-62.012,-1000.000
1741604734.786,-931.641,-10.254,-47.363,-940.918
1741604734.790,-1000.000,-1000.000,-39.062,-1000.000
1741604734.794,-749.023,-213.379,-67.871,-872.559
1741604734.798,743.164,948.730,-67.383,600.586
1741604734.802,993.652,985.840,-14.648,999.512
1741604734.805,958.984,896.484,-22.461,972.656
1741604734.809,850.586,-397.461,-17.578,698.242
1741604734.813,-628.418,-1000.000,-6.836,-742.676
1741604734.817,-1000.000,-938.477,-38.574,-1000.000
1741604734.821,-926.758,253.906,-41.992,-936.523
1741604734.823,-1000.000,999.512,-26.855,-1000.000
1741604734.827,-1000.000,131.348,-0.977,-1000.000
1741604734.831,-1000.000,-967.285,-3.906,-1000.000
1741604734.835,-942.383,-996.582,-16.113,-931.641
1741604734.839,-1000.000,-997.559,-16.113,-1000.000
1741604734.843,-303.223,195.801,-31.738,-751.465
1741604734.847,936.523,999.512,-18.555,730.469
1741604734.850,999.512,916.992,-12.207,999.512
1741604734.854,-9.277,-307.129,0.488,-286.621
1741604734.858,-1000.000,-1000.000,-18.066,-1000.000
1741604734.862,-968.750,-949.219,-54.199,-942.383
1741604734.866,-983.887,178.711,-38.574,-999.512
1741604734.823,-1000.000,999.512,-26.855,-1000.000
1741604734.827,-1000.000,131.348,-0.977,-1000.000
1741604734.831,-1000.000,-967.285,-3.906,-1000.000
1741604734.835,-942.383,-996.582,-16.113,-931.641
1741604734.839,-1000.000,-997.559,-16.113,-1000.000
1741604734.843,-303.223,195.801,-31.738,-751.465
1741604734.847,936.523,999.512,-18.555,730.469
1741604734.850,999.512,916.992,-12.207,999.512
1741604734.854,-9.277,-307.129,0.488,-286.621
1741604734.858,-1000.000,-1000.000,-18.066,-1000.000
1741604734.862,-968.750,-949.219,-54.199,-942.383
1741604734.866,-983.887,178.711,-38.574,-999.512
1741604734.868,-1000.000,999.512,-33.691,-1000.000
1741604734.872,-1000.000,746.094,-27.344,-1000.000
1741604734.876,-957.031,-570.801,-28.320,-997.559
1741604734.880,-1000.000,-1000.000,-34.668,-949.219
1741604734.884,-992.676,-831.055,-16.113,-1000.000
1741604734.888,401.855,546.387,-26.367,-223.633
1741604734.892,999.512,999.512,-11.230,925.293
1741604734.895,964.844,968.262,6.348,999.512
1741604734.899,807.617,772.949,12.695,508.789
1741604734.903,-674.316,-787.109,5.859,-835.449
1741604734.907,-1000.000,-1000.000,-27.344,-1000.000
1741604734.911,-927.734,481.934,-31.738,-945.312
1741604734.868,-1000.000,999.512,-33.691,-1000.000
1741604734.872,-1000.000,746.094,-27.344,-1000.000
1741604734.876,-957.031,-570.801,-28.320,-997.559
1741604734.880,-1000.000,-1000.000,-34.668,-949.219
1741604734.884,-992.676,-831.055,-16.113,-1000.000
1741604734.888,401.855,546.387,-26.367,-223.633
1741604734.892,999.512,999.512,-11.230,925.293
1741604734.895,964.844,968.262,6.348,999.512
1741604734.899,807.617,772.949,12.695,508.789
1741604734.903,-674.316,-787.109,5.859,-835.449
1741604734.907,-1000.000,-1000.000,-27.344,-1000.000
1741604734.911,-927.734,481.934,-31.738,-945.312
1741604734.914,-1000.000,999.512,-22.949,-1000.000
1741604734.918,-1000.000,924.316,-14.648,-1000.000
1741604734.922,-966.797,-105.469,-26.855,-982.422
1741604734.926,-996.582,-1000.000,-43.457,-970.215
1741604734.930,-1000.000,-906.250,-52.734,-1000.000
1741604734.934,262.695,472.656,-75.684,35.156
1741604734.938,999.512,999.512,-64.453,999.512
1741604734.941,916.504,956.055,-42.480,937.012
1741604734.945,904.297,835.449,-34.180,895.020
1741604734.949,999.512,-636.230,-10.742,999.512
1741604734.953,756.348,-1000.000,-22.461,642.578
1741604734.957,-721.191,-939.941,-36.621,-771.973
1741604734.973,-1000.000,-971.191,-53.223,-1000.000
1741604734.977,-870.605,-1000.000,-65.918,-876.465
1741604734.981,-1000.000,-944.336,-67.871,-1000.000
1741604734.985,-301.758,458.008,-83.984,-394.043
1741604734.989,976.074,999.512,-56.152,931.641
1741604734.993,970.703,996.094,-8.301,988.770
1741604734.997,948.730,583.984,0.000,937.012
1741604735.000,904.785,-848.633,-8.301,917.969
1741604735.004,999.512,-1000.000,-27.832,999.512
1741604735.008,677.734,-942.871,-36.133,623.535
1741604735.012,-797.363,-1000.000,-12.695,-782.715
1741604735.016,-1000.000,-1000.000,-27.832,-1000.000
1741604735.018,-888.184,-941.895,-49.316,-895.996
1741604735.022,-1000.000,-1000.000,-26.367,-1000.000
1741604735.026,-975.098,-866.699,-19.043,-986.328
1741604735.030,421.875,565.918,-52.246,392.578
1741604735.034,999.512,999.512,1.953,999.512
1741604735.038,892.578,967.285,27.344,894.531
1741604735.042,978.027,-20.996,20.996,977.051
1741604735.045,966.309,-1000.000,28.320,966.797
1741604735.049,966.309,-907.715,0.488,966.797
1741604735.053,966.309,-1000.000,-6.348,967.285
1741604735.057,978.027,-859.863,-11.719,974.121
1741604735.061,923.828,535.156,-7.812,940.918
1741604735.018,-888.184,-941.895,-49.316,-895.996
1741604735.022,-1000.000,-1000.000,-26.367,-1000.000
1741604735.026,-975.098,-866.699,-19.043,-986.328
1741604735.030,421.875,565.918,-52.246,392.578
1741604735.034,999.512,999.512,1.953,999.512
1741604735.038,892.578,967.285,27.344,894.531
1741604735.042,978.027,-20.996,20.996,977.051
1741604735.045,966.309,-1000.000,28.320,966.797
1741604735.049,966.309,-907.715,0.488,966.797
1741604735.053,966.309,-1000.000,-6.348,967.285
1741604735.057,978.027,-859.863,-11.719,974.121
1741604735.061,923.828,535.156,-7.812,940.918
1741604735.063,982.910,999.512,0.488,950.195
1741604735.067,962.402,808.105,-1.953,999.512
1741604735.071,-427.246,-508.789,37.598,-207.520
1741604735.075,-1000.000,-1000.000,22.949,-1000.000
1741604735.079,-981.934,-991.699,8.789,-1000.000
1741604735.083,-900.879,92.285,2.930,-841.797
1741604735.087,569.824,999.512,-22.461,617.188
1741604735.090,999.512,860.352,20.996,999.512
1741604735.094,867.676,999.512,36.133,833.008
1741604735.098,999.512,851.562,26.367,999.512
1741604735.102,-111.816,-608.887,57.617,377.441
1741604735.106,-1000.000,-1000.000,43.945,-967.773
1741604735.063,982.910,999.512,0.488,950.195
1741604735.067,962.402,808.105,-1.953,999.512
1741604735.071,-427.246,-508.789,37.598,-207.520
1741604735.075,-1000.000,-1000.000,22.949,-1000.000
1741604735.079,-981.934,-991.699,8.789,-1000.000
1741604735.083,-900.879,92.285,2.930,-841.797
1741604735.087,569.824,999.512,-22.461,617.188
1741604735.090,999.512,860.352,20.996,999.512
1741604735.094,867.676,999.512,36.133,833.008
1741604735.098,999.512,851.562,26.367,999.512
1741604735.102,-111.816,-608.887,57.617,377.441
1741604735.106,-1000.000,-1000.000,43.945,-967.773
1741604735.108,-896.484,-864.746,-16.602,-962.891
1741604735.112,-1000.000,-1000.000,-13.672,-1000.000
1741604735.116,-891.113,-851.074,-34.668,-789.062
1741604735.120,567.871,616.699,-62.988,670.410
1741604735.124,999.512,999.512,-35.645,999.512
1741604735.128,891.602,999.512,-20.020,898.926
1741604735.132,982.422,472.168,-19.531,982.910
1741604735.135,978.027,-954.102,-22.949,966.797
1741604735.139,897.949,145.020,-41.016,966.797
1741604735.143,999.512,999.512,-51.270,966.797
1741604735.147,502.441,-403.809,-17.090,966.797
1741604735.151,-911.621,-1000.000,4.883,966.797
1741604735.153,-1000.000,-875.488,-19.043,966.797
1741604735.157,-962.891,-1000.000,-33.203,966.797
1741604735.161,-1000.000,-907.227,-36.621,966.797
1741604735.165,376.465,553.711,-54.688,967.285
1741604735.169,999.512,999.512,-28.320,982.910
1741604735.173,864.746,933.594,14.648,905.273
1741604735.177,999.512,901.367,-5.859,999.512
1741604735.180,-34.180,-500.977,-3.906,838.379
1741604735.184,-1000.000,-1000.000,12.207,-720.703
1741604735.188,-984.375,-961.914,-25.879,-1000.000
1741604735.192,319.336,260.254,-64.941,606.934
1741604735.196,999.512,999.512,-31.250,999.512
1741604735.153,-1000.000,-875.488,-19.043,966.797
1741604735.157,-962.891,-1000.000,-33.203,966.797
1741604735.161,-1000.000,-907.227,-36.621,966.797
1741604735.165,376.465,553.711,-54.688,967.285
1741604735.169,999.512,999.512,-28.320,982.910
1741604735.173,864.746,933.594,14.648,905.273
1741604735.177,999.512,901.367,-5.859,999.512
1741604735.180,-34.180,-500.977,-3.906,838.379
1741604735.184,-1000.000,-1000.000,12.207,-720.703
1741604735.188,-984.375,-961.914,-25.879,-1000.000
1741604735.192,319.336,260.254,-64.941,606.934
1741604735.196,999.512,999.512,-31.250,999.512
1741604735.199,896.484,974.121,-13.672,892.578
1741604735.203,973.145,297.852,-13.672,981.934
1741604735.207,966.309,-862.793,-9.766,966.797
1741604735.211,975.098,-1000.000,-21.484,966.797
1741604735.215,933.105,-730.469,-12.695,966.797
1741604735.219,961.914,736.816,-18.555,966.797
1741604735.223,999.512,980.957,-20.508,966.797
1741604735.226,-301.270,-612.305,-12.695,966.797
1741604735.230,-1000.000,-1000.000,-35.645,966.797
1741604735.234,-921.387,-964.844,-62.012,966.797
1741604735.238,-1000.000,-936.035,-57.617,966.797
1741604735.242,201.172,442.871,-70.801,966.797
1741604735.243,999.512,999.512,-60.059,967.285
1741604735.247,999.512,845.703,-36.133,966.797
1741604735.251,374.512,-383.789,-18.555,966.797
1741604735.255,-990.234,-1000.000,-29.297,967.285
1741604735.259,-1000.000,-758.789,-43.945,979.492
1741604735.263,344.727,544.434,-59.570,922.363
1741604735.267,999.512,999.512,-66.406,988.770
1741604735.270,779.785,461.914,-53.711,936.035
1741604735.274,-565.430,-750.977,-21.484,-399.902
1741604735.278,-1000.000,-1000.000,-32.227,-1000.000
1741604735.282,-1000.000,-768.555,-55.664,-944.824
1741604735.286,110.840,559.570,-82.520,286.133
1741604735.303,999.512,999.512,-60.547,999.512
1741604735.307,911.621,831.055,-33.203,901.855
1741604735.311,962.402,-413.574,-32.227,972.168
1741604735.315,967.773,-1000.000,-39.062,967.285
1741604735.319,982.422,-687.012,-64.453,983.398
1741604735.323,907.715,590.820,-72.754,908.691
1741604735.327,999.512,999.512,-77.637,999.512
1741604735.330,848.145,663.574,-62.500,849.609
1741604735.334,-609.375,-719.727,-49.316,-608.398
1741604735.338,-1000.000,-1000.000,-89.355,-1000.000
1741604735.342,-868.164,-876.953,-97.168,-867.676
1741604735.346,-1000.000,-1000.000,-51.270,-1000.000
1741604735.303,999.512,999.512,-60.547,999.512
1741604735.307,911.621,831.055,-33.203,901.855
1741604735.311,962.402,-413.574,-32.227,972.168
1741604735.315,967.773,-1000.000,-39.062,967.285
1741604735.319,982.422,-687.012,-64.453,983.398
1741604735.323,907.715,590.820,-72.754,908.691
1741604735.327,999.512,999.512,-77.637,999.512
1741604735.330,848.145,663.574,-62.500,849.609
1741604735.334,-609.375,-719.727,-49.316,-608.398
1741604735.338,-1000.000,-1000.000,-89.355,-1000.000
1741604735.342,-868.164,-876.953,-97.168,-867.676
1741604735.346,-1000.000,-1000.000,-51.270,-1000.000
1741604735.348,-891.113,-365.723,-50.293,-887.695
1741604735.352,563.477,930.664,-58.594,569.336
1741604735.356,999.512,955.566,-3.418,999.512
1741604735.360,906.250,942.383,6.348,905.273
1741604735.364,931.152,907.715,-3.906,937.012
1741604735.368,999.512,-183.105,5.859,991.211
1741604735.372,909.668,-983.398,2.930,940.918
1741604735.375,-511.230,-959.961,-5.859,-448.242
1741604735.379,-1000.000,-1000.000,-38.086,-1000.000
1741604735.383,-925.781,-180.176,-43.945,-927.734
1741604735.387,-1000.000,752.930,-40.039,-1000.000
1741604735.391,-1000.000,691.406,-26.855,-1000.000
1741604735.348,-891.113,-365.723,-50.293,-887.695
1741604735.352,563.477,930.664,-58.594,569.336
1741604735.356,999.512,955.566,-3.418,999.512
1741604735.360,906.250,942.383,6.348,905.273
1741604735.364,931.152,907.715,-3.906,937.012
1741604735.368,999.512,-183.105,5.859,991.211
1741604735.372,909.668,-983.398,2.930,940.918
1741604735.375,-511.230,-959.961,-5.859,-448.242
1741604735.379,-1000.000,-1000.000,-38.086,-1000.000
1741604735.383,-925.781,-180.176,-43.945,-927.734
1741604735.387,-1000.000,752.930,-40.039,-1000.000
1741604735.391,-1000.000,691.406,-26.855,-1000.000
1741604735.394,-1000.000,-565.918,-20.508,-1000.000
1741604735.398,-940.430,-1000.000,-32.715,-929.688
1741604735.402,-1000.000,-958.496,-12.207,-1000.000
1741604735.406,-311.523,189.453,-14.160,-592.773
1741604735.410,986.816,999.512,-5.371,855.957
1741604735.414,921.387,999.512,33.203,968.262
1741604735.418,966.797,290.039,33.203,955.078
1741604735.421,919.922,-977.539,21.973,895.996
1741604735.425,-511.230,-1000.000,12.207,-555.664
1741604735.429,-1000.000,-893.555,-35.645,-1000.000
1741604735.433,-925.781,-1000.000,-64.453,-926.270
1741604735.437,-1000.000,-669.922,-65.918,-1000.000
1741604735.394,-1000.000,-565.918,-20.508,-1000.000
1741604735.398,-940.430,-1000.000,-32.715,-929.688
1741604735.402,-1000.000,-958.496,-12.207,-1000.000
1741604735.406,-311.523,189.453,-14.160,-592.773
1741604735.410,986.816,999.512,-5.371,855.957
1741604735.414,921.387,999.512,33.203,968.262
1741604735.418,966.797,290.039,33.203,955.078
1741604735.421,919.922,-977.539,21.973,895.996
1741604735.425,-511.230,-1000.000,12.207,-555.664
1741604735.429,-1000.000,-893.555,-35.645,-1000.000
1741604735.433,-925.781,-1000.000,-64.453,-926.270
1741604735.437,-1000.000,-669.922,-65.918,-1000.000
1741604735.438,-1000.000,858.887,-69.824,-1000.000
1741604735.442,-1000.000,950.195,-51.270,-1000.000
1741604735.446,-942.383,-518.066,-49.316,-954.590
1741604735.450,-1000.000,-1000.000,-67.383,-1000.000
1741604735.454,-889.160,-697.754,-85.938,-970.215
1741604735.458,561.035,585.449,-110.840,392.578
1741604735.462,999.512,999.512,-79.102,999.512
1741604735.465,999.512,783.691,-61.523,964.844
1741604735.469,200.684,-513.672,-41.992,-82.031
1741604735.473,-1000.000,-1000.000,-67.383,-1000.000
1741604735.477,-991.699,-920.898,-99.121,-958.496
1741604735.481,-988.770,555.176,-79.590,-1000.000
1741604735.484,-942.871,965.820,-54.688,-953.125
1741604735.488,-1000.000,-837.402,-35.156,-1000.000
1741604735.492,-797.363,-283.691,-49.805,-940.918
1741604735.496,688.477,999.512,-61.523,490.234
1741604735.500,999.512,882.812,-39.551,999.512
1741604735.504,949.707,999.512,-33.203,971.680
1741604735.508,874.023,841.797,-19.043,712.402
1741604735.511,-597.656,-636.719,-14.160,-732.422
1741604735.515,-1000.000,-1000.000,-55.176,-1000.000
1741604735.519,-925.781,-928.223,-53.711,-935.059
1741604735.523,-1000.000,-1000.000,-38.574,-1000.000
1741604735.527,-1000.000,215.332,-29.785,-1000.000
1741604735.528,-1000.000,999.512,-28.320,-1000.000
1741604735.532,-1000.000,898.438,-21.973,-1000.000
1741604735.536,-928.223,-390.137,-7.324,-941.406
1741604735.540,-1000.000,-1000.000,-18.066,-1000.000
1741604735.544,-588.867,-0.977,-38.574,-859.375
1741604735.548,780.273,959.473,-44.922,517.578
1741604735.552,999.512,999.512,-37.598,999.512
1741604735.555,781.250,437.988,-25.879,660.156
1741604735.559,-604.492,-831.055,-14.160,-714.844
1741604735.563,-1000.000,-1000.000,-41.504,-1000.000
1741604735.567,-926.270,-826.172,-37.598,-931.641
1741604735.571,-1000.000,687.012,-39.062,-1000.000
1741604735.528,-1000.000,999.512,-28.320,-1000.000
1741604735.532,-1000.000,898.438,-21.973,-1000.000
1741604735.536,-928.223,-390.137,-7.324,-941.406
1741604735.540,-1000.000,-1000.000,-18.066,-1000.000
1741604735.544,-588.867,-0.977,-38.574,-859.375
1741604735.548,780.273,959.473,-44.922,517.578
1741604735.552,999.512,999.512,-37.598,999.512
1741604735.555,781.250,437.988,-25.879,660.156
1741604735.559,-604.492,-831.055,-14.160,-714.844
1741604735.563,-1000.000,-1000.000,-41.504,-1000.000
1741604735.567,-926.270,-826.172,-37.598,-931.641
1741604735.571,-1000.000,687.012,-39.062,-1000.000
1741604735.573,-981.934,965.820,-25.879,-998.535
1741604735.577,-970.215,-730.469,-13.672,-946.289
1741604735.581,-1000.000,-1000.000,-41.504,-1000.000
1741604735.585,55.176,474.121,-68.359,-230.469
1741604735.589,999.512,999.512,-43.945,959.961
1741604735.593,895.996,987.793,1.953,961.914
1741604735.597,999.512,606.934,-15.625,963.867
1741604735.600,-130.371,-811.035,-20.020,-274.414
1741604735.604,-1000.000,-1000.000,-44.434,-1000.000
1741604735.608,-948.730,-892.090,-60.547,-939.941
1741604735.612,-994.629,-1000.000,-48.828,-1000.000
1741604735.616,-1000.000,-990.234,-58.105,-1000.000
1741604735.618,-1000.000,472.168,-97.656,-1000.000
1741604735.622,-1000.000,999.512,-80.566,-1000.000
1741604735.626,-937.988,-391.113,-42.480,-944.824
1741604735.630,-1000.000,-1000.000,-53.711,-1000.000
1741604735.634,-846.680,-450.195,-71.777,-908.691
1741604735.638,636.230,812.988,-66.406,545.410
1741604735.642,999.512,999.512,-27.832,999.512
1741604735.645,999.512,954.102,-27.344,999.512
1741604735.649,644.531,-188.965,2.441,472.656
1741604735.653,-841.797,-1000.000,-5.371,-921.387
1741604735.657,-1000.000,-936.035,-59.082,-1000.000
1741604735.661,-951.172,-926.758,-61.035,-953.125
1741604735.618,-1000.000,472.168,-97.656,-1000.000
1741604735.622,-1000.000,999.512,-80.566,-1000.000
1741604735.626,-937.988,-391.113,-42.480,-944.824
1741604735.630,-1000.000,-1000.000,-53.711,-1000.000
1741604735.634,-846.680,-450.195,-71.777,-908.691
1741604735.638,636.230,812.988,-66.406,545.410
1741604735.642,999.512,999.512,-27.832,999.512
1741604735.645,999.512,954.102,-27.344,999.512
1741604735.649,644.531,-188.965,2.441,472.656
1741604735.653,-841.797,-1000.000,-5.371,-921.387
1741604735.657,-1000.000,-936.035,-59.082,-1000.000
1741604735.661,-951.172,-926.758,-61.035,-953.125
1741604735.678,-970.703,-922.363,-62.500,-1000.000
1741604735.682,-1000.000,-1000.000,-52.246,-944.824
1741604735.686,-970.703,-861.816,-60.547,-1000.000
1741604735.690,428.711,602.539,-73.730,-302.246
1741604735.694,999.512,999.512,-33.203,936.035
1741604735.698,854.492,910.645,-7.324,951.660
1741604735.702,999.512,974.121,-24.414,999.512
1741604735.705,2.930,-419.434,2.930,-103.027
1741604735.709,-1000.000,-1000.000,-8.789,-1000.000
1741604735.713,-965.820,-919.434,-37.109,-953.613
1741604735.717,-985.352,-1000.000,-26.855,-992.676
1741604735.721,-1000.000,127.441,-16.602,-1000.000
1741604735.678,-970.703,-922.363,-62.500,-1000.000
1741604735.682,-1000.000,-1000.000,-52.246,-944.824
1741604735.686,-970.703,-861.816,-60.547,-1000.000
1741604735.690,428.711,602.539,-73.730,-302.246
1741604735.694,999.512,999.512,-33.203,936.035
1741604735.698,854.492,910.645,-7.324,951.660
1741604735.702,999.512,974.121,-24.414,999.512
1741604735.705,2.930,-419.434,2.930,-103.027
1741604735.709,-1000.000,-1000.000,-8.789,-1000.000
1741604735.713,-965.820,-919.434,-37.109,-953.613
1741604735.717,-985.352,-1000.000,-26.855,-992.676
1741604735.721,-1000.000,127.441,-16.602,-1000.000
1741604735.711,-1000.000,999.512,-0.977,-1000.000
1741604735.715,-1000.000,794.434,-21.484,-1000.000
1741604735.719,-942.383,-524.902,-21.484,-948.242
1741604735.723,-1000.000,-1000.000,-32.715,-1000.000
1741604735.727,-891.113,-771.973,-66.895,-934.570
1741604735.731,563.965,520.020,-79.102,493.164
1741604735.735,999.512,999.512,-37.598,999.512
1741604735.738,891.602,715.820,-33.203,893.066
1741604735.742,981.934,-568.848,-37.109,980.957
1741604735.746,982.910,-1000.000,-46.875,983.398
1741604735.750,905.762,-538.086,-46.387,906.738
1741604735.754,999.512,944.824,-31.738,999.512
1741604735.711,-1000.000,999.512,-0.977,-1000.000
1741604735.715,-1000.000,794.434,-21.484,-1000.000
1741604735.719,-942.383,-524.902,-21.484,-948.242
1741604735.723,-1000.000,-1000.000,-32.715,-1000.000
1741604735.727,-891.113,-771.973,-66.895,-934.570
1741604735.731,563.965,520.020,-79.102,493.164
1741604735.735,999.512,999.512,-37.598,999.512
1741604735.738,891.602,715.820,-33.203,893.066
1741604735.742,981.934,-568.848,-37.109,980.957
1741604735.746,982.910,-1000.000,-46.875,983.398
1741604735.750,905.762,-538.086,-46.387,906.738
1741604735.754,999.512,944.824,-31.738,999.512
1741604735.769,826.172,541.992,-23.438,826.660
1741604735.773,-637.207,-946.777,-6.348,-635.254
1741604735.777,-1000.000,-1000.000,-30.273,-1000.000
1741604735.781,-926.758,245.605,-50.293,-926.758
1741604735.785,-1000.000,999.512,-45.898,-1000.000
1741604735.789,-1000.000,999.512,-16.602,-999.023
1741604735.793,-1000.000,-17.090,-9.277,-1000.000
1741604735.796,-940.918,-1000.000,-20.508,-939.941
1741604735.800,-1000.000,-1000.000,-20.020,-1000.000
1741604735.804,-875.000,-663.086,-27.832,-864.258
1741604735.808,585.449,746.094,-38.086,596.680
1741604735.812,999.512,999.512,9.766,999.512
1741604735.769,826.172,541.992,-23.438,826.660
1741604735.773,-637.207,-946.777,-6.348,-635.254
1741604735.777,-1000.000,-1000.000,-30.273,-1000.000
1741604735.781,-926.758,245.605,-50.293,-926.758
1741604735.785,-1000.000,999.512,-45.898,-1000.000
1741604735.789,-1000.000,999.512,-16.602,-999.023
1741604735.793,-1000.000,-17.090,-9.277,-1000.000
1741604735.796,-940.918,-1000.000,-20.508,-939.941
1741604735.800,-1000.000,-1000.000,-20.020,-1000.000
1741604735.804,-875.000,-663.086,-27.832,-864.258
1741604735.808,585.449,746.094,-38.086,596.680
1741604735.812,999.512,999.512,9.766,999.512
1741604735.814,892.090,888.672,9.277,893.555
1741604735.818,982.422,999.512,0.977,983.398
1741604735.822,966.309,-90.332,30.273,967.285
1741604735.826,966.309,-1000.000,16.602,966.797
1741604735.830,982.910,-811.523,3.418,983.398
1741604735.834,907.715,527.832,15.137,909.180
1741604735.838,999.512,999.512,13.184,999.512
1741604735.841,840.332,543.945,34.668,848.145
1741604735.845,-585.449,-729.492,50.781,-562.012
1741604735.849,-1000.000,-1000.000,12.695,-1000.000
1741604735.853,-998.535,-810.547,-18.555,-948.242
1741604735.857,138.672,520.508,-29.785,274.902
1741604735.858,999.512,999.512,-3.906,999.512
1741604735.862,908.691,884.277,10.254,900.879
1741604735.866,964.844,-284.180,4.883,972.168
1741604735.870,967.285,-1000.000,1.953,967.285
1741604735.874,982.422,-777.344,-26.855,978.516
1741604735.878,909.180,532.715,-32.715,925.293
1741604735.882,999.512,999.512,-27.832,981.445
1741604735.885,862.305,769.043,-28.809,966.309
1741604735.889,-589.355,-600.098,2.930,-395.508
1741604735.893,-1000.000,-1000.000,-26.367,-1000.000
1741604735.897,-878.418,-870.117,-53.711,-878.418
1741604735.901,-1000.000,-1000.000,-26.855,-1000.000
1741604735.903,-970.703,-903.320,-34.180,-939.453
1741604735.907,431.152,544.922,-77.637,483.887
1741604735.911,999.512,999.512,-45.898,999.512
1741604735.915,904.785,908.691,-31.250,895.508
1741604735.919,933.105,923.340,-43.945,975.098
1741604735.923,988.770,999.512,-26.367,919.434
1741604735.927,944.336,825.684,-20.996,999.512
1741604735.930,-450.684,-568.359,-13.184,155.762
1741604735.934,-1000.000,-1000.000,-44.434,-983.887
1741604735.938,-1000.000,-860.352,-76.660,-1000.000
1741604735.942,-480.469,465.820,-85.449,-208.008
1741604735.946,911.621,999.512,-78.125,977.539
1741604735.903,-970.703,-903.320,-34.180,-939.453
1741604735.907,431.152,544.922,-77.637,483.887
1741604735.911,999.512,999.512,-45.898,999.512
1741604735.915,904.785,908.691,-31.250,895.508
1741604735.919,933.105,923.340,-43.945,975.098
1741604735.923,988.770,999.512,-26.367,919.434
1741604735.927,944.336,825.684,-20.996,999.512
1741604735.930,-450.684,-568.359,-13.184,155.762
1741604735.934,-1000.000,-1000.000,-44.434,-983.887
1741604735.938,-1000.000,-860.352,-76.660,-1000.000
1741604735.942,-480.469,465.820,-85.449,-208.008
1741604735.946,911.621,999.512,-78.125,977.539
1741604735.983,998.047,984.375,-51.758,963.867
1741604735.987,918.457,194.336,-37.109,936.523
1741604735.991,979.492,-951.660,-43.945,975.586
1741604735.995,966.309,-1000.000,-59.082,967.285
1741604735.999,982.422,-421.387,-51.758,982.910
1741604736.003,908.691,793.945,-40.039,910.156
1741604736.007,999.512,999.512,-46.875,999.512
1741604736.010,856.934,708.984,-39.062,864.258
1741604736.014,-600.098,-702.637,-5.371,-591.309
1741604736.018,-1000.000,-1000.000,-58.105,-1000.000
1741604736.022,-872.070,-951.660,-68.359,-880.859
1741604736.026,-1000.000,-1000.000,-44.922,-1000.000
1741604735.983,998.047,984.375,-51.758,963.867
1741604735.987,918.457,194.336,-37.109,936.523
1741604735.991,979.492,-951.660,-43.945,975.586
1741604735.995,966.309,-1000.000,-59.082,967.285
1741604735.999,982.422,-421.387,-51.758,982.910
1741604736.003,908.691,793.945,-40.039,910.156
1741604736.007,999.512,999.512,-46.875,999.512
1741604736.010,856.934,708.984,-39.062,864.258
1741604736.014,-600.098,-702.637,-5.371,-591.309
1741604736.018,-1000.000,-1000.000,-58.105,-1000.000
1741604736.022,-872.070,-951.660,-68.359,-880.859
1741604736.026,-1000.000,-1000.000,-44.922,-1000.000
1741604736.038,-219.238,398.438,-67.871,-138.184
1741604736.042,999.512,999.512,-59.570,999.512
1741604736.046,958.008,886.230,-26.855,948.730
1741604736.050,944.336,999.512,-9.277,946.289
1741604736.054,946.289,800.293,-2.441,961.914
1741604736.058,953.613,943.848,-6.348,923.340
1741604736.062,999.512,603.027,2.441,999.512
1741604736.065,-234.375,-854.004,3.906,-11.230
1741604736.069,-1000.000,-999.023,-28.809,-1000.000
1741604736.073,-920.898,-1000.000,-23.926,-960.449
1741604736.077,-1000.000,-739.746,-26.367,-1000.000
1741604736.081,157.715,621.582,-45.898,262.695
1741604736.083,999.512,999.512,-13.184,999.512
1741604736.087,906.738,595.703,12.207,905.273
1741604736.091,964.844,-674.805,9.766,969.238
1741604736.095,967.773,-1000.000,-1.953,967.773
1741604736.099,963.379,-78.125,-24.902,967.285
1741604736.103,908.691,999.512,-44.922,904.297
1741604736.107,999.512,983.398,-37.109,999.512
1741604736.110,128.418,-242.676,0.488,184.082
1741604736.114,-1000.000,-1000.000,0.000,-1000.000
1741604736.118,-979.004,-946.777,-30.273,-984.375
1741604736.122,-912.109,-932.617,-9.277,-911.133
1741604736.126,-1000.000,-1000.000,23.926,-1000.000
1741604736.129,-261.230,-269.043,-6.836,-222.656
1741604736.133,999.512,950.195,-6.836,999.512
1741604736.137,956.543,999.512,49.316,951.172
1741604736.141,936.035,282.715,50.781,939.453
1741604736.145,974.121,-1000.000,39.551,973.633
1741604736.149,966.309,-1000.000,21.973,966.797
1741604736.153,977.539,-962.891,37.109,977.539
1741604736.156,894.043,-1000.000,53.223,922.852
1741604736.160,999.512,-1000.000,32.715,995.605
1741604736.164,431.641,-1000.000,-32.227,891.602
1741604736.168,-963.379,-1000.000,-101.562,-445.312
1741604736.172,-1000.000,-1000.000,-148.926,-1000.000
1741604736.129,-261.230,-269.043,-6.836,-222.656
1741604736.133,999.512,950.195,-6.836,999.512
1741604736.137,956.543,999.512,49.316,951.172
1741604736.141,936.035,282.715,50.781,939.453
1741604736.145,974.121,-1000.000,39.551,973.633
1741604736.149,966.309,-1000.000,21.973,966.797
1741604736.153,977.539,-962.891,37.109,977.539
1741604736.156,894.043,-1000.000,53.223,922.852
1741604736.160,999.512,-1000.000,32.715,995.605
1741604736.164,431.641,-1000.000,-32.227,891.602
1741604736.168,-963.379,-1000.000,-101.562,-445.312
1741604736.172,-1000.000,-1000.000,-148.926,-1000.000
1741604736.173,-899.414,-967.285,-148.438,-875.488
1741604736.177,-1000.000,-989.746,-133.789,-1000.000
1741604736.181,-861.816,-1000.000,-166.992,-677.246
1741604736.185,536.621,395.996,-152.832,718.262
1741604736.189,999.512,497.559,-90.820,999.512
1741604736.193,899.902,-1000.000,-152.832,909.668
1741604736.197,978.027,-1000.000,-233.887,979.004
1741604736.200,966.309,-958.496,-255.371,966.797
1741604736.204,966.309,-1000.000,-275.879,967.285
1741604736.208,966.309,-1000.000,-258.301,966.797
1741604736.212,966.309,-1000.000,-237.305,966.797
1741604736.216,966.309,-1000.000,-229.004,967.285
1741604736.218,979.980,-1000.000,-230.957,979.004
1741604736.222,895.996,-1000.000,-259.766,916.016
1741604736.226,999.512,-1000.000,-293.457,999.512
1741604736.230,550.293,-1000.000,-300.781,833.984
1741604736.234,-871.582,-1000.000,-256.348,-543.457
1741604736.238,-1000.000,-1000.000,-279.297,-1000.000
1741604736.242,-945.312,-1000.000,-349.609,-936.035
1741604736.245,-1000.000,-1000.000,-355.469,-1000.000
1741604736.249,-1000.000,-1000.000,-360.840,-1000.000
1741604736.253,-1000.000,-1000.000,-375.488,-1000.000
1741604736.257,-1000.000,-1000.000,-394.531,-1000.000
1741604736.261,-1000.000,-1000.000,-471.191,-1000.000
1741604736.264,-1000.000,-1000.000,-534.180,-1000.000
1741604736.268,-976.074,-938.965,-650.879,-998.047
1741604736.272,-979.980,-1000.000,-849.121,-941.406
1741604736.276,-1000.000,-678.223,-976.562,-1000.000
1741604736.280,148.438,712.891,-999.023,-176.270
1741604736.284,999.512,999.512,-994.141,999.512
1741604736.288,909.180,910.156,-945.801,944.824
1741604736.291,979.004,984.863,-864.258,956.543
1741604736.295,900.879,899.414,-774.414,917.969
1741604736.299,999.512,999.512,-723.633,999.512
1741604736.303,682.617,292.480,-690.430,800.293
1741604736.307,-755.859,-1000.000,-654.297,-596.191
1741604736.264,-1000.000,-1000.000,-534.180,-1000.000
1741604736.268,-976.074,-938.965,-650.879,-998.047
1741604736.272,-979.980,-1000.000,-849.121,-941.406
1741604736.276,-1000.000,-678.223,-976.562,-1000.000
1741604736.280,148.438,712.891,-999.023,-176.270
1741604736.284,999.512,999.512,-994.141,999.512
1741604736.288,909.180,910.156,-945.801,944.824
1741604736.291,979.004,984.863,-864.258,956.543
1741604736.295,900.879,899.414,-774.414,917.969
1741604736.299,999.512,999.512,-723.633,999.512
1741604736.303,682.617,292.480,-690.430,800.293
1741604736.307,-755.859,-1000.000,-654.297,-596.191
1741604736.308,-1000.000,-979.492,-718.750,-1000.000
1741604736.312,-938.477,-1000.000,-898.438,-934.570
1741604736.316,-952.148,112.793,-1000.000,-951.172
1741604736.320,-1000.000,999.512,-996.582,-1000.000
1741604736.324,-222.168,913.086,-998.535,-196.289
1741604736.328,999.512,960.938,-1000.000,999.512
1741604736.332,876.953,910.645,-1000.000,900.391
1741604736.335,999.512,999.512,-1000.000,977.051
1741604736.339,495.605,148.926,-1000.000,879.883
1741604736.343,-933.105,-1000.000,-1000.000,-483.887
1741604736.347,-1000.000,-1000.000,-1000.000,-1000.000
1741604736.351,-948.730,-263.184,-1000.000,-936.035
1741604736.308,-1000.000,-979.492,-718.750,-1000.000
1741604736.312,-938.477,-1000.000,-898.438,-934.570
1741604736.316,-952.148,112.793,-1000.000,-951.172
1741604736.320,-1000.000,999.512,-996.582,-1000.000
1741604736.324,-222.168,913.086,-998.535,-196.289
1741604736.328,999.512,960.938,-1000.000,999.512
1741604736.332,876.953,910.645,-1000.000,900.391
1741604736.335,999.512,999.512,-1000.000,977.051
1741604736.339,495.605,148.926,-1000.000,879.883
1741604736.343,-933.105,-1000.000,-1000.000,-483.887
1741604736.347,-1000.000,-1000.000,-1000.000,-1000.000
1741604736.351,-948.730,-263.184,-1000.000,-936.035
1741604736.357,-1000.000,999.512,-1000.000,-1000.000
1741604736.361,-970.215,398.438,-1000.000,-964.355
1741604736.365,-991.211,-1000.000,-1000.000,-1000.000
1741604736.369,-1000.000,-491.211,-1000.000,-992.188
1741604736.373,223.145,946.777,-1000.000,301.758
1741604736.377,999.512,997.070,-1000.000,999.512
1741604736.381,893.555,873.047,-1000.000,901.367
1741604736.384,921.387,999.512,-1000.000,914.062
1741604736.388,999.512,779.785,-1000.000,999.512
1741604736.392,16.602,-532.227,-1000.000,114.746
1741604736.396,-1000.000,-1000.000,-1000.000,-1000.000
1741604736.400,-961.426,-1000.000,-1000.000,-974.121
1741604736.357,-1000.000,999.512,-1000.000,-1000.000
1741604736.361,-970.215,398.438,-1000.000,-964.355
1741604736.365,-991.211,-1000.000,-1000.000,-1000.000
1741604736.369,-1000.000,-491.211,-1000.000,-992.188
1741604736.373,223.145,946.777,-1000.000,301.758
1741604736.377,999.512,997.070,-1000.000,999.512
1741604736.381,893.555,873.047,-1000.000,901.367
1741604736.384,921.387,999.512,-1000.000,914.062
1741604736.388,999.512,779.785,-1000.000,999.512
1741604736.392,16.602,-532.227,-1000.000,114.746
1741604736.396,-1000.000,-1000.000,-1000.000,-1000.000
1741604736.400,-961.426,-1000.000,-1000.000,-974.121
1741604736.414,-985.840,-175.781,-1000.000,-978.516
1741604736.418,-1000.000,999.512,-1000.000,-1000.000
1741604736.422,-1000.000,876.953,-1000.000,-1000.000
1741604736.426,-1000.000,999.512,-994.629,-1000.000
1741604736.430,-928.223,471.191,-993.164,-928.711
1741604736.434,-1000.000,-1000.000,-975.586,-1000.000
1741604736.438,-412.109,-192.871,-974.121,-514.648
1741604736.441,922.852,999.512,-928.223,841.309
1741604736.445,984.863,999.512,-802.246,999.512
1741604736.449,947.266,424.316,-755.859,847.168
1741604736.453,-294.434,-939.941,-720.215,-429.688
1741604736.457,-1000.000,-1000.000,-710.938,-1000.000
1741604736.458,-936.035,-881.348,-682.129,-936.035
1741604736.462,-1000.000,-1000.000,-645.020,-1000.000
1741604736.466,-1000.000,-455.566,-632.812,-1000.000
1741604736.470,-1000.000,942.871,-610.840,-1000.000
1741604736.474,-1000.000,926.758,-552.246,-1000.000
1741604736.478,-1000.000,999.512,-495.117,-1000.000
1741604736.482,-1000.000,585.938,-450.195,-1000.000
1741604736.485,-1000.000,-833.008,-460.449,-1000.000
1741604736.489,-1000.000,-1000.000,-482.910,-1000.000
1741604736.493,-1000.000,-945.312,-445.801,-1000.000
1741604736.497,-1000.000,-1000.000,-423.340,-1000.000
1741604736.501,-979.980,-964.355,-447.754,-997.559
1741604736.503,-971.680,-1000.000,-467.773,-942.871
1741604736.507,-1000.000,-994.141,-464.355,-1000.000
1741604736.511,95.215,300.781,-496.582,-162.598
1741604736.515,999.512,999.512,-468.262,999.512
1741604736.519,849.609,820.801,-427.246,882.812
1741604736.523,999.512,999.512,-417.969,999.512
1741604736.527,187.988,-4.883,-387.207,163.086
1741604736.530,-1000.000,-1000.000,-420.898,-1000.000
1741604736.534,-983.887,-963.379,-469.727,-979.980
1741604736.538,-973.145,-986.328,-475.098,-975.098
1741604736.542,-1000.000,-1000.000,-469.727,-1000.000
1741604736.546,-1000.000,-1000.000,-469.727,-1000.000
1741604736.548,-1000.000,-1000.000,-450.684,-1000.000
1741604736.552,-933.594,-935.059,-411.621,-971.191
1741604736.556,-1000.000,-1000.000,-383.301,-991.211
1741604736.560,-689.941,-664.551,-327.637,-1000.000
1741604736.564,758.301,748.535,-244.141,225.586
1741604736.568,973.145,976.074,-172.852,999.512
1741604736.572,990.234,999.512,-146.973,999.512
1741604736.575,736.328,161.133,-78.125,553.223
1741604736.579,-729.492,-1000.000,-62.988,-872.070
1741604736.583,-1000.000,-945.801,-121.582,-1000.000
1741604736.587,-864.258,-982.422,-102.539,-914.062
1741604736.591,-1000.000,-979.004,-109.375,-1000.000
1741604736.548,-1000.000,-1000.000,-450.684,-1000.000
1741604736.552,-933.594,-935.059,-411.621,-971.191
1741604736.556,-1000.000,-1000.000,-383.301,-991.211
1741604736.560,-689.941,-664.551,-327.637,-1000.000
1741604736.564,758.301,748.535,-244.141,225.586
1741604736.568,973.145,976.074,-172.852,999.512
1741604736.572,990.234,999.512,-146.973,999.512
1741604736.575,736.328,161.133,-78.125,553.223
1741604736.579,-729.492,-1000.000,-62.988,-872.070
1741604736.583,-1000.000,-945.801,-121.582,-1000.000
1741604736.587,-864.258,-982.422,-102.539,-914.062
1741604736.591,-1000.000,-979.004,-109.375,-1000.000
1741604736.593,-550.781,274.902,-148.926,-1000.000
1741604736.597,858.887,999.512,-173.340,240.723
1741604736.601,999.512,859.863,-106.934,999.512
1741604736.605,855.957,999.512,-94.238,880.859
1741604736.609,999.512,101.074,-90.820,999.512
1741604736.613,131.836,-1000.000,-54.688,-58.105
1741604736.617,-1000.000,-962.891,-105.957,-1000.000
1741604736.620,-913.574,-938.477,-140.137,-901.367
1741604736.624,-1000.000,-1000.000,-49.805,-1000.000
1741604736.628,-226.562,-40.039,118.652,-252.441
1741604736.632,999.512,999.512,244.141,999.512
1741604736.636,949.707,863.770,309.082,955.078
1741604736.641,939.453,999.512,254.395,937.500
1741604736.645,973.633,309.082,290.039,975.586
1741604736.649,903.320,-1000.000,357.422,903.809
1741604736.653,999.512,-1000.000,319.336,999.512
1741604736.657,186.523,-894.043,341.797,198.242
1741604736.661,-1000.000,-1000.000,320.312,-1000.000
1741604736.665,-983.887,-414.551,262.207,-985.840
1741604736.668,-973.145,876.465,246.582,-972.168
1741604736.672,-1000.000,999.512,272.949,-1000.000
1741604736.676,-999.023,263.184,319.336,-996.582
1741604736.680,-940.430,-1000.000,318.359,-944.336
1741604736.684,-1000.000,-1000.000,292.480,-1000.000
1741604736.641,939.453,999.512,254.395,937.500
1741604736.645,973.633,309.082,290.039,975.586
1741604736.649,903.320,-1000.000,357.422,903.809
1741604736.653,999.512,-1000.000,319.336,999.512
1741604736.657,186.523,-894.043,341.797,198.242
1741604736.661,-1000.000,-1000.000,320.312,-1000.000
1741604736.665,-983.887,-414.551,262.207,-985.840
1741604736.668,-973.145,876.465,246.582,-972.168
1741604736.672,-1000.000,999.512,272.949,-1000.000
1741604736.676,-999.023,263.184,319.336,-996.582
1741604736.680,-940.430,-1000.000,318.359,-944.336
1741604736.684,-1000.000,-1000.000,292.480,-1000.000
1741604736.684,-188.965,173.828,255.371,-149.414
1741604736.688,999.512,999.512,270.020,999.512
1741604736.692,945.312,883.301,335.449,941.406
1741604736.696,941.406,999.512,334.473,944.824
1741604736.700,972.168,7.324,305.664,972.168
1741604736.704,966.797,-1000.000,257.812,967.773
1741604736.708,903.320,-214.355,190.918,904.297
1741604736.711,999.512,999.512,156.738,999.512
1741604736.715,187.012,61.523,200.684,187.500
1741604736.719,-1000.000,-1000.000,177.734,-1000.000
1741604736.723,-983.887,-911.133,117.676,-983.398
1741604736.727,-973.145,-1000.000,123.535,-974.609
1741604736.730,-1000.000,7.812,117.188,-1000.000
1741604736.734,-997.559,873.535,126.953,-987.305
1741604736.738,-942.383,-695.312,139.648,-945.801
1741604736.742,-1000.000,-1000.000,15.137,-1000.000
1741604736.746,-163.574,419.434,-103.027,-140.625
1741604736.750,999.512,999.512,-18.066,999.512
1741604736.754,941.895,999.512,58.594,940.430
1741604736.757,943.359,149.414,115.234,945.312
1741604736.761,971.680,-1000.000,178.223,971.680
1741604736.765,966.309,-1000.000,161.133,967.285
1741604736.769,969.727,-190.430,125.977,975.098
1741604736.773,899.902,976.074,167.480,896.484
1741604736.788,999.512,999.512,181.152,999.512
1741604736.792,241.211,117.188,209.473,340.820
1741604736.796,-1000.000,-1000.000,213.867,-1000.000
1741604736.800,-992.676,-926.758,114.746,-1000.000
1741604736.804,-981.934,-1000.000,89.844,-970.703
1741604736.808,-934.570,-118.652,89.355,-940.430
1741604736.812,-1000.000,999.512,107.422,-1000.000
1741604736.815,-504.883,857.910,90.332,-449.219
1741604736.819,913.086,999.512,81.543,931.152
1741604736.823,999.512,577.637,147.949,992.676
1741604736.827,916.016,-832.520,154.297,921.387
1741604736.831,980.469,-1000.000,104.492,979.492
1741604736.788,999.512,999.512,181.152,999.512
1741604736.792,241.211,117.188,209.473,340.820
1741604736.796,-1000.000,-1000.000,213.867,-1000.000
1741604736.800,-992.676,-926.758,114.746,-1000.000
1741604736.804,-981.934,-1000.000,89.844,-970.703
1741604736.808,-934.570,-118.652,89.355,-940.430
1741604736.812,-1000.000,999.512,107.422,-1000.000
1741604736.815,-504.883,857.910,90.332,-449.219
1741604736.819,913.086,999.512,81.543,931.152
1741604736.823,999.512,577.637,147.949,992.676
1741604736.827,916.016,-832.520,154.297,921.387
1741604736.831,980.469,-1000.000,104.492,979.492
1741604736.833,975.586,-1000.000,63.477,977.539
1741604736.837,894.531,-187.500,49.316,894.531
1741604736.841,999.512,999.512,28.320,999.512
1741604736.845,364.746,163.086,71.289,413.086
1741604736.849,-1000.000,-1000.000,94.727,-975.098
1741604736.853,-1000.000,-984.863,35.645,-1000.000
1741604736.857,-945.312,-905.762,15.137,-939.941
1741604736.860,-971.191,-1000.000,-2.930,-977.539
1741604736.864,-1000.000,-304.688,-14.648,-1000.000
1741604736.868,1.465,999.512,-47.852,13.184
1741604736.872,999.512,937.988,-19.531,999.512
1741604736.876,851.074,926.758,20.020,855.957
1741604736.833,975.586,-1000.000,63.477,977.539
1741604736.837,894.531,-187.500,49.316,894.531
1741604736.841,999.512,999.512,28.320,999.512
1741604736.845,364.746,163.086,71.289,413.086
1741604736.849,-1000.000,-1000.000,94.727,-975.098
1741604736.853,-1000.000,-984.863,35.645,-1000.000
1741604736.857,-945.312,-905.762,15.137,-939.941
1741604736.860,-971.191,-1000.000,-2.930,-977.539
1741604736.864,-1000.000,-304.688,-14.648,-1000.000
1741604736.868,1.465,999.512,-47.852,13.184
1741604736.872,999.512,937.988,-19.531,999.512
1741604736.876,851.074,926.758,20.020,855.957
1741604736.878,999.512,979.980,7.324,999.512
1741604736.882,324.219,-226.562,37.109,333.984
1741604736.886,-1000.000,-1000.000,56.641,-1000.000
1741604736.890,-932.129,-904.785,-2.441,-940.430
1741604736.894,-1000.000,-1000.000,2.930,-1000.000
1741604736.898,-553.711,-70.312,-4.883,-595.703
1741604736.902,890.137,999.512,-37.109,827.148
1741604736.905,999.512,999.512,-20.508,999.512
1741604736.909,839.844,137.695,1.953,842.773
1741604736.913,999.512,-1000.000,-10.254,999.512
1741604736.917,410.156,-980.469,-11.230,367.676
1741604736.921,-979.980,-972.656,6.836,-993.164
1741604736.878,999.512,979.980,7.324,999.512
1741604736.882,324.219,-226.562,37.109,333.984
1741604736.886,-1000.000,-1000.000,56.641,-1000.000
1741604736.890,-932.129,-904.785,-2.441,-940.430
1741604736.894,-1000.000,-1000.000,2.930,-1000.000
1741604736.898,-553.711,-70.312,-4.883,-595.703
1741604736.902,890.137,999.512,-37.109,827.148
1741604736.905,999.512,999.512,-20.508,999.512
1741604736.909,839.844,137.695,1.953,842.773
1741604736.913,999.512,-1000.000,-10.254,999.512
1741604736.917,410.156,-980.469,-11.230,367.676
1741604736.921,-979.980,-972.656,6.836,-993.164
1741604736.923,-1000.000,-948.730,-65.430,-1000.000
1741604736.927,-955.078,-1000.000,-80.566,-958.496
1741604736.931,-1000.000,-166.016,-56.641,-1000.000
1741604736.935,-938.477,999.512,-50.781,-937.988
1741604736.939,-1000.000,943.848,-34.668,-1000.000
1741604736.943,-210.449,943.848,-41.016,-216.797
1741604736.947,999.512,972.656,6.348,999.512
1741604736.950,948.730,966.797,58.105,950.195
1741604736.954,939.941,967.285,78.613,939.941
1741604736.958,973.145,968.750,125.977,973.633
1741604736.962,966.797,960.938,124.023,968.262
1741604736.966,903.809,916.992,94.238,903.809
1741604736.923,-1000.000,-948.730,-65.430,-1000.000
1741604736.927,-955.078,-1000.000,-80.566,-958.496
1741604736.931,-1000.000,-166.016,-56.641,-1000.000
1741604736.935,-938.477,999.512,-50.781,-937.988
1741604736.939,-1000.000,943.848,-34.668,-1000.000
1741604736.943,-210.449,943.848,-41.016,-216.797
1741604736.947,999.512,972.656,6.348,999.512
1741604736.950,948.730,966.797,58.105,950.195
1741604736.954,939.941,967.285,78.613,939.941
1741604736.958,973.145,968.750,125.977,973.633
1741604736.962,966.797,960.938,124.023,968.262
1741604736.966,903.809,916.992,94.238,903.809
1741604736.969,999.512,999.512,87.402,999.512
1741604736.973,186.523,82.520,139.648,192.383
1741604736.977,-1000.000,-1000.000,142.578,-1000.000
1741604736.981,-960.449,-914.551,60.547,-952.148
1741604736.985,-950.684,-1000.000,69.824,-979.004
1741604736.989,-1000.000,-188.965,62.500,-972.656
1741604736.993,139.648,999.512,17.578,279.297
1741604736.996,999.512,882.324,50.781,999.512
1741604737.000,908.203,999.512,76.660,913.086
1741604737.004,975.098,210.449,95.703,977.539
1741604737.008,893.555,-1000.000,112.305,895.996
1741604737.012,999.512,-986.816,58.594,999.512
1741604737.015,417.969,-971.680,53.223,427.734
1741604737.019,-976.562,-1000.000,49.316,-964.844
1741604737.023,-1000.000,-928.223,-27.832,-1000.000
1741604737.027,-893.066,-1000.000,-59.082,-895.508
1741604737.031,-1000.000,-488.770,-77.148,-1000.000
1741604737.035,-194.824,838.379,-132.812,-171.875
1741604737.039,969.727,999.512,-129.395,979.980
1741604737.042,999.512,588.379,-104.004,999.512
1741604737.046,347.168,-758.789,-64.941,270.020
1741604737.050,-991.699,-1000.000,-55.176,-1000.000
1741604737.054,-1000.000,-916.992,-93.750,-1000.000
1741604737.058,-892.578,-1000.000,-83.496,-892.090
1741604737.015,417.969,-971.680,53.223,427.734
1741604737.019,-976.562,-1000.000,49.316,-964.844
1741604737.023,-1000.000,-928.223,-27.832,-1000.000
1741604737.027,-893.066,-1000.000,-59.082,-895.508
1741604737.031,-1000.000,-488.770,-77.148,-1000.000
1741604737.035,-194.824,838.379,-132.812,-171.875
1741604737.039,969.727,999.512,-129.395,979.980
1741604737.042,999.512,588.379,-104.004,999.512
1741604737.046,347.168,-758.789,-64.941,270.020
1741604737.050,-991.699,-1000.000,-55.176,-1000.000
1741604737.054,-1000.000,-916.992,-93.750,-1000.000
1741604737.058,-892.578,-1000.000,-83.496,-892.090
1741604737.058,-1000.000,-1000.000,-61.035,-1000.000
1741604737.062,-265.137,157.715,-68.848,-495.117
1741604737.066,999.512,999.512,-53.223,909.668
1741604737.070,958.008,894.043,-3.906,999.512
1741604737.074,872.559,937.988,-24.414,856.445
1741604737.078,999.512,947.266,-39.062,999.512
1741604737.082,187.012,-238.281,-0.488,170.410
1741604737.085,-1000.000,-1000.000,-33.691,-1000.000
1741604737.089,-984.375,-889.160,-85.449,-981.934
1741604737.093,-973.633,-1000.000,-74.707,-977.051
1741604737.097,-944.336,-752.930,-90.332,-941.406
1741604737.101,-1000.000,648.438,-86.914,-1000.000
1741604737.058,-1000.000,-1000.000,-61.035,-1000.000
1741604737.062,-265.137,157.715,-68.848,-495.117
1741604737.066,999.512,999.512,-53.223,909.668
1741604737.070,958.008,894.043,-3.906,999.512
1741604737.074,872.559,937.988,-24.414,856.445
1741604737.078,999.512,947.266,-39.062,999.512
1741604737.082,187.012,-238.281,-0.488,170.410
1741604737.085,-1000.000,-1000.000,-33.691,-1000.000
1741604737.089,-984.375,-889.160,-85.449,-981.934
1741604737.093,-973.633,-1000.000,-74.707,-977.051
1741604737.097,-944.336,-752.930,-90.332,-941.406
1741604737.101,-1000.000,648.438,-86.914,-1000.000
1741604737.105,-219.238,999.512,-92.285,-262.695
1741604737.109,999.512,906.250,-83.984,999.512
1741604737.113,964.844,993.164,-27.344,971.680
1741604737.117,875.977,896.484,-11.230,870.605
1741604737.121,999.512,999.512,-26.855,999.512
1741604737.125,728.027,560.059,-8.301,645.020
1741604737.129,-704.102,-869.629,30.273,-776.855
1741604737.132,-1000.000,-988.281,-32.715,-1000.000
1741604737.136,-936.035,-1000.000,-48.340,-940.918
1741604737.140,-1000.000,-274.902,-24.414,-1000.000
1741604737.144,-1000.000,995.117,1.465,-1000.000
1741604737.148,-1000.000,946.777,55.664,-1000.000
1741604737.163,-926.758,999.512,61.523,-948.242
1741604737.167,-1000.000,-350.098,117.676,-1000.000
1741604737.171,-564.453,-408.203,192.383,-862.793
1741604737.175,871.582,999.512,307.617,521.484
1741604737.179,999.512,940.918,479.492,999.512
1741604737.183,849.121,922.852,559.570,840.820
1741604737.187,999.512,999.512,582.031,999.512
1741604737.190,187.012,-233.398,640.137,172.852
1741604737.194,-1000.000,-1000.000,623.535,-1000.000
1741604737.198,-984.375,-877.930,528.320,-982.422
1741604737.202,-910.645,-1000.000,545.410,-912.109
1741604737.206,-1000.000,-306.152,542.969,-1000.000
1741604737.208,-214.844,999.512,497.559,-213.379
1741604737.212,999.512,965.332,546.387,999.512
1741604737.216,949.219,933.105,611.816,949.707
1741604737.220,945.312,989.746,615.723,943.848
1741604737.224,948.730,902.832,621.094,956.543
1741604737.228,944.824,999.512,626.465,932.617
1741604737.232,999.512,655.273,625.488,999.512
1741604737.235,-181.152,-769.043,619.141,-78.613
1741604737.239,-1000.000,-1000.000,588.867,-1000.000
1741604737.243,-941.895,-996.582,566.895,-952.148
1741604737.247,-998.047,-830.078,564.941,-991.699
1741604737.251,-1000.000,466.797,565.430,-1000.000
1741604737.208,-214.844,999.512,497.559,-213.379
1741604737.212,999.512,965.332,546.387,999.512
1741604737.216,949.219,933.105,611.816,949.707
1741604737.220,945.312,989.746,615.723,943.848
1741604737.224,948.730,902.832,621.094,956.543
1741604737.228,944.824,999.512,626.465,932.617
1741604737.232,999.512,655.273,625.488,999.512
1741604737.235,-181.152,-769.043,619.141,-78.613
1741604737.239,-1000.000,-1000.000,588.867,-1000.000
1741604737.243,-941.895,-996.582,566.895,-952.148
1741604737.247,-998.047,-830.078,564.941,-991.699
1741604737.251,-1000.000,466.797,565.430,-1000.000
1741604737.254,-979.980,999.512,569.336,-993.652
1741604737.258,-972.168,156.738,579.102,-948.730
1741604737.262,-1000.000,-614.258,587.402,-1000.000
1741604737.266,94.727,812.012,517.578,-104.980
1741604737.270,999.512,999.512,514.160,999.512
1741604737.274,855.957,915.039,577.148,886.719
1741604737.278,999.512,951.660,607.422,999.512
1741604737.281,126.465,-371.582,641.113,51.758
1741604737.285,-1000.000,-1000.000,604.004,-1000.000
1741604737.289,-980.957,-949.219,543.945,-966.309
1741604737.293,-953.613,-935.059,541.016,-993.164
1741604737.297,-985.840,-1000.000,565.918,-936.523
1741604737.298,-1000.000,-507.324,591.797,-1000.000
1741604737.302,145.020,885.742,556.641,-483.398
1741604737.306,999.512,999.512,520.020,877.441
1741604737.310,847.656,854.980,554.688,954.590
1741604737.314,999.512,999.512,577.148,999.512
1741604737.318,187.988,187.500,594.727,62.500
1741604737.322,-1000.000,-1000.000,548.340,-1000.000
1741604737.325,-984.375,-990.234,494.141,-970.215
1741604737.329,-974.609,-945.312,487.305,-981.934
1741604737.333,-943.359,-1000.000,460.449,-1000.000
1741604737.337,-1000.000,-1000.000,460.449,-1000.000
1741604737.341,-233.398,187.500,422.852,-1000.000
1741604737.343,999.512,999.512,427.734,-1000.000
1741604737.347,926.270,752.930,462.402,-1000.000
1741604737.351,919.434,863.770,447.754,-1000.000
1741604737.355,999.512,791.504,404.297,-1000.000
1741604737.359,-197.266,-547.852,355.469,-1000.000
1741604737.363,-1000.000,-1000.000,283.203,-1000.000
1741604737.367,-941.406,-145.508,213.867,-1000.000
1741604737.370,-999.023,999.512,177.734,-1000.000
1741604737.374,-1000.000,150.391,199.707,-1000.000
1741604737.378,-937.500,-1000.000,207.031,-1000.000
1741604737.382,-1000.000,-1000.000,179.688,-1000.000
1741604737.386,-226.562,-26.367,168.945,-1000.000
1741604737.343,999.512,999.512,427.734,-1000.000
1741604737.347,926.270,752.930,462.402,-1000.000
1741604737.351,919.434,863.770,447.754,-1000.000
1741604737.355,999.512,791.504,404.297,-1000.000
1741604737.359,-197.266,-547.852,355.469,-1000.000
1741604737.363,-1000.000,-1000.000,283.203,-1000.000
1741604737.367,-941.406,-145.508,213.867,-1000.000
1741604737.370,-999.023,999.512,177.734,-1000.000
1741604737.374,-1000.000,150.391,199.707,-1000.000
1741604737.378,-937.500,-1000.000,207.031,-1000.000
1741604737.382,-1000.000,-1000.000,179.688,-1000.000
1741604737.386,-226.562,-26.367,168.945,-1000.000
1741604737.390,984.375,999.512,193.359,-1000.000
1741604737.394,999.512,642.578,232.422,-1000.000
1741604737.398,50.781,-721.680,251.465,-1000.000
1741604737.402,-1000.000,-1000.000,206.543,-1000.000
1741604737.406,-1000.000,-1000.000,153.809,-1000.000
1741604737.410,-504.395,-254.883,124.023,-1000.000
1741604737.414,996.582,999.512,119.629,-1000.000
1741604737.417,780.273,353.027,136.719,-1000.000
1741604737.421,-714.355,-1000.000,143.555,-1000.000
1741604737.425,-1000.000,-1000.000,93.750,-1000.000
1741604737.429,-938.965,-968.750,66.406,-1000.000
1741604737.433,-997.559,-963.867,99.121,-1000.000
1741604737.390,984.375,999.512,193.359,-1000.000
1741604737.394,999.512,642.578,232.422,-1000.000
1741604737.398,50.781,-721.680,251.465,-1000.000
1741604737.402,-1000.000,-1000.000,206.543,-1000.000
1741604737.406,-1000.000,-1000.000,153.809,-1000.000
1741604737.410,-504.395,-254.883,124.023,-1000.000
1741604737.414,996.582,999.512,119.629,-1000.000
1741604737.417,780.273,353.027,136.719,-1000.000
1741604737.421,-714.355,-1000.000,143.555,-1000.000
1741604737.425,-1000.000,-1000.000,93.750,-1000.000
1741604737.429,-938.965,-968.750,66.406,-1000.000
1741604737.433,-997.559,-963.867,99.121,-1000.000
1741604737.433,-963.867,-1000.000,110.352,-951.172
1741604737.437,-1000.000,-839.355,124.023,-1000.000
1741604737.441,39.551,518.555,114.746,-787.109
1741604737.445,999.512,999.512,104.492,479.004
1741604737.449,999.512,999.512,147.949,999.512
1741604737.453,245.605,224.121,229.004,127.441
1741604737.457,-1000.000,-1000.000,178.711,-1000.000
1741604737.460,-995.117,-988.281,32.715,-983.398
1741604737.464,-967.773,-971.191,67.871,-973.145
1741604737.468,-1000.000,-1000.000,250.000,-1000.000
1741604737.472,-926.758,-939.453,519.531,-932.129
1741604737.476,-1000.000,-1000.000,701.172,-1000.000
1741604737.481,-475.586,-195.312,702.148,-651.855
1741604737.485,929.199,999.512,696.289,778.320
1741604737.489,932.129,958.984,677.246,971.191
1741604737.493,999.512,904.297,606.934,999.512
1741604737.497,200.195,-333.008,626.953,179.688
1741604737.501,-1000.000,-1000.000,591.309,-1000.000
1741604737.505,-983.887,-943.359,471.191,-980.957
1741604737.508,-973.145,-1000.000,377.441,-974.609
1741604737.512,-1000.000,-1000.000,279.785,-1000.000
1741604737.516,-928.223,-936.035,165.527,-929.688
1741604737.520,-1000.000,-1000.000,102.539,-1000.000
1741604737.524,-392.090,-254.883,7.324,-383.789
1741604737.538,972.656,999.512,-87.402,973.145
1741604737.542,979.492,799.316,-52.734,979.492
1741604737.546,862.793,815.430,-178.223,864.258
1741604737.550,999.512,983.398,-395.508,999.512
1741604737.554,182.129,-354.492,-477.051,183.594
1741604737.558,-1000.000,-1000.000,-638.672,-1000.000
1741604737.562,-983.398,-937.500,-847.168,-983.398
1741604737.565,-973.633,-1000.000,-963.379,-973.145
1741604737.569,-1000.000,-1000.000,-1000.000,-1000.000
1741604737.573,-1000.000,-1000.000,-997.559,-1000.000
1741604737.577,-1000.000,-1000.000,-1000.000,-1000.000
1741604737.581,-934.082,-945.312,-1000.000,-940.918
1741604737.585,-1000.000,-1000.000,-1000.000,-1000.000
1741604737.589,-715.820,-848.145,-1000.000,-755.371
1741604737.593,722.168,556.152,-1000.000,645.996
1741604737.597,999.512,999.512,-1000.000,999.512
1741604737.601,903.809,911.621,-1000.000,905.273
1741604737.605,981.445,907.227,-1000.000,979.492
1741604737.609,966.309,999.512,-1000.000,967.285
1741604737.612,966.309,397.949,-997.070,965.332
1741604737.616,966.309,-926.270,-1000.000,970.215
1741604737.620,966.309,-1000.000,-974.609,957.031
1741604737.624,966.309,-804.688,-909.668,945.801
1741604737.628,966.309,399.414,-897.949,966.797
1741604737.585,-1000.000,-1000.000,-1000.000,-1000.000
1741604737.589,-715.820,-848.145,-1000.000,-755.371
1741604737.593,722.168,556.152,-1000.000,645.996
1741604737.597,999.512,999.512,-1000.000,999.512
1741604737.601,903.809,911.621,-1000.000,905.273
1741604737.605,981.445,907.227,-1000.000,979.492
1741604737.609,966.309,999.512,-1000.000,967.285
1741604737.612,966.309,397.949,-997.070,965.332
1741604737.616,966.309,-926.270,-1000.000,970.215
1741604737.620,966.309,-1000.000,-974.609,957.031
1741604737.624,966.309,-804.688,-909.668,945.801
1741604737.628,966.309,399.414,-897.949,966.797
1741604737.628,966.309,999.512,-824.219,967.773
1741604737.632,966.309,400.391,-699.219,965.820
1741604737.636,966.309,-817.383,-605.957,967.285
1741604737.640,966.309,386.230,-587.891,967.285
1741604737.644,966.309,999.512,-583.496,966.797
1741604737.648,966.309,890.137,-603.027,966.797
1741604737.652,976.562,986.328,-561.523,966.797
1741604737.655,925.781,898.926,-423.340,966.797
1741604737.659,971.680,999.512,-365.723,966.797
1741604737.663,984.863,586.426,-364.258,966.797
1741604737.667,-433.594,-1000.000,-313.477,966.797
1741604737.671,-1000.000,-354.004,-277.832,966.797
1741604737.628,966.309,999.512,-824.219,967.773
1741604737.632,966.309,400.391,-699.219,965.820
1741604737.636,966.309,-817.383,-605.957,967.285
1741604737.640,966.309,386.230,-587.891,967.285
1741604737.644,966.309,999.512,-583.496,966.797
1741604737.648,966.309,890.137,-603.027,966.797
1741604737.652,976.562,986.328,-561.523,966.797
1741604737.655,925.781,898.926,-423.340,966.797
1741604737.659,971.680,999.512,-365.723,966.797
1741604737.663,984.863,586.426,-364.258,966.797
1741604737.667,-433.594,-1000.000,-313.477,966.797
1741604737.671,-1000.000,-354.004,-277.832,966.797
1741604737.673,536.133,999.512,-180.664,966.797
1741604737.677,999.512,952.637,-48.828,966.797
1741604737.681,901.367,932.617,-2.930,966.797
1741604737.685,975.586,976.074,-24.414,967.285
1741604737.689,966.309,966.797,-50.293,966.797
1741604737.693,966.309,966.797,-0.977,966.797
1741604737.697,980.957,979.980,-34.180,967.773
1741604737.700,894.043,894.043,-150.391,964.844
1741604737.704,999.512,999.512,-137.207,970.703
1741604737.708,561.035,542.480,-21.973,958.008
1741604737.712,-875.977,-1000.000,63.477,939.453
1741604737.716,-1000.000,-799.805,107.422,965.332
1741604737.673,536.133,999.512,-180.664,966.797
1741604737.677,999.512,952.637,-48.828,966.797
1741604737.681,901.367,932.617,-2.930,966.797
1741604737.685,975.586,976.074,-24.414,967.285
1741604737.689,966.309,966.797,-50.293,966.797
1741604737.693,966.309,966.797,-0.977,966.797
1741604737.697,980.957,979.980,-34.180,967.773
1741604737.700,894.043,894.043,-150.391,964.844
1741604737.704,999.512,999.512,-137.207,970.703
1741604737.708,561.035,542.480,-21.973,958.008
1741604737.712,-875.977,-1000.000,63.477,939.453
1741604737.716,-1000.000,-799.805,107.422,965.332
1741604737.718,-915.527,673.340,128.906,968.750
1741604737.722,-1000.000,999.512,115.234,965.820
1741604737.726,-1000.000,917.969,150.879,967.773
1741604737.730,178.223,911.621,204.102,966.797
1741604737.734,999.512,999.512,224.609,966.797
1741604737.738,976.074,618.164,256.836,966.797
1741604737.742,-188.965,-801.270,291.016,966.797
1741604737.745,-1000.000,-1000.000,252.930,966.797
1741604737.749,-943.848,-942.383,223.145,966.797
1741604737.753,-1000.000,-1000.000,237.305,966.797
1741604737.757,-959.961,-937.012,244.141,967.285
1741604737.761,-1000.000,-1000.000,232.422,967.285
1741604737.766,-967.285,-738.281,208.984,966.797
1741604737.770,373.047,739.746,163.086,966.797
1741604737.774,999.512,966.309,171.875,966.797
1741604737.778,873.535,-483.887,202.637,966.797
1741604737.782,999.512,-1000.000,169.922,966.797
1741604737.786,-94.727,-939.453,145.020,966.797
1741604737.790,-1000.000,-1000.000,123.047,966.797
1741604737.793,-957.520,-1000.000,88.867,967.285
1741604737.797,-990.234,-999.023,101.562,966.797
1741604737.801,-1000.000,-1000.000,130.859,967.285
1741604737.805,-962.891,-949.219,136.719,967.285
1741604737.809,-1000.000,-1000.000,125.977,967.285
1741604737.766,-967.285,-738.281,208.984,966.797
1741604737.770,373.047,739.746,163.086,966.797
1741604737.774,999.512,966.309,171.875,966.797
1741604737.778,873.535,-483.887,202.637,966.797
1741604737.782,999.512,-1000.000,169.922,966.797
1741604737.786,-94.727,-939.453,145.020,966.797
1741604737.790,-1000.000,-1000.000,123.047,966.797
1741604737.793,-957.520,-1000.000,88.867,967.285
1741604737.797,-990.234,-999.023,101.562,966.797
1741604737.801,-1000.000,-1000.000,130.859,967.285
1741604737.805,-962.891,-949.219,136.719,967.285
1741604737.809,-1000.000,-1000.000,125.977,967.285
1741604737.808,-992.188,-932.617,78.613,967.285
1741604737.812,317.871,339.355,9.277,968.262
1741604737.816,999.512,999.512,-15.137,904.297
1741604737.820,999.512,870.605,-74.219,999.512
1741604737.824,145.996,-375.488,-148.926,192.383
1741604737.828,-1000.000,-1000.000,-219.727,-1000.000
1741604737.832,-980.469,-942.383,-291.504,-989.258
1741604737.835,-962.402,-984.375,-307.129,-951.660
1741604737.839,-965.820,-974.609,-342.773,-983.398
1741604737.843,-1000.000,-1000.000,-393.066,-1000.000
1741604737.847,8.789,107.422,-437.500,99.121
1741604737.851,999.512,999.512,-398.926,999.512
1741604737.808,-992.188,-932.617,78.613,967.285
1741604737.812,317.871,339.355,9.277,968.262
1741604737.816,999.512,999.512,-15.137,904.297
1741604737.820,999.512,870.605,-74.219,999.512
1741604737.824,145.996,-375.488,-148.926,192.383
1741604737.828,-1000.000,-1000.000,-219.727,-1000.000
1741604737.832,-980.469,-942.383,-291.504,-989.258
1741604737.835,-962.402,-984.375,-307.129,-951.660
1741604737.839,-965.820,-974.609,-342.773,-983.398
1741604737.843,-1000.000,-1000.000,-393.066,-1000.000
1741604737.847,8.789,107.422,-437.500,99.121
1741604737.851,999.512,999.512,-398.926,999.512
1741604737.855,919.922,999.512,-389.160,917.969
1741604737.859,956.055,298.828,-410.156,959.961
1741604737.863,968.262,-979.492,-409.668,968.750
1741604737.867,966.309,-1000.000,-439.453,966.797
1741604737.871,981.934,-58.105,-489.258,980.469
1741604737.875,897.949,977.051,-510.254,909.180
1741604737.879,999.512,999.512,-474.609,999.512
1741604737.882,658.203,314.941,-468.262,770.996
1741604737.886,-785.645,-1000.000,-486.816,-637.207
1741604737.890,-1000.000,-969.727,-503.906,-1000.000
1741604737.894,-875.977,-982.910,-493.164,-873.535
1741604737.898,-1000.000,-941.895,-490.723,-1000.000
1741604737.855,919.922,999.512,-389.160,917.969
1741604737.859,956.055,298.828,-410.156,959.961
1741604737.863,968.262,-979.492,-409.668,968.750
1741604737.867,966.309,-1000.000,-439.453,966.797
1741604737.871,981.934,-58.105,-489.258,980.469
1741604737.875,897.949,977.051,-510.254,909.180
1741604737.879,999.512,999.512,-474.609,999.512
1741604737.882,658.203,314.941,-468.262,770.996
1741604737.886,-785.645,-1000.000,-486.816,-637.207
1741604737.890,-1000.000,-969.727,-503.906,-1000.000
1741604737.894,-875.977,-982.910,-493.164,-873.535
1741604737.898,-1000.000,-941.895,-490.723,-1000.000
1741604737.913,-221.191,370.605,-558.594,-217.285
1741604737.917,999.512,999.512,-542.480,999.512
1741604737.921,950.195,842.773,-462.891,950.195
1741604737.925,938.965,999.512,-456.543,939.941
1741604737.929,973.145,212.402,-421.387,974.121
1741604737.933,966.309,-1000.000,-418.457,967.285
1741604737.937,966.797,37.598,-432.129,966.797
1741604737.940,903.320,999.512,-360.352,905.762
1741604737.944,999.512,999.512,-308.105,999.512
1741604737.948,186.523,-60.547,-280.762,168.457
1741604737.952,-1000.000,-1000.000,-316.406,-1000.000
1741604737.956,-993.164,-1000.000,-357.910,-989.746
1741604737.913,-221.191,370.605,-558.594,-217.285
1741604737.917,999.512,999.512,-542.480,999.512
1741604737.921,950.195,842.773,-462.891,950.195
1741604737.925,938.965,999.512,-456.543,939.941
1741604737.929,973.145,212.402,-421.387,974.121
1741604737.933,966.309,-1000.000,-418.457,967.285
1741604737.937,966.797,37.598,-432.129,966.797
1741604737.940,903.320,999.512,-360.352,905.762
1741604737.944,999.512,999.512,-308.105,999.512
1741604737.948,186.523,-60.547,-280.762,168.457
1741604737.952,-1000.000,-1000.000,-316.406,-1000.000
1741604737.956,-993.164,-1000.000,-357.910,-989.746
1741604737.958,-937.012,-372.070,-321.289,-937.988
1741604737.962,-1000.000,965.820,-265.137,-1000.000
1741604737.966,-1000.000,979.980,-205.566,-967.773
1741604737.970,299.805,928.223,-214.355,318.848
1741604737.974,999.512,969.238,-182.617,999.512
1741604737.978,831.543,919.434,-134.277,842.285
1741604737.982,999.512,999.512,-129.395,999.512
1741604737.985,621.582,35.645,-82.520,603.027
1741604737.989,-823.242,-1000.000,-43.945,-798.340
1741604737.993,-1000.000,-1000.000,-77.637,-1000.000
1741604737.997,-1000.000,-418.457,-57.129,-1000.000
1741604738.001,-236.328,940.918,-62.012,-185.059
1741604737.958,-937.012,-372.070,-321.289,-937.988
1741604737.962,-1000.000,965.820,-265.137,-1000.000
1741604737.966,-1000.000,979.980,-205.566,-967.773
1741604737.970,299.805,928.223,-214.355,318.848
1741604737.974,999.512,969.238,-182.617,999.512
1741604737.978,831.543,919.434,-134.277,842.285
1741604737.982,999.512,999.512,-129.395,999.512
1741604737.985,621.582,35.645,-82.520,603.027
1741604737.989,-823.242,-1000.000,-43.945,-798.340
1741604737.993,-1000.000,-1000.000,-77.637,-1000.000
1741604737.997,-1000.000,-418.457,-57.129,-1000.000
1741604738.001,-236.328,940.918,-62.012,-185.059
1741604738.003,999.512,999.512,-41.992,999.512
1741604738.007,923.340,836.914,21.973,916.016
1741604738.011,922.852,999.512,16.113,935.547
1741604738.015,999.512,345.215,32.715,999.512
1741604738.019,-210.938,-936.523,43.457,-243.652
1741604738.023,-1000.000,-1000.000,11.230,-1000.000
1741604738.027,-940.430,-635.254,-11.230,-942.871
1741604738.030,-1000.000,881.836,-40.527,-1000.000
1741604738.034,-1000.000,166.504,-29.297,-1000.000
1741604738.038,-937.500,-1000.000,-22.461,-937.012
1741604738.042,-1000.000,-1000.000,-14.160,-1000.000
1741604738.046,-221.191,-31.250,-57.129,-232.422
1741604738.003,999.512,999.512,-41.992,999.512
1741604738.007,923.340,836.914,21.973,916.016
1741604738.011,922.852,999.512,16.113,935.547
1741604738.015,999.512,345.215,32.715,999.512
1741604738.019,-210.938,-936.523,43.457,-243.652
1741604738.023,-1000.000,-1000.000,11.230,-1000.000
1741604738.027,-940.430,-635.254,-11.230,-942.871
1741604738.030,-1000.000,881.836,-40.527,-1000.000
1741604738.034,-1000.000,166.504,-29.297,-1000.000
1741604738.038,-937.500,-1000.000,-22.461,-937.012
1741604738.042,-1000.000,-1000.000,-14.160,-1000.000
1741604738.046,-221.191,-31.250,-57.129,-232.422
1741604738.049,999.512,999.512,-43.945,999.512
1741604738.053,895.996,876.953,51.758,893.066
1741604738.057,991.699,999.512,41.992,999.512
1741604738.061,832.031,110.840,54.688,710.449
1741604738.065,-573.730,-1000.000,66.895,-692.383
1741604738.069,-1000.000,-1000.000,7.812,-1000.000
1741604738.073,-934.082,-540.039,-41.992,-940.430
1741604738.076,-1000.000,767.578,-63.965,-1000.000
1741604738.080,-1000.000,999.512,-58.594,-1000.000
1741604738.084,-1000.000,109.375,-25.879,-1000.000
1741604738.088,-975.586,-1000.000,5.859,-988.770
1741604738.092,-980.469,-1000.000,10.254,-956.543
1741604738.049,999.512,999.512,-43.945,999.512
1741604738.053,895.996,876.953,51.758,893.066
1741604738.057,991.699,999.512,41.992,999.512
1741604738.061,832.031,110.840,54.688,710.449
1741604738.065,-573.730,-1000.000,66.895,-692.383
1741604738.069,-1000.000,-1000.000,7.812,-1000.000
1741604738.073,-934.082,-540.039,-41.992,-940.430
1741604738.076,-1000.000,767.578,-63.965,-1000.000
1741604738.080,-1000.000,999.512,-58.594,-1000.000
1741604738.084,-1000.000,109.375,-25.879,-1000.000
1741604738.088,-975.586,-1000.000,5.859,-988.770
1741604738.092,-980.469,-1000.000,10.254,-956.543
1741604738.093,-1000.000,-850.098,15.137,-1000.000
1741604738.097,155.273,469.238,-11.230,-28.320
1741604738.101,999.512,999.512,39.551,999.512
1741604738.105,869.629,999.512,79.590,875.977
1741604738.109,974.609,393.555,85.938,999.512
1741604738.113,961.426,-985.352,86.914,815.430
1741604738.117,-358.398,-1000.000,47.363,-543.945
1741604738.120,-1000.000,-967.773,27.832,-1000.000
1741604738.124,-933.594,-962.891,-5.859,-939.453
1741604738.128,-945.801,-1000.000,-24.414,-946.777
1741604738.132,-1000.000,-835.449,-17.090,-1000.000
1741604738.136,-187.988,470.703,-84.473,-216.797
1741604738.154,999.512,999.512,-79.590,999.512
1741604738.158,945.312,789.551,-20.996,950.195
1741604738.162,941.406,-342.285,-18.555,939.941
1741604738.166,972.168,-1000.000,-26.367,973.633
1741604738.170,979.980,-144.043,-24.414,980.957
1741604738.174,891.602,972.168,22.461,894.531
1741604738.178,999.512,999.512,37.109,999.512
1741604738.181,487.793,278.809,33.691,532.715
1741604738.185,-937.988,-1000.000,60.547,-895.996
1741604738.189,-1000.000,-998.535,32.715,-1000.000
1741604738.193,-938.965,-912.109,16.113,-932.129
1741604738.197,-968.262,-1000.000,31.250,-979.980
1741604738.184,-1000.000,-122.559,8.301,-1000.000
1741604738.188,-51.270,999.512,-8.301,-7.324
1741604738.192,999.512,951.172,62.988,999.512
1741604738.196,927.734,895.996,103.027,930.664
1741604738.200,888.672,999.512,115.234,891.602
1741604738.204,999.512,813.477,128.906,999.512
1741604738.208,186.523,-543.945,158.691,164.062
1741604738.211,-1000.000,-1000.000,145.996,-1000.000
1741604738.215,-985.352,-904.297,106.445,-984.863
1741604738.219,-909.668,-1000.000,112.793,-908.203
1741604738.223,-1000.000,-980.469,118.652,-1000.000
1741604738.227,-234.863,292.480,75.195,-288.086
1741604738.230,999.512,999.512,91.309,999.512
1741604738.234,952.148,910.156,165.039,961.914
1741604738.238,937.988,963.379,187.988,934.082
1741604738.242,982.422,990.234,186.035,985.352
1741604738.246,929.688,889.648,191.406,925.781
1741604738.250,973.145,915.527,220.703,990.234
1741604738.254,970.215,939.453,233.398,900.391
1741604738.257,-342.773,-407.715,239.746,-421.875
1741604738.261,-1000.000,-1000.000,180.176,-1000.000
1741604738.265,-935.059,-1000.000,103.027,-937.988
1741604738.269,-1000.000,-701.660,101.562,-1000.000
1741604738.273,-1000.000,667.480,129.883,-1000.000
1741604738.230,999.512,999.512,91.309,999.512
1741604738.234,952.148,910.156,165.039,961.914
1741604738.238,937.988,963.379,187.988,934.082
1741604738.242,982.422,990.234,186.035,985.352
1741604738.246,929.688,889.648,191.406,925.781
1741604738.250,973.145,915.527,220.703,990.234
1741604738.254,970.215,939.453,233.398,900.391
1741604738.257,-342.773,-407.715,239.746,-421.875
1741604738.261,-1000.000,-1000.000,180.176,-1000.000
1741604738.265,-935.059,-1000.000,103.027,-937.988
1741604738.269,-1000.000,-701.660,101.562,-1000.000
1741604738.273,-1000.000,667.480,129.883,-1000.000
1741604738.289,-945.801,999.512,158.203,-954.102
1741604738.293,-1000.000,-50.781,148.926,-1000.000
1741604738.297,-853.027,-472.656,81.055,-915.527
1741604738.301,548.828,986.816,13.672,441.406
1741604738.305,999.512,981.934,52.734,999.512
1741604738.309,834.473,904.785,74.219,834.961
1741604738.313,999.512,999.512,35.156,999.512
1741604738.316,228.516,-206.543,77.637,266.602
1741604738.320,-1000.000,-1000.000,76.172,-1000.000
1741604738.324,-991.699,-927.734,14.648,-1000.000
1741604738.328,-906.738,-967.285,60.547,-900.391
1741604738.332,-1000.000,-1000.000,104.004,-1000.000
1741604738.333,-228.516,38.574,54.688,-278.809
1741604738.337,999.512,999.512,63.477,999.512
1741604738.341,951.172,925.293,134.277,959.961
1741604738.345,942.871,968.262,129.883,938.477
1741604738.349,953.613,915.039,107.910,958.496
1741604738.353,936.035,999.512,94.727,932.129
1741604738.357,999.512,802.734,108.398,999.512
1741604738.360,-121.094,-584.473,150.391,-78.613
1741604738.364,-1000.000,-1000.000,140.137,-1000.000
1741604738.368,-944.336,-870.117,72.754,-944.824
1741604738.372,-936.035,-1000.000,35.645,-943.359
1741604738.376,-1000.000,-286.621,-2.441,-1000.000
1741604738.333,-228.516,38.574,54.688,-278.809
1741604738.337,999.512,999.512,63.477,999.512
1741604738.341,951.172,925.293,134.277,959.961
1741604738.345,942.871,968.262,129.883,938.477
1741604738.349,953.613,915.039,107.910,958.496
1741604738.353,936.035,999.512,94.727,932.129
1741604738.357,999.512,802.734,108.398,999.512
1741604738.360,-121.094,-584.473,150.391,-78.613
1741604738.364,-1000.000,-1000.000,140.137,-1000.000
1741604738.368,-944.336,-870.117,72.754,-944.824
1741604738.372,-936.035,-1000.000,35.645,-943.359
1741604738.376,-1000.000,-286.621,-2.441,-1000.000
1741604738.378,-176.270,999.512,-50.293,-103.516
1741604738.382,999.512,893.066,-9.277,999.512
1741604738.386,943.848,999.512,18.555,938.965
1741604738.390,942.383,481.445,35.645,947.266
1741604738.394,974.121,-1000.000,66.895,977.051
1741604738.398,901.855,-641.113,59.082,899.414
1741604738.402,999.512,999.512,56.152,999.512
1741604738.405,214.844,163.086,138.672,271.973
1741604738.409,-1000.000,-1000.000,157.715,-1000.000
1741604738.413,-988.770,-893.066,91.309,-999.023
1741604738.417,-971.680,-1000.000,95.703,-964.355
1741604738.421,-945.312,-408.691,87.891,-950.195
1741604738.378,-176.270,999.512,-50.293,-103.516
1741604738.382,999.512,893.066,-9.277,999.512
1741604738.386,943.848,999.512,18.555,938.965
1741604738.390,942.383,481.445,35.645,947.266
1741604738.394,974.121,-1000.000,66.895,977.051
1741604738.398,901.855,-641.113,59.082,899.414
1741604738.402,999.512,999.512,56.152,999.512
1741604738.405,214.844,163.086,138.672,271.973
1741604738.409,-1000.000,-1000.000,157.715,-1000.000
1741604738.413,-988.770,-893.066,91.309,-999.023
1741604738.417,-971.680,-1000.000,95.703,-964.355
1741604738.421,-945.312,-408.691,87.891,-950.195
1741604738.423,-1000.000,958.984,101.562,-1000.000
1741604738.427,-221.191,983.398,102.539,-183.105
1741604738.431,999.512,936.035,123.535,999.512
1741604738.435,912.109,906.250,167.969,910.156
1741604738.439,949.707,999.512,136.230,949.707
1741604738.443,964.844,424.805,124.512,964.844
1741604738.447,-362.305,-967.285,156.250,-333.008
1741604738.450,-1000.000,-1000.000,89.844,-1000.000
1741604738.454,-946.777,-944.824,-35.156,-951.172
1741604738.458,-932.129,-966.797,-123.047,-931.641
1741604738.462,-1000.000,-1000.000,-156.250,-1000.000
1741604738.466,-464.844,-77.148,-231.934,-503.418
1741604738.468,936.035,999.512,-265.137,902.344
1741604738.472,993.164,887.207,-186.035,999.512
1741604738.476,856.934,988.770,-182.129,858.398
1741604738.480,999.512,848.633,-194.824,999.512
1741604738.484,182.129,-502.441,-131.836,145.508
1741604738.488,-1000.000,-1000.000,-149.414,-1000.000
1741604738.492,-976.562,-867.188,-196.289,-973.633
1741604738.495,-921.875,-1000.000,-179.688,-922.363
1741604738.499,-1000.000,-535.645,-169.922,-1000.000
1741604738.503,-98.633,877.441,-194.336,-133.789
1741604738.507,999.512,999.512,-141.602,999.512
1741604738.511,865.723,845.703,-106.445,874.512
1741604738.468,936.035,999.512,-265.137,902.344
1741604738.472,993.164,887.207,-186.035,999.512
1741604738.476,856.934,988.770,-182.129,858.398
1741604738.480,999.512,848.633,-194.824,999.512
1741604738.484,182.129,-502.441,-131.836,145.508
1741604738.488,-1000.000,-1000.000,-149.414,-1000.000
1741604738.492,-976.562,-867.188,-196.289,-973.633
1741604738.495,-921.875,-1000.000,-179.688,-922.363
1741604738.499,-1000.000,-535.645,-169.922,-1000.000
1741604738.503,-98.633,877.441,-194.336,-133.789
1741604738.507,999.512,999.512,-141.602,999.512
1741604738.511,865.723,845.703,-106.445,874.512
1741604738.517,999.512,999.512,-152.344,999.512
1741604738.521,671.875,314.941,-111.816,670.898
1741604738.525,-776.367,-1000.000,3.418,-759.766
1741604738.529,-1000.000,-977.539,46.875,-1000.000
1741604738.533,-937.988,-1000.000,57.129,-939.453
1741604738.537,-1000.000,2.930,119.629,-1000.000
1741604738.541,-1000.000,999.512,191.895,-1000.000
1741604738.544,-1000.000,507.812,287.109,-1000.000
1741604738.548,-928.711,-777.832,341.797,-926.758
1741604738.552,-1000.000,-1000.000,336.914,-1000.000
1741604738.556,-386.719,-178.711,354.492,-523.438
1741604738.560,973.633,999.512,399.414,897.461
1741604738.517,999.512,999.512,-152.344,999.512
1741604738.521,671.875,314.941,-111.816,670.898
1741604738.525,-776.367,-1000.000,3.418,-759.766
1741604738.529,-1000.000,-977.539,46.875,-1000.000
1741604738.533,-937.988,-1000.000,57.129,-939.453
1741604738.537,-1000.000,2.930,119.629,-1000.000
1741604738.541,-1000.000,999.512,191.895,-1000.000
1741604738.544,-1000.000,507.812,287.109,-1000.000
1741604738.548,-928.711,-777.832,341.797,-926.758
1741604738.552,-1000.000,-1000.000,336.914,-1000.000
1741604738.556,-386.719,-178.711,354.492,-523.438
1741604738.560,973.633,999.512,399.414,897.461
1741604738.562,992.676,999.512,507.324,999.512
1741604738.566,866.699,704.102,515.137,857.910
1741604738.570,999.512,893.066,481.445,999.512
1741604738.574,775.391,357.422,505.371,770.020
1741604738.578,-643.555,-1000.000,546.875,-633.301
1741604738.582,-1000.000,-1000.000,517.090,-1000.000
1741604738.586,-934.570,-961.914,522.949,-936.523
1741604738.589,-1000.000,-1000.000,526.855,-1000.000
1741604738.593,-930.664,-939.453,548.828,-927.734
1741604738.597,-1000.000,-1000.000,606.934,-1000.000
1741604738.601,-349.121,-199.707,571.777,-457.520
1741604738.605,989.746,999.512,546.875,937.012
1741604738.562,992.676,999.512,507.324,999.512
1741604738.566,866.699,704.102,515.137,857.910
1741604738.570,999.512,893.066,481.445,999.512
1741604738.574,775.391,357.422,505.371,770.020
1741604738.578,-643.555,-1000.000,546.875,-633.301
1741604738.582,-1000.000,-1000.000,517.090,-1000.000
1741604738.586,-934.570,-961.914,522.949,-936.523
1741604738.589,-1000.000,-1000.000,526.855,-1000.000
1741604738.593,-930.664,-939.453,548.828,-927.734
1741604738.597,-1000.000,-1000.000,606.934,-1000.000
1741604738.601,-349.121,-199.707,571.777,-457.520
1741604738.605,989.746,999.512,546.875,937.012
1741604738.607,971.680,900.391,581.055,989.746
1741604738.611,866.699,980.957,590.332,863.281
1741604738.615,999.512,849.609,599.121,999.512
1741604738.619,177.734,-469.238,626.465,128.418
1741604738.623,-1000.000,-1000.000,567.383,-1000.000
1741604738.627,-982.910,-979.980,498.047,-976.074
1741604738.631,-973.633,414.062,505.859,-977.539
1741604738.634,-1000.000,285.156,497.559,-1000.000
1741604738.638,-1000.000,-1000.000,483.887,-1000.000
1741604738.642,-926.758,-910.156,450.195,-926.758
1741604738.646,-1000.000,-1000.000,472.168,-1000.000
1741604738.650,-451.660,-373.047,444.336,-505.371
1741604738.664,942.383,989.746,396.973,910.156
1741604738.668,990.234,904.297,433.594,999.512
1741604738.672,920.410,999.512,425.293,916.504
1741604738.676,992.188,476.074,413.574,995.605
1741604738.680,892.090,-1000.000,389.160,895.996
1741604738.684,999.512,-62.988,293.457,999.512
1741604738.688,467.773,332.520,214.355,579.102
1741604738.691,-949.707,-1000.000,139.160,-856.445
1741604738.695,-1000.000,-1000.000,-5.859,-1000.000
1741604738.699,-950.195,-965.820,-31.250,-943.359
1741604738.703,-1000.000,-1000.000,-2.441,-1000.000
1741604738.707,-954.590,-941.406,14.160,-960.449
1741604738.664,942.383,989.746,396.973,910.156
1741604738.668,990.234,904.297,433.594,999.512
1741604738.672,920.410,999.512,425.293,916.504
1741604738.676,992.188,476.074,413.574,995.605
1741604738.680,892.090,-1000.000,389.160,895.996
1741604738.684,999.512,-62.988,293.457,999.512
1741604738.688,467.773,332.520,214.355,579.102
1741604738.691,-949.707,-1000.000,139.160,-856.445
1741604738.695,-1000.000,-1000.000,-5.859,-1000.000
1741604738.699,-950.195,-965.820,-31.250,-943.359
1741604738.703,-1000.000,-1000.000,-2.441,-1000.000
1741604738.707,-954.590,-941.406,14.160,-960.449
1741604738.710,-1000.000,-1000.000,39.062,-1000.000
1741604738.714,-937.012,-747.070,-3.906,-973.145
1741604738.718,426.758,649.414,-56.641,352.051
1741604738.722,999.512,999.512,11.719,999.512
1741604738.726,910.645,837.402,68.848,911.621
1741604738.730,901.367,999.512,51.270,902.344
1741604738.734,999.512,601.074,29.785,999.512
1741604738.737,423.340,-826.172,40.039,380.371
1741604738.741,-974.121,-1000.000,33.203,-986.816
1741604738.745,-1000.000,-922.852,-6.348,-1000.000
1741604738.749,-893.555,-985.840,-18.066,-895.996
1741604738.753,-1000.000,-1000.000,-23.438,-1000.000
1741604738.710,-1000.000,-1000.000,39.062,-1000.000
1741604738.714,-937.012,-747.070,-3.906,-973.145
1741604738.718,426.758,649.414,-56.641,352.051
1741604738.722,999.512,999.512,11.719,999.512
1741604738.726,910.645,837.402,68.848,911.621
1741604738.730,901.367,999.512,51.270,902.344
1741604738.734,999.512,601.074,29.785,999.512
1741604738.737,423.340,-826.172,40.039,380.371
1741604738.741,-974.121,-1000.000,33.203,-986.816
1741604738.745,-1000.000,-922.852,-6.348,-1000.000
1741604738.749,-893.555,-985.840,-18.066,-895.996
1741604738.753,-1000.000,-1000.000,-23.438,-1000.000
1741604738.753,-194.824,87.891,-44.922,-206.543
1741604738.757,999.512,999.512,-48.340,999.512
1741604738.761,946.289,999.512,-31.738,948.730
1741604738.765,940.918,302.246,-18.555,940.918
1741604738.769,984.863,-1000.000,-1.465,982.910
1741604738.773,916.504,-204.590,-15.137,929.199
1741604738.777,999.512,999.512,-52.734,978.516
1741604738.780,866.211,403.809,-50.781,951.660
1741604738.784,-513.672,-975.586,-48.340,-361.328
1741604738.788,-1000.000,-1000.000,-101.074,-1000.000
1741604738.792,-921.875,-881.348,-106.934,-919.922
1741604738.796,-966.309,-1000.000,-108.887,-973.145
1741604738.753,-194.824,87.891,-44.922,-206.543
1741604738.757,999.512,999.512,-48.340,999.512
1741604738.761,946.289,999.512,-31.738,948.730
1741604738.765,940.918,302.246,-18.555,940.918
1741604738.769,984.863,-1000.000,-1.465,982.910
1741604738.773,916.504,-204.590,-15.137,929.199
1741604738.777,999.512,999.512,-52.734,978.516
1741604738.780,866.211,403.809,-50.781,951.660
1741604738.784,-513.672,-975.586,-48.340,-361.328
1741604738.788,-1000.000,-1000.000,-101.074,-1000.000
1741604738.792,-921.875,-881.348,-106.934,-919.922
1741604738.796,-966.309,-1000.000,-108.887,-973.145
1741604738.798,-1000.000,-434.082,-112.305,-1000.000
1741604738.802,-25.879,944.824,-135.742,39.551
1741604738.806,999.512,988.770,-120.117,999.512
1741604738.810,928.223,934.570,-101.562,925.781
1741604738.814,935.059,929.199,-127.930,941.895
1741604738.818,936.035,999.512,-111.816,932.129
1741604738.822,999.512,840.332,-84.961,999.512
1741604738.825,-101.562,-530.762,-79.590,-53.711
1741604738.829,-1000.000,-1000.000,-116.699,-1000.000
1741604738.833,-949.707,-919.434,-145.020,-959.473
1741604738.837,-929.688,-975.098,-150.391,-922.363
1741604738.841,-1000.000,-1000.000,-135.254,-1000.000
1741604738.798,-1000.000,-434.082,-112.305,-1000.000
1741604738.802,-25.879,944.824,-135.742,39.551
1741604738.806,999.512,988.770,-120.117,999.512
1741604738.810,928.223,934.570,-101.562,925.781
1741604738.814,935.059,929.199,-127.930,941.895
1741604738.818,936.035,999.512,-111.816,932.129
1741604738.822,999.512,840.332,-84.961,999.512
1741604738.825,-101.562,-530.762,-79.590,-53.711
1741604738.829,-1000.000,-1000.000,-116.699,-1000.000
1741604738.833,-949.707,-919.434,-145.020,-959.473
1741604738.837,-929.688,-975.098,-150.391,-922.363
1741604738.841,-1000.000,-1000.000,-135.254,-1000.000
1741604738.859,-239.258,53.223,-137.695,-312.988
1741604738.863,999.512,999.512,-153.809,999.512
1741604738.867,878.906,975.586,-117.676,895.996
1741604738.871,999.512,758.301,-115.723,999.512
1741604738.875,441.895,-588.867,-93.750,384.766
1741604738.879,-968.262,-1000.000,-96.191,-989.258
1741604738.883,-1000.000,-932.617,-125.488,-1000.000
1741604738.886,-883.789,-962.402,-94.727,-884.766
1741604738.890,-1000.000,-1000.000,-31.738,-1000.000
1741604738.894,-333.496,-84.961,1.465,-470.215
1741604738.898,999.512,999.512,67.871,934.570
1741604738.902,897.461,911.133,211.426,927.246
1741604738.859,-239.258,53.223,-137.695,-312.988
1741604738.863,999.512,999.512,-153.809,999.512
1741604738.867,878.906,975.586,-117.676,895.996
1741604738.871,999.512,758.301,-115.723,999.512
1741604738.875,441.895,-588.867,-93.750,384.766
1741604738.879,-968.262,-1000.000,-96.191,-989.258
1741604738.883,-1000.000,-932.617,-125.488,-1000.000
1741604738.886,-883.789,-962.402,-94.727,-884.766
1741604738.890,-1000.000,-1000.000,-31.738,-1000.000
1741604738.894,-333.496,-84.961,1.465,-470.215
1741604738.898,999.512,999.512,67.871,934.570
1741604738.902,897.461,911.133,211.426,927.246
1741604738.903,999.512,999.512,244.629,999.512
1741604738.907,354.492,-116.699,295.898,308.105
1741604738.911,-1000.000,-1000.000,316.406,-1000.000
1741604738.915,-1000.000,-926.270,288.086,-1000.000
1741604738.919,-960.449,-1000.000,312.012,-964.355
1741604738.923,-1000.000,-682.129,310.547,-1000.000
1741604738.927,-1000.000,-476.562,303.223,-1000.000
1741604738.930,-1000.000,-994.141,278.809,-1000.000
1741604738.934,-1000.000,-1000.000,229.980,-1000.000
1741604738.938,-1000.000,-977.051,214.844,-1000.000
1741604738.942,-937.988,-949.219,184.570,-937.500
1741604738.946,-1000.000,-1000.000,172.852,-1000.000
1741604738.903,999.512,999.512,244.629,999.512
1741604738.907,354.492,-116.699,295.898,308.105
1741604738.911,-1000.000,-1000.000,316.406,-1000.000
1741604738.915,-1000.000,-926.270,288.086,-1000.000
1741604738.919,-960.449,-1000.000,312.012,-964.355
1741604738.923,-1000.000,-682.129,310.547,-1000.000
1741604738.927,-1000.000,-476.562,303.223,-1000.000
1741604738.930,-1000.000,-994.141,278.809,-1000.000
1741604738.934,-1000.000,-1000.000,229.980,-1000.000
1741604738.938,-1000.000,-977.051,214.844,-1000.000
1741604738.942,-937.988,-949.219,184.570,-937.500
1741604738.946,-1000.000,-1000.000,172.852,-1000.000
1741604738.949,-204.590,-148.438,137.695,-212.402
1741604738.953,963.867,992.676,137.207,967.773
1741604738.957,999.512,999.512,202.148,999.512
1741604738.961,424.805,164.551,254.395,318.359
1741604738.965,-953.125,-1000.000,237.305,-1000.000
1741604738.969,-1000.000,-1000.000,160.156,-1000.000
1741604738.973,-951.660,48.828,94.238,-960.449
1741604738.976,-1000.000,497.070,85.449,-1000.000
1741604738.980,-931.641,-971.680,96.680,-927.246
1741604738.984,-1000.000,-1000.000,45.898,-1000.000
1741604738.988,-323.730,23.926,10.742,-487.305
1741604738.992,999.512,999.512,9.766,918.945
1741604738.993,982.910,936.035,50.781,999.512
1741604738.997,860.352,883.301,29.297,852.051
1741604739.001,999.512,999.512,-9.766,999.512
1741604739.005,619.629,318.848,3.418,660.156
1741604739.009,-825.684,-948.242,49.805,-768.066
1741604739.013,-1000.000,-1000.000,24.902,-1000.000
1741604739.017,-940.430,-128.906,-14.160,-939.941
1741604739.020,-1000.000,881.836,-39.062,-1000.000
1741604739.024,-1000.000,-472.656,-19.531,-999.512
1741604739.028,-938.965,-1000.000,18.066,-939.941
1741604739.032,-1000.000,-793.457,9.766,-1000.000
1741604739.036,-204.590,474.609,-107.422,-193.359
1741604738.993,982.910,936.035,50.781,999.512
1741604738.997,860.352,883.301,29.297,852.051
1741604739.001,999.512,999.512,-9.766,999.512
1741604739.005,619.629,318.848,3.418,660.156
1741604739.009,-825.684,-948.242,49.805,-768.066
1741604739.013,-1000.000,-1000.000,24.902,-1000.000
1741604739.017,-940.430,-128.906,-14.160,-939.941
1741604739.020,-1000.000,881.836,-39.062,-1000.000
1741604739.024,-1000.000,-472.656,-19.531,-999.512
1741604739.028,-938.965,-1000.000,18.066,-939.941
1741604739.032,-1000.000,-793.457,9.766,-1000.000
1741604739.036,-204.590,474.609,-107.422,-193.359
1741604739.038,999.512,999.512,-96.191,999.512
1741604739.042,947.754,838.867,28.320,946.777
1741604739.046,940.430,999.512,53.711,941.895
1741604739.050,972.656,330.566,54.688,973.145
1741604739.054,980.957,-1000.000,21.973,977.539
1741604739.058,902.344,-257.324,-50.781,926.270
1741604739.062,999.512,999.512,-73.242,985.840
1741604739.065,711.914,458.984,-54.688,931.641
1741604739.069,-720.703,-950.195,-2.930,-401.367
1741604739.073,-1000.000,-1000.000,4.395,-1000.000
1741604739.077,-898.438,-878.418,-76.172,-887.695
1741604739.081,-1000.000,-1000.000,-128.906,-1000.000
1741604739.083,-994.141,-410.156,-156.250,-895.508
1741604739.087,327.148,956.055,-196.777,464.844
1741604739.091,999.512,984.375,-188.965,999.512
1741604739.095,907.715,938.477,-201.660,903.809
1741604739.099,943.359,913.086,-208.496,970.703
1741604739.103,955.078,999.512,-227.051,912.598
1741604739.107,999.512,638.672,-231.445,999.512
1741604739.110,-250.488,-776.367,-191.895,90.332
1741604739.114,-1000.000,-1000.000,-217.285,-1000.000
1741604739.118,-1000.000,-1000.000,-241.211,-1000.000
1741604739.122,-488.770,-177.734,-286.621,-348.145
1741604739.126,923.828,999.512,-300.781,974.121
1741604739.083,-994.141,-410.156,-156.250,-895.508
1741604739.087,327.148,956.055,-196.777,464.844
1741604739.091,999.512,984.375,-188.965,999.512
1741604739.095,907.715,938.477,-201.660,903.809
1741604739.099,943.359,913.086,-208.496,970.703
1741604739.103,955.078,999.512,-227.051,912.598
1741604739.107,999.512,638.672,-231.445,999.512
1741604739.110,-250.488,-776.367,-191.895,90.332
1741604739.114,-1000.000,-1000.000,-217.285,-1000.000
1741604739.118,-1000.000,-1000.000,-241.211,-1000.000
1741604739.122,-488.770,-177.734,-286.621,-348.145
1741604739.126,923.828,999.512,-300.781,974.121
1741604739.128,997.559,962.402,-209.961,976.074
1741604739.132,916.992,884.766,-206.543,927.734
1741604739.136,979.980,-302.246,-228.027,977.539
1741604739.140,966.797,-1000.000,-225.098,966.797
1741604739.144,963.867,-694.824,-224.121,974.121
1741604739.148,908.203,632.324,-208.008,897.949
1741604739.152,999.512,999.512,-182.617,999.512
1741604739.155,128.418,-208.496,-139.648,323.730
1741604739.159,-1000.000,-1000.000,-127.930,-955.078
1741604739.163,-1000.000,-1000.000,-149.902,-1000.000
1741604739.167,-263.672,-236.816,-188.477,-163.086
1741604739.171,999.512,999.512,-182.129,999.512
1741604739.128,997.559,962.402,-209.961,976.074
1741604739.132,916.992,884.766,-206.543,927.734
1741604739.136,979.980,-302.246,-228.027,977.539
1741604739.140,966.797,-1000.000,-225.098,966.797
1741604739.144,963.867,-694.824,-224.121,974.121
1741604739.148,908.203,632.324,-208.008,897.949
1741604739.152,999.512,999.512,-182.617,999.512
1741604739.155,128.418,-208.496,-139.648,323.730
1741604739.159,-1000.000,-1000.000,-127.930,-955.078
1741604739.163,-1000.000,-1000.000,-149.902,-1000.000
1741604739.167,-263.672,-236.816,-188.477,-163.086
1741604739.171,999.512,999.512,-182.129,999.512
1741604739.175,965.332,937.988,-88.379,948.242
1741604739.179,866.211,905.762,-94.727,940.918
1741604739.183,999.512,999.512,-114.746,973.145
1741604739.187,327.637,7.812,-52.734,966.797
1741604739.191,-1000.000,-1000.000,-37.109,967.285
1741604739.195,-845.703,-325.684,-78.613,967.285
1741604739.199,737.305,999.512,-113.281,966.797
1741604739.202,795.410,304.199,-124.512,966.797
1741604739.206,-773.926,-1000.000,-117.676,966.797
1741604739.210,-1000.000,-959.473,-152.832,966.797
1741604739.214,-1000.000,-1000.000,-149.414,967.285
1741604739.218,-234.375,-22.461,-172.363,966.797
1741604739.175,965.332,937.988,-88.379,948.242
1741604739.179,866.211,905.762,-94.727,940.918
1741604739.183,999.512,999.512,-114.746,973.145
1741604739.187,327.637,7.812,-52.734,966.797
1741604739.191,-1000.000,-1000.000,-37.109,967.285
1741604739.195,-845.703,-325.684,-78.613,967.285
1741604739.199,737.305,999.512,-113.281,966.797
1741604739.202,795.410,304.199,-124.512,966.797
1741604739.206,-773.926,-1000.000,-117.676,966.797
1741604739.210,-1000.000,-959.473,-152.832,966.797
1741604739.214,-1000.000,-1000.000,-149.414,967.285
1741604739.218,-234.375,-22.461,-172.363,966.797
1741604739.233,999.512,999.512,-157.227,967.773
1741604739.237,876.465,935.059,-101.562,964.844
1741604739.241,999.512,741.211,-119.629,942.871
1741604739.245,487.793,-146.484,-127.930,999.512
1741604739.249,-987.793,-1000.000,-129.883,531.250
1741604739.253,-982.422,-523.438,-166.016,391.602
1741604739.257,410.156,999.512,-182.617,999.512
1741604739.260,999.512,618.652,-135.742,973.145
1741604739.264,-82.031,-852.539,-120.605,950.195
1741604739.268,-1000.000,-990.234,-136.719,970.215
1741604739.272,-1000.000,-1000.000,-122.559,966.797
1741604739.276,-399.902,-185.059,-141.602,966.797
1741604739.233,999.512,999.512,-157.227,967.773
1741604739.237,876.465,935.059,-101.562,964.844
1741604739.241,999.512,741.211,-119.629,942.871
1741604739.245,487.793,-146.484,-127.930,999.512
1741604739.249,-987.793,-1000.000,-129.883,531.250
1741604739.253,-982.422,-523.438,-166.016,391.602
1741604739.257,410.156,999.512,-182.617,999.512
1741604739.260,999.512,618.652,-135.742,973.145
1741604739.264,-82.031,-852.539,-120.605,950.195
1741604739.268,-1000.000,-990.234,-136.719,970.215
1741604739.272,-1000.000,-1000.000,-122.559,966.797
1741604739.276,-399.902,-185.059,-141.602,966.797
1741604739.278,971.191,999.512,-133.789,967.285
1741604739.282,916.504,875.488,-75.195,966.797
1741604739.286,999.512,999.512,-68.848,966.797
1741604739.290,723.633,388.184,-24.414,966.797
1741604739.294,-826.172,-1000.000,20.508,966.797
1741604739.298,-935.547,-343.262,-12.207,966.797
1741604739.302,616.211,999.512,-26.367,966.797
1741604739.305,999.512,523.438,-8.301,966.797
1741604739.309,-345.215,-893.555,-7.812,967.285
1741604739.313,-1000.000,-997.559,-27.832,966.797
1741604739.317,-1000.000,-1000.000,-37.109,966.797
1741604739.321,-249.512,-84.473,-74.219,966.797
1741604739.278,971.191,999.512,-133.789,967.285
1741604739.282,916.504,875.488,-75.195,966.797
1741604739.286,999.512,999.512,-68.848,966.797
1741604739.290,723.633,388.184,-24.414,966.797
1741604739.294,-826.172,-1000.000,20.508,966.797
1741604739.298,-935.547,-343.262,-12.207,966.797
1741604739.302,616.211,999.512,-26.367,966.797
1741604739.305,999.512,523.438,-8.301,966.797
1741604739.309,-345.215,-893.555,-7.812,967.285
1741604739.313,-1000.000,-997.559,-27.832,966.797
1741604739.317,-1000.000,-1000.000,-37.109,966.797
1741604739.321,-249.512,-84.473,-74.219,966.797
1741604739.323,950.195,999.512,-72.266,966.797
1741604739.327,999.512,999.512,-54.688,966.797
1741604739.331,450.195,137.695,-28.809,967.285
1741604739.335,-864.746,-1000.000,-9.277,966.797
1741604739.339,-1000.000,-1000.000,-47.852,966.797
1741604739.343,-163.086,104.980,-64.453,975.586
1741604739.347,975.098,999.512,-53.711,896.973
1741604739.350,999.512,762.695,-35.156,999.512
1741604739.354,45.898,-560.059,6.348,361.328
1741604739.358,-1000.000,-1000.000,0.977,-992.188
1741604739.362,-906.250,-877.441,-45.410,-959.473
1741604739.366,-1000.000,-1000.000,-48.828,-1000.000
1741604739.323,950.195,999.512,-72.266,966.797
1741604739.327,999.512,999.512,-54.688,966.797
1741604739.331,450.195,137.695,-28.809,967.285
1741604739.335,-864.746,-1000.000,-9.277,966.797
1741604739.339,-1000.000,-1000.000,-47.852,966.797
1741604739.343,-163.086,104.980,-64.453,975.586
1741604739.347,975.098,999.512,-53.711,896.973
1741604739.350,999.512,762.695,-35.156,999.512
1741604739.354,45.898,-560.059,6.348,361.328
1741604739.358,-1000.000,-1000.000,0.977,-992.188
1741604739.362,-906.250,-877.441,-45.410,-959.473
1741604739.366,-1000.000,-1000.000,-48.828,-1000.000
1741604739.368,-225.098,-176.270,-95.703,-165.039
1741604739.372,999.512,988.281,-62.012,999.512
1741604739.376,949.707,999.512,8.301,942.383
1741604739.380,938.965,741.699,-19.043,944.336
1741604739.384,986.816,-802.734,-24.414,984.863
1741604739.388,893.066,-337.891,-44.922,914.551
1741604739.392,999.512,999.512,-55.176,999.512
1741604739.395,509.277,165.527,-7.812,818.359
1741604739.399,-932.129,-1000.000,19.043,-576.660
1741604739.403,-973.633,-971.191,-15.137,-1000.000
1741604739.407,-1000.000,-944.824,-15.137,-1000.000
1741604739.411,-683.105,125.000,-49.316,-558.594
1741604739.368,-225.098,-176.270,-95.703,-165.039
1741604739.372,999.512,988.281,-62.012,999.512
1741604739.376,949.707,999.512,8.301,942.383
1741604739.380,938.965,741.699,-19.043,944.336
1741604739.384,986.816,-802.734,-24.414,984.863
1741604739.388,893.066,-337.891,-44.922,914.551
1741604739.392,999.512,999.512,-55.176,999.512
1741604739.395,509.277,165.527,-7.812,818.359
1741604739.399,-932.129,-1000.000,19.043,-576.660
1741604739.403,-973.633,-971.191,-15.137,-1000.000
1741604739.407,-1000.000,-944.824,-15.137,-1000.000
1741604739.411,-683.105,125.000,-49.316,-558.594
1741604739.413,778.320,999.512,-40.039,858.398
1741604739.417,999.512,861.328,20.508,999.512
1741604739.421,905.273,999.512,-2.441,914.551
1741604739.425,981.934,425.293,0.977,980.469
1741604739.429,967.285,-1000.000,25.879,972.656
1741604739.433,903.320,-221.680,14.648,898.926
1741604739.437,999.512,999.512,-31.250,999.512
1741604739.440,191.895,116.211,-14.160,278.320
1741604739.444,-1000.000,-1000.000,-3.906,-1000.000
1741604739.448,-987.305,-970.703,-69.824,-1000.000
1741604739.452,-907.715,-919.434,-29.785,-898.926
1741604739.456,-1000.000,-1000.000,13.184,-1000.000
1741604739.459,-252.930,-142.578,-5.859,-288.086
1741604739.463,999.512,999.512,41.504,999.512
1741604739.467,908.203,924.316,100.586,914.062
1741604739.471,970.215,957.520,80.566,977.539
1741604739.475,895.020,-56.641,73.730,825.195
1741604739.479,-481.445,-1000.000,64.941,-526.367
1741604739.483,-1000.000,-356.934,30.762,-1000.000
1741604739.486,-944.824,202.148,0.000,-953.125
1741604739.490,-936.035,-937.012,25.879,-935.547
1741604739.494,-1000.000,-1000.000,63.965,-1000.000
1741604739.498,-452.637,-137.695,46.387,-547.852
1741604739.502,948.730,999.512,45.410,884.766
1741604739.503,963.867,884.277,135.742,970.215
1741604739.507,904.785,999.512,159.668,937.988
1741604739.511,999.512,188.965,151.855,901.367
1741604739.515,-217.285,-999.512,146.973,-416.504
1741604739.519,-1000.000,-1000.000,104.980,-1000.000
1741604739.523,-939.941,-144.043,81.055,-941.406
1741604739.527,-1000.000,940.430,53.711,-1000.000
1741604739.530,-1000.000,-502.930,8.789,-1000.000
1741604739.534,-925.781,-1000.000,69.336,-934.570
1741604739.538,-1000.000,-1000.000,205.566,-1000.000
1741604739.542,-559.082,-436.035,227.051,-704.102
1741604739.546,880.859,949.219,229.492,727.051
1741604739.548,999.512,921.875,274.414,999.512
1741604739.552,839.355,999.512,268.066,836.426
1741604739.556,999.512,273.438,257.324,999.512
1741604739.560,381.348,-975.098,271.484,321.777
1741604739.564,-994.629,-1000.000,259.277,-1000.000
1741604739.568,-1000.000,-726.562,196.289,-1000.000
1741604739.572,-957.520,828.613,162.598,-961.914
1741604739.575,-1000.000,297.363,178.711,-1000.000
1741604739.579,-1000.000,-1000.000,173.828,-1000.000
1741604739.583,-962.891,-920.410,147.949,-978.516
1741604739.587,-1000.000,-1000.000,153.320,-975.586
1741604739.591,-997.559,-662.598,140.625,-1000.000
1741604739.548,999.512,921.875,274.414,999.512
1741604739.552,839.355,999.512,268.066,836.426
1741604739.556,999.512,273.438,257.324,999.512
1741604739.560,381.348,-975.098,271.484,321.777
1741604739.564,-994.629,-1000.000,259.277,-1000.000
1741604739.568,-1000.000,-726.562,196.289,-1000.000
1741604739.572,-957.520,828.613,162.598,-961.914
